Data from White_paper_FLMS001491_040.txt Node
Date: Tue Feb 07 10:35:01 GMT 2017
User: dcchb
Spectrometer: FLMS00149
Trigger mode: 0
Integration Time (sec): 2.000000E-2
Scans to average: 10
Electric dark correction enabled: true
Nonlinearity correction enabled: false
Boxcar width: 0
XAxis mode: Wavelengths
Number of Pixels in Spectrum: 2048
>>>>>Begin Spectral Data<<<<<
341.393	-25.9
341.776	-25.9
342.16	-25.9
342.543	-77.43
342.927	-62.06
343.31	-68.16
343.693	-56.64
344.077	-65.68
344.46	-42.17
344.843	-56.18
345.226	-39.24
345.61	-36.75
345.993	-15.96
346.376	-20.48
346.759	12.74
347.142	29.24
347.525	30.82
347.908	59.74
348.291	78.27
348.674	87.09
349.057	103.36
349.44	114.21
349.823	147.43
350.206	159.18
350.588	208.21
350.971	232.85
351.354	248.44
351.737	269
352.119	262.22
352.502	266.29
352.884	294.09
353.267	297.93
353.65	329.79
354.032	316.46
354.414	328.66
354.797	339.28
355.179	325.73
355.562	343.58
355.944	379.96
356.326	377.93
356.709	366.85
357.091	362.79
357.473	365.95
357.855	361.88
358.238	363.69
358.62	373.18
359.002	379.74
359.384	384.26
359.766	359.62
360.148	378.61
360.53	372.5
360.912	362.34
361.294	359.17
361.676	374.31
362.057	377.25
362.439	385.39
362.821	378.38
363.203	371.15
363.584	356.91
363.966	384.26
364.348	386.06
364.729	355.1
365.111	379.06
365.493	385.61
365.874	365.05
366.256	361.66
366.637	393.29
367.019	364.37
367.4	362.79
367.781	351.04
368.163	351.71
368.544	360.53
368.925	355.78
369.306	367.53
369.688	381.09
370.069	371.15
370.45	358.95
370.831	356.69
371.212	363.47
371.593	374.09
371.974	380.64
372.355	365.27
372.736	396.91
373.117	378.83
373.498	371.37
373.879	377.02
374.26	372.96
374.641	368.66
375.021	378.83
375.402	384.93
375.783	378.15
376.163	400.75
376.544	406.85
376.925	396.01
377.305	389.91
377.686	400.07
378.066	397.14
378.447	400.07
378.827	396.01
379.208	416.8
379.588	410.47
379.968	408.44
380.349	400.07
380.729	411.83
381.109	429.68
381.489	421.32
381.87	418.38
382.25	410.47
382.63	416.8
383.01	433.07
383.39	417.25
383.77	441.43
384.15	429
384.53	458.6
384.91	440.98
385.29	451.37
385.67	453.41
386.049	457.02
386.429	455.44
386.809	466.29
387.189	468.77
387.568	497.47
387.948	489.11
388.328	475.78
388.707	481.43
389.087	473.29
389.466	509.45
389.846	484.14
390.225	508.77
390.605	478.04
390.984	505.83
391.363	516.46
391.743	512.16
392.122	508.77
392.501	541.54
392.881	530.47
393.26	522.1
393.639	550.8
394.018	547.64
394.397	553.52
394.776	595.32
395.155	586.51
395.534	587.19
395.913	583.57
396.292	599.62
396.671	584.7
397.05	583.35
397.429	618.37
397.808	613.18
398.186	621.99
398.565	599.17
398.944	617.24
399.323	613.4
399.701	636.45
400.08	639.84
400.458	646.17
400.837	685.94
401.215	667.41
401.594	656.56
401.972	688.2
402.351	684.36
402.729	722.55
403.107	719.39
403.486	714.64
403.864	721.65
404.242	743.57
404.62	777.47
404.999	781.76
405.377	787.63
405.755	799.39
406.133	823.57
406.511	817.01
406.889	842.77
407.267	875.99
407.645	870.12
408.023	910.12
408.401	929.78
408.779	963.9
409.156	990.12
409.534	984.47
409.912	999.38
410.29	1044.13
410.667	1070.11
411.045	1072.15
411.422	1108.3
411.8	1138.59
412.178	1173.84
412.555	1200.73
412.933	1203.67
413.31	1248.41
413.687	1258.13
414.065	1304.23
414.442	1313.72
414.819	1349.2
415.197	1396.66
415.574	1401.18
415.951	1410.9
416.328	1466.71
416.705	1473.94
417.082	1532.47
417.46	1536.32
417.837	1555.3
418.214	1582.19
418.591	1612.02
418.967	1621.06
419.344	1683.66
419.721	1674.62
420.098	1698.8
420.475	1736.54
420.852	1739.02
421.228	1797.1
421.605	1825.57
421.982	1825.57
422.358	1879.58
422.735	1922.97
423.111	1917.55
423.488	1955.51
423.864	1956.42
424.241	1974.95
424.617	2032.12
424.994	2045.68
425.37	2043.87
425.746	2099.01
426.123	2081.39
426.499	2160.03
426.875	2157.54
427.251	2187.82
427.627	2280.93
428.003	2277.31
428.379	2324.09
428.756	2353.02
429.132	2387.59
429.507	2420.13
429.883	2500.36
430.259	2501.94
430.635	2511.43
431.011	2553.01
431.387	2593.69
431.763	2644.99
432.138	2685.66
432.514	2701.48
432.89	2723.4
433.265	2786.23
433.641	2824.19
434.016	2888.6
434.392	2885.43
434.767	2960.91
435.143	2979.22
435.518	3020.34
435.894	3061.02
436.269	3138.99
436.644	3118.42
437.02	3223.73
437.395	3167.46
437.77	3212.88
438.145	3280.45
438.52	3340.11
438.895	3360.9
439.271	3359.32
439.646	3450.84
440.021	3453.33
440.395	3504.85
440.77	3486.77
441.145	3532.87
441.52	3583.49
441.895	3583.95
442.27	3616.03
442.645	3662.59
443.019	3697.84
443.394	3673.89
443.769	3746.65
444.143	3725.41
444.518	3813.54
444.892	3810.61
445.267	3834.56
445.641	3800.21
446.016	3858.06
446.39	3889.47
446.764	3879.3
447.139	3869.14
447.513	3955.01
447.887	4007.66
448.262	4025.97
448.636	3994.1
449.01	4127.66
449.384	4113.87
449.758	4107.1
450.132	4206.53
450.506	4199.75
450.88	4237.26
451.254	4193.42
451.628	4254.44
452.002	4344.83
452.376	4384.6
452.75	4407.2
453.123	4462.57
453.497	4542.56
453.871	4553.86
454.244	4662.56
454.618	4680.87
454.992	4724.93
455.365	4723.35
455.739	4878.15
456.112	4916.11
456.486	4946.85
456.859	5013.96
457.232	5081.31
457.606	5077.69
457.979	5139.84
458.352	5199.72
458.725	5273.62
459.099	5372.6
459.472	5495.99
459.845	5512.71
460.218	5571.46
460.591	5582.76
460.964	5578.24
461.337	5792.25
461.71	5849.2
462.083	5940.95
462.456	5943.66
462.829	5995.86
463.201	6093.26
463.574	6118.12
463.947	6213.03
464.32	6317.21
464.692	6384.78
465.065	6398.79
465.438	6527.6
465.81	6590.42
466.183	6674.03
466.555	6812.56
466.928	6858.89
467.3	6940.47
467.672	6987.7
468.045	7169.16
468.417	7163.29
468.789	7209.84
469.161	7327.8
469.534	7502.94
469.906	7623.16
470.278	7608.25
470.65	7766.66
471.022	7886.21
471.394	8106.09
471.766	8191.06
472.138	8220.21
472.51	8385.18
472.882	8581.55
473.253	8662.91
473.625	8798.27
473.997	8958.49
474.369	8978.83
474.74	9090.24
475.112	9250.46
475.484	9433.28
475.855	9587.4
476.227	9631.7
476.598	9908.07
476.97	10000.05
477.341	10232.58
477.713	10358
478.084	10485.46
478.455	10721.84
478.827	10721.38
479.198	11064.2
479.569	11151.2
479.94	11442.04
480.311	11546.9
480.682	11777.18
481.053	11974.46
481.424	12277.95
481.795	12359.53
482.166	12590.04
482.537	12705.74
482.908	12953.42
483.279	13139.17
483.65	13433.63
484.021	13604.25
484.391	13825.94
484.762	13930.34
485.133	13963.56
485.503	14258.01
485.874	14542.75
486.244	14564.67
486.615	14926.02
486.985	15091.67
487.356	15307.93
487.726	15396.74
488.097	15718.77
488.467	15805.32
488.837	16104.97
489.207	16270.84
489.578	16524.62
489.948	16706.76
490.318	16935.68
490.688	17026.76
491.058	17301.32
491.428	17511.94
491.798	17595.78
492.168	18045.26
492.538	18061.3
492.908	18265.82
493.278	18483.21
493.648	18495.87
494.017	18792.81
494.387	18932.92
494.757	19016.53
495.126	19118
495.496	19318.22
495.866	19512.11
496.235	19660.81
496.605	19850.64
496.974	19940.35
497.344	20165.66
497.713	20206.79
498.082	20452.2
498.452	20679.32
498.821	20670.28
499.19	20772.19
499.559	20996.14
499.928	21176.93
500.298	21285.85
500.667	21465.51
501.036	21540.54
501.405	21635.67
501.774	21650.36
502.143	21940.75
502.512	21924.48
502.88	22277.47
503.249	22191.37
503.618	22425.03
503.987	22575.08
504.356	22679.71
504.724	22817.56
505.093	22919.03
505.462	23013.72
505.83	23189.53
506.199	23385.46
506.567	23634.49
506.936	23665.23
507.304	24025.67
507.672	24061.82
508.041	24187.92
508.409	24379.33
508.777	24503.17
509.145	24681.7
509.514	24782.26
509.882	24804.4
510.25	24950.62
510.618	25189.03
510.986	25249.36
511.354	25539.07
511.722	25728.9
512.09	25904.71
512.458	25905.17
512.826	26184.48
513.193	26373.63
513.561	26431.03
513.929	26611.36
514.297	26784.47
514.664	27071.69
515.032	27158.92
515.4	27460.38
515.767	27469.42
516.135	27654.72
516.502	27538.12
516.869	28057.43
517.237	28077.76
517.604	28106.69
517.972	28344.88
518.339	28511.43
518.706	28681.82
519.073	28865.09
519.44	29061.02
519.808	29265.53
520.175	29334
520.542	29647.21
520.909	29910.26
521.276	29746.87
521.643	30209.69
522.009	30440.19
522.376	30658.26
522.743	30756.11
523.11	31079.27
523.477	31356.77
523.843	31555.41
524.21	31859.59
524.577	32104.55
524.943	32072.46
525.31	32397.88
525.676	32598.55
526.043	32815.95
526.409	32983.85
526.776	33269.94
527.142	33417.51
527.508	33561.24
527.874	33929.81
528.241	34028.34
528.607	34058.85
528.973	34346.98
529.339	34431.95
529.705	34760.07
530.071	35060.18
530.437	35270.34
530.803	35416.1
531.169	35577.91
531.535	35596.66
531.901	35813.61
532.267	36045.01
532.632	36160.72
532.998	36326.36
533.364	36669.4
533.73	36619.23
534.095	36838.89
534.461	37055.61
534.826	37219.22
535.192	37287.69
535.557	37640.9
535.923	37665.08
536.288	37771.97
536.653	37990.95
537.019	38021.23
537.384	38002.7
537.749	38299.87
538.114	38379.19
538.479	38483.59
538.845	38776.69
539.21	38779.4
539.575	38906.18
539.94	38886.07
540.305	39262.1
540.67	39274.08
541.034	39483.11
541.399	39627.74
541.764	39675.65
542.129	39921.29
542.494	39931.92
542.858	40120.84
543.223	40145.02
543.587	40505.23
543.952	40376.65
544.316	40604.89
544.681	40714.72
545.045	40845.56
545.41	41145.9
545.774	41182.96
546.138	41273.58
546.503	41346.79
546.867	41391.99
547.231	41747.46
547.595	41832.21
547.959	41900
548.324	41928.02
548.688	42011.18
549.052	42278.3
549.416	42422.47
549.779	42536.59
550.143	42603.48
550.507	42769.13
550.871	42953.53
551.235	42970.71
551.599	43228.55
551.962	43405.95
552.326	43569.33
552.689	43663.8
553.053	43567.53
553.417	43889.55
553.78	44316.66
554.143	44046.38
554.507	44265.81
554.87	44369.31
555.234	44851.56
555.597	44610.89
555.96	44677.33
556.323	45020.14
556.686	44918.68
557.05	45292.91
557.413	45444.77
557.776	45464.88
558.139	45778.54
558.502	45870.97
558.865	45855.83
559.228	46387.34
559.59	46392.76
559.953	46411.52
560.316	46829.36
560.679	46862.13
561.041	47057.15
561.404	47059.86
561.767	47377.6
562.129	47265.96
562.492	47765.38
562.854	47641.09
563.217	47733.74
563.579	47879.28
563.941	48147.29
564.304	48273.17
564.666	48524.91
565.028	48519.94
565.39	48792.7
565.753	48955.86
566.115	49100.94
566.477	49247.6
566.839	49400.82
567.201	49581.61
567.563	49619.8
567.925	49853.46
568.287	49869.06
568.648	49956.06
569.01	50217.75
569.372	50362.15
569.734	50394.92
570.095	50571.41
570.457	50712.88
570.819	50920.33
571.18	50909.93
571.542	51018.4
571.903	51040.1
572.265	51271.73
572.626	51286.19
572.987	51290.71
573.349	51622.91
573.71	51716.01
574.071	51659.97
574.432	51800.98
574.794	52009.79
575.155	52032.39
575.516	51976.8
575.877	52153.06
576.238	52250.91
576.599	52391.02
576.96	52345.38
577.32	52493.17
577.681	52594.86
578.042	52595.09
578.403	52686.61
578.763	52638.47
579.124	52761.18
579.485	52857.45
579.845	53001.18
580.206	52857.68
580.566	52972.48
580.927	52987.84
581.287	53139.48
581.648	53087.05
582.008	53203.66
582.368	53242.98
582.728	53360.49
583.089	53227.16
583.449	53318.46
583.809	53320.26
584.169	53452.46
584.529	53357.55
584.889	53611.56
585.249	53450.43
585.609	53362.75
585.969	53463.76
586.329	53483.88
586.688	53640.03
587.048	53565
587.408	53485.68
587.768	53545.12
588.127	53569.98
588.487	53503.99
588.846	53783.76
589.206	53556.87
589.565	53533.37
589.925	53678.9
590.284	53630.31
590.643	53772.68
591.003	53787.6
591.362	53879.8
591.721	53809.29
592.08	53836.18
592.44	53898.1
592.799	53904.43
593.158	53874.6
593.517	53971.32
593.876	53929.51
594.235	53915.05
594.593	53943.3
594.952	54012.68
595.311	53939.91
595.67	54028.95
596.029	54215.16
596.387	54194.14
596.746	54240.47
597.104	54101.26
597.463	54139.23
597.822	54209.28
598.18	54182.39
598.538	54184.2
598.897	54242.5
599.255	54081.83
599.613	54579.89
599.972	54328.37
600.33	54389.39
600.688	54271.88
601.046	54407.69
601.404	54561.81
601.762	54437.3
602.12	54522.27
602.478	54586.22
602.836	54579.44
603.194	54434.36
603.552	54518.65
603.91	54449.27
604.268	54577.41
604.625	54560.46
604.983	54691.53
605.341	54569.27
605.698	54696.5
606.056	54731.08
606.413	54714.8
606.771	54781.7
607.128	54774.46
607.485	54750.96
607.843	54801.81
608.2	54947.57
608.557	54921.8
608.914	54905.53
609.272	55022.14
609.629	54992.09
609.986	55160.89
610.343	55009.26
610.7	55223.72
611.057	55115.7
611.414	55142.82
611.771	55140.78
612.127	55207.45
612.484	55233.66
612.841	55317.95
613.198	55227.56
613.554	55249.25
613.911	55373.77
614.267	55331.06
614.624	55355.24
614.98	55289.03
615.337	55470.26
615.693	55416.71
616.05	55346.88
616.406	55547.55
616.762	55467.33
617.118	55530.38
617.475	55477.72
617.831	55571.96
618.187	55474.56
618.543	55584.84
618.899	55722.01
619.255	55666.64
619.611	55659.86
619.967	55768.11
620.323	55753.2
620.678	55665.51
621.034	55635.46
621.39	55613.76
621.746	55628.68
622.101	55875.23
622.457	55662.58
622.812	55709.13
623.168	55845.85
623.523	55721.11
623.879	55858.95
624.234	55743.25
624.589	55808.33
624.945	55809.24
625.3	55875
625.655	55841.1
626.01	55813.98
626.365	55768.11
626.72	55784.83
627.075	55810.14
627.43	55778.05
627.785	55683.59
628.14	55767.88
628.495	55821.22
628.85	55783.7
629.205	55709.13
629.559	55917.48
629.914	55702.8
630.269	55810.14
630.623	55665.06
630.978	55688.56
631.332	55860.08
631.687	55837.94
632.041	55712.97
632.396	55810.59
632.75	55633.88
633.104	55673.42
633.459	55624.16
633.813	55616.02
634.167	55601.56
634.521	55590.71
634.875	55628.68
635.229	55557.95
635.583	55404.28
635.937	55484.5
636.291	55521.11
636.645	55437.95
636.999	55477.95
637.352	55469.36
637.706	55367.22
638.06	55447.89
638.413	55411.74
638.767	55295.58
639.121	55428.46
639.474	55251.74
639.828	55291.29
640.181	55346.65
640.534	55320.89
640.888	55208.8
641.241	55160.89
641.594	55183.49
641.947	55303.04
642.301	55200.89
642.654	55207.22
643.007	55225.07
643.36	55061.46
643.713	55091.97
644.066	55221.01
644.419	54927.68
644.771	54833.22
645.124	54551.64
645.477	54540.35
645.83	54415.6
646.182	54342.84
646.535	54230.75
646.888	54262.16
647.24	54195.72
647.593	54311.2
647.945	54237.75
648.298	54095.84
648.65	54091.09
649.002	54007.25
649.355	54170.41
649.707	54115.05
650.059	54225.78
650.411	54596.84
650.763	54583.73
651.115	54928.13
651.467	54781.47
651.819	54780.11
652.171	54707.8
652.523	54668.25
652.875	54699.21
653.227	54534.24
653.578	54757.06
653.93	54689.72
654.282	54603.85
654.633	54478.88
654.985	54602.72
655.337	54551.42
655.688	54524.3
656.039	54590.29
656.391	54412.21
656.742	54477.75
657.094	54504.87
657.445	54530.18
657.796	54468.94
658.147	54478.88
658.498	54501.25
658.849	54538.76
659.2	54456.73
659.551	54380.8
659.902	54436.39
660.253	54282.73
660.604	54418.99
660.955	54288.83
661.306	54373.12
661.656	54358.88
662.007	54454.7
662.358	54323.85
662.708	54358.2
663.059	54356.62
663.409	54186.91
663.76	54280.47
664.11	54269.39
664.461	54239.11
664.811	54345.77
665.161	54243.18
665.511	54195.5
665.862	54224.87
666.212	54287.02
666.562	54268.26
666.912	54220.58
667.262	54135.84
667.612	54129.96
667.962	54182.61
668.312	54111.88
668.662	54210.41
669.011	54163.18
669.361	54062.39
669.711	53980.59
670.06	53990.98
670.41	53948.72
670.76	53890.19
671.109	54022.62
671.459	53958.44
671.808	53915.96
672.157	53904.43
672.507	53655.4
672.856	53739.69
673.205	53782.4
673.554	53912.57
673.904	53689.97
674.253	53817.43
674.602	53793.7
674.951	53263.09
675.3	53242.07
675.649	53591.44
675.998	53652.01
676.346	53615.85
676.695	53677.77
677.044	53460.15
677.393	53639.13
677.741	53553.48
678.09	53450.2
678.438	53407.95
678.787	53378.12
679.135	53419.92
679.484	53186.03
679.832	53332.69
680.181	53222.87
680.529	53305.8
680.877	53097.9
681.225	53094.28
681.573	53273.71
681.922	53013.61
682.27	52904.91
682.618	52917.79
682.966	52888.64
683.314	52967.05
683.661	52797.11
684.009	52620.17
684.357	52567.74
684.705	52546.27
685.053	52618.14
685.4	52396.45
685.748	52342.66
686.095	52383.57
686.443	52217.02
686.79	52126.17
687.138	52139.28
687.485	52149
687.832	52000.53
688.18	52047.08
688.527	51865.61
688.874	51903.13
689.221	51706.3
689.568	51659.07
689.915	51651.16
690.262	51631.95
690.609	51353.54
690.956	51300.66
691.303	51291.39
691.65	51125.07
691.997	51166.87
692.344	50884.17
692.69	50876.26
693.037	50805.08
693.383	50603.27
693.73	50803.27
694.077	50507.68
694.423	50519.43
694.769	50361.47
695.116	50232.66
695.462	50177.75
695.808	50089.62
696.155	50118.09
696.501	49813.69
696.847	49921.03
697.193	49596.52
697.539	49789.74
697.885	49533.47
698.231	49352.91
698.577	49388.84
698.923	49344.55
699.269	49157.89
699.614	48928.06
699.96	48898.69
700.306	48906.6
700.651	48788.18
700.997	48677.9
701.342	48622.31
701.688	48449.43
702.033	48333.05
702.379	48333.05
702.724	48267.06
703.069	48373.05
703.415	47765.83
703.76	47720.64
704.105	47905.94
704.45	47740.3
704.795	47601.09
705.14	47423.92
705.485	47460.76
705.83	47189.8
706.175	47327.65
706.52	47300.54
706.865	47105.96
707.209	47087.43
707.554	46774.67
707.899	46935.35
708.243	46627.79
708.588	46648.58
708.932	46373.1
709.277	46448.35
709.621	46454.46
709.966	46146.67
710.31	46134.24
710.654	45982.38
710.998	46087.01
711.342	45931.98
711.687	45860.35
712.031	45694.02
712.375	45516.4
712.719	45623.97
713.063	45523.63
713.407	45717.75
713.75	45370.19
714.094	45389.4
714.438	45115.51
714.782	45289.06
715.125	45082.97
715.469	45088.84
715.812	44975.17
716.156	44529.99
716.499	44624
716.843	44773.6
717.186	44439.82
717.53	44555.3
717.873	44608.63
718.216	44502.19
718.559	44380.39
718.902	44034.86
719.246	44082.54
719.589	43969.78
719.932	43948.53
720.275	43777.92
720.617	43814.53
720.96	43708.54
721.303	43695.88
721.646	43704.25
721.989	43440.52
722.331	43605.04
722.674	43423.12
723.016	43522.56
723.359	43319.4
723.701	43309.91
724.044	43067.2
724.386	43027.65
724.729	43040.53
725.071	43032.63
725.413	43067.88
725.755	42914.66
726.097	42822.01
726.439	42570.94
726.782	42650.94
727.124	42831.27
727.465	42485.75
727.807	42466.76
728.149	42327.79
728.491	42340.21
728.833	42423.15
729.175	42221.8
729.516	42051.41
729.858	42026.1
730.199	42050.96
730.541	41901.13
730.882	41862.94
731.224	41960.79
731.565	41763.73
731.906	41780.46
732.248	41822.26
732.589	41658.88
732.93	41472.44
733.271	41479.9
733.612	41496.85
733.953	41542.27
734.294	41228.15
734.635	41115.61
734.976	41441.48
735.317	41065.45
735.658	41159.68
735.999	41002.4
736.339	40849.41
736.68	41197.87
737.021	40975.73
737.361	40594.5
737.702	41105.9
738.042	40748.17
738.383	40653.48
738.723	40721.95
739.063	40530.54
739.404	40738.67
739.744	40492.35
740.084	40391.79
740.424	40462.07
740.764	40332.81
741.104	40409.19
741.444	40291.68
741.784	40159.93
742.124	40218.01
742.464	40121.06
742.804	40013.95
743.143	39942.31
743.483	39986.15
743.823	39784.35
744.162	39833.39
744.502	39852.6
744.841	39601.76
745.181	39889.43
745.52	39681.98
745.86	39752.49
746.199	39483.11
746.538	39438.37
746.877	39687.85
747.216	39558.37
747.556	39439.5
747.895	39327.41
748.234	39241.09
748.573	39141.88
748.911	39201.31
749.25	39004.48
749.589	38928.33
749.928	38791.61
750.267	38910.25
750.605	38736.69
750.944	38664.15
751.283	38650.82
751.621	38692.4
751.96	38300.77
752.298	38458.28
752.636	38514.78
752.975	38259.64
