Data from white_poster_card_FLMS001491_00014.txt Node
Date: Wed Feb 08 11:51:09 GMT 2017
User: dcchb
Spectrometer: FLMS00149
Trigger mode: 0
Integration Time (sec): 2.000000E-2
Scans to average: 10
Electric dark correction enabled: true
Nonlinearity correction enabled: false
Boxcar width: 0
XAxis mode: Wavelengths
Number of Pixels in Spectrum: 2048
>>>>>Begin Spectral Data<<<<<
341.393	-15.72
341.776	-15.72
342.16	-15.72
342.543	-80.35
342.927	-63.18
343.31	-61.14
343.693	-80.13
344.077	-64.53
344.46	-77.87
344.843	-47.36
345.226	-58.43
345.61	-41.93
345.993	-27.7
346.376	7.78
346.759	1.68
347.142	39.65
347.525	30.83
347.908	77.61
348.291	68.12
348.674	97.95
349.057	135.46
349.44	132.3
349.823	155.12
350.206	167.1
350.588	201
350.971	186.31
351.354	239.19
351.737	238.06
352.119	245.29
352.502	258.17
352.884	249.13
353.267	272.41
353.65	280.54
354.032	296.36
354.414	285.97
354.797	304.95
355.179	334.78
355.562	320.54
355.944	332.75
356.326	330.03
356.709	322.35
357.091	337.49
357.473	330.03
357.855	346.76
358.238	348.34
358.62	351.28
359.002	340.88
359.384	325.51
359.766	329.81
360.148	343.59
360.53	331.62
360.912	318.73
361.294	314.44
361.676	319.19
362.057	340.65
362.439	318.51
362.821	330.03
363.203	334.1
363.584	328.68
363.966	318.51
364.348	320.32
364.729	322.58
365.111	300.66
365.493	318.51
365.874	328.23
366.256	322.8
366.637	311.5
367.019	298.4
367.4	292.07
367.781	304.95
368.163	305.85
368.544	324.61
368.925	297.27
369.306	300.88
369.688	306.76
370.069	335.23
370.45	315.8
370.831	316.02
371.212	321.45
371.593	304.5
371.974	314.44
372.355	321.22
372.736	334.78
373.117	319.86
373.498	333.42
373.879	319.19
374.26	328.45
374.641	292.52
375.021	326.64
375.402	342.24
375.783	307.89
376.163	339.75
376.544	324.84
376.925	336.36
377.305	314.67
377.686	334.55
378.066	332.97
378.447	306.53
378.827	327.77
379.208	323.03
379.588	327.55
379.968	344.95
380.349	315.34
380.729	341.11
381.109	330.94
381.489	372.07
381.87	352.63
382.25	351.05
382.63	338.62
383.01	342.91
383.39	340.2
383.77	350.6
384.15	373.42
384.53	370.71
384.91	324.84
385.29	364.38
385.67	360.09
386.049	366.42
386.429	348.34
386.809	372.52
387.189	363.48
387.568	371.61
387.948	363.71
388.328	374.33
388.707	367.09
389.087	357.15
389.466	369.35
389.846	383.14
390.225	370.94
390.605	378.62
390.984	372.97
391.363	401.67
391.743	398.73
392.122	369.13
392.501	389.47
392.881	410.26
393.26	410.03
393.639	412.74
394.018	398.51
394.397	421.33
394.776	403.93
395.155	412.52
395.534	387.66
395.913	426.53
396.292	438.73
396.671	434.44
397.05	423.14
397.429	431.05
397.808	404.16
398.186	442.8
398.565	426.98
398.944	420.2
399.323	433.76
399.701	438.51
400.08	457.26
400.458	429.24
400.837	429.01
401.215	451.39
401.594	423.36
401.972	449.58
402.351	455.23
402.729	453.42
403.107	464.49
403.486	460.65
403.864	455.91
404.242	474.21
404.62	486.41
404.999	484.38
405.377	494.32
405.755	493.65
406.133	479.18
406.511	497.03
406.889	490.48
407.267	506.98
407.645	519.41
408.023	532.74
408.401	545.17
408.779	543.36
409.156	553.3
409.534	559.63
409.912	561.44
410.29	582.91
410.667	586.98
411.045	608.22
411.422	602.57
411.8	599.86
412.178	628.1
412.555	643.92
412.933	639.63
413.31	658.16
413.687	664.26
414.065	675.79
414.442	693.64
414.819	728.22
415.197	722.34
415.574	751.04
415.951	755.11
416.328	769.57
416.705	761.43
417.082	777.03
417.46	788.55
417.837	830.81
418.214	836.69
418.591	852.73
418.967	872.17
419.344	882.56
419.721	892.5
420.098	874.88
420.475	892.73
420.852	936.8
421.228	932.96
421.605	937.7
421.982	970.47
422.358	1002.56
422.735	978.83
423.111	981.99
423.488	1025.61
423.864	1010.69
424.241	1052.05
424.617	1059.28
424.994	1069
425.37	1067.42
425.746	1098.38
426.123	1131.14
426.499	1129.56
426.875	1125.49
427.251	1162.78
427.627	1192.16
428.003	1191.48
428.379	1214.08
428.756	1234.19
429.132	1232.61
429.507	1273.51
429.883	1268.09
430.259	1294.3
430.635	1304.92
431.011	1317.58
431.387	1355.77
431.763	1380.85
432.138	1359.39
432.514	1440.06
432.89	1429.44
433.265	1457.24
433.641	1494.75
434.016	1497.23
434.392	1517.12
434.767	1560.96
435.143	1551.24
435.518	1548.53
435.894	1596.22
436.269	1581.07
436.644	1619.27
437.02	1634.86
437.395	1640.28
437.77	1650.9
438.145	1696.33
438.52	1723.67
438.895	1724.12
439.271	1759.37
439.646	1745.59
440.021	1779.94
440.395	1764.35
440.77	1762.54
441.145	1807.73
441.52	1809.54
441.895	1849.99
442.27	1878.02
442.645	1834.85
443.019	1860.61
443.394	1883.67
443.769	1891.8
444.143	1897
444.518	1944
444.892	1929.31
445.267	1951.91
445.641	1955.3
446.016	1965.7
446.39	1981.06
446.764	1980.84
447.139	1995.07
447.513	2025.13
447.887	2018.8
448.262	2037.79
448.636	2047.95
449.01	2085.69
449.384	2105.58
449.758	2126.14
450.132	2163.88
450.506	2162.08
450.88	2173.15
451.254	2148.97
451.628	2205.92
452.002	2196.65
452.376	2222.64
452.75	2248.4
453.123	2244.11
453.497	2294.95
453.871	2287.04
454.244	2353.26
454.618	2367.27
454.992	2385.8
455.365	2403.65
455.739	2469.86
456.112	2529.75
456.486	2511.9
456.859	2511.45
457.232	2550.99
457.606	2566.81
457.979	2597.09
458.352	2664.44
458.725	2682.97
459.099	2699.69
459.472	2721.38
459.845	2779.69
460.218	2780.14
460.591	2783.3
460.964	2847.93
461.337	2885.9
461.71	2935.16
462.083	2947.14
462.456	2955.28
462.829	2991.21
463.201	3063.75
463.574	3050.19
463.947	3078.89
464.32	3153.69
464.692	3167.7
465.065	3236.17
465.438	3256.51
465.81	3273.91
466.183	3311.42
466.555	3338.77
466.928	3405.21
467.3	3415.6
467.672	3457.64
468.045	3582.38
468.417	3564.75
468.789	3575.15
469.161	3643.39
469.534	3740.57
469.906	3825.08
470.278	3762.03
470.65	3880.45
471.022	3872.54
471.394	3952.54
471.766	3971.97
472.138	4029.37
472.51	4097.17
472.882	4208.35
473.253	4184.4
473.625	4229.37
473.997	4337.61
474.369	4400.66
474.74	4479.08
475.112	4459.87
475.484	4557.04
475.855	4651.73
476.227	4689.24
476.598	4819.86
476.97	4855.56
477.341	5001.1
477.713	5011.04
478.084	5038.61
478.455	5134.2
478.827	5245.84
479.198	5396.12
479.569	5396.34
479.94	5518.82
480.311	5511.82
480.682	5692.15
481.053	5798.82
481.424	5914.07
481.795	5953.16
482.166	6027.06
482.537	6121.29
482.908	6255.98
483.279	6255.53
483.65	6404.9
484.021	6517.44
484.391	6562.41
484.762	6632.47
485.133	6684.22
485.503	6799.47
485.874	6955.85
486.244	6969.41
486.615	7159.91
486.985	7219.57
487.356	7400.58
487.726	7454.37
488.097	7542.5
488.467	7612.1
488.837	7786.79
489.207	7919.21
489.578	8030.17
489.948	8104.97
490.318	8078.53
490.688	8217.96
491.058	8339.77
491.428	8472.42
491.798	8513.1
492.168	8687.1
492.538	8737.95
492.908	8783.37
493.278	9033.08
493.648	8933.88
494.017	9117.37
494.387	9160.54
494.757	9262.45
495.126	9382.68
495.496	9391.49
495.866	9521.43
496.235	9604.14
496.605	9606.17
496.974	9680.52
497.344	9871.7
497.713	9873.29
498.082	9995.32
498.452	10070.12
498.821	10084.58
499.19	10165.03
499.559	10268.08
499.928	10397.57
500.298	10407.28
500.667	10477.34
501.036	10451.35
501.405	10621.97
501.774	10654.51
502.143	10802.07
502.512	10793.04
502.88	10894.73
503.249	10912.81
503.618	10981.05
503.987	11169.52
504.356	11140.14
504.724	11271.67
505.093	11268.5
505.462	11325.9
505.83	11436.63
506.199	11576.97
506.567	11697.42
506.936	11626.69
507.304	11724.76
507.672	11895.83
508.041	12056.51
508.409	12090.18
508.777	12188.7
509.145	12235.26
509.514	12284.52
509.882	12366.33
510.25	12501.01
510.618	12540.11
510.986	12672.53
511.354	12715.24
511.722	12852.19
512.09	13028
512.458	12975.58
512.826	13032.52
513.193	13180.77
513.561	13277.04
513.929	13360.65
514.297	13469.8
514.664	13612.85
515.032	13677.25
515.4	13815.33
515.767	13844.25
516.135	13969.9
516.502	13920.86
516.869	14153.85
517.237	14151.82
517.604	14091.03
517.972	14348.65
518.339	14509.1
518.706	14528.76
519.073	14608.3
519.44	14761.74
519.808	14884.91
520.175	14952.7
520.542	15057.78
520.909	15243.54
521.276	15263.43
521.643	15443.76
522.009	15522.85
522.376	15638.33
522.743	15741.61
523.11	15913.13
523.477	16102.05
523.843	16193.57
524.21	16231.76
524.577	16413
524.943	16514.47
525.31	16623.62
525.676	16797.17
526.043	16962.36
526.409	17027.67
526.776	17238.29
527.142	17215.24
527.508	17360.55
527.874	17395.35
528.241	17528.23
528.607	17649.8
528.973	17841.21
529.339	17736.36
529.705	18036.69
530.071	18152.84
530.437	18315.32
530.803	18381.54
531.169	18474.87
531.535	18432.16
531.901	18533.4
532.267	18716.44
532.632	18763.45
532.998	18943.33
533.364	19090.22
533.73	19025.59
534.095	19273.72
534.461	19307.61
534.826	19420.61
535.192	19495.41
535.557	19635.97
535.923	19640.03
536.288	19754.38
536.653	19782.63
537.019	19811.33
537.384	19922.51
537.749	20070.98
538.114	20023.3
538.479	20006.35
538.845	20193.47
539.21	20311.2
539.575	20298.1
539.94	20398.66
540.305	20525.89
540.67	20522.05
541.034	20629.16
541.399	20815.37
541.764	20809.04
542.129	20953.67
542.494	20973.56
542.858	21028.25
543.223	21087.23
543.587	21280.22
543.952	21223.72
544.316	21334.23
544.681	21301.46
545.045	21544.84
545.41	21527.22
545.774	21565.18
546.138	21703.48
546.503	21682.92
546.867	21777.61
547.231	21924.49
547.595	21991.61
547.959	22118.39
548.324	22070.93
548.688	22225.73
549.052	22325.84
549.416	22275.9
549.779	22309.57
550.143	22547.3
550.507	22524.25
550.871	22790.46
551.235	22694.42
551.599	22962.88
551.962	22867.52
552.326	23037.01
552.689	23059.83
553.053	23041.53
553.417	23223.44
553.78	23386.38
554.143	23406.49
554.507	23481.74
554.87	23518.58
555.234	23763.09
555.597	23684
555.96	23823.2
556.323	23923.09
556.686	24075.4
557.05	24202.4
557.413	24265.9
557.776	24292.12
558.139	24555.39
558.502	24607.59
558.865	24598.32
559.228	24888.71
559.59	24895.04
559.953	25062.72
560.316	25273.56
560.679	25141.81
561.041	25363.95
561.404	25550.84
561.767	25600.56
562.129	25573.44
562.492	25840.1
562.854	25823.83
563.217	25901.79
563.579	26074.67
563.941	26146.3
564.304	26309.92
564.666	26563.02
565.028	26531.83
565.39	26751.71
565.753	26678.04
566.115	26950.8
566.477	27063.34
566.839	26948.77
567.201	27267.4
567.563	27402.77
567.925	27501.97
568.287	27520.51
568.648	27580.84
569.01	27793.04
569.372	27937.67
569.734	27888.63
570.095	28063.32
570.457	28063.54
570.819	28166.59
571.18	28182.63
571.542	28347.83
571.903	28542.4
572.265	28598.22
572.626	28677.54
572.987	28616.3
573.349	28820.81
573.71	29014.25
574.071	28983.29
574.432	29061.26
574.794	29328.14
575.155	29187.35
575.516	29167.24
575.877	29296.96
576.238	29362.04
576.599	29521.13
576.96	29416.73
577.32	29543.73
577.681	29708.7
578.042	29723.61
578.403	29723.84
578.763	29743.95
579.124	29780.11
579.485	29876.83
579.845	29952.98
580.206	29918.63
580.566	29898.75
580.927	29945.3
581.287	30120.21
581.648	30036.82
582.008	30203.6
582.368	30043.6
582.728	30237.72
583.089	30142.36
583.449	30136.93
583.809	30244.73
584.169	30278.4
584.529	30188.68
584.889	30365.4
585.249	30254.67
585.609	30373.09
585.969	30355.01
586.329	30368.79
586.688	30331.05
587.048	30328.34
587.408	30281.56
587.768	30267.1
588.127	30303.71
588.487	30185.29
588.846	30543.93
589.206	30228.46
589.565	30371.5
589.925	30358.4
590.284	30420.77
590.643	30387.32
591.003	30447.43
591.362	30561.78
591.721	30493.08
592.08	30435.46
592.44	30576.24
592.799	30607.2
593.158	30557.71
593.517	30527.21
593.876	30540.31
594.235	30451.05
594.593	30503.25
594.952	30710.7
595.311	30534.89
595.67	30646.75
596.029	30639.07
596.387	30690.37
596.746	30782.79
597.104	30728.1
597.463	30693.53
597.822	30765.62
598.18	30742.57
598.538	30736.92
598.897	30898.72
599.255	30613.53
599.613	31053.29
599.972	30927.87
600.33	30985.05
600.688	30915.67
601.046	30979.4
601.404	31152.95
601.762	31019.4
602.12	31099.39
602.478	31107.08
602.836	31160.86
603.194	30983.46
603.552	31005.16
603.91	31029.57
604.268	31183.91
604.625	31010.36
604.983	31201.54
605.341	30984.59
605.698	31179.84
606.056	31329.44
606.413	31233.63
606.771	31338.71
607.128	31415.09
607.485	31206.51
607.843	31356.34
608.2	31534.64
608.557	31580.96
608.914	31576.67
609.272	31513.62
609.629	31625.71
609.986	31828.19
610.343	31671.36
610.7	31881.29
611.057	31865.25
611.414	31726.5
611.771	31760.85
612.127	31934.85
612.484	31860.28
612.841	31983.21
613.198	31896.21
613.554	31846.95
613.911	32092.81
614.267	32133.49
614.624	31999.48
614.98	32093.94
615.337	32251.91
615.693	32214.39
616.05	32101.63
616.406	32275.63
616.762	32167.16
617.118	32208.29
617.475	32154.73
617.831	32236.31
618.187	32351.34
618.543	32239.48
618.899	32523.54
619.255	32443.09
619.611	32364.67
619.967	32459.36
620.323	32538.9
620.678	32401.51
621.034	32284.67
621.39	32328.97
621.746	32275.63
622.101	32780.71
622.457	32603.31
622.812	32520.15
623.168	32524.44
623.523	32604.21
623.879	32589.07
624.234	32327.61
624.589	32621.39
624.945	32535.74
625.3	32671.56
625.655	32538.45
626.01	32689.63
626.365	32616.87
626.72	32521.05
627.075	32503.2
627.43	32588.62
627.785	32370.32
628.14	32576.87
628.495	32431.11
628.85	32536.87
629.205	32292.36
629.559	32552.69
629.914	32330.32
630.269	32420.94
630.623	32250.55
630.978	32276.76
631.332	32440.38
631.687	32381.39
632.041	32130.55
632.396	32250.1
632.75	32069.76
633.104	32243.77
633.459	32059.59
633.813	32032.93
634.167	32002.42
634.521	32064.11
634.875	32083.1
635.229	31967.85
635.583	31749.55
635.937	31788.19
636.291	31740.06
636.645	31850.33
636.999	31791.13
637.352	31795.42
637.706	31637.23
638.06	31765.82
638.413	31601.3
638.767	31498.71
639.121	31617.35
639.474	31411.48
639.828	31397.47
640.181	31450.12
640.534	31341.87
640.888	31372.61
641.241	31138.94
641.594	31203.12
641.947	31288.32
642.301	31194.76
642.654	31160.41
643.007	31103.69
643.36	31041.54
643.713	31177.81
644.066	30998.15
644.419	31046.06
644.771	30719.07
645.124	30477.26
645.477	30335.8
645.83	30220.77
646.182	30019.42
646.535	29942.14
646.888	29945.75
647.24	29795.02
647.593	29889.03
647.945	29843.83
648.298	29787.34
648.65	29715.93
649.002	29534.92
649.355	29797.28
649.707	29703.95
650.059	29835.47
650.411	30091.74
650.763	30240.43
651.115	30495.12
651.467	30473.2
651.819	30250.83
652.171	30137.61
652.523	30220.32
652.875	30224.61
653.227	30084.96
653.578	30238.63
653.93	30261.9
654.282	29949.14
654.633	29966.99
654.985	29970.61
655.337	30074.11
655.688	29957.5
656.039	29973.55
656.391	29712.31
656.742	29881.57
657.094	29807.22
657.445	29957.5
657.796	29914.34
658.147	29815.13
658.498	29721.8
658.849	29859.88
659.2	29757.96
659.551	29574.01
659.902	29774.68
660.253	29633.44
660.604	29626.44
660.955	29535.82
661.306	29800.67
661.656	29582.37
662.007	29631.18
662.358	29578.53
662.708	29536.27
663.059	29486.56
663.409	29362.94
663.76	29556.16
664.11	29529.49
664.461	29514.8
664.811	29571.75
665.161	29540.79
665.511	29332.43
665.862	29346.9
666.212	29464.41
666.562	29504.63
666.912	29520
667.262	29402.26
667.612	29403.85
667.962	29342.83
668.312	29290.63
668.662	29453.11
669.011	29276.17
669.361	29243.85
669.711	29240.01
670.06	29133.57
670.41	29196.17
670.76	29183.06
671.109	29122.95
671.459	29134.7
671.808	29168.6
672.157	29286.11
672.507	29026.91
672.856	29031.65
673.205	28959.56
673.554	29115.49
673.904	28886.12
674.253	29142.38
674.602	28994.59
674.951	28532
675.3	28428.73
675.649	28843.18
675.998	28750.53
676.346	28877.08
676.695	28852.45
677.044	28638.67
677.393	28700.59
677.741	28827.59
678.09	28743.52
678.438	28634.37
678.787	28664.43
679.135	28600.02
679.484	28549.4
679.832	28686.35
680.181	28477.32
680.529	28607.71
680.877	28454.27
681.225	28292.24
681.573	28502.85
681.922	28402.29
682.27	28263.99
682.618	28296.08
682.966	28219.02
683.314	28299.47
683.661	28134.27
684.009	28049.53
684.357	27918.23
684.705	27831.46
685.053	28025.35
685.4	27954.17
685.748	27776.54
686.095	27702.65
686.443	27574.06
686.79	27648.41
687.138	27804.11
687.485	27653.84
687.832	27622.2
688.18	27523.89
688.527	27382.2
688.874	27288.19
689.221	27234.64
689.568	27297.01
689.915	27177.01
690.262	27140.85
690.609	27003.46
690.956	26938.37
691.303	26869
691.65	26759.62
691.997	26726.4
692.344	26601.43
692.69	26574.99
693.037	26563.24
693.383	26450.25
693.73	26389.01
694.077	26330.71
694.423	26283.48
694.769	26074.67
695.116	26076.48
695.462	26070.37
695.808	25964.16
696.155	25904.05
696.501	25751.29
696.847	25819.53
697.193	25620.89
697.539	25685.3
697.885	25475.36
698.231	25452.76
698.577	25468.81
698.923	25323.5
699.269	25287.8
699.614	25110.85
699.96	25212.54
700.306	25174.8
700.651	25034.47
700.997	24967.8
701.342	24894.59
701.688	24908.6
702.033	24816.62
702.379	24726.91
702.724	24737.75
703.069	24677.19
703.415	24443.52
703.76	24449.4
704.105	24492.11
704.45	24488.04
704.795	24280.82
705.14	24273.81
705.485	24173.7
705.83	24015.29
706.175	24186.58
706.52	24046.02
706.865	23880.15
707.209	23921.73
707.554	23802.64
707.899	23910.88
708.243	23693.49
708.588	23714.05
708.932	23498.69
709.277	23532.81
709.621	23579.37
709.966	23353.61
710.31	23475.64
710.654	23225.93
710.998	23225.25
711.342	23287.62
711.687	23162.2
712.031	23061.41
712.375	23078.81
712.719	23019.15
713.063	22943.9
713.407	23024.35
713.75	22823.45
714.094	22806.05
714.438	22767.86
714.782	22729.44
715.125	22667.3
715.469	22630.46
715.812	22464.14
716.156	22471.37
716.499	22393.63
716.843	22484.25
717.186	22403.58
717.53	22371.49
717.873	22456.23
718.216	22361.09
718.559	22200.19
718.902	22086.3
719.246	22131.49
719.589	21991.61
719.932	21861.67
720.275	21958.17
720.617	21959.3
720.96	21870.48
721.303	21808.34
721.646	21835
721.989	21720.88
722.331	21830.03
722.674	21784.38
723.016	21647.44
723.359	21658.74
723.701	21701.9
724.044	21589.14
724.386	21402.25
724.729	21470.27
725.071	21434.56
725.413	21448.57
725.755	21341.46
726.097	21337.84
726.439	21165.42
726.782	21206.32
727.124	21322.7
727.465	21176.94
727.807	21200.22
728.149	21051.97
728.491	21075.93
728.833	21089.94
729.175	20996.61
729.516	20911.64
729.858	20984.41
730.199	21006.55
730.541	20896.95
730.882	20863.28
731.224	20930.4
731.565	20745.77
731.906	20835.94
732.248	20718.42
732.589	20638.2
732.93	20613.12
733.271	20605.21
733.612	20624.64
733.953	20495.15
734.294	20560.46
734.635	20393.46
734.976	20479.79
735.317	20398.43
735.658	20348.49
735.999	20371.31
736.339	20178.1
736.68	20276.4
737.021	20200.92
737.361	20155.73
737.702	20236.4
738.042	20117.31
738.383	20046.13
738.723	20179.68
739.063	20051.78
739.404	20051.32
739.744	20031.21
740.084	19898.33
740.424	20000.48
740.764	19952.79
741.104	19912.8
741.444	19837.77
741.784	19800.26
742.124	19869.63
742.464	19779.47
742.804	19765.68
743.143	19673.48
743.483	19680.03
743.823	19571.34
744.162	19496.76
744.502	19632.13
744.841	19515.29
745.181	19650.43
745.52	19387.16
745.86	19582.18
746.199	19458.34
746.538	19279.14
746.877	19368.86
747.216	19364.79
747.556	19346.71
747.895	19241.85
748.234	19183.1
748.573	19127.28
748.911	19087.96
749.25	19115.75
749.589	19052.93
749.928	19006.6
750.267	19059.71
750.605	19045.93
750.944	18882.31
751.283	18867.85
751.621	18885.48
751.96	18756.67
752.298	18773.39
752.636	18775.65
752.975	18642.32
753.313	18610.23
753.651	18670.79
753.989	18593.51
754.327	18629.21
754.666	18540.63
755.004	18457.24
