Data from white_poster_card_FLMS001491_00097.txt Node
Date: Wed Feb 08 11:52:18 GMT 2017
User: dcchb
Spectrometer: FLMS00149
Trigger mode: 0
Integration Time (sec): 2.000000E-2
Scans to average: 10
Electric dark correction enabled: true
Nonlinearity correction enabled: false
Boxcar width: 0
XAxis mode: Wavelengths
Number of Pixels in Spectrum: 2048
>>>>>Begin Spectral Data<<<<<
341.393	-7.7
341.776	-7.7
342.16	-7.7
342.543	-49.28
342.927	-73.46
343.31	-83.85
343.693	-61.03
344.077	-69.84
344.46	-72.33
344.843	-56.51
345.226	-39.11
345.61	-35.95
345.993	6.54
346.376	-4.08
346.759	6.77
347.142	30.04
347.525	44.05
347.908	50.15
348.291	70.72
348.674	96.93
349.057	117.5
349.44	131.51
349.823	137.84
350.206	172.18
350.588	195.69
350.971	200.66
351.354	202.24
351.737	239.98
352.119	252.63
352.502	264.84
352.884	278.62
353.267	260.32
353.65	291.05
354.032	307.55
354.414	301.67
354.797	311.62
355.179	305.74
355.562	315.01
355.944	333.31
356.326	336.25
356.709	323.59
357.091	334.44
357.473	350.26
357.855	337.83
358.238	351.84
358.62	362.01
359.002	347.55
359.384	356.13
359.766	326.53
360.148	310.94
360.53	336.7
360.912	358.62
361.294	328.79
361.676	311.39
362.057	321.33
362.439	324.05
362.821	324.72
363.203	338.73
363.584	327.21
363.966	320.66
364.348	317.72
364.729	321.11
365.111	314.1
365.493	337.83
365.874	329.92
366.256	313.42
366.637	319.3
367.019	330.37
367.4	317.49
367.781	336.93
368.163	317.49
368.544	334.44
368.925	321.79
369.306	327.21
369.688	305.29
370.069	313.2
370.45	318.85
370.831	324.72
371.212	306.64
371.593	298.51
371.974	314.55
372.355	310.03
372.736	337.83
373.117	322.01
373.498	335.12
373.879	322.46
374.26	318.4
374.641	314.78
375.021	331.28
375.402	319.98
375.783	321.79
376.163	327.21
376.544	326.08
376.925	321.11
377.305	341.45
377.686	343.71
378.066	336.02
378.447	314.1
378.827	334.67
379.208	323.14
379.588	350.94
379.968	355.23
380.349	358.62
380.729	331.05
381.109	329.92
381.489	325.63
381.87	331.5
382.25	333.99
382.63	357.04
383.01	337.15
383.39	357.26
383.77	359.98
384.15	345.97
384.53	341.22
384.91	380.31
385.29	353.65
385.67	329.69
386.049	365.63
386.429	363.37
386.809	353.2
387.189	330.37
387.568	369.47
387.948	369.47
388.328	372.63
388.707	367.21
389.087	376.02
389.466	358.85
389.846	356.59
390.225	382.8
390.605	368.79
390.984	377.15
391.363	354.55
391.743	383.48
392.122	384.83
392.501	376.7
392.881	384.83
393.26	381.44
393.639	400.88
394.018	403.37
394.397	412.4
394.776	394.33
395.155	400.88
395.534	399.52
395.913	386.64
396.292	401.78
396.671	433.65
397.05	419.41
397.429	425.51
397.808	408.79
398.186	417.38
398.565	432.06
398.944	443.36
399.323	425.51
399.701	449.92
400.08	428.22
400.458	456.47
400.837	432.06
401.215	442.46
401.594	452.18
401.972	439.52
402.351	438.84
402.729	452.18
403.107	490.59
403.486	471.61
403.864	475.23
404.242	461.89
404.62	455.12
404.999	463.48
405.377	486.07
405.755	503.25
406.133	475.91
406.511	492.4
406.889	496.02
407.267	497.37
407.645	522.46
408.023	539.41
408.401	519.97
408.779	544.38
409.156	561.55
409.534	568.78
409.912	562.91
410.29	567.43
410.667	569.46
411.045	584.83
411.422	590.25
411.8	594.09
412.178	615.11
412.555	625.73
412.933	638.39
413.31	669.8
413.687	675.9
414.065	673.64
414.442	668.22
414.819	697.37
415.197	695.56
415.574	712.06
415.951	726.52
416.328	760.19
416.705	766.52
417.082	762.23
417.46	791.38
417.837	793.19
418.214	813.98
418.591	793.19
418.967	855.78
419.344	852.17
419.721	863.47
420.098	873.86
420.475	886.29
420.852	898.72
421.228	930.58
421.605	933.75
421.982	933.29
422.358	956.34
422.735	978.72
423.111	976.91
423.488	1013.07
423.864	1014.65
424.241	1019.85
424.617	1033.18
424.994	1055.1
425.37	1055.78
425.746	1059.85
426.123	1085.61
426.499	1076.34
426.875	1125.38
427.251	1134.65
427.627	1163.57
428.003	1162.67
428.379	1182.33
428.756	1178.03
429.132	1204.93
429.507	1230.01
429.883	1241.08
430.259	1281.99
430.635	1276.79
431.011	1314.53
431.387	1321.31
431.763	1340.29
432.138	1369.22
432.514	1367.18
432.89	1380.51
433.265	1410.8
433.641	1446.95
434.016	1442.21
434.392	1462.77
434.767	1525.14
435.143	1494.18
435.518	1484.47
435.894	1526.27
436.269	1545.03
436.644	1551.36
437.02	1552.94
437.395	1588.42
437.77	1581.64
438.145	1645.82
438.52	1637.23
438.895	1686.5
439.271	1686.04
439.646	1717
440.021	1739.38
440.395	1748.19
440.77	1716.78
441.145	1750.45
441.52	1787.51
441.895	1785.93
442.27	1818.02
442.645	1811.46
443.019	1845.36
443.394	1823.21
443.769	1831.8
444.143	1846.94
444.518	1841.97
444.892	1855.3
445.267	1877
445.641	1912.7
446.016	1929.88
446.39	1939.14
446.764	1950.22
447.139	1941.18
447.513	1947.05
447.887	1961.29
448.262	1968.75
448.636	1991.12
449.01	2003.32
449.384	2004.68
449.758	2051.46
450.132	2078.12
450.506	2104.11
450.88	2104.79
451.254	2102.76
451.628	2112.25
452.002	2127.84
452.376	2176.43
452.75	2200.83
453.123	2232.7
453.497	2245.58
453.871	2244.22
454.244	2278.8
454.618	2339.13
454.992	2341.17
455.365	2342.98
455.739	2406.48
456.112	2424.1
456.486	2397.66
456.859	2464.78
457.232	2495.74
457.606	2470.2
457.979	2520.82
458.352	2566.02
458.725	2613.25
459.099	2631.33
459.472	2633.36
459.845	2671.1
460.218	2701.84
460.591	2739.8
460.964	2699.58
461.337	2799.46
461.71	2841.04
462.083	2868.61
462.456	2887.14
462.829	2888.95
463.201	2946.58
463.574	2953.58
463.947	3001.49
464.32	3070.41
464.692	3102.73
465.065	3123.52
465.438	3122.84
465.81	3167.13
466.183	3224.76
466.555	3278.32
466.928	3280.58
467.3	3270.63
467.672	3357.19
468.045	3467.47
468.417	3448.48
468.789	3472.21
469.161	3521.25
469.534	3584.98
469.906	3661.36
470.278	3636.5
470.65	3672.66
471.022	3771.64
471.394	3849.15
471.766	3843.5
472.138	3906.78
472.51	3956.49
472.882	4024.29
473.253	4047.79
473.625	4148.58
473.997	4195.36
474.369	4205.53
474.74	4230.38
475.112	4304.51
475.484	4402.81
475.855	4440.32
476.227	4531.62
476.598	4636.02
476.97	4650.94
477.341	4761.44
477.713	4807.54
478.084	4869.24
478.455	4992.4
478.827	5030.81
479.198	5165.5
479.569	5189.23
479.94	5353.52
480.311	5367.98
480.682	5465.83
481.053	5581.31
481.424	5686.16
481.795	5689.33
482.166	5775.43
482.537	5913.95
482.908	5986.27
483.279	6092.71
483.65	6138.81
484.021	6236.43
484.391	6351.23
484.762	6416.99
485.133	6461.28
485.503	6573.15
485.874	6708.74
486.244	6778.11
486.615	6885.23
486.985	6903.76
487.356	7081.61
487.726	7143.98
488.097	7253.58
488.467	7353.92
488.837	7443.86
489.207	7583.06
489.578	7684.76
489.948	7726.56
490.318	7851.3
490.688	7918.42
491.058	8032.32
491.428	8120
491.798	8169.49
492.168	8384.17
492.538	8381.69
492.908	8479.99
493.278	8568.12
493.648	8630.27
494.017	8736.25
494.387	8781.22
494.757	8938.28
495.126	8935.57
495.496	9062.57
495.866	9099.18
496.235	9244.94
496.605	9283.13
496.974	9301.66
497.344	9455.56
497.713	9486.29
498.082	9590.92
498.452	9675.44
498.821	9703.69
499.19	9821.87
499.559	9886.05
499.928	9893.29
500.298	10037.01
500.667	10104.13
501.036	10115.88
501.405	10208.53
501.774	10234.75
502.143	10353.16
502.512	10352.03
502.88	10497.56
503.249	10459.37
503.618	10558.58
503.987	10649.2
504.356	10710.89
504.724	10778.01
505.093	10903.65
505.462	10898.68
505.83	10978.91
506.199	11108.39
506.567	11204.44
506.936	11178
507.304	11376.86
507.672	11416.63
508.041	11479.68
508.409	11488.05
508.777	11697.53
509.145	11776.63
509.514	11781.15
509.882	11916.96
510.25	11993.34
510.618	12100.23
510.986	12049.16
511.354	12195.82
511.722	12341.81
512.09	12482.6
512.458	12456.38
512.826	12650.27
513.193	12616.6
513.561	12647.11
513.929	12871.74
514.297	12840.78
514.664	12958.06
515.032	12949.93
515.4	13121
515.767	13228.34
516.135	13299.3
516.502	13297.26
516.869	13552.4
517.237	13557.6
517.604	13620.64
517.972	13756.23
518.339	13845.72
518.706	13908.32
519.073	14031.93
519.44	14071.93
519.808	14308.54
520.175	14207.52
520.542	14424.69
520.909	14562.09
521.276	14570.68
521.643	14729.99
522.009	14859.71
522.376	15011.57
522.743	15083.88
523.11	15182.86
523.477	15327.49
523.843	15379.92
524.21	15572.46
524.577	15591.89
524.943	15779.46
525.31	15856.07
525.676	16015.61
526.043	16201.14
526.409	16209.5
526.776	16443.17
527.142	16504.86
527.508	16690.39
527.874	16708.47
528.241	16837.74
528.607	16879.77
528.973	17043.61
529.339	17114.34
529.705	17268.46
530.071	17431.17
530.437	17471.84
530.803	17533.08
531.169	17680.88
531.535	17682.23
531.901	17725.62
532.267	17920.87
532.632	17998.61
532.998	18054.65
533.364	18184.59
533.73	18347.3
534.095	18341.65
534.461	18507.97
534.826	18634.98
535.192	18615.54
535.557	18774.63
535.923	18780.96
536.288	18875.65
536.653	18906.16
537.019	19019.82
537.384	19026.38
537.749	19174.62
538.114	19232.7
538.479	19164.23
538.845	19392.24
539.21	19352.92
539.575	19429.76
539.94	19570.09
540.305	19642.41
540.67	19590.43
541.034	19786.58
541.399	19854.15
541.764	19916.98
542.129	19957.88
542.494	20102.73
542.858	20239.23
543.223	20178.89
543.587	20251.2
543.952	20360.13
544.316	20348.15
544.681	20483.52
545.045	20596.28
545.41	20648.71
545.774	20695.94
546.138	20719.44
546.503	20791.3
546.867	20758.99
547.231	20987.46
547.595	21102.93
547.959	21195.59
548.324	21141.8
548.688	21259.77
549.052	21385.19
549.416	21438.29
549.779	21473.09
550.143	21436.26
550.507	21658.63
550.871	21737.72
551.235	21838.06
551.599	21973.42
551.962	21988.79
552.326	22041.21
552.689	22151.27
553.053	22072.85
553.417	22192.4
553.78	22433.29
554.143	22309.23
554.507	22455.21
554.87	22622.89
555.234	22844.58
555.597	22576.34
555.96	22760.52
556.323	22929.78
556.686	23047.97
557.05	23125.48
557.413	23231.01
557.776	23360.28
558.139	23482.76
558.502	23498.35
558.865	23605.92
559.228	23711.45
559.59	23743.32
559.953	23869.87
560.316	24047.94
560.679	24154.15
561.041	24218.11
561.404	24337.65
561.767	24585.55
562.129	24482.96
562.492	24728.6
562.854	24708.26
563.217	24705.1
563.579	24868.48
563.941	25080.68
564.304	25198.65
564.666	25332.43
565.028	25425.98
565.39	25447.23
565.753	25559.99
566.115	25738.74
566.477	25798.86
566.839	25849.02
567.201	26064.84
567.563	26098.73
567.925	26264.15
568.287	26282.46
568.648	26398.84
569.01	26621.88
569.372	26797.02
569.734	26633.18
570.095	26778.04
570.457	26903.69
570.819	26973.06
571.18	26981.2
571.542	27202.66
571.903	27167.63
572.265	27287.86
572.626	27402.43
572.987	27508.42
573.349	27542.31
573.71	27635.19
574.071	27623.21
574.432	27748.86
574.794	27976.43
575.155	27911.34
575.516	28002.64
575.877	28160.83
576.238	28060.04
576.599	28167.83
576.96	28286.47
577.32	28290.54
577.681	28240.37
578.042	28433.36
578.403	28518.11
578.763	28426.36
579.124	28541.83
579.485	28576.64
579.845	28695.95
580.206	28690.98
580.566	28627.48
580.927	28672.68
581.287	28764.43
581.648	28663.64
582.008	28952.44
582.368	28853.01
582.728	28899.11
583.089	28906.57
583.449	28844.2
583.809	28926.23
584.169	28907.7
584.529	28832.45
584.889	29027.47
585.249	28965.1
585.609	28873.58
585.969	29064.53
586.329	29039.45
586.688	28980.69
587.048	29047.36
587.408	28950.86
587.768	28962.61
588.127	29031.09
588.487	28897.08
588.846	29045.32
589.206	28991.54
589.565	28987.7
589.925	29135.94
590.284	29093.46
590.643	29107.02
591.003	29142.5
591.362	29233.34
591.721	29120.12
592.08	29188.6
592.44	29220.01
592.799	29200.12
593.158	29044.65
593.517	29171.2
593.876	29290.97
594.235	29079.67
594.593	29163.96
594.952	29254.36
595.311	29194.7
595.67	29129.62
596.029	29324.86
596.387	29331.64
596.746	29513.79
597.104	29207.58
597.463	29307.46
597.822	29484.63
598.18	29362.15
598.538	29346.11
598.897	29570.51
599.255	29361.25
599.613	29757.85
599.972	29471.3
600.33	29551.07
600.688	29463.17
601.046	29514.92
601.404	29784.51
601.762	29607.34
602.12	29781.12
602.478	29763.27
602.836	29851.86
603.194	29610.28
603.552	29666.55
603.91	29506.1
604.268	29807.11
604.625	29720.79
604.983	29890.05
605.341	29692.09
605.698	29884.17
606.056	29892.53
606.413	29823.61
606.771	30018.63
607.128	30109.02
607.485	29879.43
607.843	30068.57
608.2	30157.39
608.557	30196.25
608.914	29992.64
609.272	30305.86
609.629	30271.28
609.986	30382.01
610.343	30154.22
610.7	30454.33
611.057	30452.52
611.414	30380.2
611.771	30416.81
612.127	30533.19
612.484	30423.59
612.841	30656.13
613.198	30511.5
613.554	30547.66
613.911	30625.85
614.267	30661.78
614.624	30579.29
614.98	30622.46
615.337	30707.65
615.693	30713.53
616.05	30681.67
616.406	30927.99
616.762	30774.77
617.118	30817.03
617.475	30732.29
617.831	30931.83
618.187	30906.07
618.543	30754.88
618.899	31120.07
619.255	30933.86
619.611	30961.88
619.967	31123.01
620.323	31150.35
620.678	31067.42
621.034	30937.48
621.39	31010.47
621.746	30929.79
622.101	31257.24
622.457	31012.5
622.812	31059.28
623.168	31135.21
623.523	31058.15
623.879	31185.61
624.234	30984.71
624.589	31216.11
624.945	31193.06
625.3	31147.64
625.655	31052.5
626.01	31165.27
626.365	31293.63
626.72	31114.42
627.075	31174.53
627.43	31030.58
627.785	31050.24
628.14	31040.98
628.495	31022.67
628.85	31023.12
629.205	30943.13
629.559	31121.2
629.914	30932.28
630.269	30999.17
630.623	30909.23
630.978	30838.95
631.332	30877.82
631.687	30881.66
632.041	30829.46
632.396	30850.93
632.75	30733.42
633.104	30649.8
633.459	30654.1
633.813	30546.3
634.167	30617.49
634.521	30555.57
634.875	30626.75
635.229	30558.28
635.583	30405.06
635.937	30347.44
636.291	30372.75
636.645	30389.24
636.999	30325.74
637.352	30304.27
637.706	30157.84
638.06	30248.23
638.413	30275.35
638.767	30184.28
639.121	30212.75
639.474	29911.06
639.828	30029.03
640.181	29913.55
640.534	29898.41
640.888	29974.11
641.241	29832.2
641.594	29873.1
641.947	30003.94
642.301	29723.05
642.654	29735.25
643.007	29759.66
643.36	29697.74
643.713	29650.28
644.066	29805.08
644.419	29525.54
644.771	29373.22
645.124	29158.32
645.477	29109.73
645.83	28878.1
646.182	28846.69
646.535	28723.07
646.888	28670.64
647.24	28645.56
647.593	28760.13
647.945	28675.39
648.298	28424.1
648.65	28336.64
649.002	28363.53
649.355	28387.94
649.707	28374.83
650.059	28502.97
650.411	28836.29
650.763	28815.27
651.115	29058.66
651.467	28960.13
651.819	28934.14
652.171	28758.1
652.523	28783.41
652.875	28716.97
653.227	28681.72
653.578	28830.19
653.93	28873.58
654.282	28723.52
654.633	28599.91
654.985	28630.19
655.337	28662.74
655.688	28702.73
656.039	28625.67
656.391	28458.45
656.742	28673.13
657.094	28395.62
657.445	28611.89
657.796	28504.77
658.147	28521.72
658.498	28402.18
658.849	28549.07
659.2	28307.04
659.551	28274.95
659.902	28438.11
660.253	28353.59
660.604	28316.76
660.955	28209.41
661.306	28271.11
661.656	28251.67
662.007	28315.85
662.358	28239.47
662.708	28197.89
663.059	28265.68
663.409	27938.46
663.76	28227.94
664.11	28081.06
664.461	28280.15
664.811	28199.47
665.161	28200.6
665.511	28013.94
665.862	28250.99
666.212	28193.14
666.562	28210.77
666.912	28152.92
667.262	27961.06
667.612	28018.01
667.962	28246.02
668.312	27965.13
668.662	28096.42
669.011	28045.12
669.361	28036.31
669.711	27960.15
670.06	27854.62
670.41	27920.61
670.76	27866.37
671.109	28030.44
671.459	27858.46
671.808	27824.11
672.157	27916.09
672.507	27634.51
672.856	27824.11
673.205	27794.51
673.554	27731.69
673.904	27637.9
674.253	27806.49
674.602	27611.01
674.951	27330.57
675.3	27118.14
675.649	27592.03
675.998	27561.75
676.346	27560.17
676.695	27524.01
677.044	27441.3
677.393	27438.13
677.741	27534.86
678.09	27432.94
678.438	27461.18
678.787	27522.43
679.135	27448.08
679.484	27238.82
679.832	27406.72
680.181	27162.89
680.529	27324.01
680.877	27144.13
681.225	27088.99
681.573	27257.57
681.922	26990.69
682.27	27029.78
682.618	27116.56
682.966	26860.75
683.314	26914.98
683.661	26889
684.009	26750.92
684.357	26684.71
684.705	26652.17
685.053	26692.62
685.4	26643.81
685.748	26527.88
686.095	26430.48
686.443	26374.66
686.79	26236.81
687.138	26389.8
687.485	26426.86
687.832	26285.4
688.18	26238.62
688.527	26039.53
688.874	25990.49
689.221	26046.76
689.568	25966.08
689.915	25847.89
690.262	25906.2
690.609	25864.39
690.956	25647.22
691.303	25637.5
691.65	25592.53
691.997	25609.48
692.344	25428.92
692.69	25386.89
693.037	25446.32
693.383	25202.04
693.73	25215.59
694.077	24932.44
694.423	25140.12
694.769	24897.86
695.116	24940.12
695.462	24917.07
695.808	24776.06
696.155	24793.01
696.501	24663.52
696.847	24635.95
697.193	24541.04
697.539	24644.54
697.885	24331.1
698.231	24298.56
698.577	24286.8
698.923	24287.48
699.269	24010.88
699.614	24140.14
699.96	23887.49
700.306	24144.89
700.651	23883.65
700.997	23733.15
701.342	23789.64
701.688	23717.78
702.033	23722.3
702.379	23594.85
702.724	23424.91
703.069	23624
703.415	23322.99
703.76	23318.47
704.105	23250.45
704.45	23303.78
704.795	23125.48
705.14	23063.33
705.485	23106.5
705.83	22943.34
706.175	23071.7
706.52	22845.71
706.865	22841.19
707.209	22767.07
707.554	22791.25
707.899	22709.67
708.243	22558.26
708.588	22648.66
708.932	22380.41
709.277	22362.79
709.621	22402.56
709.966	22288.67
710.31	22274.65
710.654	22126.64
710.998	22075.56
711.342	22134.77
711.687	22127.54
712.031	21945.4
712.375	21961.89
712.719	21860.65
713.063	21888.45
713.407	22081.21
713.75	21888
714.094	21758.51
714.438	21655.91
714.782	21632.86
715.125	21524.17
715.469	21617.95
715.812	21524.39
716.156	21423.38
716.499	21395.36
716.843	21483.04
717.186	21451.4
717.53	21412.76
717.873	21256.38
718.216	21314.91
718.559	21194.23
718.902	21009.38
719.246	21127.11
719.589	21016.83
719.932	20919.44
720.275	20933.45
720.617	20808.93
720.96	20869.04
721.303	20885.54
721.646	20778.42
721.989	20735.71
722.331	20796.5
722.674	20712.44
723.016	20797.18
723.359	20653.91
723.701	20662.04
724.044	20488.71
724.386	20429.05
724.729	20554.02
725.071	20405.55
725.413	20461.59
725.755	20398.09
726.097	20200.81
726.439	20140.25
726.782	20138.44
727.124	20286.68
727.465	20229.06
727.807	20188.61
728.149	20076.29
728.491	20020.93
728.833	20089.85
729.175	20046.69
729.516	20000.36
729.858	19921.27
730.199	20038.78
730.541	19897.77
730.882	19882.17
731.224	19902.97
731.565	19781.39
731.906	19759.69
732.248	19712.46
732.589	19700.26
732.93	19584.1
733.271	19535.29
733.612	19548.85
733.953	19653.25
734.294	19404
734.635	19338.23
734.976	19505.24
735.317	19339.14
735.658	19397.67
735.999	19319.93
736.339	19286.94
736.68	19399.93
737.021	19123.78
737.361	19188.63
737.702	19300.5
738.042	19134.85
738.383	19166.26
738.723	19260.27
739.063	19165.81
739.404	19217.11
739.744	19030.22
740.084	19002.2
740.424	18975.98
740.764	18982.54
741.104	19099.14
741.444	18912.48
741.784	18852.6
742.124	18911.58
742.464	18870.68
742.804	18775.31
743.143	18749.1
743.483	18766.95
743.823	18662.77
744.162	18553.17
744.502	18600.63
744.841	18555.66
745.181	18568.09
745.52	18552.04
745.86	18564.7
746.199	18461.42
746.538	18493.74
746.877	18435.89
747.216	18437.92
747.556	18347.07
747.895	18383.01
748.234	18324.7
748.573	18243.35
748.911	18191.37
749.25	18211.71
749.589	18064.14
749.928	18133.07
750.267	18191.6
750.605	18063.47
750.944	18012.85
751.283	17831.83
751.621	17945.95
751.96	17900.53
752.298	17852.17
752.636	17841.78
752.975	17774.66
753.313	17614.89
753.651	17803.81
753.989	17591.39
754.327	17633.42
