Data from White_reflection_standard_FLMS001491_028.txt Node
Date: Tue Feb 07 10:32:00 GMT 2017
User: dcchb
Spectrometer: FLMS00149
Trigger mode: 0
Integration Time (sec): 2.000000E-2
Scans to average: 10
Electric dark correction enabled: true
Nonlinearity correction enabled: false
Boxcar width: 0
XAxis mode: Wavelengths
Number of Pixels in Spectrum: 2048
>>>>>Begin Spectral Data<<<<<
341.393	-32.33
341.776	-32.33
342.16	-32.33
342.543	-60.8
342.927	-63.06
343.31	-51.09
343.693	-58.54
344.077	-74.14
344.46	-68.94
344.843	-50.63
345.226	-35.49
345.61	-31.43
345.993	-20.8
346.376	3.15
346.759	3.38
347.142	11.29
347.525	20.32
347.908	65.29
348.291	87.67
348.674	95.8
349.057	104.16
349.44	116.37
349.823	144.84
350.206	148.23
350.588	218.96
350.971	250.15
351.354	274.78
351.737	261.67
352.119	315.23
352.502	294.22
352.884	309.13
353.267	337.15
353.65	340.32
354.032	351.39
354.414	358.17
354.797	357.49
355.179	359.52
355.562	368.11
355.944	385.74
356.326	391.61
356.709	369.47
357.091	384.83
357.473	418.28
357.855	393.65
358.238	400.88
358.62	400.43
359.002	395.68
359.384	401.11
359.766	428.22
360.148	420.31
360.53	406.98
360.912	386.19
361.294	420.54
361.676	417.15
362.057	404.27
362.439	415.79
362.821	403.14
363.203	419.64
363.584	414.66
363.966	415.12
364.348	408.11
364.729	408.79
365.111	397.04
365.493	413.76
365.874	409.69
366.256	410.37
366.637	396.36
367.019	406.75
367.4	421.67
367.781	406.75
368.163	418.51
368.544	404.95
368.925	416.02
369.306	422.35
369.688	427.55
370.069	418.96
370.45	440.43
370.831	448.79
371.212	444.04
371.593	420.09
371.974	420.77
372.355	432.52
372.736	440.2
373.117	457.15
373.498	445.85
373.879	446.98
374.26	440.88
374.641	412.63
375.021	437.94
375.402	455.57
375.783	479.75
376.163	495.11
376.544	504.15
376.925	491.5
377.305	483.14
377.686	482.23
378.066	498.73
378.447	495.34
378.827	532.18
379.208	511.38
379.588	519.29
379.968	516.81
380.349	511.84
380.729	522.91
381.109	549.12
381.489	532.85
381.87	539.18
382.25	538.95
382.63	557.94
383.01	558.62
383.39	585.51
383.77	557.26
384.15	547.77
384.53	606.98
384.91	589.35
385.29	609.01
385.67	609.69
386.049	625.51
386.429	617.6
386.809	627.54
387.189	611.5
387.568	633.42
387.948	648.78
388.328	632.51
388.707	654.21
389.087	659.18
389.466	672.06
389.846	663.02
390.225	660.53
390.605	685.17
390.984	703.7
391.363	693.53
391.743	731.94
392.122	714.54
392.501	731.49
392.881	710.02
393.26	736.92
393.639	769.68
394.018	779.85
394.397	785.73
394.776	785.28
395.155	774.2
395.534	783.47
395.913	773.52
396.292	823.69
396.671	809
397.05	814.65
397.429	856.69
397.808	842
398.186	836.12
398.565	868.89
398.944	871.15
399.323	871.6
399.701	871.15
400.08	900.3
400.458	914.99
400.837	917.25
401.215	918.38
401.594	935.55
401.972	936.91
402.351	926.97
402.729	987.3
403.107	953.18
403.486	980.3
403.864	988.21
404.242	1009
404.62	1020.98
404.999	1067.98
405.377	1037.47
405.755	1052.84
406.133	1075.44
406.511	1089.22
406.889	1091.71
407.267	1133.97
407.645	1127.64
408.023	1136.45
408.401	1155.21
408.779	1164.48
409.156	1171.25
409.534	1197.92
409.912	1208.09
410.29	1234.76
410.667	1272.49
411.045	1278.14
411.422	1266.62
411.8	1289.67
412.178	1320.86
412.555	1344.13
412.933	1343
413.31	1366.73
413.687	1390.91
414.065	1400.63
414.442	1416.9
414.819	1436.78
415.197	1420.74
415.574	1490.57
415.951	1509.32
416.328	1530.57
416.705	1514.75
417.082	1544.35
417.46	1560.85
417.837	1571.02
418.214	1618.47
418.591	1601.3
418.967	1631.81
419.344	1628.64
419.721	1648.76
420.098	1677.46
420.475	1721.97
420.852	1696.21
421.228	1738.02
421.605	1754.52
421.982	1771.24
422.358	1771.69
422.735	1820.28
423.111	1811.92
423.488	1850.78
423.864	1844.23
424.241	1856.66
424.617	1905.25
424.994	1917.22
425.37	1934.85
425.746	1960.84
426.123	1988.18
426.499	2017.33
426.875	2032.93
427.251	2070.44
427.627	2095.3
428.003	2124.45
428.379	2128.97
428.756	2164.9
429.132	2221.17
429.507	2241.06
429.883	2264.56
430.259	2302.52
430.635	2298.68
431.011	2362.86
431.387	2399.7
431.763	2424.55
432.138	2458
432.514	2476.53
432.89	2493.03
433.265	2578
433.641	2578.22
434.016	2601.73
434.392	2672.68
434.767	2773.25
435.143	2705.45
435.518	2781.61
435.894	2789.07
436.269	2814.83
436.644	2905.67
437.02	2899.57
437.395	2909.06
437.77	2952
438.145	2993.35
438.52	3048.72
438.895	3051.66
439.271	3067.02
439.646	3159.9
440.021	3160.58
440.395	3169.62
440.77	3140.47
441.145	3214.82
441.52	3248.71
441.895	3288.26
442.27	3269.5
442.645	3261.82
443.019	3363.06
443.394	3353.12
443.769	3396.73
444.143	3366
444.518	3483.06
444.892	3468.37
445.267	3510.85
445.641	3512.21
446.016	3570.06
446.39	3556.5
446.764	3581.13
447.139	3610.29
447.513	3672.43
447.887	3682.37
448.262	3691.41
448.636	3678.31
449.01	3765.99
449.384	3795.82
449.758	3857.29
450.132	3884.4
450.506	3907.91
450.88	3979.32
451.254	3939.32
451.628	4026.77
452.002	4090.27
452.376	4145.87
452.75	4163.49
453.123	4192.42
453.497	4233.55
453.871	4289.59
454.244	4388.35
454.618	4397.38
454.992	4424.28
455.365	4434.45
455.739	4584.27
456.112	4676.25
456.486	4716.25
456.859	4725.06
457.232	4772.06
457.606	4799.18
457.979	4893.64
458.352	4948.33
458.725	5036.46
459.099	5059.97
459.472	5177.7
459.845	5225.84
460.218	5263.12
460.591	5313.52
460.964	5369.79
461.337	5492.5
461.71	5524.13
462.083	5619.05
462.456	5625.15
462.829	5720.51
463.201	5804.35
463.574	5773.17
463.947	5929.32
464.32	6044.57
464.692	6074.4
465.065	6092.93
465.438	6263.55
465.81	6337.9
466.183	6370.67
466.555	6556.88
466.928	6591.22
467.3	6532.47
467.672	6682.75
468.045	6884.1
468.417	6896.08
468.789	6925
469.161	6982.85
469.534	7181.72
469.906	7304.88
470.278	7385.55
470.65	7511.2
471.022	7646.79
471.394	7694.92
471.766	7844.75
472.138	7923.62
472.51	8065.31
472.882	8204.97
473.253	8324.06
473.625	8403.38
473.997	8657.61
474.369	8654.67
474.74	8754.78
475.112	8966.08
475.484	9067.09
475.855	9265.73
476.227	9337.37
476.598	9572.62
476.97	9710.69
477.341	9894.87
477.713	10012.15
478.084	10119.95
478.455	10394.51
478.827	10473.16
479.198	10826.37
479.569	10827.72
479.94	11163.76
480.311	11300.48
480.682	11515.16
481.053	11707.02
481.424	11892.78
481.795	11984.98
482.166	12208.48
482.537	12409.6
482.908	12713.78
483.279	12775.7
483.65	13049.13
484.021	13262.46
484.391	13362.8
484.762	13595.11
485.133	13674.65
485.503	13888.43
485.874	14240.06
486.244	14354.41
486.615	14627.85
486.985	14857.22
487.356	15089.08
487.726	15176.99
488.097	15583.53
488.467	15630.08
488.837	15864.2
489.207	16064.42
489.578	16309.16
489.948	16438.42
490.318	16693.33
490.688	16734.46
491.058	17105.98
491.428	17280.21
491.798	17383.71
492.168	17745.28
492.538	17870.93
492.908	18032.28
493.278	18325.61
493.648	18334.65
494.017	18651.92
494.387	18745.48
494.757	18959.26
495.126	19135.75
495.496	19222.98
495.866	19408.97
496.235	19649.86
496.605	19739.35
496.974	19847.15
497.344	20087.37
497.713	20254.82
498.082	20334.82
498.452	20624.08
498.821	20669.95
499.19	20666.34
499.559	21025.42
499.928	21185.42
500.298	21288.47
500.667	21443.26
501.036	21492.08
501.405	21730.71
501.774	21714.9
502.143	22031.27
502.512	22103.59
502.88	22290.25
503.249	22417.02
503.618	22552.61
503.987	22736.79
504.356	22944.47
504.724	22902.89
505.093	23009.55
505.462	23136.33
505.83	23440.27
506.199	23621.74
506.567	23856.53
506.936	23859.25
507.304	24092.91
507.672	24204.77
508.041	24399.34
508.409	24587.81
508.777	24821.48
509.145	25080
509.514	25068.71
509.882	25301.24
510.25	25415.14
510.618	25595.47
510.986	25763.6
511.354	25952.75
511.722	26102.8
512.09	26445.62
512.458	26482.23
512.826	26664.82
513.193	26770.36
513.561	26864.82
513.929	27254.18
514.297	27497.12
514.664	27512.93
515.032	27659.6
515.4	27947.27
515.767	28031.79
516.135	28242.63
516.502	28210.09
516.869	28687.14
517.237	28794.48
517.604	28874.03
517.972	29153.12
518.339	29336.62
518.706	29354.69
519.073	29716.04
519.44	29808.47
519.808	30262.69
520.175	30271.51
520.542	30766.63
520.909	30801.44
521.276	30925.27
521.643	31191.03
522.009	31443
522.376	31719.6
522.743	31815.87
523.11	32263.32
523.477	32474.39
523.843	32746.47
524.21	33036.18
524.577	33398.88
524.943	33547.8
525.31	33631.87
525.676	33924.29
526.043	34015.14
526.409	34352.53
526.776	34766.08
527.142	34855.57
527.508	34947.54
527.874	35351.15
528.241	35581.2
528.607	35618.71
528.973	36035.87
529.339	35996.78
529.705	36282.65
530.071	36574.39
530.437	36746.59
530.803	37010.99
531.169	37250.31
531.535	37309.51
531.901	37350.64
532.267	37694.14
532.632	37925.32
532.998	37905.66
533.364	38146.55
533.73	38353.33
534.095	38663.6
534.461	38670.61
534.826	38940.88
535.192	39130.71
535.557	39364.83
535.923	39405.96
536.288	39438.04
536.653	39784.02
537.019	39676.91
537.384	39977.24
537.749	40147.86
538.114	40260.62
538.479	40215.2
538.845	40656.54
539.21	40561.18
539.575	40696.32
539.94	40969.3
540.305	41220.37
540.67	41050.21
541.034	41220.37
541.399	41534.04
541.764	41543.98
542.129	41660.13
542.494	41880.47
542.858	42147.8
543.223	42050.86
543.587	42275.71
543.952	42240.46
544.316	42408.14
544.681	42532.65
545.045	42654.23
545.41	42992.53
545.774	43081.11
546.138	43046.99
546.503	43318.62
546.867	43348.9
547.231	43716.58
547.595	43790.02
547.959	43865.27
548.324	44098.71
548.688	44069.56
549.052	44312.04
549.416	44289.22
549.779	44395.65
550.143	44532.83
550.507	44900.5
550.871	44844.68
551.235	44985.92
551.599	45304.11
551.962	45374.39
552.326	45525.57
552.689	45716.3
553.053	45609.18
553.417	45956.07
553.78	46293.46
554.143	46271.54
554.507	46349.5
554.87	46543.85
555.234	46830.39
555.597	46753.33
555.96	46891.86
556.323	47130.95
556.686	47179.31
557.05	47545.85
557.413	47396.25
557.776	47700.43
558.139	47939.97
558.502	48068.78
558.865	48265.84
559.228	48465.15
559.59	48525.04
559.953	48533.62
560.316	48966.16
560.679	48999.15
561.041	49247.05
561.404	49404.34
561.767	49597.55
562.129	49549.42
562.492	49973.36
562.854	49965.9
563.217	50013.13
563.579	50164.99
563.941	50360.02
564.304	50473.46
564.666	50780.12
565.028	50793.9
565.39	50902.83
565.753	51137.85
566.115	51282.48
566.477	51426.66
566.839	51367.45
567.201	51681.56
567.563	51708.46
567.925	51932.18
568.287	51919.98
568.648	51998.84
569.01	52187.54
569.372	52377.82
569.734	52373.07
570.095	52617.59
570.457	52601.77
570.819	52698.04
571.18	52857.58
571.542	53013.51
571.903	53018.48
572.265	53086.05
572.626	53286.04
572.987	53324.46
573.349	53324.91
573.71	53492.82
574.071	53538.24
574.432	53629.08
574.794	53873.6
575.155	53858.23
575.516	53841.28
575.877	53964.67
576.238	53995.4
576.599	54109.3
576.96	54113.14
577.32	54194.95
577.681	54250.54
578.042	54342.51
578.403	54287.82
578.763	54392
579.124	54396.97
579.485	54505.45
579.845	54579.12
580.206	54582.96
580.566	54588.16
580.927	54521.26
581.287	54687.81
581.648	54605.1
582.008	54700.24
582.368	54624.31
582.728	54747.02
583.089	54634.71
583.449	54678.32
583.809	54756.51
584.169	54784.53
584.529	54716.06
584.889	54921.93
585.249	54678.77
585.609	54673.8
585.969	54831.09
586.329	54746.57
586.688	54774.82
587.048	54761.48
587.408	54762.84
587.768	54831.31
588.127	54809.84
588.487	54730.98
588.846	54995.83
589.206	54801.48
589.565	54788.6
589.925	54924.42
590.284	54808.94
590.643	54820.47
591.003	54987.69
591.362	54998.31
591.721	54931.65
592.08	54977.52
592.44	54993.79
592.799	55010.29
593.158	54893.68
593.517	54999.22
593.876	54976.85
594.235	54969.16
594.593	54991.08
594.952	55069.05
595.311	54937.07
595.67	55049.61
596.029	55116.05
596.387	55187.69
596.746	55162.15
597.104	55083.74
597.463	55068.37
597.822	55129.61
598.18	55118.08
598.538	55113.56
598.897	55271.98
599.255	55031.99
599.613	55417.96
599.972	55219.78
600.33	55378.64
600.688	55269.27
601.046	55302.49
601.404	55432.43
601.762	55389.04
602.12	55484.85
602.478	55416.16
602.836	55507.9
603.194	55347.46
603.552	55420.45
603.91	55348.81
604.268	55594.91
604.625	55399.43
604.983	55537.51
605.341	55517.4
605.698	55602.37
606.056	55607.79
606.413	55640.78
606.771	55719.88
607.128	55739.09
607.485	55698.41
607.843	55683.49
608.2	55811.17
608.557	55879.42
608.914	55743.83
609.272	55892.08
609.629	55918.29
609.986	55999.42
610.343	55928.23
610.7	56111.28
611.057	55996.03
611.414	56017.5
611.771	56116.25
612.127	56231.28
612.484	56144.5
612.841	56214.55
613.198	56191.5
613.554	56101.34
613.911	56275.57
614.267	56337.71
614.624	56289.81
614.98	56302.23
615.337	56398.05
615.693	56326.19
616.05	56378.62
616.406	56489.35
616.762	56319.41
617.118	56389.24
617.475	56378.84
617.831	56500.2
618.187	56524.38
618.543	56450.7
618.899	56600.08
619.255	56544.04
619.611	56511.72
619.967	56638.04
620.323	56691.15
620.678	56616.8
621.034	56450.25
621.39	56521.89
621.746	56460.2
622.101	56784.03
622.457	56544.26
622.812	56636.46
623.168	56640.3
623.523	56699.06
623.879	56696.12
624.234	56516.69
624.589	56659.51
624.945	56629.46
625.3	56595.11
625.655	56601.21
626.01	56632.85
626.365	56624.26
626.72	56522.57
627.075	56592.4
627.43	56642.34
627.785	56518.5
628.14	56578.84
628.495	56591.49
628.85	56518.73
629.205	56509.69
629.559	56593.75
629.914	56530.02
630.269	56416.13
630.623	56379.75
630.978	56379.75
631.332	56477.14
631.687	56483.25
632.041	56362.35
632.396	56417.94
632.75	56264.27
633.104	56356.47
633.459	56320.09
633.813	56228.11
634.167	56104.73
634.521	56174.55
634.875	56135.01
635.229	56108.57
635.583	55998.74
635.937	56023.6
636.291	55959.19
636.645	55956.03
636.999	55865.41
637.352	55923.71
637.706	55770.5
638.06	55882.13
638.413	55756.71
638.767	55768.91
639.121	55724.85
639.474	55635.81
639.828	55602.59
640.181	55728.01
640.534	55661.35
640.888	55543.61
641.241	55437.17
641.594	55467.68
641.947	55588.81
642.301	55394.46
642.654	55492.09
643.007	55467
643.36	55329.83
643.713	55349.04
644.066	55396.5
644.419	55130.74
644.771	54964.19
645.124	54782.27
645.477	54656.18
645.83	54502.73
646.182	54450.53
646.535	54328.05
646.888	54350.87
647.24	54154.49
647.593	54372.57
647.945	54208.96
648.298	54063.2
648.65	53999.02
649.002	53923.09
649.355	54060.03
649.707	54061.62
650.059	54120.14
650.411	54413.24
650.763	54448.72
651.115	54735.95
651.467	54737.98
651.819	54669.06
652.171	54552.22
652.523	54530.08
652.875	54511.77
653.227	54404.21
653.578	54565.1
653.93	54412.34
654.282	54325.11
654.633	54154.27
654.985	54291.67
655.337	54245.34
655.688	54282.17
656.039	54325.11
656.391	54098.9
656.742	54138.22
657.094	54228.39
657.445	54157.21
657.796	54172.8
658.147	54050.09
658.498	54027.94
658.849	54108.39
659.2	54008.06
659.551	53924.9
659.902	54084.44
660.253	54020.94
660.604	54034.05
660.955	53833.15
661.306	54008.51
661.656	53992.01
662.007	53954.05
662.358	53864.11
662.708	53847.84
663.059	53835.41
663.409	53680.61
663.76	53912.92
664.11	53775.52
664.461	53797.44
664.811	53833.37
665.161	53784.56
665.511	53658.24
665.862	53684.9
666.212	53796.31
666.562	53651
666.912	53632.25
667.262	53630.44
667.612	53663.43
667.962	53635.64
668.312	53625.69
668.662	53615.98
669.011	53614.4
669.361	53573.49
669.711	53530.33
670.06	53497.34
670.41	53451.46
670.76	53440.84
671.109	53522.87
671.459	53369.66
671.808	53305.25
672.157	53390.67
672.507	53196.55
672.856	53238.59
673.205	53266.61
673.554	53260.96
673.904	53198.81
674.253	53344.8
674.602	53274.52
674.951	52796.11
675.3	52569.9
675.649	53064.35
675.998	53031.81
676.346	53000.4
676.695	53160.4
677.044	52884.92
677.393	52976.67
677.741	53060.06
678.09	52837.69
678.438	52784.36
678.787	52966.28
679.135	52789.78
679.484	52632.05
679.832	52734.42
680.181	52535.78
680.529	52691.93
680.877	52501.2
681.225	52479.06
681.573	52650.58
681.922	52425.95
682.27	52334.2
682.618	52389.79
682.966	52302.79
683.314	52358.16
683.661	52273.87
684.009	52074.55
684.357	51896.93
684.705	51962.24
685.053	51955.68
685.4	52059.41
685.748	51787.55
686.095	51719.3
686.443	51672.75
686.79	51566.31
687.138	51595.24
687.485	51596.6
687.832	51394.57
688.18	51478.86
688.527	51274.34
688.874	51184.18
689.221	51186.89
689.568	51159.32
689.915	50959.1
690.262	50907.8
690.609	50904.41
690.956	50701.25
691.303	50650.86
691.65	50572.44
691.997	50564.53
692.344	50255.84
692.69	50303.07
693.037	50281.6
693.383	50025.79
693.73	50120.93
694.077	49869.41
694.423	49892.46
694.769	49735.18
695.116	49704.89
695.462	49488.18
695.808	49398.46
696.155	49593.94
696.501	49252.48
696.847	49198.01
697.193	48856.1
697.539	49188.52
697.885	48874.18
698.231	48662.44
698.577	48734.07
698.923	48519.39
699.269	48335.44
699.614	48203.01
699.96	48136.8
700.306	48229.9
700.651	48024.26
700.997	47891.83
701.342	47932.51
701.688	47841.21
702.033	47650.03
702.379	47689.13
702.724	47587.21
703.069	47633.54
703.415	47074.68
703.76	47194.23
704.105	47089.37
704.45	47001.69
704.795	46771.19
705.14	46660
705.485	46676.27
705.83	46495.49
706.175	46532.55
706.52	46241.26
706.865	46231.99
707.209	46221.82
707.554	46112.22
707.899	46172.33
708.243	45937.31
708.588	45725.11
708.932	45496.87
709.277	45477.89
709.621	45491.9
709.966	45250.32
710.31	45286.25
710.654	45001.74
710.998	45048.29
711.342	45006.71
711.687	44994.28
712.031	44693.05
712.375	44604.69
712.719	44702.31
713.063	44498.02
713.407	44672.94
713.75	44293.74
714.094	44293.96
714.438	44136.9
714.782	44206.73
715.125	44076.57
715.469	43959.73
715.812	43864.14
716.156	43622.34
716.499	43705.5
716.843	43684.71
717.186	43504.6
717.53	43489.92
717.873	43596.81
718.216	43434.78
718.559	43274.1
718.902	43054.22
719.246	43061.9
719.589	42914.79
719.932	42976.48
720.275	42626.89
720.617	42621.69
720.96	42695.13
721.303	42505.76
721.646	42593.22
721.989	42287.01
722.331	42438.64
722.674	42286.56
723.016	42291.08
723.359	42326.78
723.701	42257.18
724.044	41993.91
724.386	41746.91
724.729	41975.83
725.071	41844.54
725.413	41762.5
725.755	41830.3
726.097	41594.82
726.439	41400.03
726.782	41399.35
727.124	41553.47
727.465	41294.49
727.807	41287.49
728.149	41154.61
728.491	41025.35
728.833	41211.78
729.175	40902.19
729.516	40899.93
729.858	40837.33
730.199	40844.11
730.541	40750.33
730.882	40656.09
731.224	40772.47
731.565	40634.4
731.906	40535.64
732.248	40516.89
732.589	40233.96
732.93	40290.9
733.271	40109.89
733.612	40252.49
733.953	40226.95
734.294	40001.65
734.635	39946.51
734.976	40060.4
735.317	39785.61
735.658	39681.2
735.999	39672.16
736.339	39568.66
736.68	39733.63
737.021	39500.87
737.361	39431.27
737.702	39613.86
738.042	39380.87
738.383	39403.92
738.723	39249.58
739.063	39079.64
739.404	39333.19
739.744	39124.83
740.084	38946.08
740.424	39016.36
740.764	38834.67
741.104	39008.9
741.444	38704.96
741.784	38670.16
742.124	38711.51
742.464	38541.8
742.804	38470.16
743.143	38344.51
743.483	38454.79
743.823	38132.09
744.162	38255.48
744.502	38169.15
744.841	38058.42
745.181	38161.92
745.52	38055.48
745.86	38078.53
746.199	37989.27
746.538	37905.43
746.877	37906.79
747.216	37768.26
747.556	37756.28
747.895	37675.15
748.234	37539.56
748.573	37446.01
748.911	37426.12
749.25	37498.43
749.589	37233.58
749.928	37289.17
750.267	37254.6
750.605	37114.72
750.944	37052.12
751.283	36867.49
751.621	36960.14
751.96	36694.84
752.298	36647.84
752.636	36669.98
