Data from white_steel_sheet_FLMS001491_088.txt Node
Date: Tue Feb 07 10:58:37 GMT 2017
User: dcchb
Spectrometer: FLMS00149
Trigger mode: 0
Integration Time (sec): 2.000000E-2
Scans to average: 10
Electric dark correction enabled: true
Nonlinearity correction enabled: false
Boxcar width: 0
XAxis mode: Wavelengths
Number of Pixels in Spectrum: 2048
>>>>>Begin Spectral Data<<<<<
341.393	-10.82
341.776	-10.82
342.16	-10.82
342.543	-78.84
342.927	-58.5
343.31	-64.6
343.693	-55.34
344.077	-75.45
344.46	-54.21
344.843	-56.92
345.226	-33.19
345.61	-23.25
345.993	-16.92
346.376	-1.55
346.759	19.01
347.142	20.82
347.525	19.69
347.908	63.76
348.291	69.18
348.674	84.77
349.057	104.21
349.44	116.18
349.823	141.04
350.206	154.37
350.588	187.14
350.971	219.68
351.354	220.81
351.737	252.9
352.119	268.27
352.502	252.68
352.884	287.7
353.267	282.51
353.65	313.24
354.032	315.05
354.414	324.09
354.797	353.24
355.179	331.32
355.562	313.69
355.944	342.84
356.326	339.23
356.709	350.53
357.091	332.45
357.473	360.24
357.855	362.73
358.238	360.7
358.62	356.86
359.002	349.17
359.384	359.57
359.766	359.11
360.148	359.34
360.53	351.66
360.912	342.62
361.294	353.24
361.676	350.3
362.057	345.1
362.439	353.01
362.821	326.57
363.203	340.36
363.584	330.64
363.966	357.31
364.348	332.9
364.729	321.38
365.111	314.6
365.493	330.64
365.874	319.57
366.256	328.83
366.637	314.6
367.019	317.31
367.4	324.31
367.781	314.6
368.163	336.06
368.544	319.12
368.925	330.87
369.306	344.43
369.688	321.83
370.069	358.21
370.45	339
370.831	333.13
371.212	331.32
371.593	343.52
371.974	352.56
372.355	341.04
372.736	341.71
373.117	328.16
373.498	342.17
373.879	347.36
374.26	330.64
374.641	326.35
375.021	345.33
375.402	329.74
375.783	332.45
376.163	366.35
376.544	343.97
376.925	361.6
377.305	353.24
377.686	353.92
378.066	333.8
378.447	355.27
378.827	365.44
379.208	361.37
379.588	372.45
379.968	369.06
380.349	348.27
380.729	345.33
381.109	364.99
381.489	376.29
381.87	354.37
382.25	385.55
382.63	387.36
383.01	371.32
383.39	383.75
383.77	384.88
384.15	387.81
384.53	398.66
384.91	380.13
385.29	371.54
385.67	383.97
386.049	392.11
386.429	410.86
386.809	399.57
387.189	404.54
387.568	390.75
387.948	392.11
388.328	415.61
388.707	414.25
389.087	420.58
389.466	432.79
389.846	419.23
390.225	425.55
390.605	447.93
390.984	447.47
391.363	444.76
391.743	451.32
392.122	446.12
392.501	474.14
392.881	460.36
393.26	481.37
393.639	458.55
394.018	447.02
394.397	482.28
394.776	465.33
395.155	494.03
395.534	488.15
395.913	496.74
396.292	522.5
396.671	516.17
397.05	513.24
397.429	503.29
397.808	540.35
398.186	535.83
398.565	540.35
398.944	548.26
399.323	560.92
399.701	549.62
400.08	573.57
400.458	565.21
400.837	576.51
401.215	571.09
401.594	594.14
401.972	603.4
402.351	611.99
402.729	619.45
403.107	630.29
403.486	628.94
403.864	634.36
404.242	644.98
404.62	655.15
404.999	653.34
405.377	697.86
405.755	696.51
406.133	701.03
406.511	704.87
406.889	715.72
407.267	723.63
407.645	737.64
408.023	767.92
408.401	788.48
408.779	780.12
409.156	795.04
409.534	797.3
409.912	807.46
410.29	846.56
410.667	856.5
411.045	863.51
411.422	862.83
411.8	878.65
412.178	883.39
412.555	920.68
412.933	913.22
413.31	920
413.687	962.49
414.065	947.35
414.442	954.13
414.819	976.27
415.197	1016.95
415.574	998.65
415.951	1046.78
416.328	1022.37
416.705	1035.03
417.082	1056.5
417.46	1037.97
417.837	1083.39
418.214	1077.51
418.591	1089.94
418.967	1097.17
419.344	1100.34
419.721	1110.28
420.098	1121.13
420.475	1142.37
420.852	1169.49
421.228	1160.22
421.605	1168.13
421.982	1216.27
422.358	1181.92
422.735	1228.92
423.111	1209.49
423.488	1223.72
423.864	1250.16
424.241	1266.21
424.617	1280.22
424.994	1279.99
425.37	1317.96
425.746	1322.48
426.123	1367
426.499	1355.47
426.875	1357.05
427.251	1375.36
427.627	1391.63
428.003	1416.71
428.379	1434.79
428.756	1436.15
429.132	1462.36
429.507	1491.06
429.883	1507.11
430.259	1533.1
430.635	1550.95
431.011	1546.65
431.387	1635.47
431.763	1621.68
432.138	1635.92
432.514	1629.36
432.89	1659.42
433.265	1735.35
433.641	1739.64
434.016	1731.51
434.392	1757.72
434.767	1806.31
435.143	1782.58
435.518	1833.65
435.894	1833.88
436.269	1892.18
436.644	1909.58
437.02	1902.35
437.395	1957.26
437.77	1959.3
438.145	2004.27
438.52	1993.2
438.895	2041.1
439.271	1987.77
439.646	2059.64
440.021	2084.04
440.395	2105.74
440.77	2081.78
441.145	2107.54
441.52	2153.42
441.895	2166.52
442.27	2204.72
442.645	2164.04
443.019	2228.67
443.394	2206.3
443.769	2266.41
444.143	2233.42
444.518	2297.82
444.892	2303.02
445.267	2291.04
445.641	2330.14
446.016	2331.94
446.39	2385.95
446.764	2372.4
447.139	2399.29
447.513	2432.51
447.887	2397.48
448.262	2428.21
448.636	2429.12
449.01	2483.35
449.384	2547.53
449.758	2549.57
450.132	2574.88
450.506	2591.37
450.88	2631.37
451.254	2619.62
451.628	2637.7
452.002	2673.86
452.376	2696.91
452.75	2748.43
453.123	2743.68
453.497	2799.05
453.871	2819.84
454.244	2881.53
454.618	2886.51
454.992	2949.1
455.365	2933.06
455.739	2989.1
456.112	3049.44
456.486	3021.19
456.859	3093.28
457.232	3133.73
457.606	3105.71
457.979	3187.29
458.352	3237.01
458.725	3266.61
459.099	3347.51
459.472	3362.88
459.845	3372.59
460.218	3416.66
460.591	3447.85
460.964	3465.93
461.337	3555.19
461.71	3605.58
462.083	3672.47
462.456	3722.19
462.829	3684.45
463.201	3760.16
463.574	3775.52
463.947	3805.35
464.32	3914.28
464.692	3922.41
465.065	3997.21
465.438	3991.79
465.81	4084.67
466.183	4146.59
466.555	4239.46
466.928	4231.1
467.3	4240.37
467.672	4300.93
468.045	4390.87
468.417	4441.27
468.789	4461.61
469.161	4502.06
469.534	4623.64
469.906	4691.2
470.278	4699.79
470.65	4747.93
471.022	4885.78
471.394	4914.93
471.766	4992.21
472.138	5071.53
472.51	5180.23
472.882	5236.27
473.253	5269.04
473.625	5403.28
473.997	5464.07
474.369	5520.79
474.74	5548.13
475.112	5653.89
475.484	5768.01
475.855	5876.71
476.227	5959.19
476.598	6072.64
476.97	6153.54
477.341	6290.26
477.713	6368.22
478.084	6378.84
478.455	6647.09
478.827	6602.11
479.198	6823.8
479.569	6814.99
479.94	7032.16
480.311	7108.32
480.682	7248.43
481.053	7493.39
481.424	7537.68
481.795	7606.16
482.166	7725.7
482.537	7817
482.908	7999.37
483.279	8129.31
483.65	8233.71
484.021	8385.12
484.391	8453.59
484.762	8539.69
485.133	8676.86
485.503	8813.81
485.874	8944.65
486.244	8994.14
486.615	9233.23
486.985	9353.91
487.356	9472.32
487.726	9604.3
488.097	9778.75
488.467	9803.61
488.837	9965.64
489.207	10078.86
489.578	10259.42
489.948	10414.67
490.318	10581.67
490.688	10639.97
491.058	10742.57
491.428	10863.7
491.798	10983.02
492.168	11215.1
492.538	11230.47
492.908	11389.79
493.278	11473.17
493.648	11585.94
494.017	11806.95
494.387	11876.1
494.757	12018.02
495.126	12109.99
495.496	12164.45
495.866	12181.63
496.235	12404.45
496.605	12505.69
496.974	12512.24
497.344	12724.89
497.713	12758.11
498.082	12854.38
498.452	13013.47
498.821	13119.01
499.19	13188.83
499.559	13334.14
499.928	13442.61
500.298	13441.48
500.667	13647.13
501.036	13632.44
501.405	13772.1
501.774	13850.96
502.143	13994.91
502.512	14071.07
502.88	14157.17
503.249	14216.6
503.618	14345.64
503.987	14347.9
504.356	14494.11
504.724	14576.59
505.093	14698.4
505.462	14756.02
505.83	14883.25
506.199	15014.1
506.567	15258.38
506.936	15232.17
507.304	15358.04
507.672	15455.89
508.041	15524.82
508.409	15595.78
508.777	15795.32
509.145	15864.24
509.514	15953.96
509.882	16134.97
510.25	16216.33
510.618	16336.77
510.986	16399.6
511.354	16477.79
511.722	16678.46
512.09	16903.31
512.458	16790.77
512.826	17083.19
513.193	17148.5
513.561	17228.5
513.929	17388.05
514.297	17514.6
514.664	17704.87
515.032	17725.44
515.4	18039.1
515.767	17958.65
516.135	18091.3
516.502	18019.22
516.869	18456.72
517.237	18475.25
517.604	18552.31
517.972	18664.85
518.339	18783.04
518.706	18967.44
519.073	19133.54
519.44	19218.05
519.808	19366.52
520.175	19403.36
520.542	19621.66
520.909	19791.15
521.276	19864.36
521.643	20118.82
522.009	20287.86
522.376	20383.45
522.743	20541.64
523.11	20682.42
523.477	20909.76
523.843	21039.48
524.21	21346.36
524.577	21455.51
524.943	21489.86
525.31	21641.95
525.676	21919.45
526.043	22012.1
526.409	22165.55
526.776	22451.87
527.142	22466.1
527.508	22691.86
527.874	22843.95
528.241	23041.46
528.607	23060.44
528.973	23206.2
529.339	23279.64
529.705	23543.59
530.071	23744.71
530.437	23842.11
530.803	23953.3
531.169	24068.77
531.535	24164.82
531.901	24244.36
532.267	24377.92
532.632	24571.59
532.998	24642.54
533.364	24753.05
533.73	24799.38
534.095	25010.9
534.461	25157.78
534.826	25253.83
535.192	25432.13
535.557	25450.21
535.923	25542.41
536.288	25777.66
536.653	25773.81
537.019	25847.94
537.384	25996.86
537.749	26082.28
538.114	26263.74
538.479	26202.73
538.845	26399.79
539.21	26410.41
539.575	26515.26
539.94	26658.08
540.305	26787.8
540.67	26731.3
541.034	26788.25
541.399	27058.98
541.764	27181.91
542.129	27191.4
542.494	27352.08
542.858	27446.99
543.223	27477.95
543.587	27653.31
543.952	27705.51
544.316	27723.14
544.681	27720.66
545.045	28079.97
545.41	28244.48
545.774	28274.99
546.138	28257.14
546.503	28330.13
546.867	28385.27
547.231	28661.87
547.595	28674.98
547.959	28777.12
548.324	28861.87
548.688	29012.82
549.052	29014.18
549.416	29147.51
549.779	29222.54
550.143	29243.78
550.507	29403.55
550.871	29524.68
551.235	29608.97
551.599	29740.72
551.962	29820.94
552.326	30054.38
552.689	30077.66
553.053	29973.48
553.417	30105.9
553.78	30498.66
554.143	30421.6
554.507	30531.65
554.87	30618.66
555.234	31018.87
555.597	30754.7
555.96	31023.17
556.323	31142.26
556.686	31091.64
557.05	31395.36
557.413	31417.73
557.776	31568.69
558.139	31848
558.502	31728.46
558.865	31940.43
559.228	32230.82
559.59	32307.65
559.953	32264.04
560.316	32636.91
560.679	32625.16
561.041	33007.97
561.404	33127.97
561.767	33300.4
562.129	33030.12
562.492	33548.3
562.854	33472.59
563.217	33621.74
563.579	33773.15
563.941	33918.46
564.304	33921.62
564.666	34198
565.028	34286.58
565.39	34404.1
565.753	34645.44
566.115	34621.04
566.477	34858.32
566.839	34987.13
567.201	35195.71
567.563	35302.15
567.925	35344.41
568.287	35519.55
568.648	35579.66
569.01	35701.46
569.372	35896.49
569.734	35729.48
570.095	36057.61
570.457	36317.94
570.819	36313.42
571.18	36432.29
571.542	36553.64
571.903	36681.55
572.265	36825.27
572.626	36779.85
572.987	36867.31
573.349	36944.14
573.71	37095.32
574.071	37210.12
574.432	37418.48
574.794	37534.18
575.155	37555.65
575.516	37476.33
575.877	37561.98
576.238	37665.48
576.599	37779.6
576.96	37766.04
577.32	37753.39
577.681	38021.18
578.042	38062.98
578.403	38065.47
578.763	37977.11
579.124	38163.77
579.485	38314.5
579.845	38374.16
580.206	38272.02
580.566	38320.83
580.927	38294.84
581.287	38404.67
581.648	38382.07
582.008	38527.83
582.368	38356.53
582.728	38463.42
583.089	38426.14
583.449	38453.03
583.809	38485.8
584.169	38575.06
584.529	38529.41
584.889	38800.82
585.249	38403.54
585.609	38437.44
585.969	38641.95
586.329	38685.56
586.688	38636.3
587.048	38663.19
587.408	38584.55
587.768	38599.69
588.127	38611.89
588.487	38519.02
588.846	38812.57
589.206	38501.61
589.565	38548.62
589.925	38761.49
590.284	38620.93
590.643	38498.23
591.003	38752.23
591.362	38811.66
591.721	38714.94
592.08	38766.92
592.44	38766.24
592.799	38815.96
593.158	38723.08
593.517	38834.71
593.876	38767.82
594.235	38707.49
594.593	38742.74
594.952	38815.5
595.311	38668.84
595.67	38746.81
596.029	38933.69
596.387	39008.04
596.746	39032
597.104	38910.42
597.463	38861.38
597.822	38946.12
598.18	38773.47
598.538	38731.21
598.897	38947.25
599.255	38853.92
599.613	39193.12
599.972	39004.2
600.33	39020.02
600.688	38888.95
601.046	39084.42
601.404	39171.88
601.762	39125.33
602.12	39190.41
602.478	39203.07
602.836	39175.04
603.194	39004.65
603.552	39050.98
603.91	39113.58
604.268	39238.32
604.625	39077.19
604.983	39302.95
605.341	39035.39
605.698	39328.03
606.056	39309.5
606.413	39330.29
606.771	39328.71
607.128	39497.52
607.485	39337.07
607.843	39188.83
608.2	39432.21
608.557	39657.52
608.914	39465.66
609.272	39628.14
609.629	39656.16
609.986	39750.85
610.343	39714.92
610.7	40016.38
611.057	39832.43
611.414	39871.52
611.771	39876.27
612.127	40047.11
612.484	39997.39
612.841	39981.12
613.198	40006.43
613.554	39962.14
613.911	40262.92
614.267	40169.82
614.624	40171.63
614.98	40213.89
615.337	40413.65
615.693	40273.32
616.05	40364.16
616.406	40596.7
616.762	40247.11
617.118	40438.29
617.475	40500.88
617.831	40559.64
618.187	40692.07
618.543	40566.42
618.899	40751.05
619.255	40741.56
619.611	40720.09
619.967	40863.81
620.323	40945.84
620.678	40812.29
621.034	40646.42
621.39	40718.28
621.746	40767.77
622.101	40978.84
622.457	40719.86
622.812	40893.42
623.168	41123.01
623.523	40991.27
623.879	41114.43
624.234	40656.36
624.589	40955.11
624.945	41013.87
625.3	40918.05
625.655	40931.38
626.01	40865.39
626.365	41006.63
626.72	40996.92
627.075	40936.35
627.43	40884.15
627.785	40939.06
628.14	40897.26
628.495	40877.37
628.85	40836.69
629.205	40601.45
629.559	40958.5
629.914	40791.72
630.269	40847.32
630.623	40669.02
630.978	40642.8
631.332	40656.59
631.687	40796.47
632.041	40555.35
632.396	40593.99
632.75	40381.34
633.104	40589.47
633.459	40339.76
633.813	40313.54
634.167	40272.64
634.521	40364.84
634.875	40356.71
635.229	40165.07
635.583	40147.45
635.937	40038.3
636.291	40065.64
636.645	39901.35
636.999	39907.23
637.352	40074.91
637.706	39803.73
638.06	39917.4
638.413	39627.46
638.767	39617.97
639.121	39700.45
639.474	39502.49
639.828	39502.27
640.181	39464.75
640.534	39489.61
640.888	39395.6
641.241	39276.28
641.594	39377.75
641.947	39367.35
642.301	39373.46
642.654	39467.47
643.007	39288.26
643.36	39177.08
643.713	39112.22
644.066	39359.22
644.419	38969.4
644.771	38834.04
645.124	38305.91
645.477	38233.83
645.83	38077.22
646.182	37894.85
646.535	37766.49
646.888	38029.99
647.24	37777.11
647.593	38082.42
647.945	37834.97
648.298	37709.77
648.65	37524.24
649.002	37590.23
649.355	37646.95
649.707	37437.24
650.059	37648.08
650.411	38041.51
650.763	38204
651.115	38383.65
651.467	38318.79
651.819	38335.07
652.171	38264.78
652.523	38252.58
652.875	38300.94
653.227	37980.05
653.578	38128.74
653.93	38028.41
654.282	37934.17
654.633	37929.88
654.985	38039.71
655.337	37891.69
655.688	37968.3
656.039	37893.04
656.391	37665.7
656.742	37778.02
657.094	37692.82
657.445	37929.88
657.796	37747.96
658.147	37622.77
658.498	37533.5
658.849	37808.3
659.2	37613.05
659.551	37545.03
659.902	37630.9
660.253	37391.14
660.604	37550.23
660.955	37326.73
661.306	37462.77
661.656	37264.36
662.007	37321.08
662.358	37102.1
662.708	37112.5
663.059	37090.8
663.409	36842.22
663.76	37077.92
664.11	37046.06
664.461	37023.91
664.811	36928.55
665.161	36832.51
665.511	36686.97
665.862	36643.81
666.212	36775.78
666.562	36752.06
666.912	36563.13
667.262	36414.89
667.612	36337.15
667.962	36314.33
668.312	36333.08
668.662	36293.99
669.011	36101.68
669.361	36099.42
669.711	35898.29
670.06	35785.08
670.41	35852.42
670.76	35792.08
671.109	35680.67
671.459	35544.86
671.808	35484.52
672.157	35552.31
672.507	35271.87
672.856	35275.48
673.205	35284.52
673.554	35399.1
673.904	35227.58
674.253	35303.73
674.602	35072.55
674.951	34518.89
675.3	34384.89
675.649	34953.23
675.998	34821.94
676.346	34877.76
676.695	34940.58
677.044	34634.82
677.393	34726.8
677.741	34854.25
678.09	34637.31
678.438	34590.53
678.787	34674.6
679.135	34715.95
679.484	34436.64
679.832	34661.94
680.181	34401.16
680.529	34628.27
680.877	34391.89
681.225	34373.81
681.573	34685.9
681.922	34505.34
682.27	34430.76
682.618	34490.65
682.966	34369.97
683.314	34452.23
683.661	34366.58
684.009	34334.04
684.357	34344.66
684.705	34274.61
685.053	34263.76
685.4	34331.55
685.748	34204.33
686.095	34266.25
686.443	34226.02
686.79	34167.94
687.138	34240.94
687.485	34304.44
687.832	34298.34
688.18	34324.78
688.527	34166.36
688.874	34132.46
689.221	34153.25
689.568	34025.57
689.915	34059.47
690.262	33984.9
690.609	34028.06
690.956	33773.6
691.303	34009.08
691.65	33739.25
691.997	33766.15
692.344	33614.51
692.69	33666.49
693.037	33792.81
693.383	33511.92
693.73	33539.49
694.077	33618.58
694.423	33417.91
694.769	33424.01
695.116	33309.89
695.462	33329.32
695.808	33273.73
696.155	33313.5
696.501	33080.97
696.847	33053.17
697.193	32959.16
697.539	33131.81
697.885	32889.11
698.231	32731.82
698.577	32636.46
698.923	32637.81
699.269	32431.94
699.614	32340.87
699.96	32405.28
700.306	32359.63
700.651	32301.33
700.997	32134.1
701.342	32218.16
701.688	32017.72
702.033	31961
702.379	31977.94
702.724	31923.93
703.069	31975.91
703.415	31586.54
703.76	31639.65
704.105	31574.34
704.45	31451.63
704.795	31289.38
705.14	31189.72
705.485	31107.23
705.83	31132.54
706.175	31244.63
706.52	31116.27
706.865	31016.61
707.209	31019.55
707.554	30887.8
707.899	30862.72
708.243	30774.81
708.588	30780.01
708.932	30553.12
709.277	30534.37
709.621	30536.4
709.966	30314.71
710.31	30399.68
710.654	30145.45
710.998	30173.02
711.342	30216.41
711.687	30108.62
712.031	30000.14
712.375	29846.25
712.719	29912.24
713.063	29801.05
713.407	29905
713.75	29813.03
714.094	29721.96
714.438	29626.82
714.782	29624.79
715.125	29455.98
715.469	29634.05
715.812	29351.57
716.156	29178.47
716.499	29286.72
716.843	29222.99
717.186	29026.38
717.53	29121.97
717.873	29160.62
718.216	29100.05
718.559	28860.29
718.902	28718.82
719.246	28835.88
719.589	28703.45
719.932	28539.62
720.275	28688.99
720.617	28592.27
720.96	28574.42
721.303	28512.27
721.646	28463.69
721.989	28206.74
722.331	28421.88
722.674	28345.05
723.016	28285.61
723.359	28252.39
723.701	28272.96
724.044	28098.27
724.386	27929.69
724.729	27993.87
725.071	27924.72
725.413	27868.45
725.755	27875.68
726.097	27840.88
726.439	27737.15
726.782	27833.87
727.124	27791.16
727.465	27686.53
727.807	27591.39
728.149	27566.08
728.491	27595.01
728.833	27624.84
729.175	27329.48
729.516	27416.26
729.858	27378.97
730.199	27346.65
730.541	27307.78
730.882	27162.48
731.224	27252.19
731.565	27050.16
731.906	27121.35
732.248	27048.81
732.589	26814.01
732.93	26797.97
733.271	26901.47
733.612	26827.35
733.953	26980.56
734.294	26741.02
734.635	26704.18
734.976	26757.06
735.317	26676.84
735.658	26670.29
735.999	26622.15
736.339	26545.54
736.68	26594.58
737.021	26500.57
737.361	26315.49
737.702	26545.54
738.042	26451.08
738.383	26367.92
738.723	26312.78
739.063	26235.04
739.404	26262.16
739.744	26195.27
740.084	26150.3
740.424	26182.39
740.764	26053.81
741.104	26118.21
741.444	25865.79
741.784	25877.09
742.124	25800.93
742.464	25789.18
742.804	25817.88
743.143	25793.47
743.483	25752.12
743.823	25637.32
744.162	25709.18
744.502	25638.45
744.841	25561.16
745.181	25617.43
745.52	25389.64
745.86	25495.18
746.199	25482.52
746.538	25271.91
746.877	25411.11
747.216	25268.29
747.556	25381.06
747.895	25239.59
748.234	25167.05
748.573	25151.23
748.911	25039.82
749.25	25120.95
749.589	24976.77
749.928	24929.54
750.267	24924.34
750.605	24824.23
750.944	24841.63
751.283	24676.44
751.621	24760.51
751.96	24593.73
752.298	24508.31
752.636	24629.21
752.975	24518.25
753.313	24419.95
