Data from whiteboard_FLMS001491_00079.txt Node
Date: Wed Feb 08 11:28:04 GMT 2017
User: dcchb
Spectrometer: FLMS00149
Trigger mode: 0
Integration Time (sec): 2.000000E-2
Scans to average: 10
Electric dark correction enabled: true
Nonlinearity correction enabled: false
Boxcar width: 0
XAxis mode: Wavelengths
Number of Pixels in Spectrum: 2048
>>>>>Begin Spectral Data<<<<<
341.393	0.1
341.776	0.1
342.16	0.1
342.543	-57.98
342.927	-55.49
343.31	-79.22
343.693	-83.97
344.077	-55.27
344.46	-59.33
344.843	-54.59
345.226	-60.69
345.61	-31.76
345.993	-28.37
346.376	13.21
346.759	15.47
347.142	48.46
347.525	39.19
347.908	41.68
348.291	74.45
348.674	100.21
349.057	120.55
349.44	130.26
349.823	146.54
350.206	174.33
350.588	237.38
350.971	246.65
351.354	238.51
351.737	262.24
352.119	295.46
352.502	268.79
352.884	300.66
353.267	321.45
353.65	329.13
354.032	336.36
354.414	360.32
354.797	356.93
355.179	342.46
355.562	313.76
355.944	354.67
356.326	368
356.709	363.71
357.091	342.24
357.473	352.41
357.855	384.04
358.238	388.11
358.62	371.16
359.002	386.08
359.384	376.81
359.766	358.06
360.148	368.45
360.53	355.8
360.912	373.87
361.294	373.87
361.676	375.46
362.057	356.02
362.439	363.93
362.821	360.77
363.203	362.8
363.584	362.8
363.966	366.19
364.348	366.64
364.729	360.54
365.111	383.14
365.493	350.6
365.874	364.16
366.256	368.45
366.637	346.53
367.019	376.81
367.4	353.31
367.781	369.81
368.163	355.8
368.544	356.7
368.925	368.22
369.306	364.84
369.688	338.62
370.069	326.64
370.45	374.1
370.831	363.93
371.212	367.32
371.593	365.29
371.974	366.87
372.355	368.45
372.736	370.94
373.117	383.82
373.498	381.78
373.879	371.39
374.26	356.7
374.641	365.51
375.021	363.03
375.402	378.39
375.783	377.72
376.163	388.11
376.544	409.35
376.925	397.6
377.305	380.43
377.686	400.09
378.066	378.85
378.447	402.35
378.827	386.76
379.208	400.99
379.588	426.75
379.968	390.37
380.349	412.97
380.729	413.42
381.109	418.39
381.489	422.46
381.87	398.05
382.25	429.92
382.63	429.01
383.01	426.3
383.39	432.86
383.77	426.75
384.15	425.85
384.53	406.19
384.91	418.84
385.29	432.63
385.67	438.51
386.049	455.91
386.429	455
386.809	439.18
387.189	427.88
387.568	459.75
387.948	458.39
388.328	478.28
388.707	483.93
389.087	464.95
389.466	495.91
389.846	487.77
390.225	508.11
390.605	501.55
390.984	499.75
391.363	497.49
391.743	502.91
392.122	542.01
392.501	522.57
392.881	553.3
393.26	539.97
393.639	531.16
394.018	546.3
394.397	538.39
394.776	573.42
395.155	574.77
395.534	578.61
395.913	606.41
396.292	594.66
396.671	610.48
397.05	640.31
397.429	625.39
397.808	619.29
398.186	642.12
398.565	650.25
398.944	662.91
399.323	662.91
399.701	669.23
400.08	678.95
400.458	698.61
400.837	732.06
401.215	713.98
401.594	736.12
401.972	740.87
402.351	744.26
402.729	734.32
403.107	774.54
403.486	776.58
403.864	807.31
404.242	857.03
404.62	841.21
404.999	846.4
405.377	869.68
405.755	873.3
406.133	886.63
406.511	897.25
406.889	947.87
407.267	928.66
407.645	983.12
408.023	984.48
408.401	1029
408.779	1005.27
409.156	1061.31
409.534	1066.51
409.912	1080.75
410.29	1104.93
410.667	1121.43
411.045	1152.16
411.422	1174.08
411.8	1202.55
412.178	1211.14
412.555	1242.78
412.933	1285.49
413.31	1273.51
413.687	1306.73
414.065	1341.53
414.442	1336.56
414.819	1378.59
415.197	1409.33
415.574	1437.8
415.951	1425.15
416.328	1470.79
416.705	1492.94
417.082	1481.19
417.46	1481.64
417.837	1541.3
418.214	1532.26
418.591	1589.44
418.967	1586.27
419.344	1605.48
419.721	1630.34
420.098	1647.74
420.475	1674.41
420.852	1671.02
421.228	1739.94
421.605	1738.36
421.982	1759.37
422.358	1788.53
422.735	1806.38
423.111	1806.61
423.488	1852.71
423.864	1845.02
424.241	1908.3
424.617	1888.41
424.994	1908.3
425.37	1939.48
425.746	1960.27
426.123	2007.73
426.499	1994.62
426.875	2030.55
427.251	2066.71
427.627	2113.94
428.003	2132.25
428.379	2127.05
428.756	2212.7
429.132	2193.49
429.507	2235.52
429.883	2291.34
430.259	2335.18
430.635	2309.42
431.011	2349.19
431.387	2411.11
431.763	2463.76
432.138	2483.88
432.514	2486.81
432.89	2524.78
433.265	2598
433.641	2636.41
434.016	2664.44
434.392	2725
434.767	2758.44
435.143	2761.38
435.518	2770.87
435.894	2809.52
436.269	2815.39
436.644	2879.8
437.02	2904.2
437.395	2927.71
437.77	2952.79
438.145	3034.14
438.52	3009.96
438.895	3086.8
439.271	3082.05
439.646	3171.54
440.021	3155.5
440.395	3187.81
440.77	3168.6
441.145	3209.05
441.52	3299.22
441.895	3278.2
442.27	3346.45
442.645	3352.78
443.019	3403.4
443.394	3357.98
443.769	3434.36
444.143	3406.11
444.518	3501.7
444.892	3441.36
445.267	3504.87
445.641	3546.9
446.016	3566.78
446.39	3583.96
446.764	3612.66
447.139	3597.52
447.513	3658.76
447.887	3646.78
448.262	3670.51
448.636	3699.89
449.01	3804.52
449.384	3785.99
449.758	3850.62
450.132	3903.5
450.506	3914.12
450.88	3941.46
451.254	3937.17
451.628	3988.47
452.002	4066.21
452.376	4054.23
452.75	4149.59
453.123	4167.9
453.497	4246.54
453.871	4301.91
454.244	4342.36
454.618	4385.52
454.992	4465.74
455.365	4466.87
455.739	4597.72
456.112	4662.35
456.486	4673.65
456.859	4733.99
457.232	4822.57
457.606	4807.88
457.979	4875.68
458.352	4986.18
458.725	5019.85
459.099	5088.33
459.472	5143.69
459.845	5238.15
460.218	5267.76
460.591	5300.75
460.964	5303.69
461.337	5468.88
461.71	5586.62
462.083	5626.17
462.456	5636.11
462.829	5690.12
463.201	5765.6
463.574	5832.94
463.947	5851.92
464.32	6032.93
464.692	6074.74
465.065	6080.62
465.438	6190.44
465.81	6284.68
466.183	6353.15
466.555	6503.43
466.928	6531.9
467.3	6567.84
467.672	6675.86
468.045	6836.53
468.417	6817.55
468.789	6943.87
469.161	6978.9
469.534	7105
469.906	7309.06
470.278	7297.31
470.65	7390.19
471.022	7611.65
471.394	7739.33
471.766	7827.46
472.138	7809.16
472.51	7954.01
472.882	8130.05
473.253	8249.83
473.625	8356.72
473.997	8527.56
474.369	8612.75
474.74	8694.79
475.112	8829.7
475.484	8964.83
475.855	9146.3
476.227	9282.11
476.598	9504.26
476.97	9530.7
477.341	9780.18
477.713	9918.93
478.084	10037.8
478.455	10233.73
478.827	10387.62
479.198	10696.09
479.569	10637.56
479.94	10900.38
480.311	11070.54
480.682	11341.27
481.053	11603.64
481.424	11732.67
481.795	11885.44
482.166	12132.89
482.537	12175.6
482.908	12541.69
483.279	12538.75
483.65	12868.46
484.021	13075.91
484.391	13314.1
484.762	13377.6
485.133	13577.82
485.503	13696.91
485.874	13972.39
486.244	14137.13
486.615	14354.75
486.985	14563.33
487.356	14832.03
487.726	14898.46
488.097	15274.95
488.467	15248.74
488.837	15596.52
489.207	15864.54
489.578	15990.64
489.948	16133.46
490.318	16365.77
490.688	16391.53
491.058	16799.66
491.428	16916.72
491.798	17017.96
492.168	17399.87
492.538	17465.18
492.908	17701.55
493.278	17959.63
493.648	18007.76
494.017	18319.17
494.387	18407.07
494.757	18512.38
495.126	18628.54
495.496	18799.38
495.866	18982.2
496.235	19133.38
496.605	19265.58
496.974	19473.26
497.344	19630.09
497.713	19711.9
498.082	19843.19
498.452	20006.35
498.821	20225.56
499.19	20208.38
499.559	20526.56
499.928	20589.39
500.298	20715.49
500.667	20870.74
501.036	20919.1
501.405	21198.86
501.774	21090.39
502.143	21404.96
502.512	21602.69
502.88	21663.48
503.249	21799.07
503.618	21956.13
503.987	22047.2
504.356	22167.65
504.724	22340.08
505.093	22491.03
505.462	22559.51
505.83	22707.52
506.199	22920.4
506.567	23211.01
506.936	23232.26
507.304	23457.56
507.672	23688.06
508.041	23598.57
508.409	23826.37
508.777	24096.87
509.145	24181.38
509.514	24188.62
509.882	24405.78
510.25	24580.7
510.618	24710.64
510.986	24856.39
511.354	25075.6
511.722	25307
512.09	25446.21
512.458	25507.9
512.826	25873.09
513.193	25904.05
513.561	25921.68
513.929	26233.53
514.297	26476.24
514.664	26529.8
515.032	26737.93
515.4	26952.38
515.767	27044.13
516.135	27238.93
516.502	27151.93
516.869	27692.7
517.237	27672.82
517.604	27630.33
517.972	28029.87
518.339	28272.12
518.706	28321.61
519.073	28528.61
519.44	28639.35
519.808	29058.54
520.175	29018.09
520.542	29404.75
520.909	29511.87
521.276	29620.56
521.643	30025.3
522.009	30292.41
522.376	30424.61
522.743	30572.63
523.11	30858.95
523.477	31101.88
523.843	31299.16
524.21	31594.52
524.577	31912.71
524.943	31889.88
525.31	32138.46
525.676	32449.64
526.043	32660.48
526.409	32835.85
526.776	33196.74
527.142	33246.91
527.508	33378.88
527.874	33760.79
528.241	33797.63
528.607	34061.8
528.973	34286.2
529.339	34401.91
529.705	34678.06
530.071	34973.64
530.437	35027.88
530.803	35374.54
531.169	35500.41
531.535	35465.61
531.901	35765.26
532.267	35927.06
532.632	36103.1
532.998	36403.66
533.364	36459.48
533.73	36546.48
534.095	36785.12
534.461	37103.76
534.826	37241.61
535.192	37277.99
535.557	37605.66
535.923	37530.86
536.288	37765.21
536.653	37962.49
537.019	37823.51
537.384	38093.11
537.749	38251.97
538.114	38244.07
538.479	38410.84
538.845	38628.69
539.21	38543.49
539.575	38809.25
539.94	38781.68
540.305	39220.76
540.67	39159.07
541.034	39417.14
541.399	39607.65
541.764	39661.88
542.129	39687.19
542.494	39812.16
542.858	39932.61
543.223	39972.16
543.587	40265.93
543.952	40173.51
544.316	40382.31
544.681	40488.75
545.045	40741.85
545.41	40966.93
545.774	41015.29
546.138	41157.21
546.503	41215.29
546.867	41152.69
547.231	41692.34
547.595	41781.37
547.959	41676.07
548.324	41862.27
548.688	41979.56
549.052	42173.91
549.416	42212.77
549.779	42292.55
550.143	42457.97
550.507	42828.58
550.871	42931.4
551.235	42880.1
551.599	43312.41
551.962	43273.09
552.326	43426.53
552.689	43691.15
553.053	43483.48
553.417	43602.34
553.78	44212.72
554.143	44034.65
554.507	44285.71
554.87	44517.8
555.234	44789.88
555.597	44536.1
555.96	44835.53
556.323	44948.52
556.686	45126.82
557.05	45289.53
557.413	45374.95
557.776	45554.38
558.139	45771.78
558.502	45868.95
558.865	45973.35
559.228	46326.11
559.59	46376.05
559.953	46484.75
560.316	46916.83
560.679	47075.47
561.041	47039.54
561.404	47297.84
561.767	47638.17
562.129	47508.68
562.492	47889.91
562.854	47910.7
563.217	47885.39
563.579	48049.46
563.941	48409.22
564.304	48586.84
564.666	48663.68
565.028	48794.52
565.39	48869.1
565.753	48994.52
566.115	49150.9
566.477	49295.07
566.839	49366.94
567.201	49577.33
567.563	49772.8
567.925	49993.13
568.287	50076.07
568.648	50044.21
569.01	50339.79
569.372	50439.45
569.734	50402.39
570.095	50593.57
570.457	50699.33
570.819	50934.8
571.18	50906.1
571.542	51050.06
571.903	51080.34
572.265	51266.55
572.626	51330.73
572.987	51429.93
573.349	51532.98
573.71	51674.22
574.071	51717.84
574.432	51745.4
574.794	52031.73
575.155	52000.77
575.516	51901.56
575.877	52027.43
576.238	52120.08
576.599	52255.67
576.96	52247.31
577.32	52323.69
577.681	52441.88
578.042	52516.46
578.403	52449.34
578.763	52565.5
579.124	52579.73
579.485	52728.66
579.845	52797.35
580.206	52754.19
580.566	52732.27
580.927	52860.4
581.287	53013.62
581.648	52773.85
582.008	53007.52
582.368	52885.04
582.728	53097.01
583.089	53027.86
583.449	52989.67
583.809	53004.13
584.169	53053.62
584.529	52942.66
584.889	53328.64
585.249	53009.55
585.609	53065.82
585.969	53300.17
586.329	53158.48
586.688	53114.41
587.048	53214.97
587.408	53162.09
587.768	53151.7
588.127	53150.34
588.487	53143.11
588.846	53367.96
589.206	53045.94
589.565	53094.75
589.925	53296.55
590.284	53246.38
590.643	53276.89
591.003	53311.24
591.362	53380.62
591.721	53331.8
592.08	53345.59
592.44	53433.72
592.799	53407.96
593.158	53334.52
593.517	53413.16
593.876	53360.05
594.235	53452.03
594.593	53433.5
594.952	53499.94
595.311	53332.93
595.67	53390.56
596.029	53545.81
596.387	53496.55
596.746	53503.1
597.104	53422.87
597.463	53334.29
597.822	53541.29
598.18	53386.04
598.538	53388.07
598.897	53540.61
599.255	53422.42
599.613	53786.93
599.972	53594.62
600.33	53785.58
600.688	53531.12
601.046	53734.05
601.404	53838.46
601.762	53782.64
602.12	53824.67
602.478	53835.97
602.836	53815.41
603.194	53663.09
603.552	53702.64
603.91	53666.26
604.268	53844.11
604.625	53749.65
604.983	53792.13
605.341	53687.73
605.698	53806.82
606.056	53861.51
606.413	53785.35
606.771	53958.23
607.128	53950.54
607.485	53858.8
607.843	53951
608.2	54043.65
608.557	54159.13
608.914	54024.67
609.272	54130.65
609.629	54237.09
609.986	54371.78
610.343	54119.13
610.7	54407.03
611.057	54271.89
611.414	54311.44
611.771	54287.03
612.127	54455.39
612.484	54371.55
612.841	54479.8
613.198	54337.65
613.554	54304.89
613.911	54484.77
614.267	54516.63
614.624	54508.95
614.98	54513.92
615.337	54647.02
615.693	54644.54
616.05	54510.3
616.406	54783.07
616.762	54621.94
617.118	54594.14
617.475	54651.54
617.831	54781.03
618.187	54686.8
618.543	54710.98
618.899	54868.71
619.255	54823.74
619.611	54749.62
619.967	54849.73
620.323	54903.06
620.678	54762.73
621.034	54723.41
621.39	54778.09
621.746	54738.55
622.101	54968.6
622.457	54733.35
622.812	54728.38
623.168	54796.17
623.523	54860.58
623.879	54863.74
624.234	54706.01
624.589	54754.37
624.945	54847.24
625.3	54780.58
625.655	54825.32
626.01	54762.95
626.365	54847.24
626.72	54834.82
627.075	54688.83
627.43	54796.17
627.785	54694.25
628.14	54752.33
628.495	54623.3
628.85	54757.76
629.205	54691.32
629.559	54708.49
629.914	54568.38
630.269	54547.82
630.623	54497.87
630.978	54362.74
631.332	54581.04
631.687	54597.31
632.041	54412
632.396	54436.63
632.75	54390.76
633.104	54423.53
633.459	54225.11
633.813	54134.49
634.167	54237.99
634.521	54199.8
634.875	54147.38
635.229	54114.83
635.583	54043.88
635.937	53972.69
636.291	53965.46
636.645	53979.02
636.999	53883.43
637.352	53917.55
637.706	53775.41
638.06	53946.03
638.413	53724.79
638.767	53737.44
639.121	53805.92
639.474	53664.68
639.828	53637.11
640.181	53705.13
640.534	53654.28
640.888	53592.59
641.241	53440.5
641.594	53450.9
641.947	53504.45
642.301	53372.71
642.654	53450.67
643.007	53391.92
643.36	53430.56
643.713	53306.95
644.066	53457
644.419	53258.59
644.771	53021.76
645.124	52681.65
645.477	52612.27
645.83	52415.67
646.182	52329.8
646.535	52323.24
646.888	52414.99
647.24	52205.28
647.593	52300.64
647.945	52274.88
648.298	52214.32
648.65	52047.32
649.002	51893.65
649.355	52114.89
649.707	51904.27
650.059	52081.44
650.411	52433.3
650.763	52462
651.115	52798.26
651.467	52642.33
651.819	52689.33
652.171	52481.2
652.523	52565.04
652.875	52449.12
653.227	52450.25
653.578	52641.88
653.93	52445.95
654.282	52381.77
654.633	52340.19
654.985	52366.86
655.337	52304.71
655.688	52238.73
656.039	52378.38
656.391	52003.03
656.742	52180.2
657.094	52162.34
657.445	52123.25
657.796	52002.12
658.147	51973.2
658.498	51872.63
658.849	52094.55
659.2	51948.79
659.551	51833.31
659.902	51992.63
660.253	51796.7
660.604	51903.14
660.955	51737.27
661.306	51820.66
661.656	51758.74
662.007	51756.7
662.358	51727.33
662.708	51645.75
663.059	51695.24
663.409	51511.29
663.76	51779.3
664.11	51737.72
664.461	51571.4
664.811	51639.87
665.161	51610.04
665.511	51432.42
665.862	51614.33
666.212	51612.98
666.562	51566.43
666.912	51433.77
667.262	51467.22
667.612	51494.56
667.962	51495.02
668.312	51336.38
668.662	51563.49
669.011	51331.18
669.361	51395.58
669.711	51464.06
670.06	51320.56
670.41	51144.06
670.76	51121.47
671.109	51340.67
671.459	51191.75
671.808	51076.72
672.157	51141.81
672.507	50923.73
672.856	50986.55
673.205	51060.68
673.554	51025.88
673.904	50971.64
674.253	51140.22
674.602	50942.71
674.951	50501.6
675.3	50202.62
675.649	50742.49
675.998	50864.07
676.346	50794.92
676.695	50805.32
677.044	50588.6
677.393	50761.25
677.741	50739.78
678.09	50600.58
678.438	50471.09
678.787	50636.28
679.135	50497.08
679.484	50317.87
679.832	50453.46
680.181	50146.12
680.529	50283.75
680.877	50056.86
681.225	50110.87
681.573	50300.7
681.922	49999.69
682.27	49794.95
682.618	49914.27
682.966	49937.99
683.314	49822.97
683.661	49776.42
684.009	49607.16
684.357	49553.6
684.705	49406.03
685.053	49406.03
685.4	49418.01
685.748	49203.1
686.095	49236.32
686.443	49113.84
686.79	49022.09
687.138	49137.34
687.485	49127.17
687.832	48814.86
688.18	48945.93
688.527	48640.4
688.874	48645.6
689.221	48456.9
689.568	48439.73
689.915	48297.13
690.262	48241.54
690.609	48171.26
690.956	48194.09
691.303	48044.49
691.65	47751.61
691.997	47827.54
692.344	47498.28
692.69	47510.71
693.037	47488.12
693.383	47044.74
693.73	47243.38
694.077	47068.69
694.423	46984.85
694.769	46801.58
695.116	46708.7
695.462	46731.75
695.808	46633.67
696.155	46651.08
696.501	46381.93
696.847	46312.55
697.193	45978.1
697.539	46234.36
697.885	45906.91
698.231	45795.05
698.577	45764.77
698.923	45591.67
699.269	45348.29
699.614	45247.72
699.96	45115.97
700.306	45046.15
700.651	44977
700.997	44719.15
701.342	44720.96
701.688	44761.86
702.033	44535.2
702.379	44353.06
702.724	44385.15
703.069	44366.39
703.415	43955.78
703.76	43921.88
704.105	43943.35
704.45	43872.62
704.795	43677.14
705.14	43449.13
705.485	43444.15
705.83	43397.83
706.175	43320.09
706.52	43129.13
706.865	43137.27
707.209	42786.77
707.554	42830.39
707.899	43017.5
708.243	42693.21
708.588	42557.62
708.932	42386.55
709.277	42354.69
709.621	42397.63
709.966	42231.3
710.31	42232.43
710.654	41882.61
710.998	41991.76
711.342	41959.22
711.687	41728.72
712.031	41618.44
712.375	41474.04
712.719	41694.6
713.063	41519.46
713.407	41549.29
713.75	41255.74
714.094	41318.33
714.438	41155.4
714.782	41191.33
715.125	41001.51
715.469	40991.11
715.812	40771.91
716.156	40566.04
716.499	40705.47
716.843	40745.24
717.186	40392.26
717.53	40509.99
717.873	40499.6
718.216	40444.91
718.559	40269.32
718.902	40008.76
719.246	40050.8
719.589	39964.7
719.932	39832.95
720.275	39880.86
720.617	39630.7
720.96	39635.44
721.303	39599.51
721.646	39476.58
721.989	39348.44
722.331	39341.66
722.674	39209.01
723.016	39219.63
723.359	39175.57
723.701	39149.13
724.044	38861.45
724.386	38829.81
724.729	38839.08
725.071	38717.95
725.413	38708.91
725.755	38775.8
726.097	38435.92
726.439	38264.86
726.782	38217.85
727.124	38324.51
727.465	38023.05
727.807	38037.97
728.149	37986.44
728.491	37753.23
728.833	37969.04
729.175	37715.72
729.516	37596.4
729.858	37690.63
730.199	37645.21
730.541	37543.07
730.882	37384.65
731.224	37443.41
731.565	37187.6
731.906	37151.66
732.248	37213.13
732.589	37061.05
732.93	36927.72
733.271	36889.98
733.612	37006.13
733.953	36962.52
734.294	36774.05
734.635	36712.13
734.976	36740.83
735.317	36352.14
735.658	36526.14
735.999	36485.02
736.339	36436.43
736.68	36422.19
737.021	36305.58
737.361	36129.77
737.702	36366.15
738.042	36098.58
738.383	36148.75
738.723	36093.84
739.063	35857.91
739.404	35880.51
739.744	35791.93
740.084	35643.46
740.424	35726.39
740.764	35453.18
741.104	35716
741.444	35366.85
741.784	35351.71
742.124	35377.47
742.464	35328.21
742.804	35221.55
743.143	35079.18
743.483	35037.82
743.823	34909.24
744.162	35001.66
744.502	34998.95
744.841	34718.96
745.181	34986.3
745.52	34811.84
745.86	34853.87
746.199	34618.62
746.538	34633.99
746.877	34502.47
747.216	34553.31
747.556	34516.03
747.895	34448.46
748.234	34325.75
748.573	34376.82
748.911	34292.76
749.25	34225.87
749.589	34017.28
749.928	34033.78
750.267	34208.92
750.605	33987
750.944	33970.96
751.283	33734.81
751.621	33707.01
751.96	33572.55
752.298	33516.96
752.636	33528.71
752.975	33463.63
753.313	33285.78
