Data from whiteboard_FLMS001491_00049.txt Node
Date: Wed Feb 08 11:26:40 GMT 2017
User: dcchb
Spectrometer: FLMS00149
Trigger mode: 0
Integration Time (sec): 2.000000E-2
Scans to average: 10
Electric dark correction enabled: true
Nonlinearity correction enabled: false
Boxcar width: 0
XAxis mode: Wavelengths
Number of Pixels in Spectrum: 2048
>>>>>Begin Spectral Data<<<<<
341.393	-14.72
341.776	-14.72
342.16	-14.72
342.543	-49.74
342.927	-57.43
343.31	-65.34
343.693	-59.91
344.077	-53.36
344.46	-70.99
344.843	-52.46
345.226	-21.5
345.61	-48.61
345.993	-41.84
346.376	-20.82
346.759	13.53
347.142	40.65
347.525	60.54
347.908	40.2
348.291	70.7
348.674	99.4
349.057	109.8
349.44	120.19
349.823	132.4
350.206	180.98
350.588	221.89
350.971	230.7
351.354	248.78
351.737	262.34
352.119	301.21
352.502	300.53
352.884	317.93
353.267	320.19
353.65	340.53
354.032	354.99
354.414	341.88
354.797	360.87
355.179	353.63
355.562	357.25
355.944	356.12
356.326	366.97
356.709	362.67
357.091	376.46
357.473	389.57
357.855	373.97
358.238	382.79
358.62	373.52
359.002	398.15
359.384	382.56
359.766	386.85
360.148	402.9
360.53	394.99
360.912	381.66
361.294	370.13
361.676	382.33
362.057	386.63
362.439	349.79
362.821	371.04
363.203	352.96
363.584	359.74
363.966	379.17
364.348	368.1
364.729	393.86
365.111	365.16
365.493	373.3
365.874	362.45
366.256	336.23
366.637	371.94
367.019	366.74
367.4	377.59
367.781	382.56
368.163	364.93
368.544	373.07
368.925	388.44
369.306	366.29
369.688	356.35
370.069	376.91
370.45	373.75
370.831	367.87
371.212	379.17
371.593	378.49
371.974	380.07
372.355	382.33
372.736	386.18
373.117	376.23
373.498	382.33
373.879	397.48
374.26	382.56
374.641	389.11
375.021	387.76
375.402	386.18
375.783	408.32
376.163	432.73
376.544	425.72
376.925	420.75
377.305	399.96
377.686	407.64
378.066	417.59
378.447	390.24
378.827	399.74
379.208	414.2
379.588	432.05
379.968	425.05
380.349	424.37
380.729	414.42
381.109	417.14
381.489	411.49
381.87	474.08
382.25	443.8
382.63	451.03
383.01	437.93
383.39	447.19
383.77	452.84
384.15	471.15
384.53	459.39
384.91	467.08
385.29	472.95
385.67	495.55
386.049	497.13
386.429	486.29
386.809	510.01
387.189	496
387.568	492.39
387.948	511.37
388.328	531.48
388.707	521.31
389.087	521.54
389.466	510.47
389.846	518.15
390.225	527.42
390.605	539.17
390.984	566.51
391.363	563.57
391.743	565.61
392.122	587.53
392.501	587.75
392.881	557.7
393.26	594.98
393.639	589.33
394.018	624.14
394.397	619.84
394.776	621.2
395.155	622.78
395.534	647.86
395.913	633.85
396.292	658.03
396.671	670.46
397.05	674.76
397.429	693.96
397.808	680.41
398.186	713.17
398.565	730.35
398.944	707.07
399.323	733.51
399.701	747.52
400.08	754.98
400.458	772.61
400.837	772.15
401.215	799.27
401.594	795.66
401.972	816.9
402.351	827.07
402.729	848.76
403.107	854.41
403.486	897.12
403.864	877.69
404.242	884.02
404.62	928.31
404.999	935.09
405.377	943.45
405.755	952.49
406.133	968.99
406.511	988.42
406.889	1011.7
407.267	1044.92
407.645	1052.15
408.023	1101.41
408.401	1101.41
408.779	1117
409.156	1130.11
409.534	1142.09
409.912	1169.21
410.29	1193.61
410.667	1219.6
411.045	1266.61
411.422	1304.8
411.8	1308.41
412.178	1338.24
412.555	1359.71
412.933	1351.35
413.31	1419.14
413.687	1421.63
414.065	1455.98
414.442	1474.28
414.819	1502.98
415.197	1515.86
415.574	1576.43
415.951	1563.77
416.328	1587.95
416.705	1585.01
417.082	1605.13
417.46	1624.11
417.837	1655.07
418.214	1675.18
418.591	1726.71
418.967	1751.56
419.344	1728.06
419.721	1783.88
420.098	1773.26
420.475	1825.23
420.852	1819.36
421.228	1865.69
421.605	1886.93
421.982	1899.58
422.358	1941.39
422.735	1947.49
423.111	1953.37
423.488	2012.35
423.864	2010.31
424.241	2052.12
424.617	2076.08
424.994	2094.38
425.37	2098.67
425.746	2128.28
426.123	2161.27
426.499	2206.02
426.875	2215.05
427.251	2322.4
427.627	2342.96
428.003	2347.71
428.379	2359.23
428.756	2424.31
429.132	2442.17
429.507	2480.13
429.883	2516.29
430.259	2543.41
430.635	2591.77
431.011	2635.38
431.387	2649.39
431.763	2683.29
432.138	2728.04
432.514	2780.24
432.89	2795.83
433.265	2860.91
433.641	2890.74
434.016	2918.54
434.392	2971.65
434.767	3027.01
435.143	3062.94
435.518	3070.4
435.894	3120.34
436.269	3162.15
436.644	3226.78
437.02	3246.44
437.395	3212.99
437.77	3295.03
438.145	3382.71
438.52	3433.1
438.895	3460.67
439.271	3458.64
439.646	3548.58
440.021	3596.94
440.395	3604.4
440.77	3572.53
441.145	3623.38
441.52	3721.46
441.895	3733.88
442.27	3743.83
442.645	3798.29
443.019	3823.37
443.394	3785.86
443.769	3881.23
444.143	3833.77
444.518	3937.27
444.892	3914.45
445.267	3961.45
445.641	4014.1
446.016	4051.84
446.39	4096.81
446.764	4107.43
447.139	4102.69
447.513	4158.51
447.887	4208.45
448.262	4202.57
448.636	4250.93
449.01	4254.78
449.384	4354.43
449.758	4329.8
450.132	4407.99
450.506	4436.24
450.88	4478.05
451.254	4472.17
451.628	4594.65
452.002	4643.24
452.376	4682.79
452.75	4768.21
453.123	4776.57
453.497	4852.05
453.871	4864.48
454.244	5022.21
454.618	5066.28
454.992	5160.74
455.365	5137.24
455.739	5313.05
456.112	5341.98
456.486	5394.18
456.859	5438.7
457.232	5558.02
457.606	5624.68
457.979	5690.44
458.352	5783.77
458.725	5841.17
459.099	5898.12
459.472	5990.32
459.845	6080.04
460.218	6103.99
460.591	6224.89
460.964	6207.72
461.337	6326.13
461.71	6475.51
462.083	6539.01
462.456	6568.61
462.829	6584.66
463.201	6681.6
463.574	6745.78
463.947	6820.58
464.32	6962.5
464.692	6964.99
465.065	7086.79
465.438	7216.96
465.81	7319.1
466.183	7393.68
466.555	7515.03
466.928	7617.85
467.3	7670.96
467.672	7793.67
468.045	7988.24
468.417	8022.59
468.789	8139.42
469.161	8276.14
469.534	8411.28
469.906	8587.09
470.278	8654.21
470.65	8804.49
471.022	8901.21
471.394	9170.13
471.766	9201.54
472.138	9399.05
472.51	9548.87
472.882	9692.82
473.253	9846.94
473.625	9960.84
473.997	10120.61
474.369	10205.35
474.74	10376.87
475.112	10592.24
475.484	10704.55
475.855	10884.88
476.227	11020.47
476.598	11320.8
476.97	11386.79
477.341	11655.26
477.713	11839.66
478.084	11875.59
478.455	12202.81
478.827	12305.18
479.198	12691.16
479.569	12667.89
479.94	13008.67
480.311	13149.68
480.682	13456.34
481.053	13674.19
481.424	13974.75
481.795	14105.14
482.166	14395.3
482.537	14442.98
482.908	14807.49
483.279	15005
483.65	15276.63
484.021	15600.47
484.391	15793.68
484.762	15840.69
485.133	16124.07
485.503	16342.82
485.874	16759.76
486.244	16906.42
486.615	17232.29
486.985	17370.36
487.356	17837.02
487.726	18019.84
488.097	18434.06
488.467	18435.42
488.837	18947.5
489.207	19146.36
489.578	19358.33
489.948	19459.12
490.318	19887.13
490.688	19965.1
491.058	20415.71
491.428	20674.68
491.798	20800.55
492.168	21313.99
492.538	21433.53
492.908	21613.87
493.278	21814.77
493.648	22023.8
494.017	22306.5
494.387	22429.66
494.757	22596.44
495.126	22858.13
495.496	22944.91
495.866	23094.73
496.235	23228.51
496.605	23383.31
496.974	23689.52
497.344	23894.48
497.713	23930.19
498.082	24096.97
498.452	24326.11
498.821	24413.57
499.19	24503.06
499.559	24708.25
499.928	24927
500.298	25038.64
500.667	25269.36
501.036	25238.4
501.405	25537.38
501.774	25705.96
502.143	25822.8
502.512	25962
502.88	26311.14
503.249	26263.46
503.618	26536.68
503.987	26732.15
504.356	26932.82
504.724	26997.23
505.093	27285.58
505.462	27379.82
505.83	27699.13
506.199	27998.11
506.567	28330.07
506.936	28310.87
507.304	28725.32
507.672	28939.1
508.041	29112.43
508.409	29278.3
508.777	29615.69
509.145	29937.72
509.514	29952.4
509.882	30289.34
510.25	30285.73
510.618	30578.38
510.986	30730.92
511.354	31114.18
511.722	31383.33
512.09	31549.65
512.458	31607.73
512.826	31906.48
513.193	32100.6
513.561	32141.05
513.929	32424.43
514.297	32694.93
514.664	32872.1
515.032	32989.16
515.4	33225.31
515.767	33251.3
516.135	33587.56
516.502	33429.83
516.869	33917.27
517.237	34157.72
517.604	34058.06
517.972	34512.74
518.339	34635.45
518.706	34728.1
519.073	34832.95
519.44	35157.92
519.808	35375.31
520.175	35369.66
520.542	35889.2
520.909	35966.26
521.276	36156.31
521.643	36536.41
522.009	36802.17
522.376	37000.13
522.743	37254.81
523.11	37616.38
523.477	38099.08
523.843	38222.24
524.21	38612.74
524.577	38977.7
524.943	39183.8
525.31	39378.15
525.676	39791.47
526.043	39991.46
526.409	40180.16
526.776	40786.47
527.142	40735.4
527.508	41084.09
527.874	41524.76
528.241	41739.67
528.607	41781.02
528.973	42252.65
529.339	42367.45
529.705	42767.66
530.071	43026.86
530.437	43316.35
530.803	43528.54
531.169	43822.32
531.535	43749.1
531.901	44016.22
532.267	44221.86
532.632	44604
532.998	44771
533.364	44909.3
533.73	45053.48
534.095	45361.49
534.461	45475.16
534.826	45714.25
535.192	45916.96
535.557	46150.17
535.923	46130.96
536.288	46268.13
536.653	46450.73
537.019	46372.76
537.384	46610.72
537.749	46873.77
538.114	46836.71
538.479	46823.37
538.845	47158.28
539.21	46975.91
539.575	47116.7
539.94	47264.72
540.305	47417.93
540.67	47513.52
541.034	47557.59
541.399	47718.04
541.764	47825.38
542.129	47829
542.494	47972.95
542.858	48197.12
543.223	48108.99
543.587	48350.11
543.952	48485.02
544.316	48542.42
544.681	48621.07
545.045	48761.18
545.41	48948.74
545.774	49114.61
546.138	49105.35
546.503	49213.82
546.867	49259.92
547.231	49581.94
547.595	49773.58
547.959	49851.09
548.324	49896.51
548.688	50077.3
549.052	50184.87
549.416	50311.87
549.779	50404.52
550.143	50523.16
550.507	50871.4
550.871	50929.48
551.235	51020.78
551.599	51347.55
551.962	51454.89
552.326	51539.41
552.689	51718.61
553.053	51677.71
553.417	51765.84
553.78	52168.09
554.143	51983.92
554.507	52256.45
554.87	52431.36
555.234	52753.16
555.597	52593.17
555.96	52724.01
556.323	52899.37
556.686	52891.69
557.05	53142.3
557.413	53149.31
557.776	53313.82
558.139	53468.17
558.502	53515.4
558.865	53546.81
559.228	53848.5
559.59	53836.97
559.953	53879.01
560.316	54248.71
560.679	54092.56
561.041	54307.7
561.404	54375.94
561.767	54557.41
562.129	54407.81
562.492	54731.41
562.854	54648.7
563.217	54733
563.579	54749.27
563.941	55014.34
564.304	55102.48
564.666	55244.39
565.028	55242.14
565.39	55206.66
565.753	55458.4
566.115	55428.12
566.477	55556.03
566.839	55596.48
567.201	55783.59
567.563	55817.04
567.925	55967.31
568.287	55941.78
568.648	56029.91
569.01	56229.68
569.372	56380.64
569.734	56246.4
570.095	56521.65
570.457	56556
570.819	56586.96
571.18	56608.43
571.542	56730.01
571.903	56904.24
572.265	56934.29
572.626	57003.9
572.987	57155.98
573.349	57273.27
573.71	57347.39
574.071	57413.38
574.432	57438.46
574.794	57637.55
575.155	57669.64
575.516	57617.21
575.877	57744.22
576.238	57828.96
576.599	58027.82
576.96	57964.32
577.32	58024.21
577.681	58153.02
578.042	58200.48
578.403	58234.37
578.763	58320.02
579.124	58315.73
579.485	58447.25
579.845	58502.39
580.206	58496.06
580.566	58537.64
580.927	58607.7
581.287	58649.73
581.648	58556.17
582.008	58705.55
582.368	58630.97
582.728	58771.31
583.089	58746
583.449	58773.34
583.809	58798.88
584.169	58817.18
584.529	58769.73
584.889	58878.42
585.249	58732.44
585.609	58722.04
585.969	58858.31
586.329	58766.79
586.688	58778.77
587.048	58779.9
587.408	58666
587.768	58653.57
588.127	58619
588.487	58630.29
588.846	58680.91
589.206	58564.31
589.565	58533.12
589.925	58626
590.284	58556.85
590.643	58584.19
591.003	58532.9
591.362	58690.41
591.721	58517.3
592.08	58553.23
592.44	58590.07
592.799	58587.36
593.158	58461.03
593.517	58499.9
593.876	58570.86
594.235	58485.21
594.593	58519.34
594.952	58541.48
595.311	58405.67
595.67	58523.63
596.029	58654.25
596.387	58596.4
596.746	58638.2
597.104	58530.41
597.463	58547.58
597.822	58715.94
598.18	58578.09
598.538	58520.92
598.897	58711.2
599.255	58531.99
599.613	58888.82
599.972	58750.07
600.33	58846.33
600.688	58807.47
601.046	58794.81
601.404	58995.26
601.762	58907.12
602.12	59068.93
602.478	59085.42
602.836	59112.54
603.194	58994.58
603.552	59103.28
603.91	59070.73
604.268	59233.22
604.625	59173.78
604.983	59286.55
605.341	59207
605.698	59309.6
606.056	59423.27
606.413	59315.93
606.771	59438.63
607.128	59540.1
607.485	59388.24
607.843	59437.96
608.2	59641.12
608.557	59689.7
608.914	59575.35
609.272	59743.26
609.629	59754.56
609.986	59831.84
610.343	59710.72
610.7	59893.76
611.057	59835.91
611.414	59824.16
611.771	59886.08
612.127	59948.68
612.484	59882.24
612.841	59933.09
613.198	59905.74
613.554	59912.29
613.911	60081.78
614.267	60019.64
614.624	59958.4
614.98	60019.41
615.337	60039.97
615.693	59991.84
616.05	59947.55
616.406	60076.58
616.762	60006.98
617.118	60000.65
617.475	59940.32
617.831	59977.38
618.187	59992.07
618.543	59969.92
618.899	60120.88
619.255	60044.04
619.611	60002.91
619.967	60070.03
620.323	60044.72
620.678	59942.8
621.034	59865.06
621.39	59855.8
621.746	59811.28
622.101	60037.26
622.457	59819.87
622.812	59841.56
623.168	59828.46
623.523	59844.73
623.879	60003.37
624.234	59675.69
624.589	59759.53
624.945	59816.03
625.3	59813.31
625.655	59799.3
626.01	59785.07
626.365	59837.27
626.72	59755.46
627.075	59764.28
627.43	59785.52
627.785	59616.71
628.14	59741.9
628.495	59765.63
628.85	59719.76
629.205	59590.27
629.559	59824.39
629.914	59694.67
630.269	59608.12
630.623	59618.29
630.978	59601.57
631.332	59752.98
631.687	59758.85
632.041	59738.51
632.396	59677.72
632.75	59552.53
633.104	59757.72
633.459	59592.98
633.813	59596.37
634.167	59617.84
634.521	59593.43
634.875	59699.64
635.229	59618.97
635.583	59576.71
635.937	59585.07
636.291	59599.76
636.645	59623.26
636.999	59492.87
637.352	59684.28
637.706	59545.3
638.06	59660.55
638.413	59559.08
638.767	59447.45
639.121	59567.45
639.474	59346.66
639.828	59374.68
640.181	59441.8
640.534	59473.44
640.888	59361.35
641.241	59295.36
641.594	59305.53
641.947	59435.92
642.301	59319.99
642.654	59387.56
643.007	59297.17
643.36	59198.87
643.713	59138.53
644.066	59230.73
644.419	59113.45
644.771	59046.1
645.124	58734.25
645.477	58717.3
645.83	58455.38
646.182	58299
646.535	58249.97
646.888	58222.17
647.24	58002.06
647.593	58247.48
647.945	58096.98
648.298	57934.04
648.65	57892.01
649.002	57814.5
649.355	57908.28
649.707	57877.32
650.059	57942.18
650.411	58208.84
650.763	58180.14
651.115	58413.35
651.467	58237.54
651.819	58203.64
652.171	58109.63
652.523	58073.7
652.875	58050.2
653.227	57925
653.578	58068.5
653.93	58009.75
654.282	57867.83
654.633	57757.55
654.985	57831.67
655.337	57849.98
655.688	57815.85
656.039	57848.62
656.391	57544
656.742	57611.11
657.094	57595.29
657.445	57635.29
657.796	57574.73
658.147	57578.57
658.498	57527.5
658.849	57543.54
659.2	57515.52
659.551	57485.47
659.902	57536.54
660.253	57426.03
660.604	57556.2
660.955	57315.75
661.306	57432.81
661.656	57402.98
662.007	57467.61
662.358	57413.15
662.708	57425.81
663.059	57427.39
663.409	57300.16
663.76	57534.5
664.11	57410.89
664.461	57424.45
664.811	57426.94
665.161	57433.04
665.511	57361.4
665.862	57452.02
666.212	57469.87
666.562	57461.96
666.912	57459.93
667.262	57378.8
667.612	57369.99
667.962	57381.06
668.312	57373.15
668.662	57576.08
669.011	57372.93
669.361	57459.25
669.711	57373.38
670.06	57365.02
670.41	57348.75
670.76	57385.58
671.109	57416.77
671.459	57340.16
671.808	57301.74
672.157	57314.62
672.507	57252.25
672.856	57198.92
673.205	57231.69
673.554	57319.82
673.904	57271.46
674.253	57367.28
674.602	57220.84
674.951	56909.44
675.3	56759.84
675.649	57072.14
675.998	57087.51
676.346	57168.19
676.695	57256.77
677.044	57043.67
677.393	57147.17
677.741	57135.42
678.09	57027.4
678.438	57047.51
678.787	57043.67
679.135	57063.78
679.484	56790.57
679.832	56901.53
680.181	56774.75
680.529	56870.57
680.877	56752.15
681.225	56668.09
681.573	56857.01
681.922	56531.82
682.27	56475.77
682.618	56521.88
682.966	56414.31
683.314	56483.01
683.661	56300.86
684.009	56129.34
684.357	56083.69
684.705	56092.96
685.053	56124.37
685.4	55972.51
685.748	55800.54
686.095	55794.89
686.443	55682.12
686.79	55699.52
687.138	55732.52
687.485	55611.39
687.832	55527.78
688.18	55487.78
688.527	55328.01
688.874	55332.3
689.221	55189.48
689.568	55092.53
689.915	55105.19
690.262	55043.72
690.609	54875.37
690.956	54770.06
691.303	54714.92
691.65	54559.67
691.997	54541.59
692.344	54427.92
692.69	54237.19
693.037	54320.35
693.383	54041.49
693.73	54122.84
694.077	54038.55
694.423	53866.8
694.769	53775.28
695.116	53782.29
695.462	53684.89
695.808	53552.69
696.155	53622.97
696.501	53373.26
696.847	53312.47
697.193	53100.5
697.539	53182.98
697.885	52963.78
698.231	52888.3
698.577	52909.54
698.923	52872.03
699.269	52713.39
699.614	52500.06
699.96	52514.75
700.306	52500.06
700.651	52290.35
700.997	52291.48
701.342	52226.4
701.688	52163.8
702.033	52122.22
702.379	52085.83
702.724	51919.06
703.069	52133.52
703.415	51665.28
703.76	51765.16
704.105	51683.36
704.45	51678.84
704.795	51555.68
705.14	51383.03
705.485	51303.71
705.83	51380.09
706.175	51398.39
706.52	51363.14
706.865	51175.58
707.209	51168.8
707.554	51195.69
707.899	51241.56
708.243	50974
708.588	51023.26
708.932	50851.74
709.277	50795.02
709.621	50769.03
709.966	50593.44
710.31	50772.2
710.654	50438.87
710.998	50471.64
711.342	50464.41
711.687	50322.72
712.031	50277.07
712.375	50215.37
712.719	50071.65
713.063	50093.57
713.407	50169.73
713.75	49965.21
714.094	49918.89
714.438	49766.57
714.782	49656.97
715.125	49555.96
715.469	49678.21
715.812	49362.29
716.156	49379.69
716.499	49340.82
716.843	49355.96
717.186	49171.79
717.53	49284.78
717.873	49183.09
718.216	49096.76
718.559	48983.77
718.902	48701.97
719.246	48748.97
719.589	48641.18
719.932	48433.05
720.275	48520.5
720.617	48344.01
720.96	48353.95
721.303	48273.28
721.646	48231.7
721.989	47986.51
722.331	48135.66
722.674	47854.08
723.016	47785.16
723.359	47659.28
723.701	47813.4
724.044	47401.44
724.386	47330.25
724.729	47406.63
725.071	47117.83
725.413	47131.16
725.755	47037.38
726.097	46876.03
726.439	46672.87
726.782	46627.22
727.124	46650.04
727.465	46605.75
727.807	46350.17
728.149	46399.88
728.491	46128.02
728.833	46137.52
729.175	45859.78
729.516	45830.18
729.858	45746.79
730.199	45664.08
730.541	45490.53
730.882	45509.74
731.224	45617.76
731.565	45195.17
731.906	45251.21
732.248	45361.04
732.589	45017.32
732.93	44891.22
733.271	45081.72
733.612	44959.69
733.953	44823.2
734.294	44663.43
734.635	44561.96
734.976	44560.83
735.317	44258.7
735.658	44309.54
735.999	44253.72
736.339	44173.05
736.68	44160.17
737.021	44144.35
737.361	43770.8
737.702	44115.87
738.042	43910.91
738.383	43740.06
738.723	43747.75
739.063	43703.46
739.404	43743
739.744	43505.72
740.084	43489.68
740.424	43375.33
740.764	43386.85
741.104	43463.01
741.444	43280.42
741.784	42967.2
742.124	43045.62
742.464	43046.75
742.804	42918.39
743.143	42923.36
743.483	42918.84
743.823	42870.48
744.162	42616.03
744.502	42811.05
744.841	42656.93
745.181	42701.67
745.52	42676.14
745.86	42757.27
746.199	42630.94
746.538	42561.11
746.877	42540.55
747.216	42535.58
747.556	42374.9
747.895	42470.49
748.234	42359.08
748.573	42429.59
748.911	42275.02
749.25	42258.07
749.589	42088.58
749.928	42101.01
750.267	42152.54
750.605	42156.38
750.944	41923.84
751.283	41729.04
751.621	41861.02
751.96	41621.25
752.298	41547.13
752.636	41599.1
752.975	41456.73
