Data from White_reflection_standard_FLMS001491_038.txt Node
Date: Tue Feb 07 10:32:02 GMT 2017
User: dcchb
Spectrometer: FLMS00149
Trigger mode: 0
Integration Time (sec): 2.000000E-2
Scans to average: 10
Electric dark correction enabled: true
Nonlinearity correction enabled: false
Boxcar width: 0
XAxis mode: Wavelengths
Number of Pixels in Spectrum: 2048
>>>>>Begin Spectral Data<<<<<
341.393	-9.99
341.776	-9.99
342.16	-9.99
342.543	-56.31
342.927	-70.77
343.31	-85.01
343.693	-76.65
344.077	-65.13
344.46	-57.22
344.843	-54.5
345.226	-43.21
345.61	-40.04
345.993	-17.44
346.376	8.77
346.759	7.19
347.142	32.95
347.525	28.66
347.908	85.61
348.291	96.23
348.674	86.06
349.057	93.74
349.44	114.98
349.823	152.95
350.206	166.73
350.588	241.76
350.971	256.45
351.354	286.28
351.737	282.21
352.119	271.14
352.502	302.55
352.884	305.71
353.267	337.58
353.65	332.83
354.032	347.52
354.414	341.19
354.797	357.91
355.179	374.41
355.562	368.54
355.944	375.99
356.326	369.89
356.709	416.22
357.091	386.39
357.473	407.18
357.855	397.91
358.238	365.6
358.62	388.87
359.002	424.13
359.384	399.04
359.766	423.68
360.148	402.88
360.53	403.34
360.912	444.24
361.294	405.37
361.676	390.91
362.057	405.37
362.439	398.37
362.821	410.34
363.203	398.37
363.584	402.43
363.966	411.02
364.348	411.7
364.729	407.18
365.111	402.43
365.493	391.81
365.874	402.88
366.256	412.38
366.637	412.15
367.019	414.64
367.4	421.19
367.781	425.71
368.163	418.03
368.544	413.51
368.925	419.61
369.306	407.4
369.688	422.77
370.069	421.87
370.45	434.3
370.831	430.45
371.212	437.46
371.593	421.42
371.974	436.1
372.355	432.26
372.736	439.49
373.117	439.04
373.498	444.24
373.879	447.4
374.26	447.18
374.641	420.29
375.021	434.75
375.402	455.09
375.783	471.58
376.163	498.93
376.544	492.37
376.925	497.57
377.305	495.54
377.686	489.21
378.066	477.91
378.447	498.02
378.827	504.58
379.208	513.84
379.588	495.09
379.968	516.33
380.349	516.33
380.729	517.68
381.109	525.59
381.489	523.11
381.87	536.67
382.25	559.26
382.63	552.26
383.01	560.39
383.39	582.54
383.77	582.32
384.15	577.8
384.53	582.54
384.91	565.14
385.29	583.67
385.67	571.47
386.049	615.99
386.429	616.21
386.809	615.31
387.189	620.05
387.568	638.36
387.948	635.2
388.328	652.6
388.707	652.82
389.087	647.17
389.466	666.38
389.846	669.77
390.225	673.39
390.605	679.49
390.984	716.1
391.363	686.72
391.743	739.6
392.122	733.27
392.501	731.92
392.881	732.14
393.26	756.55
393.639	761.07
394.018	787.06
394.397	777.11
394.776	794.06
395.155	777.79
395.534	778.69
395.913	787.73
396.292	807.62
396.671	808.52
397.05	824.79
397.429	841.29
397.808	827.73
398.186	848.07
398.565	861.86
398.944	847.39
399.323	883.32
399.701	903.66
400.08	873.16
400.458	890.33
400.837	909.76
401.215	914.96
401.594	925.81
401.972	935.75
402.351	970.55
402.729	953.38
403.107	972.14
403.486	985.47
403.864	991.34
404.242	990.67
404.62	1003.77
404.999	1021.85
405.377	1009.2
405.755	1055.52
406.133	1072.25
406.511	1071.79
406.889	1103.88
407.267	1097.1
407.645	1116.31
408.023	1132.81
408.401	1162.86
408.779	1182.07
409.156	1194.28
409.534	1216.87
409.912	1214.61
410.29	1206.03
410.667	1243.31
411.045	1255.97
411.422	1284.22
411.8	1286.25
412.178	1319.7
412.555	1333.26
412.933	1334.84
413.31	1389.07
413.687	1387.04
414.065	1403.08
414.442	1444.21
414.819	1440.15
415.197	1466.59
415.574	1473.37
415.951	1472.69
416.328	1501.84
416.705	1540.03
417.082	1538.67
417.46	1554.72
417.837	1583.87
418.214	1572.8
418.591	1606.24
418.967	1624.1
419.344	1629.97
419.721	1639.69
420.098	1632.46
420.475	1713.36
420.852	1713.58
421.228	1703.64
421.605	1739.35
421.982	1767.59
422.358	1780.25
422.735	1809.18
423.111	1812.57
423.488	1822.06
423.864	1848.72
424.241	1908.16
424.617	1897.31
424.994	1917.87
425.37	1933.47
425.746	1939.79
426.123	1982.28
426.499	1974.82
426.875	2037.42
427.251	2049.62
427.627	2094.59
428.003	2117.87
428.379	2152.9
428.756	2174.14
429.132	2198.54
429.507	2238.32
429.883	2295.26
430.259	2294.81
430.635	2306.56
431.011	2348.6
431.387	2426.33
431.763	2461.59
432.138	2432.21
432.514	2469.27
432.89	2514.02
433.265	2561.25
433.641	2575.26
434.016	2615.03
434.392	2672.2
434.767	2742.26
435.143	2723.05
435.518	2762.82
435.894	2784.97
436.269	2789.04
436.644	2843.05
437.02	2892.54
437.395	2864.29
437.77	2961.24
438.145	3009.14
438.52	3037.17
438.895	3071.06
439.271	3066.09
439.646	3140.21
440.021	3169.14
440.395	3186.31
440.77	3140.21
441.145	3219.31
441.52	3263.37
441.895	3290.04
442.27	3294.11
442.645	3325.75
443.019	3381.79
443.394	3359.87
443.769	3380.43
444.143	3378.63
444.518	3451.62
444.892	3481.67
445.267	3509.47
445.641	3556.25
446.016	3504.72
446.39	3568.23
446.764	3608.68
447.139	3598.96
447.513	3640.09
447.887	3650.48
448.262	3701.56
448.636	3674.44
449.01	3783.36
449.384	3828.56
449.758	3853.64
450.132	3889.35
450.506	3932.28
450.88	3934.32
451.254	3937.03
451.628	4032.62
452.002	4067.2
452.376	4067.65
452.75	4142.67
453.123	4180.64
453.497	4270.81
453.871	4286.62
454.244	4328.88
454.618	4383.12
454.992	4418.37
455.365	4477.81
455.739	4601.87
456.112	4617.46
456.486	4652.04
456.859	4725.71
457.232	4769.1
457.606	4802.09
457.979	4908.53
458.352	5018.36
458.725	4998.02
459.099	5080.73
459.472	5162.53
459.845	5174.96
460.218	5266.26
460.591	5364.34
460.964	5362.3
461.337	5496.76
461.71	5577.44
462.083	5621.28
462.456	5668.96
462.829	5722.97
463.201	5879.35
463.574	5825.12
463.947	5921.61
464.32	6048.84
464.692	6061.04
465.065	6124.99
465.438	6202.96
465.81	6319.79
466.183	6343.97
466.555	6550.97
466.928	6552.78
467.3	6573.34
467.672	6693.11
468.045	6820.8
468.417	6873.22
468.789	6936.95
469.161	7016.95
469.534	7196.6
469.906	7257.85
470.278	7357.96
470.65	7457.39
471.022	7662.58
471.394	7746.19
471.766	7803.37
472.138	7913.65
472.51	8158.84
472.882	8218.05
473.253	8265.05
473.625	8438.61
473.997	8639.96
474.369	8692.84
474.74	8748.2
475.112	8978.03
475.484	9138.93
475.855	9235.65
476.227	9300.05
476.598	9586.82
476.97	9717.89
477.341	9898.91
477.713	10100.71
478.084	10154.72
478.455	10399.91
478.827	10504.09
479.198	10819.33
479.569	10816.85
479.94	11127.12
480.311	11184.97
480.682	11446.89
481.053	11772.08
481.424	11947.89
481.795	12024.5
482.166	12223.59
482.537	12363.25
482.908	12697.48
483.279	12808.66
483.65	12981.76
484.021	13339.04
484.391	13429.89
484.762	13597.34
485.133	13757.34
485.503	13837.79
485.874	14169.08
486.244	14320.71
486.615	14615.84
486.985	14790.3
487.356	15044.31
487.726	15187.13
488.097	15585.31
488.467	15563.84
488.837	15898.75
489.207	16061.46
489.578	16291.96
489.948	16456.93
490.318	16764.71
490.688	16842.45
491.058	17092.84
491.428	17342.55
491.798	17503.9
492.168	17758.36
492.538	17880.84
492.908	18110.67
493.278	18370.77
493.648	18343.2
494.017	18604.67
494.387	18759.46
494.757	18947.48
495.126	19120.58
495.496	19171.43
495.866	19360.8
496.235	19597.18
496.605	19855.93
496.974	19909.26
497.344	20075.59
497.713	20184.29
498.082	20347.9
498.452	20552.64
498.821	20657.49
499.19	20810.26
499.559	21087.54
499.928	21042.34
500.298	21338.38
500.667	21443.91
501.036	21459.96
501.405	21658.15
501.774	21824.02
502.143	22001.64
502.512	22139.49
502.88	22259.26
503.249	22313.27
503.618	22505.35
503.987	22579.02
504.356	22798.68
504.724	22936.08
505.093	23090.65
505.462	23233.02
505.83	23418.32
506.199	23524.08
506.567	23943.06
506.936	23810.86
507.304	24159.77
507.672	24354.35
508.041	24356.15
508.409	24531.97
508.777	24759.76
509.145	25079.07
509.514	25032.75
509.882	25340.31
510.25	25347.31
510.618	25539.63
510.986	25752.5
511.354	25983.23
511.722	26220.51
512.09	26341.19
512.458	26340.51
512.826	26617.11
513.193	26780.72
513.561	26956.09
513.929	27170.32
514.297	27456.86
514.664	27584.77
515.032	27780.7
515.4	27943.86
515.767	28035.38
516.135	28211.87
516.502	28190.18
516.869	28713.33
517.237	28855.02
517.604	28780.67
517.972	29259.53
518.339	29379.75
518.706	29445.29
519.073	29692.28
519.44	29916.01
519.808	30325.71
520.175	30299.05
520.542	30721.64
520.909	30769.54
521.276	30812.48
521.643	31265.58
522.009	31463.54
522.376	31709.41
522.743	31934.94
523.11	32164.31
523.477	32660.12
523.843	32804.07
524.21	32927.91
524.577	33287.67
524.943	33425.97
525.31	33614.89
525.676	33922
526.043	34183.69
526.409	34279.73
526.776	34679.05
527.142	34805.6
527.508	35057.34
527.874	35296.2
528.241	35451.91
528.607	35572.58
528.973	35998.56
529.339	36033.36
529.705	36331.43
530.071	36596.74
530.437	36726.45
530.803	36855.49
531.169	37372.76
531.535	37240.33
531.901	37496.82
532.267	37624.05
532.632	37809.81
532.998	38003.93
533.364	38139.97
533.73	38332.74
534.095	38634.2
534.461	38765.94
534.826	38966.16
535.192	39026.73
535.557	39411.58
535.923	39320.28
536.288	39567.28
536.653	39594.4
537.019	39780.61
537.384	39994.16
537.749	40219.92
538.114	40197.54
538.479	40258.56
538.845	40592.11
539.21	40485.67
539.575	40720.69
539.94	40893.8
540.305	41064.64
540.67	41030.74
541.034	41330.4
541.399	41438.19
541.764	41583.5
542.129	41782.59
542.494	41876.37
542.858	41925.86
543.223	42065.97
543.587	42400.88
543.952	42175.35
544.316	42467.09
544.681	42600.65
545.045	42724.94
545.41	43011.93
545.774	43045.61
546.138	43250.57
546.503	43285.6
546.867	43230.69
547.231	43802.42
547.595	43792.48
547.959	43858.01
548.324	43982.08
548.688	44072.47
549.052	44169.64
549.416	44279.25
549.779	44332.8
550.143	44588.39
550.507	44890.3
550.871	45060.24
551.235	45078.55
551.599	45404.19
551.962	45384.08
552.326	45521.7
552.689	45822.48
553.053	45679.66
553.417	45725.99
553.78	46152.64
554.143	46064.74
554.507	46309.02
554.87	46460.43
555.234	46847.09
555.597	46699.07
555.96	46906.75
556.323	47057.93
556.686	47153.29
557.05	47446.62
557.413	47628.76
557.776	47614.07
558.139	48033.72
558.502	47989.2
558.865	48192.36
559.228	48517.78
559.59	48508.51
559.953	48618.57
560.316	48909.18
560.679	49019.01
561.041	49150.3
561.404	49530.41
561.767	49679.33
562.129	49549.39
562.492	49842.71
562.854	49851.3
563.217	50000
563.579	50245.87
563.941	50443.6
564.304	50555.69
564.666	50771.05
565.028	50717.04
565.39	50940.99
565.753	51145.51
566.115	51239.29
566.477	51301.89
566.839	51458.72
567.201	51643.35
567.563	51752.27
567.925	51975.09
568.287	51995.88
568.648	52162.43
569.01	52297.57
569.372	52450.33
569.734	52300.96
570.095	52567.61
570.457	52681.06
570.819	52827.72
571.18	52770.55
571.542	52952.69
571.903	52979.58
572.265	53102.06
572.626	53289.4
572.987	53314.26
573.349	53461.38
573.71	53503.41
574.071	53515.61
574.432	53646.68
574.794	53767.13
575.155	53828.15
575.516	53799.9
575.877	53951.31
576.238	53924.87
576.599	54040.34
576.96	54157.86
577.32	54158.31
577.681	54314.69
578.042	54296.61
578.403	54284.41
578.763	54337.74
579.124	54458.64
579.485	54458.64
579.845	54524.17
580.206	54505.87
580.566	54539.99
580.927	54583.61
581.287	54723.94
581.648	54591.74
582.008	54758.52
582.368	54703.6
582.728	54726.43
583.089	54750.38
583.449	54765.52
583.809	54732.76
584.169	54808.01
584.529	54703.6
584.889	54887.1
585.249	54678.52
585.609	54744.28
585.969	54872.19
586.329	54806.2
586.688	54885.29
587.048	54812.3
587.408	54789.7
587.768	54791.96
588.127	54749.93
588.487	54734.79
588.846	54933.88
589.206	54754
589.565	54779.31
589.925	54915.12
590.284	54779.08
590.643	54821.12
591.003	54930.49
591.362	54973.88
591.721	54863.6
592.08	54906.76
592.44	55017.27
592.799	55046.42
593.158	54929.36
593.517	54988.34
593.876	55048
594.235	54880.55
594.593	55058.85
594.952	55067.66
595.311	54940.66
595.67	54986.31
596.029	55211.61
596.387	55203.7
596.746	55173.65
597.104	55066.98
597.463	55144.95
597.822	55253.87
598.18	55160.77
598.538	55110.6
598.897	55257.71
599.255	55089.58
599.613	55419.97
599.972	55275.11
600.33	55401.44
600.688	55280.54
601.046	55286.19
601.404	55474.66
601.762	55409.35
602.12	55466.97
602.478	55415.9
602.836	55503.36
603.194	55368.45
603.552	55453.64
603.91	55436.01
604.268	55550.59
604.625	55509.23
604.983	55611.6
605.341	55447.09
605.698	55600.53
606.056	55645.27
606.413	55643.69
606.771	55669.23
607.128	55759.62
607.485	55557.59
607.843	55723.46
608.2	55860.18
608.557	55850.01
608.914	55815.67
609.272	55998.03
609.629	55907.19
609.986	56047.3
610.343	55860.64
610.7	56120.97
611.057	56039.16
611.414	56054.75
611.771	56066.73
612.127	56139.05
612.484	56083
612.841	56193.06
613.198	56158.93
613.554	56172.49
613.911	56272.15
614.267	56249.78
614.624	56221.76
614.98	56304.92
615.337	56421.75
615.693	56305.37
616.05	56355.76
616.406	56513.73
616.762	56304.01
617.118	56393.5
617.475	56419.04
617.831	56467.85
618.187	56490.68
618.543	56526.38
618.899	56641.63
619.255	56522.99
619.611	56573.39
619.967	56681.41
620.323	56657.68
620.678	56530.67
621.034	56492.94
621.39	56553.95
621.746	56542.2
622.101	56776.32
622.457	56576.55
622.812	56605.7
623.168	56639.15
623.523	56649.32
623.879	56722.76
624.234	56589.88
624.589	56647.06
624.945	56639.15
625.3	56603.44
625.655	56678.02
626.01	56667.39
626.365	56601.18
626.72	56633.27
627.075	56585.81
627.43	56655.64
627.785	56504.69
628.14	56652.93
628.495	56589.88
628.85	56560.28
629.205	56497.68
629.559	56658.13
629.914	56428.3
630.269	56511.92
630.623	56497.23
630.978	56367.06
631.332	56444.12
631.687	56474.4
632.041	56309.89
632.396	56440.06
632.75	56275.99
633.104	56351.02
633.459	56241.87
633.813	56193.06
634.167	56193.28
634.521	56196.45
634.875	56146.5
635.229	56097.24
635.583	55983.34
635.937	55977.02
636.291	55914.65
636.645	55998.03
636.999	55930.92
637.352	55921.65
637.706	55711.94
638.06	55917.81
638.413	55872.84
638.767	55711.26
639.121	55762.11
639.474	55585.16
639.828	55663.35
640.181	55585.39
640.534	55632.39
640.888	55519.4
641.241	55436.92
641.594	55417.48
641.947	55594.88
642.301	55506.97
642.654	55475.56
643.007	55411.16
643.36	55378.16
643.713	55337.71
644.066	55409.12
644.419	55140.43
644.771	54970.26
645.124	54687.56
645.477	54780.44
645.83	54530.5
646.182	54423.39
646.535	54302.48
646.888	54410.5
647.24	54180
647.593	54392.2
647.945	54280.56
648.298	54098.65
648.65	54128.03
649.002	54021.81
649.355	54176.84
649.707	54042.83
650.059	54150.4
650.411	54401.47
650.763	54545.19
651.115	54747.9
651.467	54690.95
651.819	54655.47
652.171	54516.94
652.523	54474.01
652.875	54505.87
653.227	54343.16
653.578	54500.22
653.93	54437.17
654.282	54324.18
654.633	54238.31
654.985	54291.19
655.337	54288.02
655.688	54209.83
656.039	54327.12
656.391	54116.27
656.742	54152.43
657.094	54090.74
657.445	54223.39
657.796	54133
658.147	54054.58
658.498	54113.56
658.849	54129.16
659.2	54023.62
659.551	54012.55
659.902	54134.13
660.253	53977.3
660.604	54089.83
660.955	53870.41
661.306	53982.27
661.656	53868.82
662.007	53958.76
662.358	53827.02
662.708	53897.3
663.059	53801.93
663.409	53662.73
663.76	53860.01
664.11	53814.59
664.461	53749.5
664.811	53814.59
665.161	53819.56
665.511	53703.4
665.862	53697.98
666.212	53751.76
666.562	53719
666.912	53763.29
667.262	53668.83
667.612	53673.57
667.962	53634.03
668.312	53608.49
668.662	53763.29
669.011	53522.62
669.361	53497.31
669.711	53506.57
670.06	53500.7
670.41	53434.03
670.76	53415.05
671.109	53541.83
671.459	53484.43
671.808	53308.39
672.157	53412.34
672.507	53185.23
672.856	53197.2
673.205	53129.41
673.554	53270.87
673.904	53174.6
674.253	53337.09
674.602	53301.83
674.951	52864.33
675.3	52606.26
675.649	53050.77
675.998	53049.18
676.346	53152.23
676.695	53146.36
677.044	52902.52
677.393	52906.59
677.741	53044.21
678.09	52788.17
678.438	52870.66
678.787	52872.24
679.135	52817.78
679.484	52625.92
679.832	52753.6
680.181	52577.11
680.529	52660.27
680.877	52606.48
681.225	52515.41
681.573	52793.15
681.922	52411.91
682.27	52431.8
682.618	52462.53
682.966	52252.6
683.314	52324.68
683.661	52285.59
684.009	52043.79
684.357	52020.51
684.705	51906.62
685.053	52031.81
685.4	51870.68
685.748	51759.5
686.095	51770.57
686.443	51652.61
686.79	51540.98
687.138	51701.88
687.485	51569
687.832	51376.46
688.18	51426.4
688.527	51235.9
688.874	51290.13
689.221	51157.93
689.568	51100.76
689.915	50967.21
690.262	50880.2
690.609	50903.7
690.956	50803.59
691.303	50792.07
691.65	50545.07
691.997	50592.07
692.344	50244.74
692.69	50161.12
693.037	50292.19
693.383	49953.22
693.73	50074.57
694.077	49866.9
694.423	49902.6
694.769	49738.31
695.116	49677.3
695.462	49624.42
695.808	49398.21
696.155	49430.07
696.501	49299
696.847	49171.55
697.193	48988.95
697.539	49115.28
697.885	48753.7
698.231	48675.29
698.577	48684.78
698.923	48705.12
699.269	48341.51
699.614	48193.94
699.96	48154.17
700.306	48305.81
700.651	48055.87
700.997	48083.21
701.342	47758.02
701.688	47760.06
702.033	47680.96
702.379	47657.46
702.724	47485.94
703.069	47571.81
703.415	47091.37
703.76	47130.92
704.105	47083.01
704.45	46929.57
704.795	46776.13
705.14	46677.83
705.485	46664.72
705.83	46500.88
706.175	46526.87
706.52	46373.65
706.865	46399.87
707.209	46191.74
707.554	46055.24
707.899	46123.94
708.243	45912.2
708.588	45754.69
708.932	45522.38
709.277	45503.62
709.621	45679.66
709.966	45245.55
710.31	45362.61
710.654	44872.22
710.998	45055.72
711.342	45044.87
711.687	44970.3
712.031	44733.24
712.375	44670.42
712.719	44666.58
713.063	44483.76
713.407	44581.38
713.75	44396.98
714.094	44323.76
714.438	44151.79
714.782	44177.55
715.125	43969.2
715.469	44037.44
715.812	43863.89
716.156	43501.64
716.499	43765.59
716.843	43658.02
717.186	43342.55
717.53	43527.17
717.873	43553.61
718.216	43531.69
718.559	43352.94
718.902	43006.74
719.246	43089.9
719.589	42886.29
719.932	42906.17
720.275	42732.39
720.617	42765.84
720.96	42614.88
721.303	42626.86
721.646	42692.17
721.989	42486.75
722.331	42460.08
722.674	42356.58
723.016	42401.1
723.359	42194.1
723.701	42244.5
724.044	42067.33
724.386	41817.39
724.729	42067.55
725.071	41781.68
725.413	41835.69
725.755	41728.8
726.097	41539.88
726.439	41454.23
726.782	41463.5
727.124	41587.79
727.465	41346.89
727.807	41267.57
728.149	41135.37
728.491	41053.57
728.833	41057.18
729.175	41023.51
729.516	40756.17
729.858	40916.4
730.199	40780.13
730.541	40723.18
730.882	40581.26
731.224	40783.52
731.565	40541.04
731.906	40536.52
732.248	40549.17
732.589	40290.42
732.93	40263.98
733.271	40416.3
733.612	40302.63
733.953	40215.85
734.294	40092.91
734.635	39839.36
734.976	40008.17
735.317	39757.33
735.658	39827.61
735.999	39736.77
736.339	39608.18
736.68	39781.28
737.021	39638.69
737.361	39458.13
737.702	39586.04
738.042	39462.42
738.383	39163.9
738.723	39346.49
739.063	39143.34
739.404	39367.96
739.744	39153.96
740.084	38853.85
740.424	38933.17
740.764	38950.8
741.104	38970.23
741.444	38711.03
741.784	38562.79
742.124	38769.11
742.464	38733.18
742.804	38493.18
743.143	38364.15
743.483	38487.31
743.823	38154.89
744.162	38208.9
744.502	38297.26
744.841	38127.77
745.181	38066.3
745.52	38007.09
745.86	38060.88
746.199	37831.73
746.538	37907.66
746.877	37922.8
747.216	37788.34
747.556	37691.85
747.895	37751.28
748.234	37541.8
748.573	37458.63
748.911	37375.47
749.25	37457.28
749.589	37204.4
749.928	37255.48
750.267	37176.38
750.605	37169.6
750.944	37080.56
751.283	36989.49
751.621	36915.37
751.96	36701.59
752.298	36712.21
752.636	36774.36
