Data from white_steel_sheet_FLMS001491_045.txt Node
Date: Tue Feb 07 10:57:55 GMT 2017
User: dcchb
Spectrometer: FLMS00149
Trigger mode: 0
Integration Time (sec): 2.000000E-2
Scans to average: 10
Electric dark correction enabled: true
Nonlinearity correction enabled: false
Boxcar width: 0
XAxis mode: Wavelengths
Number of Pixels in Spectrum: 2048
>>>>>Begin Spectral Data<<<<<
341.393	4.05
341.776	4.05
342.16	4.05
342.543	-61.48
342.927	-51.54
343.31	-61.03
343.693	-70.97
344.077	-66.91
344.46	-60.8
344.843	-59.67
345.226	-43.85
345.61	-35.27
345.993	-26
346.376	0.21
346.759	10.16
347.142	33.66
347.525	30.04
347.908	74.79
348.291	77.27
348.674	84.96
349.057	113.43
349.44	123.82
349.823	141
350.206	187.55
350.588	200.43
350.971	219.87
351.354	225.52
351.737	256.7
352.119	242.47
352.502	270.49
352.884	280.2
353.267	279.53
353.65	303.93
354.032	291.96
354.414	319.07
354.797	324.95
355.179	339.86
355.562	321.56
355.944	332.86
356.326	317.94
356.709	337.15
357.091	326.3
357.473	321.33
357.855	332.86
358.238	350.94
358.62	337.38
359.002	336.7
359.384	369.69
359.766	340.09
360.148	352.07
360.53	344.61
360.912	334.44
361.294	358.62
361.676	349.13
362.057	340.09
362.439	336.02
362.821	336.7
363.203	346.19
363.584	340.54
363.966	342.12
364.348	336.25
364.729	331.28
365.111	299.19
365.493	316.81
365.874	314.1
366.256	333.99
366.637	346.19
367.019	315.01
367.4	341.67
367.781	329.02
368.163	318.85
368.544	319.75
368.925	326.3
369.306	322.24
369.688	319.98
370.069	320.2
370.45	325.4
370.831	342.8
371.212	317.72
371.593	319.07
371.974	321.11
372.355	333.76
372.736	331.95
373.117	333.54
373.498	352.29
373.879	333.76
374.26	309.81
374.641	316.59
375.021	332.86
375.402	343.25
375.783	350.03
376.163	337.38
376.544	338.06
376.925	363.37
377.305	351.39
377.686	355.68
378.066	359.75
378.447	328.56
378.827	352.29
379.208	348
379.588	356.59
379.968	367.66
380.349	350.03
380.729	363.82
381.109	358.85
381.489	363.37
381.87	370.82
382.25	355
382.63	358.39
383.01	375.8
383.39	375.8
383.77	358.17
384.15	376.25
384.53	372.18
384.91	375.57
385.29	367.89
385.67	393.42
386.049	378.06
386.429	386.19
386.809	395.91
387.189	409.01
387.568	408.34
387.948	399.75
388.328	388
388.707	416.25
389.087	391.61
389.466	404.04
389.846	427.55
390.225	417.15
390.605	409.01
390.984	417.83
391.363	399.75
391.743	424.61
392.122	440.65
392.501	442.69
392.881	436.81
393.26	423.48
393.639	429.35
394.018	450.82
394.397	461.44
394.776	472.29
395.155	459.18
395.534	475.91
395.913	463.48
396.292	489.92
396.671	487.66
397.05	508
397.429	494.21
397.808	479.97
398.186	505.96
398.565	503.93
398.944	523.14
399.323	526.53
399.701	520.65
400.08	553.19
400.458	545.06
400.837	525.85
401.215	549.35
401.594	566.07
401.972	554.55
402.351	579.63
402.729	573.76
403.107	576.47
403.486	605.62
403.864	609.91
404.242	594.32
404.62	626.18
404.999	630.25
405.377	649.46
405.755	641.32
406.133	669.12
406.511	664.83
406.889	674.77
407.267	682.91
407.645	700.08
408.023	715.22
408.401	718.16
408.779	724.71
409.156	739.85
409.534	751.6
409.912	773.75
410.29	790.02
410.667	792.06
411.045	816.01
411.422	802.68
411.8	804.94
412.178	811.94
412.555	858.72
412.933	843.81
413.31	854.88
413.687	884.26
414.065	897.59
414.442	910.92
414.819	905.05
415.197	935.33
415.574	951.37
415.951	956.12
416.328	943.69
416.705	982.33
417.082	996.12
417.46	1020.07
417.837	1003.12
418.214	1016.91
418.591	1029.34
418.967	1023.24
419.344	1036.34
419.721	1074.53
420.098	1058.49
420.475	1108.43
420.852	1073.18
421.228	1074.53
421.605	1098.04
421.982	1110.47
422.358	1144.59
422.735	1140.97
423.111	1119.73
423.488	1176.9
423.864	1185.49
424.241	1191.59
424.617	1194.53
424.994	1213.51
425.37	1209.45
425.746	1211.48
426.123	1244.92
426.499	1244.47
426.875	1284.47
427.251	1299.39
427.627	1328.54
428.003	1324.47
428.379	1334.87
428.756	1335.54
429.132	1352.49
429.507	1364.02
429.883	1391.81
430.259	1452.15
430.635	1410.34
431.011	1456.44
431.387	1471.59
431.763	1503.68
432.138	1497.8
432.514	1522.43
432.89	1530.57
433.265	1597.46
433.641	1585.48
434.016	1624.8
434.392	1641.07
434.767	1664.12
435.143	1680.39
435.518	1665.48
435.894	1679.72
436.269	1717.91
436.644	1750.45
437.02	1752.26
437.395	1771.46
437.77	1798.81
438.145	1837.23
438.52	1844.01
438.895	1871.58
439.271	1851.46
439.646	1931.91
440.021	1906.38
440.395	1940.73
440.77	1912.7
441.145	1913.16
441.52	1989.99
441.895	1978.69
442.27	2014.4
442.645	2026.15
443.019	2046.26
443.394	2063.89
443.769	2090.55
444.143	2066.37
444.518	2100.95
444.892	2093.72
445.267	2151.79
445.641	2138.69
446.016	2179.14
446.39	2194.5
446.764	2208.29
447.139	2195.86
447.513	2264.33
447.887	2225.92
448.262	2261.4
448.636	2275.18
449.01	2300.49
449.384	2318.79
449.758	2355.86
450.132	2360.38
450.506	2392.92
450.88	2412.35
451.254	2416.65
451.628	2452.8
452.002	2446.02
452.376	2492.58
452.75	2508.62
453.123	2535.74
453.497	2575.06
453.871	2592.01
454.244	2665.45
454.618	2661.61
454.992	2728.28
455.365	2658.67
455.739	2752.46
456.112	2775.73
456.486	2797.88
456.859	2827.71
457.232	2885.11
457.606	2923.52
457.979	2950.42
458.352	2994.26
458.725	3054.14
459.099	3052.33
459.472	3096.4
459.845	3117.64
460.218	3139.79
460.591	3168.04
460.964	3193.12
461.337	3233.8
461.71	3333.68
462.083	3360.35
462.456	3379.11
462.829	3376.17
463.201	3400.57
463.574	3478.99
463.947	3483.96
464.32	3613.22
464.692	3571.64
465.065	3639.21
465.438	3710.85
465.81	3720.34
466.183	3779.77
466.555	3875.14
466.928	3844.18
467.3	3895.02
467.672	3932.31
468.045	4053.21
468.417	4107.45
468.789	4076.71
469.161	4157.39
469.534	4197.16
469.906	4295.01
470.278	4321.91
470.65	4359.65
471.022	4466.54
471.394	4569.13
471.766	4552.86
472.138	4582.01
472.51	4717.6
472.882	4815
473.253	4833.31
473.625	4885.51
473.997	4999.4
474.369	5032.4
474.74	5068.33
475.112	5183.8
475.484	5287.3
475.855	5383.8
476.227	5420.41
476.598	5555.77
476.97	5603.91
477.341	5695.66
477.713	5783.79
478.084	5863.11
478.455	5960.28
478.827	6024.23
479.198	6206.38
479.569	6194.85
479.94	6385.35
480.311	6461.28
480.682	6608.17
481.053	6752.12
481.424	6851.11
481.795	6874.38
482.166	7032.34
482.537	7100.82
482.908	7297.87
483.279	7330.64
483.65	7467.59
484.021	7640.24
484.391	7708.26
484.762	7841.81
485.133	7840.46
485.503	8014.01
485.874	8191.41
486.244	8215.82
486.615	8372.65
486.985	8517.95
487.356	8756.82
487.726	8674.79
488.097	8845.63
488.467	8917.04
488.837	9073.19
489.207	9258.5
489.578	9376.91
489.948	9474.31
490.318	9609.9
490.688	9632.27
491.058	9731.93
491.428	9877.92
491.798	10053.05
492.168	10210.79
492.538	10235.2
492.908	10368.3
493.278	10514.29
493.648	10643.32
494.017	10683.55
494.387	10794.73
494.757	10849.42
495.126	11001.28
495.496	11048.51
495.866	11168.51
496.235	11267.71
496.605	11407.14
496.974	11434.71
497.344	11589.74
497.713	11591.09
498.082	11747.02
498.452	11854.59
498.821	11866.11
499.19	11946.56
499.559	12102.49
499.928	12130.97
500.298	12234.69
500.667	12401.47
501.036	12422.26
501.405	12523.5
501.774	12574.34
502.143	12660.44
502.512	12597.17
502.88	12860.44
503.249	12901.12
503.618	12992.19
503.987	13057.95
504.356	13184.72
504.724	13256.13
505.093	13293.87
505.462	13362.8
505.83	13515.34
506.199	13589.01
506.567	13787.87
506.936	13787.65
507.304	13922.33
507.672	14112.61
508.041	14126.85
508.409	14241.42
508.777	14410
509.145	14541.52
509.514	14506.05
509.882	14634.63
510.25	14655.65
510.618	14777.22
510.986	14862.19
511.354	15126.82
511.722	15241.39
512.09	15334.95
512.458	15409.3
512.826	15456.53
513.193	15607.03
513.561	15665.34
513.929	15769.97
514.297	15854.26
514.664	16116.17
515.032	16121.14
515.4	16304.64
515.767	16398.2
516.135	16481.36
516.502	16377.63
516.869	16735.14
517.237	16804.52
517.604	16761.58
517.972	17047.9
518.339	17147.56
518.706	17221.91
519.073	17352.75
519.44	17356.37
519.808	17616.92
520.175	17712.29
520.542	17919.29
520.909	18062.11
521.276	18123.58
521.643	18324.93
522.009	18467.75
522.376	18504.58
522.743	18679.27
523.11	18843.11
523.477	19080.61
523.843	19196.09
524.21	19302.3
524.577	19554.27
524.943	19484.67
525.31	19650.32
525.676	19848.96
526.043	20068.84
526.409	20106.8
526.776	20422.05
527.142	20491.65
527.508	20661.82
527.874	20821.36
528.241	20964.41
528.607	20908.81
528.973	21214.57
529.339	21215.47
529.705	21413.66
530.071	21587.21
530.437	21627.67
530.803	21902.46
531.169	21880.54
531.535	21790.15
531.901	22000.76
532.267	22202.57
532.632	22311.49
532.998	22511.48
533.364	22557.81
533.73	22607.08
534.095	22830.12
534.461	22877.35
534.826	23076.22
535.192	23128.87
535.557	23303.1
535.923	23226.95
536.288	23378.13
536.653	23562.76
537.019	23401.18
537.384	23676.2
537.749	23772.24
538.114	23866.03
538.479	23844.56
538.845	24089.75
539.21	24017.66
539.575	24158.45
539.94	24262.85
540.305	24322.51
540.67	24414.71
541.034	24479.12
541.399	24632.33
541.764	24811.31
542.129	24751.65
542.494	24870.07
542.858	25027.8
543.223	24989.39
543.587	25181.92
543.952	25189.38
544.316	25301.92
544.681	25324.07
545.045	25396.83
545.41	25559.99
545.774	25722.7
546.138	25697.39
546.503	25799.08
546.867	25834.79
547.231	26144.84
547.595	26185.51
547.959	26121.11
548.324	26222.12
548.688	26294.66
549.052	26416.01
549.416	26524.94
549.779	26407.43
550.143	26592.51
550.507	26808.55
550.871	26763.35
551.235	26875.44
551.599	27033.17
551.962	27083.57
552.326	27131.48
552.689	27317.69
553.053	27331.47
553.417	27461.18
553.78	27882.87
554.143	27570.11
554.507	27794.74
554.87	27841.74
555.234	28119.7
555.597	28006.26
555.96	28107.72
556.323	28424.32
556.686	28412.8
557.05	28648.27
557.413	28635.84
557.776	28723.75
558.139	28968.72
558.502	29048.71
558.865	29052.78
559.228	29252.32
559.59	29428.14
559.953	29431.98
560.316	29790.84
560.679	29741.58
561.041	30031.29
561.404	30012.76
561.767	30302.92
562.129	30205.07
562.492	30596.92
562.854	30599.18
563.217	30568.45
563.579	30778.16
563.941	30871.04
564.304	31069.23
564.666	31211.37
565.028	31253.63
565.39	31327.75
565.753	31424.02
566.115	31617.01
566.477	31828.3
566.839	31832.6
567.201	32130.21
567.563	31984.68
567.925	32265.58
568.287	32281.17
568.648	32438.91
569.01	32544.44
569.372	32883.87
569.734	32716.64
570.095	32971.77
570.457	33060.81
570.819	32978.55
571.18	33060.59
571.542	33286.57
571.903	33231.65
572.265	33433.01
572.626	33475.72
572.987	33665.09
573.349	33762.94
573.71	33841.36
574.071	33812.2
574.432	33997.74
574.794	34284.96
575.155	34047.45
575.516	34021.01
575.877	34225.75
576.238	34330.61
576.599	34388.46
576.96	34458.06
577.32	34442.92
577.681	34620.54
578.042	34608.79
578.403	34680.2
578.763	34703.25
579.124	34720.43
579.485	34863.7
579.845	35020.31
580.206	34806.53
580.566	34980.76
580.927	35012.17
581.287	35102.57
581.648	34996.35
582.008	35045.84
582.368	35030.03
582.728	35063.47
583.089	35152.96
583.449	35095.11
583.809	35008.1
584.169	35124.94
584.529	35123.81
584.889	35326.74
585.249	35200.87
585.609	35035.45
585.969	35259.17
586.329	35126.07
586.688	35216.91
587.048	35161.32
587.408	35120.19
587.768	35124.03
588.127	35108.22
588.487	35032.06
588.846	35310.02
589.206	35068.22
589.565	35193.64
589.925	35350.47
590.284	35227.08
590.643	35143.02
591.003	35310.47
591.362	35433.86
591.721	35331.49
592.08	35252.17
592.44	35409.68
592.799	35276.57
593.158	35254.88
593.517	35258.27
593.876	35289.45
594.235	35309.79
594.593	35274.09
594.952	35336.91
595.311	35290.13
595.67	35384.82
596.029	35522.22
596.387	35535.1
596.746	35461.65
597.104	35343.69
597.463	35315.67
597.822	35472.05
598.18	35407.42
598.538	35394.54
598.897	35546.62
599.255	35373.97
599.613	35915.65
599.972	35461.43
600.33	35579.16
600.688	35496.91
601.046	35606.51
601.404	35717.24
601.762	35668.65
602.12	35797.01
602.478	35526.51
602.836	35662.55
603.194	35582.78
603.552	35667.07
603.91	35520.63
604.268	35719.95
604.625	35606.51
604.983	35749.33
605.341	35561.54
605.698	35868.2
606.056	35900.28
606.413	35803.34
606.771	36001.98
607.128	36014.63
607.485	35835.2
607.843	35843.56
608.2	36033.61
608.557	36125.14
608.914	35985.71
609.272	36078.59
609.629	36121.3
609.986	36286.49
610.343	36116.78
610.7	36485.81
611.057	36298.47
611.414	36391.12
611.771	36348.63
612.127	36457.33
612.484	36431.8
612.841	36568.29
613.198	36501.17
613.554	36500.04
613.911	36709.76
614.267	36734.61
614.624	36632.02
614.98	36688.51
615.337	36879.92
615.693	36813.03
616.05	36776.19
616.406	37031.78
616.762	36828.85
617.118	36952.23
617.475	36874.95
617.831	36951.33
618.187	37070.2
618.543	36964.44
618.899	37358.55
619.255	37204.21
619.611	37227.48
619.967	37124.43
620.323	37260.7
620.678	37177.09
621.034	37033.81
621.39	37248.5
621.746	36960.14
622.101	37443.97
622.457	37207.82
622.812	37173.92
623.168	37316.97
623.523	37283.53
623.879	37408.04
624.234	37093.47
624.589	37276.52
624.945	37331.89
625.3	37352
625.655	37354.26
626.01	37453.24
626.365	37342.05
626.72	37328.5
627.075	37342.73
627.43	37106.13
627.785	37156.75
628.14	37230.42
628.495	37382.51
628.85	37253.24
629.205	37045.11
629.559	37421.15
629.914	37128.05
630.269	37094.38
630.623	37023.87
630.978	37023.42
631.332	37116.75
631.687	37134.6
632.041	36982.97
632.396	36951.33
632.75	36881.73
633.104	37080.37
633.459	36747.27
633.813	36783.2
634.167	36717.89
634.521	36742.3
634.875	36661.62
635.229	36626.14
635.583	36407.39
635.937	36596.99
636.291	36540.04
636.645	36494.39
636.999	36306.15
637.352	36471.34
637.706	36378.92
638.06	36368.52
638.413	36237.45
638.767	36239.03
639.121	36273.38
639.474	36028.64
639.828	36018.93
640.181	36073.84
640.534	36028.87
640.888	35899.61
641.241	35754.07
641.594	35828.42
641.947	35916.1
642.301	35729.44
642.654	35823.9
643.007	35894.86
643.36	35694.19
643.713	35605.6
644.066	35664.13
644.419	35432.73
644.771	35323.8
645.124	34899.63
645.477	34641.33
645.83	34403.38
646.182	34469.59
646.535	34350.27
646.888	34432.53
647.24	34349.59
647.593	34538.51
647.945	34414
648.298	34319.54
648.65	34223.04
649.002	34092.2
649.355	34282.93
649.707	34184.85
650.059	34186.66
650.411	34581.45
650.763	34656.48
651.115	34934.89
651.467	34868.45
651.819	34936.02
652.171	34766.53
652.523	34742.58
652.875	34649.47
653.227	34564.73
653.578	34668
653.93	34578.06
654.282	34508.23
654.633	34364.73
654.985	34567.21
655.337	34556.37
655.688	34467.55
656.039	34660.77
656.391	34257.39
656.742	34409.7
657.094	34407.44
657.445	34439.76
657.796	34405.18
658.147	34223.72
658.498	34258.97
658.849	34188.01
659.2	34071.63
659.551	34072.31
659.902	34000.45
660.253	34059.66
660.604	34108.24
660.955	33844.97
661.306	33835.71
661.656	33945.53
662.007	33805.42
662.358	33711.87
662.708	33893.56
663.059	33622.6
663.409	33549.39
663.76	33604.75
664.11	33563.85
664.461	33665.32
664.811	33611.76
665.161	33538.99
665.511	33508.03
665.862	33255.16
666.212	33456.06
666.562	33519.1
666.912	33315.27
667.262	33127.93
667.612	33137.87
667.962	32894.49
668.312	32941.04
668.662	33084.54
669.011	32878.67
669.361	32692.23
669.711	32662.63
670.06	32548.96
670.41	32507.83
670.76	32453.37
671.109	32522.97
671.459	32419.7
671.808	32333.82
672.157	32305.13
672.507	32131.57
672.856	32065.81
673.205	32069.43
673.554	32220.83
673.904	31897.9
674.253	32210.21
674.602	31924.8
674.951	31400.52
675.3	31326.62
675.649	31818.58
675.998	31794.86
676.346	31718.25
676.695	31876.44
677.044	31669.66
677.393	31687.74
677.741	31641.19
678.09	31500.4
678.438	31524.35
678.787	31473.51
679.135	31438.93
679.484	31223.57
679.832	31534.3
680.181	31232.16
680.529	31448.42
680.877	31376.79
681.225	31261.54
681.573	31532.26
681.922	31263.8
682.27	31223.8
682.618	31227.64
682.966	31245.04
683.314	31356.68
683.661	31319.84
684.009	31098.38
684.357	31159.17
684.705	31133.4
685.053	31376.79
685.4	31363.68
685.748	31024.25
686.095	31073.52
686.443	31025.84
686.79	31024.03
687.138	31123.69
687.485	31158.04
687.832	31069
688.18	31210.92
688.527	30922.56
688.874	31156
689.221	30989
689.568	30928.21
689.915	30954.65
690.262	30953.52
690.609	30784.26
690.956	30793.53
691.303	30826.97
691.65	30803.24
691.997	30750.14
692.344	30528
692.69	30698.61
693.037	30674.89
693.383	30525.28
693.73	30585.62
694.077	30343.14
694.423	30375.23
694.769	30298.17
695.116	30266.76
695.462	30289.81
695.808	30241.22
696.155	30266.99
696.501	30098.18
696.847	30222.69
697.193	29800.33
697.539	29985.64
697.885	29701.8
698.231	29724.4
698.577	29700.9
698.923	29656.83
699.269	29678.53
699.614	29598.98
699.96	29413.45
700.306	29348.82
700.651	29359.67
700.997	29230.63
701.342	29196.28
701.688	29139.33
702.033	29158.32
702.379	29083.29
702.724	28860.47
703.069	28953.12
703.415	28697.31
703.76	28767.59
704.105	28702.73
704.45	28568.05
704.795	28485.11
705.14	28516.52
705.485	28270.43
705.83	28150.88
706.175	28261.16
706.52	28247.83
706.865	28054.84
707.209	28078.34
707.554	27959.02
707.899	27982.07
708.243	27829.31
708.588	27822.08
708.932	27686.04
709.277	27699.14
709.621	27642.42
709.966	27369.44
710.31	27450.34
710.654	27228.87
710.998	27338.25
711.342	27374.18
711.687	27190.91
712.031	27208.08
712.375	27049.44
712.719	27086.96
713.063	26998.6
713.407	27103
713.75	26922.89
714.094	26891.26
714.438	26824.14
714.782	26983.23
715.125	26795.89
715.469	26779.62
715.812	26590.7
716.156	26437.48
716.499	26452.4
716.843	26584.37
717.186	26342.8
717.53	26385.73
717.873	26383.47
718.216	26332.17
718.559	26272.06
718.902	26061.67
719.246	26183.48
719.589	25903.71
719.932	25828.91
720.275	25863.94
720.617	25821.23
720.96	25887.67
721.303	25883.37
721.646	25760.66
721.989	25675.92
722.331	25641.8
722.674	25726.99
723.016	25618.3
723.359	25455.59
723.701	25589.14
724.044	25421.01
724.386	25270.51
724.729	25399.54
725.071	25387.79
725.413	25271.19
725.755	25343.95
726.097	25222.83
726.439	25137.18
726.782	25061.7
727.124	25208.59
727.465	25120.91
727.807	24927.01
728.149	24914.59
728.491	24923.85
728.833	24923.4
729.175	24846.11
729.516	24891.53
729.858	24765.89
730.199	24713.91
730.541	24815.15
730.882	24639.56
731.224	24715.04
731.565	24484.77
731.906	24540.36
732.248	24531.32
732.589	24336.07
732.93	24318.89
733.271	24343.53
733.612	24372.9
733.953	24350.98
734.294	24276.86
734.635	24167.03
734.976	24174.04
735.317	24045.23
735.658	24062.18
735.999	24047.49
736.339	24028.96
736.68	24026.47
737.021	24042.29
737.361	23864.22
737.702	23908.06
738.042	23846.82
738.383	23701.96
738.723	23825.8
739.063	23706.71
739.404	23843.88
739.744	23668.97
740.084	23600.95
740.424	23586.03
740.764	23590.33
741.104	23499.93
741.444	23463.55
741.784	23522.08
742.124	23403.21
742.464	23541.06
742.804	23431.69
743.143	23364.57
743.483	23382.65
743.823	23191.01
744.162	23205.93
744.502	23229.21
744.841	23130.68
745.181	23244.35
745.52	23020.4
745.86	22940.17
746.199	22985.37
746.538	22965.48
746.877	22938.82
747.216	22996.67
747.556	22838.03
747.895	22856.79
748.234	22791.93
748.573	22644.36
748.911	22722.33
749.25	22654.98
749.589	22681.65
749.928	22613.18
750.267	22523.46
750.605	22544.93
750.944	22482.56
751.283	22390.36
751.621	22429
751.96	22244.82
752.298	22305.39
752.636	22306.07
752.975	22162.79
753.313	22016.13
753.651	22169.12
753.989	22035.11
754.327	21944.95
