Data from White_reflection_standard_FLMS001491_097.txt Node
Date: Tue Feb 07 10:32:14 GMT 2017
User: dcchb
Spectrometer: FLMS00149
Trigger mode: 0
Integration Time (sec): 2.000000E-2
Scans to average: 10
Electric dark correction enabled: true
Nonlinearity correction enabled: false
Boxcar width: 0
XAxis mode: Wavelengths
Number of Pixels in Spectrum: 2048
>>>>>Begin Spectral Data<<<<<
341.393	-9.75
341.776	-9.75
342.16	-9.75
342.543	-54.72
342.927	-49.52
343.31	-63.3
343.693	-77.09
344.077	-60.14
344.46	-56.52
344.843	-50.42
345.226	-65.79
345.61	-14.94
345.993	-27.6
346.376	-4.32
346.759	2.68
347.142	25.51
347.525	47.2
347.908	51.27
348.291	70.03
348.674	107.31
349.057	116.13
349.44	117.48
349.823	151.61
350.206	159.97
350.588	225.5
350.971	257.37
351.354	256.69
351.737	278.38
352.119	311.6
352.502	312.05
352.884	317.25
353.267	324.48
353.65	334.2
354.032	366.97
354.414	335.1
354.797	350.25
355.179	350.7
355.562	369.91
355.944	387.76
356.326	404.25
356.709	379.4
357.091	385.5
357.473	406.97
357.855	388.21
358.238	394.99
358.62	427.53
359.002	395.44
359.384	391.83
359.766	409
360.148	383.69
360.53	415.33
360.912	395.22
361.294	400.41
361.676	421.43
362.057	421.66
362.439	414.42
362.821	425.05
363.203	392.05
363.584	411.26
363.966	416.68
364.348	405.38
364.729	388.89
365.111	413.52
365.493	409.45
365.874	409
366.256	419.17
366.637	425.72
367.019	411.49
367.4	418.04
367.781	396.35
368.163	423.01
368.544	431.15
368.925	417.59
369.306	425.5
369.688	427.53
370.069	412.39
370.45	439.51
370.831	451.49
371.212	412.16
371.593	433.18
371.974	437.93
372.355	443.12
372.736	457.13
373.117	454.42
373.498	458.72
373.879	458.26
374.26	459.39
374.641	435.44
375.021	460.98
375.402	461.65
375.783	468.89
376.163	493.07
376.544	500.52
376.925	490.81
377.305	475.44
377.686	480.64
378.066	480.86
378.447	504.59
378.827	491.26
379.208	497.59
379.588	517.7
379.968	508.88
380.349	517.47
380.729	534.42
381.109	539.62
381.489	539.39
381.87	532.61
382.25	550.24
382.63	554.53
383.01	542.1
383.39	580.3
383.77	556.34
384.15	578.94
384.53	569.45
384.91	583.01
385.29	579.62
385.67	607.87
386.049	628.66
386.429	620.97
386.809	623.91
387.189	616.68
387.568	634.08
387.948	643.57
388.328	631.37
388.707	676.56
389.087	669.33
389.466	696.9
389.846	679.05
390.225	691.48
390.605	667.75
390.984	707.07
391.363	699.61
391.743	739.16
392.122	731.25
392.501	720.18
392.881	751.59
393.26	763.34
393.639	768.09
394.018	768.77
394.397	784.13
394.776	771.7
395.155	791.14
395.534	787.52
395.913	799.95
396.292	827.29
396.671	814.64
397.05	829.78
397.429	856.9
397.808	844.7
398.186	852.15
398.565	875.88
398.944	849.89
399.323	870.46
399.701	903
400.08	876.78
400.458	899.16
400.837	898.25
401.215	911.36
401.594	939.61
401.972	937.35
402.351	955.88
402.729	964.01
403.107	937.8
403.486	996.33
403.864	978.25
404.242	1011.24
404.62	1006.5
404.999	1017.8
405.377	1039.94
405.755	1067.74
406.133	1069.1
406.511	1085.82
406.889	1108.64
407.267	1095.76
407.645	1136.44
408.023	1132.15
408.401	1158.59
408.779	1169.88
409.156	1185.25
409.534	1197
409.912	1180.28
410.29	1224.12
410.667	1254.4
411.045	1293.95
411.422	1270.45
411.8	1317.23
412.178	1304.57
412.555	1368.3
412.933	1356.09
413.31	1396.32
413.687	1411.69
414.065	1399.48
414.442	1411.23
414.819	1441.06
415.197	1458.69
415.574	1490.55
415.951	1517.67
416.328	1488.75
416.705	1533.04
417.082	1523.1
417.46	1563.09
417.837	1545.24
418.214	1572.81
418.591	1636.54
418.967	1600.38
419.344	1615.07
419.721	1673.37
420.098	1669.08
420.475	1668.85
420.852	1674.73
421.228	1727.84
421.605	1735.97
421.982	1740.94
422.358	1789.3
422.735	1806.93
423.111	1805.12
423.488	1830.43
423.864	1861.84
424.241	1839.7
424.617	1905.68
424.994	1924.44
425.37	1923.09
425.746	1974.38
426.123	1985.46
426.499	1996.3
426.875	2034.04
427.251	2074.04
427.627	2094.15
428.003	2133.02
428.379	2142.74
428.756	2172.12
429.132	2223.19
429.507	2247.6
429.883	2268.61
430.259	2286.24
430.635	2306.35
431.011	2330.76
431.387	2395.39
431.763	2460.02
432.138	2491.88
432.514	2528.49
432.89	2570.98
433.265	2526.68
433.641	2612.56
434.016	2638.09
434.392	2657.53
434.767	2724.87
435.143	2713.57
435.518	2728.49
435.894	2791.54
436.269	2840.12
436.644	2860.01
437.02	2909.95
437.395	2900.91
437.77	2956.28
438.145	2970.52
438.52	3041.02
438.895	3046.22
439.271	3097.52
439.646	3121.92
440.021	3170.96
440.395	3171.64
440.77	3195.59
441.145	3184.75
441.52	3272.65
441.895	3286.66
442.27	3334.35
442.645	3318.53
443.019	3370.5
443.394	3403.27
443.769	3414.12
444.143	3399.88
444.518	3509.94
444.892	3424.97
445.267	3473.33
445.641	3525.53
446.016	3538.41
446.39	3596.71
446.764	3602.59
447.139	3623.83
447.513	3658.18
447.887	3635.58
448.262	3706.99
448.636	3733.66
449.01	3777.95
449.384	3794
449.758	3834.22
450.132	3855.01
450.506	3896.82
450.88	3940.43
451.254	3986.08
451.628	4008.23
452.002	4071.96
452.376	4103.82
452.75	4121.9
453.123	4186.98
453.497	4271.27
453.871	4286.19
454.244	4359.18
454.618	4426.07
454.992	4477.82
455.365	4451.83
455.739	4614.54
456.112	4603.69
456.486	4717.14
456.859	4729.79
457.232	4807.08
457.606	4824.93
457.979	4914.42
458.352	4943.8
458.725	5053.17
459.099	5095.88
459.472	5160.97
459.845	5206.84
460.218	5261.75
460.591	5378.59
460.964	5380.4
461.337	5454.52
461.71	5578.81
462.083	5656.55
462.456	5628.3
462.829	5719.82
463.201	5811.34
463.574	5781.06
463.947	5966.82
464.32	6046.59
464.692	6054.5
465.065	6149.41
465.438	6223.54
465.81	6343.99
466.183	6388.73
466.555	6505.34
466.928	6609.52
467.3	6529.29
467.672	6692.9
468.045	6842.28
468.417	6836.85
468.789	6990.3
469.161	7027.58
469.534	7198.2
469.906	7322.27
470.278	7409.95
470.65	7435.03
471.022	7590.73
471.394	7759.99
471.766	7823.49
472.138	7877.5
472.51	8077.27
472.882	8242.01
473.253	8362.69
473.625	8434.33
473.997	8648.11
474.369	8686.52
474.74	8834.32
475.112	9001.99
475.484	9123.35
475.855	9270.24
476.227	9385.04
476.598	9564.69
476.97	9662.99
477.341	9946.38
477.713	10056.88
478.084	10108.41
478.455	10432.69
478.827	10467.95
479.198	10808.28
479.569	10845.11
479.94	11165.1
480.311	11294.36
480.682	11461.37
481.053	11746.56
481.424	11921.69
481.795	12041.69
482.166	12234
482.537	12423.83
482.908	12683.48
483.279	12837.6
483.65	12980.65
484.021	13302.9
484.391	13448.88
484.762	13522.55
485.133	13807.52
485.503	13911.92
485.874	14290.67
486.244	14341.97
486.615	14679.81
486.985	14843.2
487.356	15022.63
487.726	15228.27
488.097	15533.35
488.467	15568.15
488.837	15884.98
489.207	16038.65
489.578	16283.84
489.948	16437.05
490.318	16767.21
490.688	16778.29
491.058	17078.39
491.428	17338.05
491.798	17470.25
492.168	17820.75
492.538	17898.48
492.908	18108.87
493.278	18312.94
493.648	18340.05
494.017	18590.44
494.387	18745.47
494.757	18998.34
495.126	19124.21
495.496	19117.66
495.866	19372.34
496.235	19628.38
496.605	19783.41
496.974	19932.1
497.344	20093.45
497.713	20225.65
498.082	20320.57
498.452	20560.79
498.821	20686.43
499.19	20691.41
499.559	20921.46
499.928	21168.23
500.298	21268.79
500.667	21475.57
501.036	21411.84
501.405	21627.88
501.774	21704.71
502.143	21959.85
502.512	22123.68
502.88	22410
503.249	22304.02
503.618	22511.24
503.987	22584.91
504.356	22832.14
504.724	22973.83
505.093	23045.02
505.462	23214.28
505.83	23403.42
506.199	23602.74
506.567	23928.38
506.936	23929.96
507.304	24255.83
507.672	24342.83
508.041	24411.99
508.409	24685.2
508.777	24822.37
509.145	24942.14
509.514	25021.91
509.882	25244.51
510.25	25433.65
510.618	25557.27
510.986	25610.37
511.354	25938.5
511.722	26077.25
512.09	26400.18
512.458	26407.19
512.826	26614.64
513.193	26817.35
513.561	26973.05
513.929	27174.17
514.297	27436.99
514.664	27580.72
515.032	27711.33
515.4	27913.36
515.767	28072.91
516.135	28273.8
516.502	28197.2
516.869	28787.01
517.237	28841.7
517.604	28824.98
517.972	29213.21
518.339	29471.06
518.706	29571.4
519.073	29554.67
519.44	29894.33
519.808	30329.8
520.175	30290.93
520.542	30750.35
520.909	30783.8
521.276	30808.65
521.643	31264.23
522.009	31552.59
522.376	31774.05
522.743	31795.07
523.11	32147.6
523.477	32550.53
523.843	32626.91
524.21	33018.99
524.577	33228.48
524.943	33478.87
525.31	33626.88
525.676	34013.54
526.043	34144.61
526.409	34351.38
526.776	34702.56
527.142	34843.58
527.508	34955.66
527.874	35218.03
528.241	35486.04
528.607	35534.4
528.973	35913.38
529.339	36131.23
529.705	36482.63
530.071	36701.38
530.437	36779.12
530.803	36958.32
531.169	37339.78
531.535	37225.66
531.901	37403.96
532.267	37650.96
532.632	37890.5
532.998	37986.77
533.364	38279.19
533.73	38430.6
534.095	38615.91
534.461	38687.32
534.826	38927.99
535.192	39026.97
535.557	39305.15
535.923	39399.39
536.288	39615.43
536.653	39790.34
537.019	39714.86
537.384	39964.8
537.749	40106.49
538.114	40190.33
538.479	40312.36
538.845	40513.03
539.21	40493.14
539.575	40706.25
539.94	40831.44
540.305	41103.3
540.67	41135.16
541.034	41374.48
541.399	41509.84
541.764	41585.32
542.129	41675.71
542.494	41866.89
542.858	42051.52
543.223	42122.48
543.587	42294.45
543.952	42320.67
544.316	42482.02
544.681	42489.93
545.045	42704.84
545.41	43041.1
545.774	43045.85
546.138	43207.88
546.503	43182.57
546.867	43392.5
547.231	43667.07
547.595	43768.09
547.959	43830.91
548.324	43868.65
548.688	44161.07
549.052	44233.61
549.416	44277.45
549.779	44381.63
550.143	44582.98
550.507	44960.6
550.871	45013.25
551.235	45008.28
551.599	45306.8
551.962	45340.47
552.326	45501.37
552.689	45702.95
553.053	45596.96
553.417	45819.33
553.78	46268.59
554.143	46198.98
554.507	46386.1
554.87	46417.28
555.234	46948.34
555.597	46774.11
555.96	46900.43
556.323	47178.39
556.686	47174.1
557.05	47508.78
557.413	47520.76
557.776	47772.73
558.139	48067.86
558.502	47978.15
558.865	48167.07
559.228	48442.99
559.59	48502.2
559.953	48543.33
560.316	49043.65
560.679	49016.76
561.041	49263.99
561.404	49272.57
561.767	49657.65
562.129	49560.25
562.492	49918.66
562.854	49906
563.217	50028.49
563.579	50185.09
563.941	50361.13
564.304	50516.61
564.666	50814.45
565.028	50776.94
565.39	50918.18
565.753	51015.35
566.115	51239.75
566.477	51424.16
566.839	51529.24
567.201	51730.14
567.563	51776.92
567.925	51964.93
568.287	52010.81
568.648	52108.21
569.01	52225.27
569.372	52376.67
569.734	52355.21
570.095	52565.14
570.457	52701.18
570.819	52774.4
571.18	52790.9
571.542	52982.76
571.903	53119.93
572.265	53116.77
572.626	53239.02
572.987	53310.66
573.349	53349.3
573.71	53575.29
574.071	53568.28
574.432	53644.44
574.794	53850.76
575.155	53815.05
575.516	53713.14
575.877	53875.62
576.238	53994.94
576.599	54146.34
576.96	54089.4
577.32	54160.58
577.681	54221.6
578.042	54392.67
578.403	54304.08
578.763	54345.89
579.124	54339.56
579.485	54443.29
579.845	54598.99
580.206	54477.64
580.566	54526.9
580.927	54607.35
581.287	54651.87
581.648	54555.83
582.008	54708.14
582.368	54546.33
582.728	54675.37
583.089	54714.01
583.449	54773.22
583.809	54715.37
584.169	54859.55
584.529	54734.58
584.889	54913.78
585.249	54814.12
585.609	54621.59
585.969	54874.01
586.329	54745.88
586.688	54830.62
587.048	54731.41
587.408	54835.59
587.768	54773.67
588.127	54766.67
588.487	54709.49
588.846	54960.56
589.206	54755.82
589.565	54826.55
589.925	54898.87
590.284	54897.29
590.643	54901.35
591.003	54938.19
591.362	54966.21
591.721	54971.41
592.08	54964.85
592.44	55012.99
592.799	54978.41
593.158	54975.93
593.517	54956.72
593.876	55031.75
594.235	55023.16
594.593	54967.34
594.952	55038.75
595.311	54953.33
595.67	55055.7
596.029	55174.11
596.387	55204.4
596.746	55210.95
597.104	55089.6
597.463	55137.96
597.822	55263.83
598.18	55145.64
598.538	55078.52
598.897	55252.76
599.255	55009.82
599.613	55429.93
599.972	55273.09
600.33	55402.13
600.688	55246.2
601.046	55336.6
601.404	55459.98
601.762	55396.48
602.12	55539.98
602.478	55519.64
602.836	55501.11
603.194	55437.84
603.552	55478.06
603.91	55433.77
604.268	55568
604.625	55498.85
604.983	55608.45
605.341	55506.76
605.698	55575.46
606.056	55636.93
606.413	55598.28
606.771	55754.66
607.128	55779.97
607.485	55542.69
607.843	55652.75
608.2	55810.48
608.557	55942.23
608.914	55835.57
609.272	55906.75
609.629	55966.18
609.986	55993.08
610.343	55934.32
610.7	56126.18
611.057	56074.43
611.414	55989.01
611.771	56055.9
612.127	56209.12
612.484	56192.84
612.841	56249.11
613.198	56128.89
613.554	56160.98
613.911	56275.55
614.267	56300.64
614.624	56309.23
614.98	56318.72
615.337	56352.84
615.693	56311.03
616.05	56297.93
616.406	56584.7
616.762	56328.66
617.118	56398.94
617.475	56413.86
617.831	56486.4
618.187	56440.07
618.543	56501.99
618.899	56667.86
619.255	56600.52
619.611	56469.67
619.967	56580.63
620.323	56723
620.678	56583.12
621.034	56490.92
621.39	56492.27
621.746	56482.78
622.101	56797.12
622.457	56557.13
622.812	56603.91
623.168	56697.01
623.523	56658.82
623.879	56727.52
624.234	56501.99
624.589	56609.56
624.945	56664.47
625.3	56673.28
625.655	56571.59
626.01	56713.96
626.365	56672.38
626.72	56634.64
627.075	56609.1
627.43	56674.87
627.785	56500.63
628.14	56545.83
628.495	56585.6
628.85	56581.76
629.205	56464.7
629.559	56675.54
629.914	56457.02
630.269	56511.25
630.623	56350.58
630.978	56313.29
631.332	56475.77
631.687	56500.41
632.041	56407.75
632.396	56391.71
632.75	56301.99
633.104	56360.52
633.459	56197.82
633.813	56236.01
634.167	56234.88
634.521	56228.78
634.875	56211.38
635.229	56109.91
635.583	56006.41
635.937	55982.68
636.291	55884.83
636.645	55981.1
636.999	55893.42
637.352	55998.95
637.706	55739.52
638.06	55880.99
638.413	55802.35
638.767	55769.8
639.121	55820.65
639.474	55657.04
639.828	55662.69
640.181	55631.05
640.534	55623.37
640.888	55557.61
641.241	55440.77
641.594	55519.42
641.947	55567.78
642.301	55440.55
642.654	55459.53
643.007	55398.06
643.36	55354.9
643.713	55331.85
644.066	55335.92
644.419	55273.09
644.771	55027
645.124	54767.12
645.477	54716.95
645.83	54557.86
646.182	54442.38
646.535	54217.3
646.888	54358.54
647.24	54114.93
647.593	54397.19
647.945	54268.15
648.298	54052.11
648.65	54052.11
649.002	54006.24
649.355	54096.18
649.707	54094.59
650.059	54105.89
650.411	54440.35
650.763	54472.44
651.115	54764.86
651.467	54670.85
651.819	54673.56
652.171	54529.16
652.523	54476.96
652.875	54525.77
653.227	54325.1
653.578	54519.67
653.93	54503.62
654.282	54315.61
654.633	54312.22
654.985	54262.73
655.337	54356.96
655.688	54340.24
656.039	54331.2
656.391	54046.69
656.742	54163.75
657.094	54207.13
657.445	54129.62
657.796	54070.64
658.147	54012.79
658.498	54092.11
658.849	54094.82
659.2	54074.93
659.551	53970.53
659.902	54027.25
660.253	53981.38
660.604	54049.17
660.955	53827.03
661.306	53945.45
661.656	53928.5
662.007	53863.87
662.358	53831.32
662.708	53834.49
663.059	53893.47
663.409	53651.44
663.76	53857.76
664.11	53822.96
664.461	53766.02
664.811	53807.14
665.161	53789.52
665.511	53648.73
665.862	53705.23
666.212	53798.33
666.562	53786.35
666.912	53700.03
667.262	53676.75
667.612	53669.75
667.962	53562.86
668.312	53564.21
668.662	53772.57
669.011	53551.78
669.361	53607.15
669.711	53535.51
670.06	53460.94
670.41	53364.44
670.76	53385.01
671.109	53404.67
671.459	53451.9
671.808	53352.69
672.157	53361.05
672.507	53279.47
672.856	53152.47
673.205	53281.06
673.554	53380.94
673.904	53205.13
674.253	53367.38
674.602	53281.06
674.951	52755.19
675.3	52615.99
675.649	53060.5
675.998	53052.59
676.346	53069.99
676.695	53172.13
677.044	52830.67
677.393	53057.79
677.741	52969.43
678.09	52872.25
678.438	52802.65
678.787	52928.07
679.135	52855.31
679.484	52673.62
679.832	52807.4
680.181	52608.98
680.529	52691.92
680.877	52572.6
681.225	52580.06
681.573	52764.91
681.922	52422.55
682.27	52396.79
682.618	52461.19
682.966	52267.75
683.314	52328.09
683.661	52326.28
684.009	52110.01
684.357	51943.46
684.705	51868.89
685.053	51979.62
685.4	51991.15
685.748	51723.81
686.095	51745.73
686.443	51685.17
686.79	51587.09
687.138	51591.61
687.485	51569.69
687.832	51334.67
688.18	51522.91
688.527	51209.25
688.874	51298.51
689.221	51113.88
689.568	51145.75
689.915	50854.45
690.262	50935.13
690.609	50807.9
690.956	50779.2
691.303	50719.77
691.65	50555.03
691.997	50605.19
692.344	50285.66
692.69	50256.5
693.037	50280.01
693.383	49962.95
693.73	50061.71
694.077	49957.08
694.423	49889.96
694.769	49771.32
695.116	49629.18
695.462	49619.68
695.808	49367.26
696.155	49564.09
696.501	49177.44
696.847	49233.48
697.193	48960.27
697.539	49020.38
697.885	48849.53
698.231	48684.12
698.577	48682.76
698.923	48650.67
699.269	48393.5
699.614	48275.31
699.96	48235.77
700.306	48197.8
700.651	48108.31
700.997	47907.41
701.342	47848.21
701.688	47732.28
702.033	47685.27
702.379	47687.98
702.724	47565.95
703.069	47647.53
703.415	47125.06
703.76	47050.03
704.105	47145.17
704.45	46985.85
704.795	46777.5
705.14	46656.15
705.485	46554.91
705.83	46465.64
706.175	46472.87
706.52	46398.3
706.865	46281.24
707.209	46196.05
707.554	45977.07
707.899	46018.2
708.243	45808.71
708.588	45831.31
708.932	45522.62
709.277	45469.06
709.621	45661.82
709.966	45341.83
710.31	45284.2
710.654	45004.21
710.998	45098.22
711.342	45103.19
711.687	44936.42
712.031	44797.89
712.375	44673.6
712.719	44766.7
713.063	44547.28
713.407	44613.94
713.75	44428.41
714.094	44324.46
714.438	44237.9
714.782	44229.09
715.125	44007.4
715.469	44105.93
715.812	43785.49
716.156	43751.82
716.499	43706.17
716.843	43658.26
717.186	43470.47
717.53	43597.47
717.873	43560.86
718.216	43512.5
718.559	43291.04
718.902	42997.49
719.246	42891.95
719.589	42930.14
719.932	42826.64
720.275	42756.59
720.617	42746.19
720.96	42619.87
721.303	42653.09
721.646	42562.92
721.989	42359.99
722.331	42518.18
722.674	42464.62
723.016	42410.61
723.359	42255.81
723.701	42345.75
724.044	42028.02
724.386	41854.46
724.729	42030.28
725.071	41916.84
725.413	41803.39
725.755	41801.36
726.097	41535.15
726.439	41447.24
726.782	41416.28
727.124	41543.06
727.465	41380.58
727.807	41205.44
728.149	41129.29
728.491	41149.85
728.833	41149.62
729.175	40934.26
729.516	40956.18
729.858	40789.18
730.199	40968.61
730.541	40643.42
730.882	40715.96
731.224	40808.84
731.565	40619.24
731.906	40504.67
732.248	40518.68
732.589	40188.75
732.93	40250.21
733.271	40258.57
733.612	40215.64
733.953	40162.53
734.294	40091.57
734.635	39935.42
734.976	40101.29
735.317	39681.87
735.658	39848.19
735.999	39675.54
736.339	39544.92
736.68	39745.14
737.021	39516.9
737.361	39379.95
737.702	39575.88
738.042	39315.1
738.383	39269.45
738.723	39354.19
739.063	39190.13
739.404	39193.74
739.744	39147.87
740.084	38956.01
740.424	38944.94
740.764	38759.4
741.104	38958.27
741.444	38708.56
741.784	38509.47
742.124	38706.75
742.464	38547.43
742.804	38517.6
743.143	38616.36
743.483	38499.75
743.823	38216.82
744.162	38138.63
744.502	38236.71
744.841	38032.87
745.181	38191.74
745.52	37982.93
745.86	38046.65
746.199	37930.5
746.538	37785.87
746.877	37872.2
747.216	37906.55
747.556	37721.92
747.895	37701.81
748.234	37592.43
748.573	37458.42
748.911	37455.71
749.25	37437.18
749.589	37226.34
749.928	37215.94
750.267	37149.28
750.605	37290.74
750.944	36956.51
751.283	36822.28
751.621	36942.28
751.96	36796.74
752.298	36724.88
752.636	36759.46
