Data from white_steel_sheet_FLMS001491_017.txt Node
Date: Tue Feb 07 10:57:28 GMT 2017
User: dcchb
Spectrometer: FLMS00149
Trigger mode: 0
Integration Time (sec): 2.000000E-2
Scans to average: 10
Electric dark correction enabled: true
Nonlinearity correction enabled: false
Boxcar width: 0
XAxis mode: Wavelengths
Number of Pixels in Spectrum: 2048
>>>>>Begin Spectral Data<<<<<
341.393	-30.99
341.776	-30.99
342.16	-30.99
342.543	-76.64
342.927	-63.08
343.31	-66.02
343.693	-65.34
344.077	-51.33
344.46	-66.92
344.843	-57.2
345.226	-39.12
345.61	-41.61
345.993	-12.68
346.376	-14.94
346.759	-3.42
347.142	10.59
347.525	55.56
347.908	59.18
348.291	84.26
348.674	102.34
349.057	106.64
349.44	121.78
349.823	130.36
350.206	162.91
350.588	194.77
350.971	195.45
351.354	214.43
351.737	239.51
352.119	246.07
352.502	259.17
352.884	268.67
353.267	268.21
353.65	287.2
354.032	302.56
354.414	314.99
354.797	341.66
355.179	328.55
355.562	316.35
355.944	326.52
356.326	330.36
356.709	327.87
357.091	350.7
357.473	354.54
357.855	358.15
358.238	348.66
358.62	344.82
359.002	335.78
359.384	330.13
359.766	350.92
360.148	345.5
360.53	340.53
360.912	336.46
361.294	331.71
361.676	337.82
362.057	315.22
362.439	327.42
362.821	334.43
363.203	329.91
363.584	314.09
363.966	326.97
364.348	343.47
364.729	336.01
365.111	330.36
365.493	329.91
365.874	333.97
366.256	334.2
366.637	306.4
367.019	323.58
367.4	337.14
367.781	322.45
368.163	329
368.544	323.13
368.925	306.63
369.306	322.9
369.688	325.84
370.069	322
370.45	308.89
370.831	319.06
371.212	312.73
371.593	307.76
371.974	302.34
372.355	328.55
372.736	344.6
373.117	321.77
373.498	347.99
373.879	326.06
374.26	319.06
374.641	335.33
375.021	313.86
375.402	341.43
375.783	332.17
376.163	334.43
376.544	329.23
376.925	340.98
377.305	318.83
377.686	341.66
378.066	329.68
378.447	352.28
378.827	345.95
379.208	354.09
379.588	333.52
379.968	346.18
380.349	363.13
380.729	357.7
381.109	350.7
381.489	323.35
381.87	371.71
382.25	351.37
382.63	348.21
383.01	369.45
383.39	342.34
383.77	373.3
384.15	352.73
384.53	367.42
384.91	364.03
385.29	378.27
385.67	362.9
386.049	399.51
386.429	382.11
386.809	373.07
387.189	385.05
387.568	390.24
387.948	391.37
388.328	389.11
388.707	397.93
389.087	391.83
389.466	396.12
389.846	409.68
390.225	416.46
390.605	429.79
390.984	424.14
391.363	405.16
391.743	431.37
392.122	412.16
392.501	416.91
392.881	429.79
393.26	450.13
393.639	462.78
394.018	434.54
394.397	421.66
394.776	471.37
395.155	462.33
395.534	465.27
395.913	492.39
396.292	471.37
396.671	472.5
397.05	498.26
397.429	474.31
397.808	503.91
398.186	479.73
398.565	502.11
398.944	513.86
399.323	500.52
399.701	532.61
400.08	517.92
400.458	541.43
400.837	546.17
401.215	538.71
401.594	561.99
401.972	554.53
402.351	578.94
402.729	561.09
403.107	573.29
403.486	609.22
403.864	601.99
404.242	606.96
404.62	622.55
404.999	613.51
405.377	626.17
405.755	662.55
406.133	655.77
406.511	632.95
406.889	671.14
407.267	669.56
407.645	692.61
408.023	703.23
408.401	703
408.779	719.5
409.156	723.34
409.534	718.82
409.912	763.34
410.29	772.38
410.667	787.52
411.045	792.49
411.422	794.53
411.8	821.87
412.178	813.96
412.555	824.81
412.933	835.2
413.31	847.41
413.687	866.84
414.065	866.39
414.442	884.92
414.819	884.24
415.197	920.85
415.574	950.91
415.951	914.98
416.328	924.47
416.705	922.21
417.082	940.96
417.46	950.46
417.837	966.95
418.214	972.83
418.591	989.32
418.967	999.49
419.344	998.82
419.721	1016.67
420.098	1011.7
420.475	1038.59
420.852	1060.06
421.228	1054.41
421.605	1069.55
421.982	1073.62
422.358	1095.76
422.735	1113.39
423.111	1111.81
423.488	1149.32
423.864	1141.86
424.241	1160.39
424.617	1162.65
424.994	1190.45
425.37	1203.56
425.746	1187.74
426.123	1214.63
426.499	1197.68
426.875	1234.97
427.251	1251.69
427.627	1267.28
428.003	1288.98
428.379	1335.76
428.756	1293.27
429.132	1328.98
429.507	1346.83
429.883	1372.14
430.259	1401.74
430.635	1396.09
431.011	1403.1
431.387	1445.81
431.763	1474.74
432.138	1470.89
432.514	1489.2
432.89	1514.96
433.265	1538.01
433.641	1518.58
434.016	1579.59
434.392	1578.69
434.767	1651.68
435.143	1643.32
435.518	1625.47
435.894	1676.09
436.269	1686.26
436.644	1706.37
437.02	1740.49
437.395	1746.82
437.77	1763.54
438.145	1764.45
438.52	1800.83
438.895	1827.04
439.271	1821.39
439.646	1868.85
440.021	1887.61
440.395	1870.88
440.77	1876.76
441.145	1908.4
441.52	1942.07
441.895	1920.6
442.27	1970.77
442.645	1953.14
443.019	1958.79
443.394	2005.57
443.769	2024.33
444.143	2008.28
444.518	2043.08
444.892	2045.34
445.267	2081.72
445.641	2102.29
446.016	2115.62
446.39	2141.16
446.764	2131.44
447.139	2133.7
447.513	2127.15
447.887	2192.46
448.262	2218.9
448.636	2183.87
449.01	2243.98
449.384	2267.71
449.758	2246.69
450.132	2290.31
450.506	2305.22
450.88	2311.78
451.254	2355.62
451.628	2344.54
452.002	2394.94
452.376	2408.5
452.75	2450.3
453.123	2438.78
453.497	2502.96
453.871	2507.25
454.244	2561.71
454.618	2587.93
454.992	2634.03
455.365	2599
455.739	2667.7
456.112	2689.39
456.486	2736.62
456.859	2782.27
457.232	2808.71
457.606	2806.45
457.979	2838.54
458.352	2884.42
458.725	2969.16
459.099	2975.94
459.472	3020.91
459.845	3005.77
460.218	3020.68
460.591	3097.07
460.964	3101.13
461.337	3205.54
461.71	3202.83
462.083	3234.46
462.456	3267.91
462.829	3294.57
463.201	3326.89
463.574	3357.17
463.947	3420.45
464.32	3515.81
464.692	3514.46
465.065	3514.46
465.438	3615.92
465.81	3606.2
466.183	3683.49
466.555	3735.47
466.928	3739.31
467.3	3732.98
467.672	3805.75
468.045	3911.06
468.417	3954.9
468.789	3944.27
469.161	4020.88
469.534	4075.12
469.906	4169.13
470.278	4198.51
470.65	4251.39
471.022	4309.69
471.394	4414.77
471.766	4461.32
472.138	4481.21
472.51	4617.48
472.882	4697.93
473.253	4704.71
473.625	4725.27
473.997	4906.74
474.369	4891.82
474.74	4945.83
475.112	5068.77
475.484	5138.82
475.855	5233.73
476.227	5228.53
476.598	5385.37
476.97	5480.96
477.341	5595.53
477.713	5657.45
478.084	5656.32
478.455	5845.02
478.827	5915.52
479.198	6069.64
479.569	6028.74
479.94	6218.11
480.311	6322.52
480.682	6424.21
481.053	6587.37
481.424	6596.41
481.795	6682.28
482.166	6833.01
482.537	6883.63
482.908	7027.81
483.279	7115.72
483.65	7261.7
484.021	7415.6
484.391	7482.71
484.762	7524.29
485.133	7655.14
485.503	7757.73
485.874	7899.2
486.244	7967.9
486.615	8164.95
486.985	8300.54
487.356	8422.8
487.726	8489.24
488.097	8668.22
488.467	8663.7
488.837	8852.85
489.207	9019.17
489.578	9064.82
489.948	9149.79
490.318	9264.36
490.688	9329.44
491.058	9487.18
491.428	9589.78
491.798	9668.42
492.168	9967.39
492.538	9893.27
492.908	10056.43
493.278	10178.01
493.648	10171
494.017	10371.22
494.387	10452.8
494.757	10518.79
495.126	10626.81
495.496	10747.26
495.866	10852.57
496.235	10885.11
496.605	11039.46
496.974	11056.86
497.344	11281.93
497.713	11288.71
498.082	11332.78
498.452	11423.4
498.821	11557.63
499.19	11587.46
499.559	11711.08
499.928	11776.16
500.298	11869.49
500.667	11973.89
501.036	11991.97
501.405	12138.64
501.774	12178.18
502.143	12250.5
502.512	12297.28
502.88	12509.93
503.249	12462.47
503.618	12613.43
503.987	12678.96
504.356	12791.95
504.724	12884.6
505.093	12971.16
505.462	13041.21
505.83	13106.52
506.199	13283.24
506.567	13401.88
506.936	13389.22
507.304	13554.87
507.672	13662.44
508.041	13700.4
508.409	13763
508.777	13890.23
509.145	14019.94
509.514	14034.86
509.882	14213.16
510.25	14248.41
510.618	14325.24
510.986	14457.67
511.354	14544
511.722	14689.75
512.09	14863.99
512.458	14890.65
512.826	14965.68
513.193	15058.56
513.561	15125.9
513.929	15259.01
514.297	15367.7
514.664	15493.12
515.032	15591.88
515.4	15751.2
515.767	15879.33
516.135	15991.42
516.502	15876.62
516.869	16216.72
517.237	16223.05
517.604	16135.59
517.972	16511.63
518.339	16546.88
518.706	16592.08
519.073	16742.36
519.44	16894.22
519.808	17077.49
520.175	17128.33
520.542	17318.16
520.909	17510.47
521.276	17527.19
521.643	17684.93
522.009	17833.4
522.376	17927.86
522.743	18029.33
523.11	18230
523.477	18444.23
523.843	18595.64
524.21	18768.52
524.577	18922.41
524.943	18982.07
525.31	19125.34
525.676	19341.61
526.043	19534.37
526.409	19549.29
526.776	19747.93
527.142	19743.18
527.508	19960.12
527.874	20089.16
528.241	20170.06
528.607	20191.76
528.973	20514.01
529.339	20563.95
529.705	20762.82
530.071	20982.02
530.437	21055.24
530.803	21161.68
531.169	21233.76
531.535	21288.45
531.901	21342.01
532.267	21550.14
532.632	21612.28
532.998	21765.05
533.364	21952.39
533.73	21909
534.095	22165.04
534.461	22144.7
534.826	22285.71
535.192	22480.96
535.557	22606.16
535.923	22589.89
536.288	22778.13
536.653	22798.92
537.019	22774.29
537.384	22918.69
537.749	22946.71
538.114	23175.86
538.479	23284.56
538.845	23259.47
539.21	23333.82
539.575	23534.49
539.94	23393.93
540.305	23709.4
540.67	23628.28
541.034	23688.16
541.399	23860.81
541.764	23985.33
542.129	24082.28
542.494	24039.11
542.858	24221.71
543.223	24246.79
543.587	24406.79
543.952	24414.02
544.316	24618.99
544.681	24604.07
545.045	24746.67
545.41	24826.66
545.774	24846.55
546.138	24933.55
546.503	25100.78
546.867	25089.71
547.231	25257.16
547.595	25192.3
547.959	25380.1
548.324	25407.89
548.688	25481.34
549.052	25602.69
549.416	25720.65
549.779	25784.83
550.143	25781.67
550.507	25949.57
550.871	25929.01
551.235	25974.66
551.599	26256
551.962	26207.19
552.326	26490.57
552.689	26506.39
553.053	26562.21
553.417	26514.08
553.78	26872.49
554.143	26865.71
554.507	26968.75
554.87	27168.3
555.234	27381.62
555.597	27218.69
555.96	27310.89
556.323	27411.23
556.686	27363.32
557.05	27813.93
557.413	27868.84
557.776	27835.17
558.139	28094.83
558.502	28065.67
558.865	28122.85
559.228	28324.42
559.59	28358.77
559.953	28467.02
560.316	28841.7
560.679	28841.47
561.041	28986.33
561.404	29175.02
561.767	29303.38
562.129	29228.58
562.492	29552.87
562.854	29641.23
563.217	29590.15
563.579	29749.92
563.941	29914.21
564.304	30002.8
564.666	30164.38
565.028	30179.29
565.39	30243.7
565.753	30486.63
566.115	30663.12
566.477	30759.84
566.839	30820.86
567.201	31079.15
567.563	31117.35
567.925	31259.71
568.287	31295.87
568.648	31443.89
569.01	31499.93
569.372	31619.93
569.734	31645.92
570.095	31759.81
570.457	31909.87
570.819	32116.64
571.18	32076.19
571.542	32299.01
571.903	32342.85
572.265	32413.81
572.626	32519.57
572.987	32628.27
573.349	32632.56
573.71	32793.91
574.071	32918.43
574.432	32894.25
574.794	33120.91
575.155	33153.45
575.516	33104.41
575.877	33167.69
576.238	33210.4
576.599	33449.49
576.96	33342.82
577.32	33491.75
577.681	33575.81
578.042	33754.34
578.403	33631.18
578.763	33639.77
579.124	33704.17
579.485	33825.3
579.845	33800.66
580.206	33854.67
580.566	33875.01
580.927	33957.5
581.287	34161.11
581.648	33836.6
582.008	34073.88
582.368	34086.08
582.728	34073.2
583.089	33971.28
583.449	34087.44
583.809	34053.77
584.169	34090.6
584.529	34098.51
584.889	34329.46
585.249	33987.33
585.609	34035.24
585.969	34136.93
586.329	34074.1
586.688	34153.2
587.048	34088.34
587.408	34155.01
587.768	34152.52
588.127	34221.67
588.487	34011.96
588.846	34202.69
589.206	34048.57
589.565	34159.3
589.925	34206.98
590.284	34022.35
590.643	34160.43
591.003	34293.08
591.362	34237.49
591.721	34098.74
592.08	34174.67
592.44	34229.58
592.799	34230.71
593.158	34217.83
593.517	34231.16
593.876	34256.92
594.235	34182.8
594.593	34101.45
594.952	34212.41
595.311	34148
595.67	34323.14
596.029	34384.38
596.387	34433.42
596.746	34408.78
597.104	34281.78
597.463	34218.96
597.822	34323.59
598.18	34303.48
598.538	34200.65
598.897	34396.81
599.255	34136.25
599.613	34685.61
599.972	34459.86
600.33	34505.28
600.688	34316.58
601.046	34609.23
601.404	34634.09
601.762	34396.58
602.12	34638.16
602.478	34594.54
602.836	34692.39
603.194	34326.53
603.552	34451.95
603.91	34361.55
604.268	34533.75
604.625	34463.25
604.983	34665.05
605.341	34384.6
605.698	34673.41
606.056	34756.35
606.413	34720.41
606.771	34770.81
607.128	34730.58
607.485	34568.78
607.843	34569.01
608.2	34847.87
608.557	34804.93
608.914	34822.11
609.272	34933.97
609.629	34956.57
609.986	35233.17
610.343	34984.81
610.7	35231.14
611.057	35102.78
611.414	35146.62
611.771	35112.95
612.127	35304.35
612.484	35283.79
612.841	35463.9
613.198	35308.65
613.554	35298.7
613.911	35408.98
614.267	35393.62
614.624	35397.01
614.98	35448.76
615.337	35647.4
615.693	35552.94
616.05	35622.09
616.406	35853.49
616.762	35650.33
617.118	35823.66
617.475	35797.45
617.831	35870.22
618.187	35832.25
618.543	35909.08
618.899	36068.18
619.255	35991.12
619.611	35824.57
619.967	36152.92
620.323	36127.38
620.678	36035.63
621.034	36018.46
621.39	36055.29
621.746	35922.64
622.101	36339.13
622.457	36147.27
622.812	36100.94
623.168	36206.93
623.523	36131.68
623.879	36240.83
624.234	36138.46
624.589	36252.58
624.945	36228.4
625.3	36177.78
625.655	36195.63
626.01	36163.77
626.365	36443.53
626.72	36246.48
627.075	36205.57
627.43	36105.92
627.785	36172.58
628.14	36111.11
628.495	36078.8
628.85	36061.4
629.205	35950.66
629.559	36124.9
629.914	36046.03
630.269	35952.02
630.623	35930.33
630.978	36017.1
631.332	35935.75
631.687	36013.49
632.041	35882.42
632.396	35960.61
632.75	35728.75
633.104	35854.62
633.459	35652.59
633.813	35571.24
634.167	35595.19
634.521	35537.12
634.875	35603.1
635.229	35533.73
635.583	35359.95
635.937	35446.05
636.291	35432.03
636.645	35381.41
636.999	35243.11
637.352	35325.37
637.706	35222.32
638.06	35225.94
638.413	35134.87
638.767	35057.81
639.121	35041.08
639.474	34737.36
639.828	34911.82
640.181	34914.53
640.534	34914.99
640.888	34825.72
641.241	34581.21
641.594	34706.86
641.947	34782.56
642.301	34575.33
642.654	34654.43
643.007	34552.51
643.36	34612.17
643.713	34462.79
644.066	34552.06
644.419	34255.79
644.771	34042.24
645.124	33763.83
645.477	33638.18
645.83	33431.64
646.182	33330.17
646.535	33332.2
646.888	33402.71
647.24	33137.18
647.593	33362.03
647.945	33318.19
648.298	33180.34
648.65	33148.48
649.002	32861.48
649.355	33091.53
649.707	33058.09
650.059	33166.78
650.411	33562.71
650.763	33576.72
651.115	33965.18
651.467	33814
651.819	33724.06
652.171	33733.77
652.523	33636.15
652.875	33671.18
653.227	33534.91
653.578	33684.28
653.93	33621.69
654.282	33471.41
654.633	33337.63
654.985	33477.74
655.337	33488.58
655.688	33404.97
656.039	33555.25
656.391	33274.13
656.742	33332.43
657.094	33322.03
657.445	33299.21
657.796	33351.41
658.147	33279.55
658.498	33109.16
658.849	33300.79
659.2	33152.32
659.551	33010.4
659.902	33161.36
660.253	32985.77
660.604	33075.03
660.955	32817.41
661.306	33075.71
661.656	32851.09
662.007	32674.37
662.358	32800.69
662.708	32660.36
663.059	32811.09
663.409	32391.66
663.76	32669.85
664.11	32642.73
664.461	32577.19
664.811	32607.25
665.161	32448.84
665.511	32362.28
665.862	32359.57
666.212	32428.05
666.562	32396.18
666.912	32227.37
667.262	32194.38
667.612	32065.12
667.962	32035.29
668.312	31861.51
668.662	31993.93
669.011	31873.26
669.361	31812.02
669.711	31715.75
670.06	31605.47
670.41	31524.34
670.76	31335.64
671.109	31609.31
671.459	31389.2
671.808	31298.58
672.157	31319.37
672.507	31076.67
672.856	31013.62
673.205	31077.12
673.554	31075.99
673.904	30946.73
674.253	30982.43
674.602	30962.77
674.951	30575.66
675.3	30236.92
675.649	30778.15
675.998	30639.62
676.346	30716
676.695	30858.82
677.044	30554.65
677.393	30697.92
677.741	30668.09
678.09	30437.59
678.438	30505.16
678.787	30447.53
679.135	30490.24
679.484	30469.45
679.832	30470.13
680.181	30367.99
680.529	30429
680.877	30323.02
681.225	30305.62
681.573	30426.52
681.922	30348.1
682.27	30261.77
682.618	30459.06
682.966	30186.75
683.314	30342.68
683.661	30258.16
684.009	30129.12
684.357	30117.6
684.705	30152.63
685.053	30326.63
685.4	30400.75
685.748	30089.8
686.095	30147.43
686.443	30167.09
686.79	30070.59
687.138	30253.87
687.485	30152.17
687.832	30072.4
688.18	30189.01
688.527	30036.24
688.874	30245.28
689.221	30033.53
689.568	30076.47
689.915	29925.74
690.262	29969.13
690.609	29843.93
690.956	29833.09
691.303	29842.8
691.65	29802.58
691.997	29803.26
692.344	29692.75
692.69	29791.5
693.037	29653.43
693.383	29552.42
693.73	29541.34
694.077	29473.32
694.423	29518.74
694.769	29426.99
695.116	29475.58
695.462	29402.36
695.808	29219.54
696.155	29429.71
696.501	28988.14
696.847	29161.01
697.193	28972.09
697.539	29152.43
697.885	28937.52
698.231	28889.61
698.577	28874.01
698.923	28644.19
699.269	28642.38
699.614	28604.64
699.96	28493.01
700.306	28539.33
700.651	28336.85
700.997	28348.15
701.342	28295.72
701.688	28251.43
702.033	28113.13
702.379	28100.7
702.724	28139.57
703.069	28103.64
703.415	27696.64
703.76	27804.89
704.105	27818
704.45	27893.02
704.795	27576.65
705.14	27505.24
705.485	27511.11
705.83	27335.3
706.175	27354.51
706.52	27300.72
706.865	27230.22
707.209	27230.22
707.554	27053.27
707.899	27101.41
708.243	26965.14
708.588	26934.86
708.932	26760.17
709.277	26717.69
709.621	26701.87
709.966	26651.02
710.31	26776.22
710.654	26457.81
710.998	26450.58
711.342	26486.96
711.687	26503.91
712.031	26435.43
712.375	26281.99
712.719	26338.49
713.063	26216.46
713.407	26267.53
713.75	26131.71
714.094	26164.71
714.438	25973.53
714.782	26111.6
715.125	25748.45
715.469	25874.77
715.812	25688.34
716.156	25652.4
716.499	25600.43
716.843	25708.67
717.186	25502.13
717.53	25630.03
717.873	25574.44
718.216	25453.99
718.559	25361.56
718.902	25150.72
719.246	25263.71
719.589	25250.83
719.932	25165.86
720.275	25177.84
720.617	25137.84
720.96	25082.48
721.303	25032.53
721.646	25053.78
721.989	24877.96
722.331	24902.82
722.674	24988.02
723.016	24771.75
723.359	24764.52
723.701	24848.58
724.044	24613.79
724.386	24598.42
724.729	24612.66
725.071	24586.9
725.413	24493.11
725.755	24543.06
726.097	24366.11
726.439	24374.47
726.782	24382.38
727.124	24378.77
727.465	24328.82
727.807	24214.25
728.149	24190.3
728.491	24078.89
728.833	24257.86
729.175	24073.24
729.516	24033.69
729.858	23961.15
730.199	23974.48
730.541	23925.44
730.882	23915.05
731.224	24054.48
731.565	23782.85
731.906	23794.6
732.248	23736.07
732.589	23626.47
732.93	23523.2
733.271	23675.06
733.612	23579.46
733.953	23613.36
734.294	23529.75
734.635	23461.73
734.976	23496.08
735.317	23228.97
735.658	23308.06
735.999	23348.28
736.339	23235.97
736.68	23316.65
737.021	23233.03
737.361	23078.69
737.702	23302.41
738.042	23061.51
738.383	23043.66
738.723	23061.29
739.063	23135.63
739.404	23018.58
739.744	23014.51
740.084	23031
740.424	22949.88
740.764	22864.68
741.104	22898.58
741.444	22754.18
741.784	22700.39
742.124	22677.34
742.464	22667.4
742.804	22663.33
743.143	22543.79
743.483	22618.36
743.823	22461.75
744.162	22473.28
744.502	22518.48
744.841	22315.09
745.181	22388.54
745.52	22421.08
745.86	22375.43
746.199	22252.95
746.538	22206.17
746.877	22266.5
747.216	22347.86
747.556	22031.48
747.895	22186.28
748.234	22133.18
748.573	22014.53
748.911	21958.04
749.25	21995.78
749.589	21893.63
749.928	21873.52
750.267	21940.86
750.605	21787.42
750.944	21829.91
751.283	21700.87
751.621	21739.74
751.96	21513.76
752.298	21584.49
752.636	21601.66
752.975	21515.34
753.313	21340.43
753.651	21539.52
753.989	21357.15
