Data from white_poster_card_FLMS001491_00031.txt Node
Date: Wed Feb 08 11:51:25 GMT 2017
User: dcchb
Spectrometer: FLMS00149
Trigger mode: 0
Integration Time (sec): 2.000000E-2
Scans to average: 10
Electric dark correction enabled: true
Nonlinearity correction enabled: false
Boxcar width: 0
XAxis mode: Wavelengths
Number of Pixels in Spectrum: 2048
>>>>>Begin Spectral Data<<<<<
341.393	4.92
341.776	4.92
342.16	4.92
342.543	-59.04
342.927	-40.51
343.31	-76.89
343.693	-65.82
344.077	-70.34
344.46	-64.46
344.843	-50.45
345.226	-34.41
345.61	-32.6
345.993	-40.51
346.376	0.17
346.759	22.77
347.142	26.61
347.525	32.94
347.908	62.54
348.291	72.48
348.674	109.77
349.057	108.19
349.44	120.39
349.823	160.39
350.206	150.67
350.588	183.67
350.971	208.75
351.354	241.75
351.737	229.99
352.119	251.01
352.502	276.32
352.884	269.77
353.267	290.78
353.65	289.65
354.032	286.94
354.414	299.82
354.797	315.87
355.179	307.73
355.562	324
355.944	328.97
356.326	358.13
356.709	342.99
357.091	339.14
357.473	337.79
357.855	343.21
358.238	322.42
358.62	338.24
359.002	346.38
359.384	338.69
359.766	361.06
360.148	343.44
360.53	340.73
360.912	352.48
361.294	337.79
361.676	346.38
362.057	349.76
362.439	326.04
362.821	341.86
363.203	352.25
363.584	320.61
363.966	322.19
364.348	333.72
364.729	335.3
365.111	317.9
365.493	301.86
365.874	339.6
366.256	324
366.637	317.9
367.019	312.48
367.4	317.9
367.781	317.9
368.163	306.83
368.544	325.36
368.925	286.49
369.306	333.27
369.688	315.42
370.069	333.95
370.45	329.65
370.831	314.74
371.212	341.86
371.593	301.86
371.974	334.17
372.355	319.03
372.736	315.19
373.117	320.84
373.498	306.38
373.879	309.09
374.26	307.28
374.641	343.44
375.021	321.29
375.402	333.27
375.783	330.33
376.163	317
376.544	322.65
376.925	347.05
377.305	351.57
377.686	340.73
378.066	350.44
378.447	331.01
378.827	345.92
379.208	334.85
379.588	352.93
379.968	339.37
380.349	330.1
380.729	345.25
381.109	354.28
381.489	348.41
381.87	353.15
382.25	346.6
382.63	349.54
383.01	353.61
383.39	358.13
383.77	371.01
384.15	352.25
384.53	345.25
384.91	343.44
385.29	364.91
385.67	348.41
386.049	360.84
386.429	378.24
386.809	350.67
387.189	387.28
387.568	367.84
387.948	375.07
388.328	368.3
388.707	365.58
389.087	387.96
389.466	407.39
389.846	418.46
390.225	393.15
390.605	393.83
390.984	387.28
391.363	393.38
391.743	377.79
392.122	401.29
392.501	398.8
392.881	419.82
393.26	401.06
393.639	417.33
394.018	406.03
394.397	413.94
394.776	394.51
395.155	426.37
395.534	409.88
395.913	417.79
396.292	397.45
396.671	431.8
397.05	441.29
397.429	450.1
397.808	431.57
398.186	438.12
398.565	437.9
398.944	448.97
399.323	443.55
399.701	455.98
400.08	447.39
400.458	453.04
400.837	441.29
401.215	452.14
401.594	474.51
401.972	462.98
402.351	481.29
402.729	465.92
403.107	482.64
403.486	467.5
403.864	487.84
404.242	464.56
404.62	467.05
404.999	505.69
405.377	505.47
405.755	479.03
406.133	498.46
406.511	511.34
406.889	508.18
407.267	521.96
407.645	536.2
408.023	547.5
408.401	567.16
408.779	545.24
409.156	556.77
409.534	577.56
409.912	567.61
410.29	591.34
410.667	591.57
411.045	600.38
411.422	606.03
411.8	611.45
412.178	621.85
412.555	643.77
412.933	665.01
413.31	671.56
413.687	694.16
414.065	684.22
414.442	720.15
414.819	727.83
415.197	725.8
415.574	747.72
415.951	746.36
416.328	781.17
416.705	793.82
417.082	819.58
417.46	838.34
417.837	853.48
418.214	852.35
418.591	849.64
418.967	886.93
419.344	911.56
419.721	873.14
420.098	914.95
420.475	929.18
420.852	948.62
421.228	954.49
421.605	964.66
421.982	996.08
422.358	1010.09
422.735	1018.67
423.111	1036.75
423.488	1050.99
423.864	1055.51
424.241	1051.89
424.617	1076.07
424.994	1093.02
425.37	1087.15
425.746	1100.03
426.123	1139.12
426.499	1111.78
426.875	1169.86
427.251	1184.77
427.627	1203.3
428.003	1213.7
428.379	1237.65
428.756	1247.59
429.132	1272.45
429.507	1294.37
429.883	1304.32
430.259	1318.1
430.635	1351.55
431.011	1359.91
431.387	1392.22
431.763	1390.19
432.138	1384.31
432.514	1439
432.89	1460.24
433.265	1461.37
433.641	1483.97
434.016	1521.94
434.392	1535.95
434.767	1535.72
435.143	1554.25
435.518	1608.26
435.894	1618.43
436.269	1620.01
436.644	1642.61
437.02	1657.98
437.395	1636.74
437.77	1680.35
438.145	1733.23
438.52	1723.97
438.895	1712.44
439.271	1746.56
439.646	1797.18
440.021	1817.3
440.395	1813.91
440.77	1807.81
441.145	1821.59
441.52	1851.19
441.895	1860.69
442.27	1884.64
442.645	1883.96
443.019	1944.3
443.394	1894.13
443.769	1933.68
444.143	1927.35
444.518	1961.02
444.892	1932.77
445.267	1973.68
445.641	1958.08
446.016	1970.51
446.39	2027.46
446.764	2033.56
447.139	2020.91
447.513	2053.67
447.887	2062.94
448.262	2062.94
448.636	2112.2
449.01	2118.76
449.384	2119.21
449.758	2142.26
450.132	2186.78
450.506	2188.36
450.88	2196.04
451.254	2191.75
451.628	2228.81
452.002	2238.75
452.376	2280.56
452.75	2287.57
453.123	2281.24
453.497	2315.36
453.871	2349.26
454.244	2370.5
454.618	2380.22
454.992	2448.92
455.365	2463.16
455.739	2484.62
456.112	2504.51
456.486	2505.87
456.859	2557.62
457.232	2608.24
457.606	2602.36
457.979	2666.99
458.352	2668.8
458.725	2706.99
459.099	2741.34
459.472	2742.24
459.845	2799.42
460.218	2812.52
460.591	2848.23
460.964	2865.63
461.337	2933.88
461.71	2955.57
462.083	3016.81
462.456	3016.36
462.829	3020.88
463.201	3053.42
463.574	3117.38
463.947	3120.99
464.32	3173.42
464.692	3185.85
465.065	3217.94
465.438	3282.12
465.81	3289.8
466.183	3360.99
466.555	3456.8
466.928	3456.58
467.3	3466.97
467.672	3530.7
468.045	3619.28
468.417	3605.27
468.789	3636.01
469.161	3690.24
469.534	3697.93
469.906	3766.62
470.278	3862.89
470.65	3888.2
471.022	3901.31
471.394	4017.69
471.766	3998.48
472.138	4080.74
472.51	4181.08
472.882	4201.41
473.253	4239.83
473.625	4341.52
473.997	4395.08
474.369	4438.24
474.74	4500.62
475.112	4544.68
475.484	4656.09
475.855	4681.85
476.227	4717.79
476.598	4897.67
476.97	4883.2
477.341	5012.02
477.713	5061.73
478.084	5064.9
478.455	5255.17
478.827	5278.22
479.198	5412.46
479.569	5452.46
479.94	5577.42
480.311	5628.95
480.682	5725.44
481.053	5882.05
481.424	5914.59
481.795	6029.84
482.166	6147.13
482.537	6194.81
482.908	6308.7
483.279	6339.89
483.65	6510.73
484.021	6635.48
484.391	6671.18
484.762	6749.14
485.133	6802.02
485.503	6929.7
485.874	7059.42
486.244	7126.31
486.615	7253.31
486.985	7311.16
487.356	7441.78
487.726	7507.99
488.097	7636.58
488.467	7705.73
488.837	7888.32
489.207	7947.08
489.578	8105.27
489.948	8154.76
490.318	8264.58
490.688	8312.72
491.058	8465.94
491.428	8561.07
491.798	8644.46
492.168	8791.35
492.538	8820.28
492.908	8884.68
493.278	9046.94
493.648	9035.41
494.017	9191.57
494.387	9228.63
494.757	9368.96
495.126	9464.33
495.496	9518.11
495.866	9610.09
496.235	9690.31
496.605	9810.53
496.974	9802.62
497.344	9848.05
497.713	10028.38
498.082	10135.72
498.452	10232.89
498.821	10219.56
499.19	10297.53
499.559	10414.81
499.928	10471.31
500.298	10510.18
500.667	10641.02
501.036	10655.03
501.405	10751.3
501.774	10867.68
502.143	10943.61
502.512	10963.5
502.88	11039.43
503.249	11058.18
503.618	11123.72
503.987	11183.83
504.356	11311.06
504.724	11372.07
505.093	11480.09
505.462	11489.13
505.83	11564.61
506.199	11649.58
506.567	11823.81
506.936	11790.59
507.304	12016.12
507.672	12083.24
508.041	12111.04
508.409	12213.86
508.777	12269.45
509.145	12409.11
509.514	12421.76
509.882	12491.82
510.25	12588.99
510.618	12631.93
510.986	12759.16
511.354	12873.73
511.722	12990.34
512.09	13074.4
512.458	13150.33
512.826	13173.83
513.193	13319.82
513.561	13317.79
513.929	13523.88
514.297	13667.15
514.664	13733.37
515.032	13743.99
515.4	13887.71
515.767	13942.4
516.135	14007.94
516.502	13945.79
516.869	14199.57
517.237	14387.36
517.604	14317.08
517.972	14506.45
518.339	14615.83
518.706	14656.06
519.073	14739.89
519.44	14891.98
519.808	15061.92
520.175	15096.95
520.542	15260.33
520.909	15318.18
521.276	15412.65
521.643	15423.27
522.009	15633.43
522.376	15828.68
522.743	15860.77
523.11	16072.52
523.477	16192.29
523.843	16171.72
524.21	16487.42
524.577	16545.95
524.943	16712.95
525.31	16719.5
525.676	16989.33
526.043	17052.83
526.409	17123.56
526.776	17359.71
527.142	17484.23
527.508	17520.61
527.874	17689.65
528.241	17747.95
528.607	17830.66
528.973	17996.08
529.339	17948.85
529.705	18223.65
530.071	18318.56
530.437	18468.61
530.803	18508.16
531.169	18664.31
531.535	18654.37
531.901	18824.53
532.267	18884.64
532.632	19110.4
532.998	19111.76
533.364	19190.4
533.73	19264.3
534.095	19474.01
534.461	19435.59
534.826	19530.28
535.192	19575.93
535.557	19801.46
535.923	19804.85
536.288	19895.92
536.653	20008.23
537.019	19970.27
537.384	20116.93
537.749	20232.63
538.114	20326.19
538.479	20340.43
538.845	20468.11
539.21	20435.79
539.575	20572.28
539.94	20624.26
540.305	20698.16
540.67	20794.2
541.034	20868.1
541.399	21032.61
541.764	21030.35
542.129	21045.72
542.494	21111.25
542.858	21261.76
543.223	21288.88
543.587	21506.72
543.952	21418.59
544.316	21535.87
544.681	21579.04
545.045	21697.68
545.41	21775.87
545.774	21883.66
546.138	21839.82
546.503	21895.86
546.867	22011.79
547.231	22218.57
547.595	22356.19
547.959	22346.93
548.324	22335.63
548.688	22437.55
549.052	22428.73
549.416	22510.31
549.779	22596.86
550.143	22583.53
550.507	22866.46
550.871	22902.17
551.235	22919.34
551.599	22992.11
551.962	23091.99
552.326	23160.92
552.689	23294.02
553.053	23254.93
553.417	23382.61
553.78	23707.12
554.143	23592.09
554.507	23722.71
554.87	23757.96
555.234	24075.02
555.597	23883.61
555.96	24079.31
556.323	24194.34
556.686	24164.51
557.05	24429.36
557.413	24637.94
557.776	24574.21
558.139	24715.23
558.502	24851.04
558.865	24794.32
559.228	25065.27
559.59	25108.66
559.953	25167.87
560.316	25555.43
560.679	25399.73
561.041	25603.34
561.404	25766.05
561.767	25787.51
562.129	25739.15
562.492	26119.48
562.854	26161.06
563.217	25978.02
563.579	26170.78
563.941	26475.86
564.304	26527.38
564.666	26683.99
565.028	26745.91
565.39	26880.59
565.753	27089.85
566.115	27073.13
566.477	27187.03
566.839	27308.38
567.201	27632.66
567.563	27602.16
567.925	27674.7
568.287	27748.37
568.648	27751.3
569.01	27947.68
569.372	28136.38
569.734	28084.4
570.095	28322.36
570.457	28441
570.819	28398.29
571.18	28560.55
571.542	28591.73
571.903	28748.11
572.265	28782.46
572.626	28937.49
572.987	28885.51
573.349	29073.08
573.71	29018.16
574.071	29217.03
574.432	29345.39
574.794	29467.19
575.155	29459.73
575.516	29421.54
575.877	29571.14
576.238	29656.34
576.599	29816.33
576.96	29709.22
577.32	29819.27
577.681	29946.5
578.042	29995.31
578.403	30030.11
578.763	30091.81
579.124	30159.38
579.485	30239.15
579.845	30294.06
580.206	30208.64
580.566	30364.12
580.927	30309.43
581.287	30406.15
581.648	30270.33
582.008	30386.49
582.368	30320.5
582.728	30454.28
583.089	30524.56
583.449	30413.16
583.809	30492.02
584.169	30478.01
584.529	30510.78
584.889	30671.68
585.249	30493.15
585.609	30396.66
585.969	30751
586.329	30524.79
586.688	30619.7
587.048	30539.93
587.408	30524.34
587.768	30529.76
588.127	30574.28
588.487	30552.81
588.846	30822.41
589.206	30520.95
589.565	30531.12
589.925	30739.02
590.284	30666.71
590.643	30724.79
591.003	30809.98
591.362	30869.87
591.721	30822.64
592.08	30793.03
592.44	30854.95
592.799	30865.12
593.158	30681.62
593.517	30832.58
593.876	30902.18
594.235	30767.72
594.593	30817.66
594.952	30875.29
595.311	30827.83
595.67	30884.78
596.029	31108.5
596.387	31038.9
596.746	31188.73
597.104	31000.94
597.463	30953.93
597.822	31152.57
598.18	30946.02
598.538	30968.17
598.897	31110.31
599.255	30947.38
599.613	31414.71
599.972	31139.46
600.33	31195.73
600.688	30953.48
601.046	31255.17
601.404	31315.73
601.762	31364.77
602.12	31408.84
602.478	31296.52
602.836	31469.85
603.194	31222.85
603.552	31452.68
603.91	31292.91
604.268	31437.53
604.625	31398.89
604.983	31535.16
605.341	31350.76
605.698	31492.22
606.056	31704.42
606.413	31529.06
606.771	31645.67
607.128	31701.93
607.485	31432.56
607.843	31595.95
608.2	31769.5
608.557	32009.5
608.914	31828.03
609.272	31977.41
609.629	31936.96
609.986	31976.28
610.343	31876.17
610.7	32099.44
611.057	32088.59
611.414	32023.06
611.771	32042.04
612.127	32249.72
612.484	32165.2
612.841	32184.63
613.198	32117.29
613.554	32228.7
613.911	32402.26
614.267	32378.75
614.624	32249.49
614.98	32358.87
615.337	32485.42
615.693	32496.94
616.05	32267.57
616.406	32672.08
616.762	32526.55
617.118	32492.87
617.475	32453.33
617.831	32555.25
618.187	32616.26
618.543	32691.51
618.899	32865.52
619.255	32786.65
619.611	32700.78
619.967	32794.56
620.323	32921.11
620.678	32789.59
621.034	32702.13
621.39	32636.37
621.746	32687.9
622.101	32954.11
622.457	32674.56
622.812	32835.01
623.168	32961.56
623.523	32887.67
623.879	32852.19
624.234	32699.87
624.589	32900.77
624.945	32811.28
625.3	32896.48
625.655	32872.75
626.01	32868.01
626.365	32943.48
626.72	32747.11
627.075	32868.01
627.43	32843.83
627.785	32727.9
628.14	32809.02
628.495	32822.58
628.85	32724.51
629.205	32642.93
629.559	32785.75
629.914	32652.19
630.269	32743.04
630.623	32691.51
630.978	32639.99
631.332	32650.84
631.687	32708.91
632.041	32549.37
632.396	32598.63
632.75	32340.79
633.104	32651.51
633.459	32352.31
633.813	32372.43
634.167	32311.64
634.521	32295.37
634.875	32313.9
635.229	32408.13
635.583	32173.11
635.937	32293.78
636.291	32027.35
636.645	32150.51
636.999	32029.38
637.352	32023.51
637.706	31877.3
638.06	32054.24
638.413	31888.37
638.767	31837.52
639.121	31796.4
639.474	31646.57
639.828	31556.18
640.181	31628.94
640.534	31647.02
640.888	31521.6
641.241	31398.21
641.594	31616.97
641.947	31605.21
642.301	31385.56
642.654	31476.18
643.007	31426.01
643.36	31390.76
643.713	31236.18
644.066	31388.5
644.419	31169.52
644.771	30994.16
645.124	30751.68
645.477	30626.48
645.83	30511.91
646.182	30266.94
646.535	30220.84
646.888	30334.06
647.24	30123.67
647.593	30286.6
647.945	30192.14
648.298	30001.64
648.65	30084.12
649.002	30017.23
649.355	30130.22
649.707	30009.78
650.059	30262.88
650.411	30557.78
650.763	30498.12
651.115	30796.42
651.467	30592.81
651.819	30698.57
652.171	30515.75
652.523	30475.07
652.875	30562.53
653.227	30394.17
653.578	30603.21
653.93	30428.52
654.282	30382.87
654.633	30223.33
654.985	30434.17
655.337	30263.55
655.688	30235.76
656.039	30433.27
656.391	30138.59
656.742	30108.3
657.094	30292.48
657.445	30152.82
657.796	30201.64
658.147	30151.69
658.498	29972.49
658.849	30039.83
659.2	30044.35
659.551	29911.02
659.902	30130.45
660.253	30045.71
660.604	30076.67
660.955	29887.75
661.306	29897.91
661.656	29803
662.007	29795.54
662.358	29849.55
662.708	29927.74
663.059	29875.99
663.409	29785.38
663.76	29821.76
664.11	29774.98
664.461	29846.62
664.811	29753.29
665.161	29812.49
665.511	29705.83
665.862	29708.99
666.212	29766.62
666.562	29807.3
666.912	29710.35
667.262	29599.39
667.612	29703.12
667.962	29604.36
668.312	29606.85
668.662	29739.5
669.011	29527.08
669.361	29563.01
669.711	29615.21
670.06	29538.83
670.41	29492.73
670.76	29505.83
671.109	29673.97
671.459	29414.76
671.808	29440.07
672.157	29460.86
672.507	29178.84
672.856	29339.96
673.205	29346.06
673.554	29362.11
673.904	29389
674.253	29269.23
674.602	29231.94
674.951	28847.77
675.3	28767.1
675.649	29181.55
675.998	29234.88
676.346	29151.27
676.695	29203.92
677.044	29039.86
677.393	28991.95
677.741	29036.24
678.09	28953.31
678.438	28939.97
678.787	28920.54
679.135	28884.16
679.484	28817.26
679.832	28821.78
680.181	28674.22
680.529	28691.62
680.877	28704.5
681.225	28721.45
681.573	28877.83
681.922	28756.93
682.27	28489.82
682.618	28467.9
682.966	28454.11
683.314	28433.55
683.661	28311.52
684.009	28296.37
684.357	28131.18
684.705	28144.29
685.053	28192.65
685.4	28135.02
685.748	28009.15
686.095	28065.42
686.443	27813.68
686.79	27783.85
687.138	27879.44
687.485	27900.23
687.832	27771.87
688.18	27785.2
688.527	27709.5
688.874	27577.98
689.221	27534.81
689.568	27427.7
689.915	27262.5
690.262	27267.7
690.609	27278.1
690.956	27099.34
691.303	27156.07
691.65	27044.88
691.997	27014.6
692.344	26857.77
692.69	26911.33
693.037	26853.47
693.383	26587.49
693.73	26749.52
694.077	26660.71
694.423	26507.72
694.769	26457.1
695.116	26416.42
695.462	26312.47
695.808	26343.66
696.155	26366.48
696.501	26034.74
696.847	26114.29
697.193	25875.87
697.539	26026.6
697.885	25839.04
698.231	25869.32
698.577	25690.34
698.923	25711.13
699.269	25496.9
699.614	25383.23
699.96	25392.5
700.306	25378.71
700.651	25261.2
700.997	25292.16
701.342	25177.81
701.688	25112.96
702.033	25103.46
702.379	25004.26
702.724	24976.46
703.069	25057.14
703.415	24788.22
703.76	24632.97
704.105	24724.72
704.45	24719.75
704.795	24599.52
705.14	24473.65
705.485	24583.93
705.83	24279.08
706.175	24330.38
706.52	24296.03
706.865	24137.84
707.209	24045.41
707.554	24220.55
707.899	24168.8
708.243	23934
708.588	23835.93
708.932	23710.51
709.277	23698.98
709.621	23783.27
709.966	23473.45
710.31	23592.77
710.654	23274.36
710.998	23471.64
711.342	23479.33
711.687	23370.18
712.031	23334.02
712.375	23266.45
712.719	23275.26
713.063	23324.08
713.407	23258.77
713.75	23102.84
714.094	23007.47
714.438	22917.31
714.782	23041.6
715.125	22813.13
715.469	22942.17
715.812	22732
716.156	22648.61
716.499	22823.07
716.843	22779.23
717.186	22648.39
717.53	22548.5
717.873	22666.24
718.216	22562.74
718.559	22489.07
718.902	22256.76
719.246	22400.94
719.589	22285.91
719.932	22232.81
720.275	22119.36
720.617	22160.49
720.96	22202.98
721.303	22137.67
721.646	22115.07
721.989	21965.92
722.331	22074.39
722.674	21995.98
723.016	21962.08
723.359	21970.67
723.701	21939.48
724.044	21758.02
724.386	21784.23
724.729	21758.02
725.071	21777.9
725.413	21788.98
725.755	21689.77
726.097	21528.87
726.439	21417.91
726.782	21500.17
727.124	21538.81
727.465	21473.5
727.807	21459.94
728.149	21322.77
728.491	21267.41
728.833	21386.95
729.175	21231.02
729.516	21202.1
729.858	21099.28
730.199	21291.14
730.541	21066.51
730.882	21063.34
731.224	21001.2
731.565	20910.13
731.906	20984.25
732.248	20966.17
732.589	20905.38
732.93	20682.34
733.271	20766.18
733.612	20836.23
733.953	20795.55
734.294	20703.13
734.635	20689.34
734.976	20706.52
735.317	20636.92
735.658	20625.16
735.999	20515.34
736.339	20638.95
736.68	20492.74
737.021	20514.21
737.361	20407.54
737.702	20506.75
738.042	20398.28
738.383	20289.13
738.723	20450.48
739.063	20338.62
739.404	20303.36
739.744	20266.08
740.084	20154.44
740.424	20177.72
740.764	20121.9
741.104	20189.47
741.444	20057.27
741.784	19977.27
742.124	20074.22
742.464	20043.48
742.804	19955.58
743.143	19868.57
743.483	19843.72
743.823	19848.91
744.162	19673.32
744.502	19761.68
744.841	19626.32
745.181	19831.96
745.52	19619.31
745.86	19744.74
746.199	19553.78
746.538	19572.54
746.877	19703.38
747.216	19535.93
747.556	19495.02
747.895	19458.19
748.234	19398.08
748.573	19358.53
748.911	19323.28
749.25	19271.08
749.589	19196.05
749.928	19253.22
750.267	19257.52
750.605	19192.43
750.944	19136.39
751.283	19021.14
751.621	19035.15
751.96	18855.04
752.298	18925.55
752.636	18903.18
752.975	18831.76
753.313	18745.89
753.651	18866.79
753.989	18758.77
754.327	18674.25
