Data from White_paper_FLMS001491_042.txt Node
Date: Tue Feb 07 10:35:08 GMT 2017
User: dcchb
Spectrometer: FLMS00149
Trigger mode: 0
Integration Time (sec): 2.000000E-2
Scans to average: 10
Electric dark correction enabled: true
Nonlinearity correction enabled: false
Boxcar width: 0
XAxis mode: Wavelengths
Number of Pixels in Spectrum: 2048
>>>>>Begin Spectral Data<<<<<
341.393	3.16
341.776	3.16
342.16	3.16
342.543	-55.82
342.927	-83.84
343.31	-57.63
343.693	-44.52
344.077	-74.35
344.46	-54.91
344.843	-54.91
345.226	-32.54
345.61	-18.53
345.993	-24.18
346.376	-14.69
346.759	-9.04
347.142	29.6
347.525	37.29
347.908	56.95
348.291	80.45
348.674	82.03
349.057	98.98
349.44	114.8
349.823	137.4
350.206	186.66
350.588	208.13
350.971	216.04
351.354	238.19
351.737	253.78
352.119	291.29
352.502	282.7
352.884	288.58
353.267	306.66
353.65	319.99
354.032	336.26
354.414	308.01
354.797	356.6
355.179	346.88
355.562	363.15
355.944	349.6
356.326	369.93
356.709	370.61
357.091	359.54
357.473	363.61
357.855	379.43
358.238	357.96
358.62	358.63
359.002	376.04
359.384	372.19
359.766	363.15
360.148	367.67
360.53	371.52
360.912	337.62
361.294	384.4
361.676	381.23
362.057	354.79
362.439	362.02
362.821	339.2
363.203	355.47
363.584	344.85
363.966	372.19
364.348	342.59
364.729	355.02
365.111	348.01
365.493	355.92
365.874	355.47
366.256	368.8
366.637	358.41
367.019	377.17
367.4	368.8
367.781	371.06
368.163	362.25
368.544	355.24
368.925	332.65
369.306	355.24
369.688	349.14
370.069	344.85
370.45	368.13
370.831	373.32
371.212	346.43
371.593	355.24
371.974	383.94
372.355	369.93
372.736	382.81
373.117	358.86
373.498	352.99
373.879	366.54
374.26	373.1
374.641	348.24
375.021	352.53
375.402	381.68
375.783	364.96
376.163	382.59
376.544	388.01
376.925	409.25
377.305	361.35
377.686	397.73
378.066	395.02
378.447	402.93
378.827	393.21
379.208	396.37
379.588	418.52
379.968	395.02
380.349	387.33
380.729	414.23
381.109	409.25
381.489	417.16
381.87	404.51
382.25	416.49
382.63	415.36
383.01	420.33
383.39	435.02
383.77	406.54
384.15	425.53
384.53	440.67
384.91	434.11
385.29	451.74
385.67	445.41
386.049	442.02
386.429	463.26
386.809	457.16
387.189	464.85
387.568	460.78
387.948	437.5
388.328	458.97
388.707	475.69
389.087	486.31
389.466	478.18
389.846	497.39
390.225	499.42
390.605	477.5
390.984	492.42
391.363	486.99
391.743	504.62
392.122	531.06
392.501	539.65
392.881	537.84
393.26	538.52
393.639	538.97
394.018	557.27
394.397	529.25
394.776	552.75
395.155	526.31
395.534	543.71
395.913	574
396.292	561.79
396.671	580.55
397.05	597.72
397.429	563.38
397.808	585.75
398.186	581.91
398.565	571.96
398.944	599.76
399.323	603.6
399.701	607.89
400.08	629.36
400.458	643.6
400.837	614.67
401.215	646.31
401.594	669.81
401.972	655.35
402.351	687.67
402.729	655.8
403.107	719.98
403.486	683.37
403.864	698.96
404.242	730.6
404.62	741.22
404.999	735.8
405.377	753.88
405.755	792.3
406.133	788.68
406.511	841.79
406.889	830.03
407.267	841.33
407.645	845.85
408.023	899.41
408.401	907.55
408.779	916.59
409.156	937.15
409.534	949.58
409.912	969.24
410.29	1001.78
410.667	1032.29
411.045	1052.4
411.422	1102.12
411.8	1081.1
412.178	1132.17
412.555	1173.75
412.933	1178.05
413.31	1212.62
413.687	1227.54
414.065	1259.85
414.442	1304.15
414.819	1301.21
415.197	1340.98
415.574	1346.41
415.951	1390.02
416.328	1449.45
416.705	1446.74
417.082	1492.84
417.46	1493.29
417.837	1518.38
418.214	1555.67
418.591	1587.08
418.967	1629.56
419.344	1603.8
419.721	1661.65
420.098	1690.13
420.475	1722.89
420.852	1715.66
421.228	1748.65
421.605	1793.63
421.982	1828.88
422.358	1832.49
422.735	1855.77
423.111	1859.16
423.488	1894.64
423.864	1910.46
424.241	1946.62
424.617	2036.78
424.994	2044.47
425.37	2051.47
425.746	2055.77
426.123	2080.4
426.499	2107.74
426.875	2147.29
427.251	2198.13
427.627	2220.05
428.003	2229.32
428.379	2266.83
428.756	2307.74
429.132	2380.05
429.507	2401.29
429.883	2391.35
430.259	2435.64
430.635	2484
431.011	2498.01
431.387	2581.4
431.763	2604.68
432.138	2632.02
432.514	2669.31
432.89	2686.93
433.265	2761.51
433.641	2810.55
434.016	2819.59
434.392	2912.47
434.767	2952.24
435.143	2962.63
435.518	2963.99
435.894	3015.97
436.269	3058.45
436.644	3116.98
437.02	3143.19
437.395	3155.62
437.77	3199.01
438.145	3273.81
438.52	3300.03
438.895	3334.38
439.271	3339.35
439.646	3463.86
440.021	3419.35
440.395	3472
440.77	3480.59
441.145	3466.8
441.52	3514.48
441.895	3536.63
442.27	3636.51
442.645	3521.49
443.019	3639.23
443.394	3610.3
443.769	3696.4
444.143	3662.95
444.518	3717.64
444.892	3709.28
445.267	3735.95
445.641	3844.19
446.016	3816.85
446.39	3850.97
446.764	3841.71
447.139	3854.36
447.513	3899.33
447.887	3918.99
448.262	3964.87
448.636	3939.33
449.01	4023.62
449.384	4036.28
449.758	4066.56
450.132	4107.69
450.506	4116.5
450.88	4178.42
451.254	4186.33
451.628	4252.77
452.002	4288.93
452.376	4268.81
452.75	4353.33
453.123	4389.04
453.497	4449.15
453.871	4504.51
454.244	4594.91
454.618	4544.51
454.992	4670.61
455.365	4658.18
455.739	4827.22
456.112	4817.73
456.486	4908.35
456.859	4925.52
457.232	4986.99
457.606	4986.76
457.979	5065.63
458.352	5214.1
458.725	5233.76
459.099	5315.11
459.472	5380.88
459.845	5408.22
460.218	5456.58
460.591	5567.31
460.964	5550.59
461.337	5659.06
461.71	5746.52
462.083	5847.53
462.456	5859.73
462.829	5916.91
463.201	6000.29
463.574	5967.98
463.947	6122.32
464.32	6227.18
464.692	6272.83
465.065	6334.75
465.438	6437.34
465.81	6502.88
466.183	6590.34
466.555	6755.98
466.928	6785.36
467.3	6797.34
467.672	6890.44
468.045	7093.82
468.417	7123.65
468.789	7198
469.161	7269.64
469.534	7361.84
469.906	7527.49
470.278	7613.13
470.65	7696.29
471.022	7807.93
471.394	7984.2
471.766	8040.47
472.138	8146.23
472.51	8318.2
472.882	8473.45
473.253	8566.33
473.625	8606.55
473.997	8869.6
474.369	8952.08
474.74	8979.42
475.112	9106.88
475.484	9316.59
475.855	9413.99
476.227	9571.73
476.598	9894.66
476.97	9877.71
477.341	10138.72
477.713	10194.76
478.084	10271.59
478.455	10618.7
478.827	10669.32
479.198	11021.18
479.569	10963.55
479.94	11313.15
480.311	11435.63
480.682	11611.67
481.053	11910.42
481.424	12088.72
481.795	12172.11
482.166	12386.57
482.537	12460.24
482.908	12869.04
483.279	12912.88
483.65	13165.76
484.021	13429.7
484.391	13607.33
484.762	13681.67
485.133	13777.04
485.503	13958.5
485.874	14295.44
486.244	14460.18
486.615	14714.42
486.985	14861.3
487.356	15126.38
487.726	15191.69
488.097	15619.48
488.467	15604.79
488.837	15842.97
489.207	16058.79
489.578	16397.53
489.948	16441.38
490.318	16722.27
490.688	16799.33
491.058	17080
491.428	17297.62
491.798	17417.17
492.168	17778.97
492.538	17805.63
492.908	17907.78
493.278	18232.29
493.648	18197.71
494.017	18476.58
494.387	18577.14
494.757	18791.37
495.126	18963.34
495.496	19045.6
495.866	19302.77
496.235	19474.29
496.605	19622.53
496.974	19679.26
497.344	19883.54
497.713	19966.25
498.082	20147.94
498.452	20361.72
498.821	20467.48
499.19	20497.31
499.559	20685.78
499.928	20937.53
500.298	20933.69
500.667	21158.99
501.036	21167.35
501.405	21297.29
501.774	21374.81
502.143	21658.19
502.512	21709.49
502.88	21926.2
503.249	21967.56
503.618	22141.34
503.987	22240.32
504.356	22496.58
504.724	22572.51
505.093	22693.41
505.462	22726.63
505.83	22906.52
506.199	23044.14
506.567	23323.45
506.936	23313.51
507.304	23548.53
507.672	23764.12
508.041	23939.94
508.409	23972.25
508.777	24165.47
509.145	24286.37
509.514	24418.79
509.882	24680.48
510.25	24598.9
510.618	24784.21
510.986	24915.28
511.354	25147.36
511.722	25386
512.09	25583.73
512.458	25538.76
512.826	25810.62
513.193	25906.21
513.561	26068.24
513.929	26241.8
514.297	26555.46
514.664	26604.95
515.032	26809.24
515.4	26991.61
515.767	27136.69
516.135	27223.46
516.502	27076.35
516.869	27641.99
517.237	27675.66
517.604	27677.69
517.972	27987.96
518.339	28184.57
518.706	28378.46
519.073	28526.26
519.44	28571.9
519.808	28922.63
520.175	28908.84
520.542	29353.58
520.909	29503.86
521.276	29533.23
521.643	29801.25
522.009	30099.32
522.376	30161.47
522.743	30413.21
523.11	30650.49
523.477	30860.43
523.843	31156.69
524.21	31391.72
524.577	31576.12
524.943	31838.03
525.31	31851.82
525.676	32269.43
526.043	32453.38
526.409	32377.23
526.776	32897.21
527.142	33045.23
527.508	33095.85
527.874	33374.26
528.241	33667.82
528.607	33705.33
528.973	33932.89
529.339	33963.85
529.705	34401.81
530.071	34527
530.437	34638.86
530.803	35028.46
531.169	35322.46
531.535	35202.69
531.901	35310.94
532.267	35618.72
532.632	35778.04
532.998	35826.85
533.364	36000.18
533.73	36121.76
534.095	36468.19
534.461	36558.13
534.826	36717.9
535.192	36896.66
535.557	37096.65
535.923	37169.19
536.288	37311.56
536.653	37482.4
537.019	37455.06
537.384	37781.38
537.749	37873.58
538.114	37908.16
538.479	38023.86
538.845	38064.08
539.21	38133.01
539.575	38323.51
539.94	38497.74
540.305	38767.34
540.67	38683.5
541.034	38928.69
541.399	39229.03
541.764	39111.29
542.129	39450.49
542.494	39486.87
542.858	39537.72
543.223	39740.2
543.587	39934.32
543.952	40013.86
544.316	40040.3
544.681	40158.94
545.045	40347.87
545.41	40559.84
545.774	40595.09
546.138	40717.57
546.503	40833.28
546.867	40814.75
547.231	41211.12
547.595	41222.64
547.959	41443.43
548.324	41525.69
548.688	41479.14
549.052	41773.36
549.416	41835.28
549.779	41840.71
550.143	42025.11
550.507	42425.1
550.871	42462.61
551.235	42380.13
551.599	42712.32
551.962	42790.74
552.326	42864.18
552.689	43209.03
553.053	43135.36
553.417	43180.33
553.78	43652.41
554.143	43453.55
554.507	43665.97
554.87	43929.47
555.234	44212.4
555.597	43988.9
555.96	44191.15
556.323	44353.86
556.686	44464.82
557.05	44745.26
557.413	44791.36
557.776	44949.55
558.139	45264.12
558.502	45246.95
558.865	45310.67
559.228	45634.05
559.59	45681.51
559.953	45854.39
560.316	46267.94
560.679	46268.84
561.041	46495.5
561.404	46581.83
561.767	46902.95
562.129	46708.6
562.492	47246.22
562.854	47228.81
563.217	47297.97
563.579	47387.68
563.941	47675.36
564.304	47775.24
564.666	48078.06
565.028	48092.52
565.39	48212.74
565.753	48456.13
566.115	48576.58
566.477	48705.84
566.839	48744.26
567.201	49077.13
567.563	49100.63
567.925	49400.51
568.287	49332.49
568.648	49482.54
569.01	49619.49
569.372	49978.8
569.734	49830.78
570.095	50009.98
570.457	50235.29
570.819	50360.94
571.18	50317.55
571.542	50653.36
571.903	50609.06
572.265	50701.27
572.626	50904.88
572.987	50896.51
573.349	51084.98
573.71	51180.12
574.071	51351.64
574.432	51373.34
574.794	51543.96
575.155	51536.72
575.516	51461.25
575.877	51804.06
576.238	51748.02
576.599	51904.85
576.96	51882.48
577.32	51972.64
577.681	52100.78
578.042	52178.74
578.403	52169.48
578.763	52251.96
579.124	52397.27
579.485	52431.84
579.845	52533.08
580.206	52570.14
580.566	52537.38
580.927	52564.27
581.287	52743.7
581.648	52590.93
582.008	52818.72
582.368	52774.88
582.728	52918.16
583.089	52750.7
583.449	52850.14
583.809	52903.92
584.169	53037.25
584.529	52945.5
584.889	53062.11
585.249	52996.35
585.609	52889.46
585.969	53194.53
586.329	52969
586.688	53049.9
587.048	53138.04
587.408	53086.06
587.768	53096.68
588.127	53092.84
588.487	53044.93
588.846	53215.1
589.206	53127.87
589.565	53143.91
589.925	53314.08
590.284	53178.04
590.643	53254.42
591.003	53385.26
591.362	53452.61
591.721	53338.71
592.08	53372.83
592.44	53505.71
592.799	53524.24
593.158	53440.4
593.517	53474.53
593.876	53489.89
594.235	53427.3
594.593	53615.09
594.952	53615.09
595.311	53470.46
595.67	53640.62
596.029	53710.9
596.387	53726.72
596.746	53857.79
597.104	53644.69
597.463	53642.21
597.822	53791.81
598.18	53746.61
598.538	53808.3
598.897	53949.77
599.255	53647.4
599.613	54108.41
599.972	53918.58
600.33	53961.52
600.688	53844.01
601.046	54013.5
601.404	54044
601.762	54050.78
602.12	54114.51
602.478	54156.09
602.836	54175.98
603.194	54071.8
603.552	54045.13
603.91	54074.74
604.268	54251.91
604.625	54111.12
604.983	54312.24
605.341	54190.89
605.698	54248.74
606.056	54278.35
606.413	54311.34
606.771	54451.9
607.128	54399.02
607.485	54326.48
607.843	54383.43
608.2	54468.4
608.557	54569.19
608.914	54538
609.272	54688.28
609.629	54658.45
609.986	54764.66
610.343	54627.94
610.7	54841.72
611.057	54755.17
611.414	54758.33
611.771	54775.73
612.127	54851.89
612.484	54834.94
612.841	54933.7
613.198	54803.76
613.554	54754.27
613.911	54993.13
614.267	54942.74
614.624	54914.26
614.98	54956.07
615.337	55168.27
615.693	54963.07
616.05	55029.97
616.406	55176.18
616.762	55081.72
617.118	55068.83
617.475	55109.51
617.831	55134.37
618.187	55216.63
618.543	55280.81
618.899	55335.72
619.255	55267.25
619.611	55268.83
619.967	55322.16
620.323	55369.84
620.678	55267.7
621.034	55214.82
621.39	55286.68
621.746	55233.35
622.101	55534.81
622.457	55289.62
622.812	55305.44
623.168	55380.01
623.523	55478.54
623.879	55504.98
624.234	55334.59
624.589	55482.83
624.945	55366.91
625.3	55424.98
625.655	55437.64
626.01	55466.79
626.365	55469.5
626.72	55396.51
627.075	55435.15
627.43	55450.75
627.785	55334.36
628.14	55464.08
628.495	55477.41
628.85	55424.53
629.205	55295.95
629.559	55607.35
629.914	55393.57
630.269	55495.94
630.623	55364.87
630.978	55260.47
631.332	55492.1
631.687	55446.68
632.041	55363.06
632.396	55387.47
632.75	55243.29
633.104	55375.04
633.459	55212.33
633.813	55211.43
634.167	55209.85
634.521	55222.28
634.875	55253.01
635.229	55198.55
635.583	55075.61
635.937	55086.69
636.291	55089.85
636.645	55100.02
636.999	55022.06
637.352	55053.92
637.706	54959.01
638.06	55094.14
638.413	54991.1
638.767	54911.1
639.121	55019.57
639.474	54839.46
639.828	54869.29
640.181	54927.37
640.534	54857.09
640.888	54825.23
641.241	54707.71
641.594	54797.66
641.947	54865.9
642.301	54813.25
642.654	54840.82
643.007	54806.92
643.36	54843.76
643.713	54688.05
644.066	54840.14
644.419	54649.64
644.771	54430.89
645.124	54167.62
645.477	54175.98
645.83	54013.04
646.182	53881.3
646.535	53927.4
646.888	53928.75
647.24	53694.41
647.593	53994.96
647.945	53908.87
648.298	53644.01
648.65	53607.63
649.002	53632.26
649.355	53781.64
649.707	53691.02
650.059	53760.39
650.411	54123.32
650.763	54336.2
651.115	54397.21
651.467	54373.03
651.819	54366.03
652.171	54246.71
652.523	54291.23
652.875	54238.8
653.227	54188.63
653.578	54376.88
653.93	54249.42
654.282	54148.86
654.633	54130.1
654.985	54175.75
655.337	54207.84
655.688	54182.3
656.039	54265.24
656.391	54006.94
656.742	53980.28
657.094	54005.36
657.445	54174.85
657.796	54066.37
658.147	54082.87
658.498	54073.61
658.849	54119.48
659.2	54056.88
659.551	53982.99
659.902	54031.8
660.253	53932.82
660.604	53989.99
660.955	53913.61
661.306	54003.55
661.656	53923.55
662.007	53861.41
662.358	53974.4
662.708	53951.8
663.059	53919.49
663.409	53745.03
663.76	53900.73
664.11	53809.66
664.461	53907.96
664.811	53891.69
665.161	53876.1
665.511	53730.11
665.862	53785.25
666.212	53829.77
666.562	53832.71
666.912	53781.18
667.262	53775.31
667.612	53757
667.962	53771.24
668.312	53662.77
668.662	53815.99
669.011	53696.67
669.361	53662.09
669.711	53603.11
670.06	53576.44
670.41	53538.03
670.76	53450.8
671.109	53639.72
671.459	53557.69
671.808	53500.74
672.157	53511.36
672.507	53392.72
672.856	53329.9
673.205	53394.75
673.554	53543.45
673.904	53261.88
674.253	53578.93
674.602	53362.89
674.951	52891.26
675.3	52736.69
675.649	53242.22
675.998	53216.45
676.346	53216.68
676.695	53293.29
677.044	53048.55
677.393	53201.54
677.741	53113.41
678.09	52973.52
678.438	52993.18
678.787	52932.62
679.135	52990.7
679.484	52774.21
679.832	52817.37
680.181	52675.9
680.529	52764.94
680.877	52653.3
681.225	52610.14
681.573	52745.28
681.922	52554.1
682.27	52467.32
682.618	52467.1
682.966	52423.48
683.314	52529.47
683.661	52348.45
684.009	52152.08
684.357	52104.17
684.705	52076.37
685.053	52145.07
685.4	52024.62
685.748	51910.27
686.095	51850.16
686.443	51757.96
686.79	51684.74
687.138	51814.23
687.485	51693.33
687.832	51511.41
688.18	51546.22
688.527	51255.83
688.874	51319.33
689.221	51282.27
689.568	51194.59
689.915	50954.82
690.262	51028.71
690.609	50997.76
690.956	50713.24
691.303	50874.14
691.65	50669.85
691.997	50583.3
692.344	50399.8
692.69	50304.67
693.037	50398.9
693.383	50108.06
693.73	50312.8
694.077	49965.01
694.423	49943.77
694.769	49870.78
695.116	49783.32
695.462	49800.72
695.808	49560.5
696.155	49636.89
696.501	49387.85
696.847	49430.34
697.193	49106.05
697.539	49327.06
697.885	49038.48
698.231	48902.67
698.577	48858.38
698.923	48870.81
699.269	48548.33
699.614	48417.71
699.96	48351.27
700.306	48453.19
700.651	48261.1
700.997	48018.17
701.342	48138.17
701.688	47946.99
702.033	47836.93
702.379	47801
702.724	47784.28
703.069	47749.25
703.415	47348.81
703.76	47429.94
704.105	47451.41
704.45	47253.22
704.795	46945.21
705.14	46976.84
705.485	46859.56
705.83	46730.75
706.175	46715.83
706.52	46723.97
706.865	46533.69
707.209	46517.42
707.554	46382.51
707.899	46452.11
708.243	46197.2
708.588	46151.33
708.932	45968.28
709.277	45980.49
709.621	45965.57
709.966	45458.01
710.31	45804.67
710.654	45449.43
710.998	45505.24
711.342	45450.33
711.687	45511.8
712.031	45216.44
712.375	44998.59
712.719	45087.4
713.063	45088.31
713.407	45150.9
713.75	44902.32
714.094	44704.14
714.438	44699.62
714.782	44775.55
715.125	44434.54
715.469	44479.73
715.812	44172.85
716.156	44195.9
716.499	44191.83
716.843	44274.09
717.186	44026.19
717.53	44070.48
717.873	44176.69
718.216	43827.77
718.559	43783.26
718.902	43517.73
719.246	43663.26
719.589	43557.5
719.932	43399.54
720.275	43238.41
720.617	43430.27
720.96	43279.54
721.303	43161.8
721.646	43150.28
721.989	42890.17
722.331	43049.26
722.674	43022.15
723.016	43035.7
723.359	42764.07
723.701	42879.1
724.044	42472.33
724.386	42556.4
724.729	42603.17
725.071	42421.03
725.413	42417.42
725.755	42359.79
726.097	42286.35
726.439	42091.77
726.782	42160.93
727.124	42250.64
727.465	41962.29
727.807	42074.15
728.149	41915.73
728.491	41799.13
728.833	41962.29
729.175	41762.97
729.516	41485.46
729.858	41525.91
730.199	41598.91
730.541	41432.81
730.882	41447.27
731.224	41522.52
731.565	41318.24
731.906	41240.95
732.248	41366.6
732.589	41197.11
732.93	41020.84
733.271	40999.15
733.612	40993.95
733.953	41049.32
734.294	40813.62
734.635	40705.14
734.976	40883.44
735.317	40585.37
735.658	40630.12
735.999	40567.75
736.339	40474.42
736.68	40664.47
737.021	40317.81
737.361	40235.33
737.702	40450.69
738.042	40302.22
738.383	40126.63
738.723	40280.3
739.063	40247.53
739.404	40109.23
739.744	40016.35
740.084	39904.71
740.424	39998.27
740.764	39910.14
741.104	39927.99
741.444	39726.64
741.784	39727.32
742.124	39704.49
742.464	39623.59
742.804	39545.85
743.143	39466.76
743.483	39551.95
743.823	39306.09
744.162	39360.55
744.502	39323.03
744.841	39171.63
745.181	39315.8
745.52	39282.13
745.86	39136.15
746.199	39074
746.538	38996.26
746.877	39051.63
747.216	39000.78
747.556	38837.85
747.895	38918.75
748.234	38659.55
748.573	38691.86
748.911	38551.98
749.25	38618.65
749.589	38435.6
749.928	38452.1
750.267	38573.45
750.605	38357.18
750.944	38295.04
751.283	38166.68
751.621	38370.29
751.96	37956.97
752.298	37939.79
752.636	37960.81
752.975	37906.35
753.313	37659.57
