Data from white_wall_FLMS001491_060.txt Node
Date: Tue Feb 07 11:04:59 GMT 2017
User: dcchb
Spectrometer: FLMS00149
Trigger mode: 0
Integration Time (sec): 2.000000E-2
Scans to average: 10
Electric dark correction enabled: true
Nonlinearity correction enabled: false
Boxcar width: 0
XAxis mode: Wavelengths
Number of Pixels in Spectrum: 2048
>>>>>Begin Spectral Data<<<<<
341.393	0.06
341.776	0.06
342.16	0.06
342.543	-50.34
342.927	-59.6
343.31	-68.64
343.693	-76.1
344.077	-55.99
344.46	-66.61
344.843	-55.76
345.226	-37.68
345.61	-49.43
345.993	-18.93
346.376	-6.05
346.759	7.51
347.142	37.57
347.525	46.16
347.908	80.05
348.291	73.5
348.674	89.77
349.057	100.62
349.44	130.9
349.823	159.37
350.206	166.38
350.588	215.42
350.971	216.77
351.354	254.06
351.737	260.39
352.119	254.06
352.502	280.73
352.884	269.65
353.267	271.24
353.65	313.95
354.032	287.96
354.414	317.56
354.797	302.42
355.179	349.88
355.562	337.67
355.944	331.12
356.326	331.12
356.709	328.86
357.091	339.71
357.473	340.61
357.855	327.73
358.238	354.4
358.62	339.71
359.002	365.24
359.384	345.81
359.766	345.36
360.148	348.3
360.53	362.31
360.912	362.08
361.294	332.03
361.676	349.43
362.057	356.88
362.439	348.3
362.821	328.86
363.203	327.96
363.584	336.32
363.966	338.8
364.348	321.18
364.729	340.61
365.111	331.12
365.493	333.16
365.874	344.91
366.256	337
366.637	344.23
367.019	325.92
367.4	323.66
367.781	328.64
368.163	326.15
368.544	332.48
368.925	326.6
369.306	338.58
369.688	307.39
370.069	321.18
370.45	338.8
370.831	328.64
371.212	329.31
371.593	325.92
371.974	327.51
372.355	343.55
372.736	313.27
373.117	334.74
373.498	329.54
373.879	322.08
374.26	315.3
374.641	331.35
375.021	346.04
375.402	337.67
375.783	319.37
376.163	353.27
376.544	351.91
376.925	333.83
377.305	337
377.686	332.48
378.066	350.1
378.447	339.03
378.827	338.35
379.208	342.65
379.588	330.9
379.968	342.42
380.349	331.57
380.729	351.91
381.109	347.62
381.489	339.93
381.87	348.07
382.25	353.27
382.63	343.1
383.01	351.23
383.39	355.3
383.77	379.03
384.15	348.75
384.53	351.23
384.91	355.08
385.29	343.1
385.67	362.53
386.049	360.27
386.429	389.65
386.809	390.33
387.189	379.26
387.568	392.14
387.948	359.37
388.328	379.26
388.707	374.51
389.087	393.49
389.466	374.06
389.846	407.96
390.225	395.3
390.605	420.61
390.984	420.38
391.363	403.21
391.743	419.71
392.122	420.16
392.501	432.81
392.881	442.98
393.26	427.62
393.639	421.06
394.018	432.59
394.397	459.93
394.776	441.63
395.155	457.67
395.534	447.5
395.913	466.26
396.292	457.67
396.671	485.02
397.05	464.23
397.429	484.79
397.808	497.44
398.186	481.85
398.565	499.93
398.944	529.76
399.323	530.89
399.701	511.91
400.08	555.52
400.458	537.67
400.837	548.06
401.215	548.52
401.594	541.29
401.972	572.24
402.351	576.31
402.729	594.62
403.107	598.23
403.486	597.33
403.864	612.24
404.242	638.01
404.62	598.01
404.999	610.66
405.377	631.23
405.755	645.46
406.133	658.34
406.511	672.13
406.889	693.6
407.267	688.63
407.645	705.35
408.023	711.68
408.401	721.85
408.779	731.34
409.156	725.01
409.534	765.91
409.912	750.32
410.29	784.89
410.667	798
411.045	816.76
411.422	808.85
411.8	825.57
412.178	825.8
412.555	852.46
412.933	855.4
413.31	880.71
413.687	877.77
414.065	893.14
414.442	891.56
414.819	929.07
415.197	920.94
415.574	932.01
415.951	941.73
416.328	946.47
416.705	968.84
417.082	967.94
417.46	965.68
417.837	1000.48
418.214	1001.16
418.591	1034.83
418.967	1011.1
419.344	997.09
419.721	1056.3
420.098	1027.83
420.475	1049.52
420.852	1055.17
421.228	1078.9
421.605	1069.18
421.982	1088.84
422.358	1117.99
422.735	1123.19
423.111	1100.37
423.488	1147.37
423.864	1146.47
424.241	1170.2
424.617	1169.97
424.994	1226.46
425.37	1211.32
425.746	1202.96
426.123	1240.7
426.499	1244.54
426.875	1243.41
427.251	1289.29
427.627	1264.2
428.003	1320.47
428.379	1330.64
428.756	1331.55
429.132	1354.37
429.507	1363.64
429.883	1386.01
430.259	1409.51
430.635	1393.24
431.011	1428.95
431.387	1473.24
431.763	1462.16
432.138	1482.28
432.514	1502.16
432.89	1524.08
433.265	1578.77
433.641	1560.24
434.016	1601.37
434.392	1599.34
434.767	1623.74
435.143	1643.63
435.518	1646.79
435.894	1674.36
436.269	1711.42
436.644	1739.9
437.02	1762.27
437.395	1760.46
437.77	1753.23
438.145	1778.77
438.52	1806.56
438.895	1846.11
439.271	1865.32
439.646	1877.52
440.021	1867.8
440.395	1864.87
440.77	1886.56
441.145	1909.16
441.52	1940.12
441.895	1934.24
442.27	1963.39
442.645	1974.92
443.019	2010.63
443.394	1999.78
443.769	1995.48
444.143	2040.23
444.518	2081.36
444.892	2082.26
445.267	2074.8
445.641	2115.93
446.016	2107.35
446.39	2158.42
446.764	2133.79
447.139	2117.74
447.513	2174.24
447.887	2189.83
448.262	2180.79
448.636	2192.09
449.01	2225.08
449.384	2260.56
449.758	2294.46
450.132	2297.62
450.506	2292.88
450.88	2342.59
451.254	2332.65
451.628	2369.49
452.002	2411.97
452.376	2443.61
452.75	2446.32
453.123	2471.4
453.497	2521.35
453.871	2524.06
454.244	2608.58
454.618	2580.78
454.992	2633.43
455.365	2630.5
455.739	2680.66
456.112	2723.15
456.486	2746.42
456.859	2725.18
457.232	2794.56
457.606	2821.9
457.979	2822.81
458.352	2957.94
458.725	2932.18
459.099	2951.17
459.472	3035.68
459.845	3040.65
460.218	3072.74
460.591	3121.56
460.964	3126.75
461.337	3197.49
461.71	3234.77
462.083	3291.27
462.456	3311.38
462.829	3315
463.201	3393.41
463.574	3392.74
463.947	3448.1
464.32	3482.22
464.692	3558.16
465.065	3579.4
465.438	3644.25
465.81	3697.59
466.183	3702.11
466.555	3796.34
466.928	3824.14
467.3	3815.1
467.672	3908.2
468.045	3969.67
468.417	4013.96
468.789	4020.74
469.161	4093.28
469.534	4132.38
469.906	4224.8
470.278	4280.62
470.65	4327.17
471.022	4382.99
471.394	4513.38
471.766	4467.74
472.138	4584.57
472.51	4652.36
472.882	4746.6
473.253	4803.32
473.625	4884.22
473.997	4971
474.369	5036.53
474.74	5053.26
475.112	5194.95
475.484	5189.07
475.855	5300.03
476.227	5386.13
476.598	5527.14
476.97	5570.98
477.341	5702.28
477.713	5836.74
478.084	5856.4
478.455	6009.62
478.827	6040.12
479.198	6198.31
479.569	6248.48
479.94	6441.47
480.311	6514.24
480.682	6600.79
481.053	6713.1
481.424	6898.41
481.795	6937.28
482.166	7041
482.537	7092.3
482.908	7317.83
483.279	7335.23
483.65	7544.04
484.021	7705.62
484.391	7793.3
484.762	7802.34
485.133	7886.18
485.503	7993.29
485.874	8205.49
486.244	8310.57
486.615	8449.1
486.985	8576.55
487.356	8703.33
487.726	8726.38
488.097	8975.19
488.467	8991.91
488.837	9139.03
489.207	9329.98
489.578	9459.69
489.948	9530.43
490.318	9708.05
490.688	9645.45
491.058	9807.71
491.428	10028.72
491.798	10091.32
492.168	10287.24
492.538	10372.89
492.908	10565.43
493.278	10582.6
493.648	10642.71
494.017	10857.17
494.387	10906.44
494.757	10968.13
495.126	11204.73
495.496	11171.74
495.866	11223.94
496.235	11432.07
496.605	11555.68
496.974	11579.87
497.344	11705.96
497.713	11715
498.082	11908.9
498.452	12055.56
498.821	12088.78
499.19	12085.39
499.559	12249.9
499.928	12336.23
500.298	12403.35
500.667	12618.26
501.036	12547.98
501.405	12712.72
501.774	12722.43
502.143	12937.8
502.512	12962.2
502.88	13152.25
503.249	13114.29
503.618	13255.3
503.987	13341.17
504.356	13415.75
504.724	13490.1
505.093	13535.29
505.462	13696.87
505.83	13787.49
506.199	13897.54
506.567	14050.08
506.936	14108.61
507.304	14282.84
507.672	14333.24
508.041	14370.98
508.409	14554.02
508.777	14604.87
509.145	14759.22
509.514	14744.3
509.882	14969.83
510.25	14973.9
510.618	15099.32
510.986	15212.31
511.354	15391.52
511.722	15517.61
512.09	15634.9
512.458	15673.32
512.826	15830.83
513.193	15831.73
513.561	15934.1
513.929	16047.54
514.297	16275.11
514.664	16419.29
515.032	16434.65
515.4	16659.73
515.767	16698.15
516.135	16865.83
516.502	16764.81
516.869	17069.44
517.237	17116.44
517.604	17045.48
517.972	17417.23
518.339	17614.96
518.706	17572.7
519.073	17617.9
519.44	17774.5
519.808	17909.87
520.175	17928.62
520.542	18127.26
520.909	18340.82
521.276	18343.75
521.643	18601.6
522.009	18658.32
522.376	18776.51
522.743	18985.09
523.11	19195.71
523.477	19321.13
523.843	19538.07
524.21	19677.73
524.577	19786.43
524.943	19887.67
525.31	20067.1
525.676	20159.98
526.043	20345.51
526.409	20477.71
526.776	20646.07
527.142	20763.35
527.508	20793.18
527.874	21041.31
528.241	21136
528.607	21107.98
528.973	21537.8
529.339	21446.95
529.705	21694.63
530.071	21795.87
530.437	21909.76
530.803	22040.83
531.169	22197.44
531.535	22188.4
531.901	22286.7
532.267	22316.53
532.632	22476.53
532.998	22597.2
533.364	22870.19
533.73	22882.84
534.095	23028.6
534.461	23082.61
534.826	23298.2
535.192	23354.7
535.557	23562.83
535.923	23472.21
536.288	23636.72
536.653	23692.31
537.019	23793.1
537.384	23874.23
537.749	24025.64
538.114	24056.83
538.479	24169.36
538.845	24295.01
539.21	24176.37
539.575	24376.59
539.94	24450.04
540.305	24529.36
540.67	24668.11
541.034	24797.6
541.399	24980.19
541.764	24867.2
542.129	25080.3
542.494	25151.03
542.858	25121.2
543.223	25300.41
543.587	25436.9
543.952	25494.98
544.316	25457.01
544.681	25563
545.045	25709.66
545.41	25928.64
545.774	26014.51
546.138	26068.3
546.503	26277.33
546.867	26289.99
547.231	26500.38
547.595	26461.96
547.959	26590.09
548.324	26632.12
548.688	26600.04
549.052	26857.2
549.416	26940.59
549.779	27041.38
550.143	27092
550.507	27361.14
550.871	27466.9
551.235	27430.3
551.599	27638.88
551.962	27814.01
552.326	27793.45
552.689	28089.71
553.053	28040
553.417	28129.26
553.78	28538.06
554.143	28457.84
554.507	28478.63
554.87	28667.55
555.234	28864.83
555.597	28805.85
555.96	28998.16
556.323	29066.64
556.686	29245.16
557.05	29449.23
557.413	29520.41
557.776	29723.79
558.139	29904.58
558.502	29860.74
558.865	30055.09
559.228	30221.41
559.59	30288.3
559.953	30425.02
560.316	30681.51
560.679	30777.33
561.041	30967.38
561.404	31087.15
561.767	31352
562.129	31313.81
562.492	31591.99
562.854	31511.77
563.217	31590.86
563.579	31649.85
563.941	31971.42
564.304	32112.88
564.666	32250.06
565.028	32241.92
565.39	32372.09
565.753	32562.82
566.115	32877.61
566.477	32824.96
566.839	32919.87
567.201	33164.38
567.563	33248.45
567.925	33625.16
568.287	33533.19
568.648	33660.64
569.01	33906.51
569.372	34023.79
569.734	33994.87
570.095	34210.46
570.457	34472.37
570.819	34384.92
571.18	34490
571.542	34592.59
571.903	34602.54
572.265	34793.27
572.626	34859.25
572.987	34940.83
573.349	34972.02
573.71	35105.57
574.071	35264.44
574.432	35437.32
574.794	35704.43
575.155	35594.37
575.516	35567.03
575.877	35635.96
576.238	35753.69
576.599	35845.89
576.96	35930.64
577.32	35952.33
577.681	36044.08
578.042	36115.04
578.403	36056.74
578.763	36037.08
579.124	36229.84
579.485	36429.83
579.845	36383.96
580.206	36275.71
580.566	36322.72
580.927	36327.01
581.287	36586.44
581.648	36336.28
582.008	36714.12
582.368	36427.8
582.728	36693.78
583.089	36575.37
583.449	36688.81
583.809	36655.59
584.169	36848.58
584.529	36642.26
584.889	36905.75
585.249	36623.5
585.609	36665.53
585.969	36917.05
586.329	36841.12
586.688	36940.33
587.048	36823.5
587.408	36751.41
587.768	36706.21
588.127	36719.77
588.487	36630.05
588.846	36926.09
589.206	36720.67
589.565	36827.56
589.925	36908.24
590.284	36881.35
590.643	36936.94
591.003	36913.44
591.362	37051.51
591.721	36901.46
592.08	37006.77
592.44	37098.74
592.799	37083.6
593.158	37045.41
593.517	37073.66
593.876	37053.55
594.235	37006.77
594.593	37021
594.952	37152.98
595.311	37093.54
595.67	37110.49
596.029	37246.76
596.387	37319.08
596.746	37376.93
597.104	37151.62
597.463	37272.75
597.822	37286.08
598.18	37221.9
598.538	37254.67
598.897	37500.31
599.255	37200.66
599.613	37701.89
599.972	37395.91
600.33	37532.85
600.688	37412.86
601.046	37601.55
601.404	37509.35
601.762	37551.84
602.12	37652.63
602.478	37725.39
602.836	37714.77
603.194	37564.27
603.552	37701.21
603.91	37597.03
604.268	37827.76
604.625	37610.59
604.983	37885.39
605.341	37672.06
605.698	37891.49
606.056	38030.92
606.413	37937.59
606.771	37971.04
607.128	38143.23
607.485	38013.29
607.843	37941.21
608.2	38250.8
608.557	38285.38
608.914	38000.87
609.272	38263.91
609.629	38337.81
609.986	38518.82
610.343	38368.77
610.7	38646.95
611.057	38492.38
611.414	38330.12
611.771	38581.87
612.127	38678.36
612.484	38650.11
612.841	38756.55
613.198	38590
613.554	38571.47
613.911	38701.41
614.267	38807.85
614.624	38778.25
614.98	38760.85
615.337	39075.41
615.693	39105.02
616.05	38947.73
616.406	39196.77
616.762	38944.57
617.118	39048.07
617.475	39039.93
617.831	39133.94
618.187	39200.83
618.543	39110.44
618.899	39292.81
619.255	39262.98
619.611	39279.93
619.967	39418.46
620.323	39320.15
620.678	39169.42
621.034	39220.49
621.39	39189.53
621.746	39275.41
622.101	39650.09
622.457	39461.84
622.812	39545.46
623.168	39542.07
623.523	39532.12
623.879	39678.79
624.234	39534.61
624.589	39535.29
624.945	39583.2
625.3	39536.19
625.655	39687.6
626.01	39474.72
626.365	39616.19
626.72	39538.23
627.075	39599.24
627.43	39340.04
627.785	39502.29
628.14	39566.7
628.495	39623.65
628.85	39643.31
629.205	39399.25
629.559	39712.23
629.914	39514.27
630.269	39551.78
630.623	39458.23
630.978	39301.62
631.332	39399.92
631.687	39378
632.041	39296.88
632.396	39363.54
632.75	39172.59
633.104	39170.33
633.459	39060.72
633.813	39082.87
634.167	39053.04
634.521	39027.96
634.875	39124.68
635.229	39110.89
635.583	38928.52
635.937	38850.11
636.291	38868.86
636.645	38879.03
636.999	38889.66
637.352	38785.03
637.706	38524.02
638.06	38884.23
638.413	38689.21
638.767	38646.95
639.121	38755.2
639.474	38413.74
639.828	38402.89
640.181	38481.53
640.534	38441.31
640.888	38338.48
641.241	38254.42
641.594	38278.6
641.947	38399.72
642.301	38209
642.654	38182.33
643.007	38221.42
643.36	38220.97
643.713	38178.71
644.066	38268.65
644.419	37928.78
644.771	37620.54
645.124	37388.68
645.477	37272.07
645.83	37140.77
646.182	37016.48
646.535	36948.24
646.888	37018.52
647.24	36747.34
647.593	37041.79
647.945	36859.88
648.298	36624.63
648.65	36644.29
649.002	36585.54
649.355	36560.45
649.707	36692.65
650.059	36821.01
650.411	37031.85
650.763	37086.31
651.115	37489.47
651.467	37294.9
651.819	37275.69
652.171	37160.89
652.523	37176.48
652.875	37173.77
653.227	36904.85
653.578	37301
653.93	37121.57
654.282	36853.55
654.633	36889.71
654.985	36888.8
655.337	36904.85
655.688	37036.82
656.039	37103.04
656.391	36777.17
656.742	36851.06
657.094	36968.58
657.445	36958.63
657.796	36923.83
658.147	36700.11
658.498	36715.48
658.849	36849.26
659.2	36664.86
659.551	36551.41
659.902	36789.15
660.253	36701.01
660.604	36660.56
660.955	36466.22
661.306	36679.54
661.656	36600.9
662.007	36657.85
662.358	36480.45
662.708	36579.43
663.059	36576.95
663.409	36208.6
663.76	36569.94
664.11	36374.92
664.461	36478.19
664.811	36440.91
665.161	36284.98
665.511	36345.32
665.862	36403.17
666.212	36402.72
666.562	36525.2
666.912	36409.49
667.262	36359.33
667.612	36230.52
667.962	36333.56
668.312	36260.57
668.662	36367.24
669.011	36236.62
669.361	36217.41
669.711	36076.85
670.06	36055.83
670.41	36078.43
670.76	35921.82
671.109	36121.82
671.459	35962.5
671.808	35963.86
672.157	36184.64
672.507	35846.12
672.856	35928.6
673.205	35850.87
673.554	36062.61
673.904	35790.98
674.253	35943.07
674.602	35824.65
674.951	35314.38
675.3	35031.9
675.649	35626.24
675.998	35673.47
676.346	35560.48
676.695	35694.71
677.044	35408.17
677.393	35558.22
677.741	35642.06
678.09	35480.03
678.438	35336.53
678.787	35469.86
679.135	35417.2
679.484	35323.42
679.832	35230.32
680.181	34993.71
680.529	35129.98
680.877	35038.91
681.225	35102.41
681.573	35151
681.922	35005.24
682.27	34748.3
682.618	34864
682.966	34839.37
683.314	34830.33
683.661	34722.53
684.009	34449.55
684.357	34560.28
684.705	34454.74
685.053	34552.82
685.4	34365.48
685.748	34198.93
686.095	34109.22
686.443	34055.66
686.79	34116.67
687.138	34068.31
687.485	34094.53
687.832	33848.66
688.18	33955.32
688.527	33749.45
688.874	33697.02
689.221	33615.22
689.568	33630.58
689.915	33463.81
690.262	33523.24
690.609	33340.65
690.956	33151.95
691.303	33249.35
691.65	33175
691.997	33186.3
692.344	32869.47
692.69	32822.47
693.037	32883.26
693.383	32594
693.73	32697.73
694.077	32483.95
694.423	32384.74
694.769	32344.29
695.116	32199.89
695.462	32141.13
695.808	32086.44
696.155	32197.85
696.501	31968.26
696.847	31872.44
697.193	31664.31
697.539	31942.27
697.885	31551.54
698.231	31499.57
698.577	31592.45
698.923	31504.31
699.269	31515.39
699.614	31162.63
699.96	31192.68
700.306	31163.08
700.651	30922.41
700.997	30881.28
701.342	30790.21
701.688	30794.5
702.033	30804.67
702.379	30566.03
702.724	30522.42
703.069	30616.65
703.415	30239.94
703.76	30258.47
704.105	30343.89
704.45	30210.11
704.795	30034.3
705.14	29976.44
705.485	29839.27
705.83	29743.68
706.175	29849.67
706.52	29696.22
706.865	29597.47
707.209	29604.25
707.554	29474.31
707.899	29465.27
708.243	29331.49
708.588	29317.7
708.932	29146.41
709.277	29087.65
709.621	29134.43
709.966	28941.67
710.31	28977.83
710.654	28783.03
710.998	28757.94
711.342	28923.59
711.687	28643.6
712.031	28636.59
712.375	28496.03
712.719	28606.76
713.063	28508.91
713.407	28573.32
713.75	28321.35
714.094	28393.66
714.438	28131.07
714.782	28204.06
715.125	28166.1
715.469	28107.57
715.812	27933.11
716.156	27874.8
716.499	27896.95
716.843	27945.31
717.186	27749.61
717.53	27934.24
717.873	27881.36
718.216	27684.53
718.559	27560.24
718.902	27457.87
719.246	27525.43
719.589	27451.76
719.932	27384.65
720.275	27312.11
720.617	27393.01
720.96	27348.04
721.303	27261.94
721.646	27235.95
721.989	27063.98
722.331	27173.81
722.674	27003.87
723.016	27107.59
723.359	26980.36
723.701	27035.96
724.044	26835.06
724.386	26597.32
724.729	26761.39
725.071	26749.86
725.413	26847.03
725.755	26666.02
726.097	26559.13
726.439	26388.06
726.782	26432.36
727.124	26539.47
727.465	26416.09
727.807	26453.6
728.149	26323.43
728.491	26224.9
728.833	26304.45
729.175	26146.04
729.516	26016.32
729.858	26068.52
730.199	26078.24
730.541	26004.57
730.882	25975.42
731.224	26052.25
731.565	25858.81
731.906	25780.4
732.248	25863.11
732.589	25820.62
732.93	25614.07
733.271	25666.27
733.612	25770.68
733.953	25646.61
734.294	25652.72
734.635	25537.24
734.976	25593.06
735.317	25362.1
735.658	25437.58
735.999	25333.18
736.339	25336.34
736.68	25344.7
737.021	25290.92
737.361	25053.41
737.702	25302.89
738.042	25233.29
738.383	25180.41
738.723	25229.45
739.063	25106.51
739.404	25100.64
739.744	25018.83
740.084	25012.05
740.424	24978.83
740.764	24923.47
741.104	24879.63
741.444	24843.25
741.784	24810.7
742.124	24766.64
742.464	24767.99
742.804	24769.12
743.143	24636.92
743.483	24576.13
743.823	24525.51
744.162	24554.67
744.502	24528
744.841	24417.49
745.181	24563.7
745.52	24414.1
745.86	24384.05
746.199	24380.21
746.538	24259.53
746.877	24413.2
747.216	24186.09
747.556	24140.44
747.895	24179.08
748.234	24137.73
748.573	24017.5
748.911	24055.92
749.25	24038.52
749.589	23834.91
749.928	23952.65
750.267	24027.9
750.605	23783.84
750.944	23628.14
751.283	23639.21
751.621	23803.72
751.96	23635.82
752.298	23537.97
752.636	23461.13
752.975	23577.29
753.313	23405.09
753.651	23415.94
753.989	23299.33
754.327	23367.8
754.666	23132.78
755.004	23003.07
