Data from White_paper_FLMS001491_093.txt Node
Date: Tue Feb 07 10:35:49 GMT 2017
User: dcchb
Spectrometer: FLMS00149
Trigger mode: 0
Integration Time (sec): 2.000000E-2
Scans to average: 10
Electric dark correction enabled: true
Nonlinearity correction enabled: false
Boxcar width: 0
XAxis mode: Wavelengths
Number of Pixels in Spectrum: 2048
>>>>>Begin Spectral Data<<<<<
341.393	-27.05
341.776	-27.05
342.16	-27.05
342.543	-60.72
342.927	-51.68
343.31	-80.38
343.693	-80.61
344.077	-48.06
344.46	-41.06
344.843	-57.55
345.226	-51.23
345.61	-33.15
345.993	-7.84
346.376	-9.65
346.759	4.59
347.142	25.15
347.525	45.04
347.908	62.22
348.291	81.42
348.674	86.85
349.057	104.25
349.44	125.94
349.823	115.77
350.206	155.77
350.588	218.37
350.971	235.77
351.354	243.68
351.737	271.48
352.119	276.67
352.502	278.03
352.884	304.24
353.267	304.7
353.65	312.83
354.032	329.78
354.414	320.51
354.797	315.09
355.179	351.47
355.562	349.44
355.944	345.82
356.326	335.2
356.709	350.12
357.091	366.84
357.473	381.08
357.855	398.03
358.238	371.13
358.62	382.89
359.002	370.46
359.384	373.17
359.766	380.4
360.148	384.47
360.53	374.52
360.912	345.82
361.294	351.47
361.676	365.71
362.057	372.04
362.439	376.33
362.821	373.85
363.203	366.61
363.584	355.77
363.966	353.06
364.348	353.51
364.729	374.3
365.111	359.61
365.493	356.9
365.874	358.71
366.256	340.85
366.637	347.86
367.019	371.13
367.4	349.89
367.781	355.54
368.163	343.34
368.544	364.35
368.925	356.22
369.306	361.42
369.688	372.49
370.069	364.58
370.45	331.81
370.831	357.58
371.212	361.64
371.593	353.51
371.974	357.35
372.355	381.98
372.736	363
373.117	377.91
373.498	367.74
373.879	359.61
374.26	361.87
374.641	367.74
375.021	332.27
375.402	373.62
375.783	379.27
376.163	398.25
376.544	370
376.925	387.41
377.305	393.51
377.686	373.85
378.066	397.8
378.447	399.38
378.827	410.23
379.208	390.57
379.588	395.31
379.968	399.16
380.349	397.57
380.729	401.87
381.109	416.78
381.489	403.9
381.87	395.31
382.25	416.1
382.63	413.85
383.01	390.12
383.39	412.49
383.77	432.6
384.15	433.73
384.53	419.49
384.91	419.04
385.29	433.05
385.67	412.94
386.049	436.9
386.429	448.87
386.809	452.04
387.189	433.73
387.568	438.03
387.948	465.14
388.328	459.95
388.707	473.05
389.087	457.69
389.466	469.66
389.846	469.21
390.225	473.5
390.605	497.01
390.984	477.35
391.363	512.37
391.743	502.66
392.122	493.39
392.501	509.66
392.881	530
393.26	510.79
393.639	523.22
394.018	501.07
394.397	530
394.776	493.16
395.155	527.29
395.534	550.56
395.913	556.89
396.292	548.76
396.671	573.61
397.05	578.81
397.429	548.98
397.808	599.15
398.186	579.26
398.565	599.83
398.944	603.22
399.323	579.94
399.701	623.33
400.08	615.42
400.458	622.2
400.837	625.14
401.215	621.75
401.594	654.29
401.972	639.6
402.351	639.15
402.729	647.51
403.107	674.18
403.486	701.52
403.864	697.23
404.242	715.08
404.62	733.38
404.999	721.41
405.377	745.14
405.755	759.6
406.133	772.71
406.511	793.27
406.889	789.88
407.267	794.17
407.645	846.38
408.023	847.96
408.401	870.56
408.779	908.75
409.156	927.5
409.534	937
409.912	955.07
410.29	994.39
410.667	1000.5
411.045	1003.43
411.422	1026.71
411.8	1035.98
412.178	1121.85
412.555	1129.76
412.933	1146.03
413.31	1190.32
413.687	1202.98
414.065	1202.3
414.442	1268.96
414.819	1260.83
415.197	1293.14
415.574	1338.57
415.951	1389.19
416.328	1376.08
416.705	1403.88
417.082	1431.9
417.46	1479.35
417.837	1510.99
418.214	1483.65
418.591	1533.14
418.967	1560.03
419.344	1563.42
419.721	1614.72
420.098	1591.67
420.475	1668.28
420.852	1654.26
421.228	1707.37
421.605	1742.62
421.982	1750.08
422.358	1772.91
422.735	1819.23
423.111	1800.25
423.488	1868.04
423.864	1885.67
424.241	1872.11
424.617	1913.01
424.994	1944.65
425.37	1941.94
425.746	1993.92
426.123	2018.55
426.499	2030.07
426.875	2076.4
427.251	2121.82
427.627	2152.56
428.003	2149.84
428.379	2227.36
428.756	2226.9
429.132	2255.6
429.507	2303.29
429.883	2319.78
430.259	2371.08
430.635	2382.38
431.011	2419.67
431.387	2454.7
431.763	2516.84
432.138	2546.9
432.514	2588.48
432.89	2638.87
433.265	2665.09
433.641	2702.6
434.016	2747.12
434.392	2787.57
434.767	2830.28
435.143	2843.16
435.518	2911.41
435.894	2896.72
436.269	2951.18
436.644	2978.3
437.02	3013.55
437.395	3022.82
437.77	3119.08
438.145	3169.48
438.52	3143.72
438.895	3218.07
439.271	3231.62
439.646	3255.58
440.021	3313.2
440.395	3325.86
440.77	3327.44
441.145	3365.41
441.52	3428.91
441.895	3418.96
442.27	3469.58
442.645	3451.28
443.019	3512.97
443.394	3526.08
443.769	3559.75
444.143	3525.4
444.518	3605.85
444.892	3583.71
445.267	3627.32
445.641	3690.14
446.016	3697.83
446.39	3703.48
446.764	3737.15
447.139	3666.87
447.513	3809.46
447.887	3799.07
448.262	3801.78
448.636	3814.89
449.01	3885.17
449.384	3928.33
449.758	3916.8
450.132	3959.51
450.506	3997.48
450.88	4067.08
451.254	4037.03
451.628	4107.99
452.002	4166.29
452.376	4133.52
452.75	4245.16
453.123	4256.68
453.497	4302.56
453.871	4350.92
454.244	4452.61
454.618	4439.95
454.992	4477.69
455.365	4496
455.739	4630.68
456.112	4651.25
456.486	4679.5
456.859	4722.21
457.232	4845.82
457.606	4815.76
457.979	4915.42
458.352	5015.31
458.725	5078.81
459.099	5095.76
459.472	5237.67
459.845	5236.77
460.218	5266.15
460.591	5325.35
460.964	5314.51
461.337	5432.7
461.71	5535.29
462.083	5641.05
462.456	5659.36
462.829	5697.55
463.201	5775.51
463.574	5809.64
463.947	5878.33
464.32	6001.72
464.692	6115.16
465.065	6154.26
465.438	6216.63
465.81	6302.05
466.183	6369.39
466.555	6478.09
466.928	6544.98
467.3	6560.35
467.672	6614.13
468.045	6826.33
468.417	6848.7
468.789	6881.25
469.161	7032.65
469.534	7106.1
469.906	7259.77
470.278	7314.45
470.65	7397.62
471.022	7559.65
471.394	7693.65
471.766	7720.77
472.138	7829.02
472.51	8039.86
472.882	8142.23
473.253	8258.16
473.625	8331.38
473.997	8495.89
474.369	8542.22
474.74	8676.68
475.112	8821.31
475.484	8932.04
475.855	9132.94
476.227	9252.03
476.598	9463.78
476.97	9519.82
477.341	9776.76
477.713	9854.5
478.084	9899.7
478.455	10216.98
478.827	10277.31
479.198	10576.74
479.569	10657.87
479.94	10857.64
480.311	11031.19
480.682	11174.92
481.053	11520.45
481.424	11696.71
481.795	11702.81
482.166	11966.99
482.537	12066.87
482.908	12369.91
483.279	12520.87
483.65	12709.57
484.021	12936.45
484.391	13091.7
484.762	13178.71
485.133	13338.02
485.503	13469.09
485.874	13804.23
486.244	13935.75
486.615	14202.18
486.985	14383.2
487.356	14596.75
487.726	14668.84
488.097	15024.31
488.467	15064.76
488.837	15354.7
489.207	15561.47
489.578	15744.06
489.948	15910.16
490.318	16067.44
490.688	16186.31
491.058	16432.63
491.428	16657.03
491.798	16839.4
492.168	17157.81
492.538	17199.17
492.908	17256.57
493.278	17504.02
493.648	17467.63
494.017	17829.21
494.387	17923.44
494.757	18089.09
495.126	18271.23
495.496	18244.34
495.866	18572.46
496.235	18715.28
496.605	18877.54
496.974	18946.24
497.344	19244.08
497.713	19286.8
498.082	19438.66
498.452	19571.31
498.821	19691.98
499.19	19765.43
499.559	19914.35
499.928	20063.27
500.298	20194.12
500.667	20401.57
501.036	20428.01
501.405	20653.99
501.774	20656.7
502.143	20784.16
502.512	20938.28
502.88	21148.44
503.249	21242.9
503.618	21272.73
503.987	21541.43
504.356	21502.56
504.724	21672.27
505.093	21726.5
505.462	21867.07
505.83	21997.46
506.199	22259.6
506.567	22504.79
506.936	22474.28
507.304	22748.85
507.672	22978
508.041	22989.97
508.409	23142.74
508.777	23423.64
509.145	23555.16
509.514	23596.96
509.882	23587.47
510.25	23757.19
510.618	24004.86
510.986	24095.26
511.354	24274.69
511.722	24420.67
512.09	24804.16
512.458	24788.8
512.826	25013.2
513.193	25139.52
513.561	25137.26
513.929	25431.49
514.297	25511.04
514.664	25705.16
515.032	25873.74
515.4	25969.33
515.767	26167.97
516.135	26311.7
516.502	26190.79
516.869	26683.21
517.237	26796.43
517.604	26727.05
517.972	27153.03
518.339	27182.63
518.706	27200.49
519.073	27416.52
519.44	27661.72
519.808	28021.03
520.175	27835.5
520.542	28224.64
520.909	28435.93
521.276	28486.55
521.643	28817.39
522.009	29005.64
522.376	29134.22
522.743	29336.93
523.11	29569.24
523.477	29814.43
523.843	30091.48
524.21	30308.88
524.577	30450.34
524.943	30616.67
525.31	30727.17
525.676	31049.88
526.043	31344.11
526.409	31413.71
526.776	31767.6
527.142	31788.61
527.508	31951.77
527.874	32333.91
528.241	32552.44
528.607	32662.04
528.973	32912.65
529.339	32811.19
529.705	33329.14
530.071	33423.15
530.437	33653.42
530.803	33800.54
531.169	34142.45
531.535	33972.06
531.901	34318.04
532.267	34266.97
532.632	34591.7
532.998	34625.6
533.364	34894.29
533.73	34934.97
534.095	35244.57
534.461	35280.5
534.826	35555.75
535.192	35625.12
535.557	35936.98
535.923	35881.16
536.288	36092.23
536.653	36282.28
537.019	36098.33
537.384	36294.48
537.749	36657.64
538.114	36628.49
538.479	36827.35
538.845	36873.23
539.21	36850.4
539.575	37230.73
539.94	37263.72
540.305	37481.34
540.67	37390.73
541.034	37658.97
541.399	37758.63
541.764	37928.34
542.129	38175.56
542.494	38267.76
542.858	38341.89
543.223	38409.46
543.587	38759.5
543.952	38548.21
544.316	38840.86
544.681	38870.01
545.045	38961.08
545.41	39238.59
545.774	39259.38
546.138	39415.53
546.503	39693.49
546.867	39533.95
547.231	39888.74
547.595	39989.3
547.959	40070.88
548.324	40103.42
548.688	40335.28
549.052	40447.59
549.416	40477.88
549.779	40452.57
550.143	40766
550.507	41058.65
550.871	41037.18
551.235	41031.53
551.599	41329.61
551.962	41465.87
552.326	41615.93
552.689	41760.55
553.053	41581.12
553.417	41721.46
553.78	42270.37
554.143	42172.75
554.507	42451.16
554.87	42448.45
555.234	42892.5
555.597	42716.46
555.96	42883.46
556.323	43031.26
556.686	43153.51
557.05	43508.31
557.413	43569.32
557.776	43532.71
558.139	43898.8
558.502	43978.12
558.865	44108.06
559.228	44350.32
559.59	44408.17
559.953	44579.46
560.316	45014.93
560.679	44950.98
561.041	45202.05
561.404	45310.29
561.767	45508.93
562.129	45477.74
562.492	45919.09
562.854	45886.32
563.217	45938.07
563.579	46102.36
563.941	46287.89
564.304	46512.75
564.666	46671.84
565.028	46752.97
565.39	46950.02
565.753	47136.01
566.115	47223.69
566.477	47422.33
566.839	47517.92
567.201	47801.75
567.563	47705.71
567.925	48119.94
568.287	48052.37
568.648	48185.02
569.01	48499.81
569.372	48618.23
569.734	48574.39
570.095	48898.67
570.457	48982.74
570.819	49106.12
571.18	49144.32
571.542	49294.37
571.903	49409.17
572.265	49507.7
572.626	49682.83
572.987	49636.73
573.349	49883.28
573.71	50023.61
574.071	50041.92
574.432	50200.78
574.794	50423.15
575.155	50354.45
575.516	50244.63
575.877	50593.54
576.238	50475.35
576.599	50738.85
576.96	50788.11
577.32	50839.41
577.681	50981.55
578.042	51080.99
578.403	51128.44
578.763	51106.3
579.124	51207.09
579.485	51348.55
579.845	51480.52
580.206	51476.68
580.566	51434.88
580.927	51461.99
581.287	51689.56
581.648	51505.16
582.008	51638.26
582.368	51628.77
582.728	51687.3
583.089	51691.14
583.449	51684.14
583.809	51802.55
584.169	51832.61
584.529	51845.26
584.889	52100.62
585.249	51906.73
585.609	51807.07
585.969	51954.86
586.329	51958.25
586.688	52059.72
587.048	52081.41
587.408	52082.77
587.768	51971.59
588.127	52095.2
588.487	52121.64
588.846	52339.94
589.206	52016.78
589.565	52181.98
589.925	52203.9
590.284	52173.84
590.643	52163.67
591.003	52324.57
591.362	52310.33
591.721	52401.86
592.08	52349.43
592.44	52391.69
592.799	52462.65
593.158	52409.09
593.517	52504.23
593.876	52483.44
594.235	52471.01
594.593	52544.68
594.952	52609.76
595.311	52456.77
595.67	52542.42
596.029	52809.3
596.387	52773.82
596.746	52708.74
597.104	52651.12
597.463	52654.28
597.822	52823.54
598.18	52615.86
598.538	52640.72
598.897	52868.29
599.255	52590.78
599.613	53087.94
599.972	52849.75
600.33	52991.22
600.688	52809.76
601.046	52960.94
601.404	53073.93
601.762	52950.09
602.12	53157.09
602.478	53129.3
602.836	53236.41
603.194	52937.66
603.552	53038.22
603.91	53030.77
604.268	53146.02
604.625	53113.25
604.983	53251.1
605.341	53078.22
605.698	53253.36
606.056	53244.77
606.413	53236.64
606.771	53526.35
607.128	53472.79
607.485	53240.93
607.843	53339.69
608.2	53479.79
608.557	53472.34
608.914	53464.43
609.272	53587.81
609.629	53623.29
609.986	53761.37
610.343	53509.4
610.7	53793.23
611.057	53734.02
611.414	53765.21
611.771	53802.05
612.127	53894.25
612.484	53789.84
612.841	53951.87
613.198	53826.9
613.554	53764.98
613.911	54008.14
614.267	54062.6
614.624	54013.11
614.98	54068.48
615.337	54202.71
615.693	54039.33
616.05	54047.69
616.406	54197.97
616.762	53997.75
617.118	54018.99
617.475	54126.56
617.831	54150.51
618.187	54272.32
618.543	54191.19
618.899	54359.55
619.255	54282.94
619.611	54298.53
619.967	54392.54
620.323	54424.63
620.678	54310.28
621.034	54311.86
621.39	54328.59
621.746	54253.33
622.101	54493.33
622.457	54293.78
622.812	54383.95
623.168	54510.73
623.523	54416.27
623.879	54492.65
624.234	54237.06
624.589	54422.14
624.945	54463.05
625.3	54507.56
625.655	54476.83
626.01	54457.62
626.365	54435.7
626.72	54466.21
627.075	54477.96
627.43	54462.14
627.785	54305.54
628.14	54446.77
628.495	54454.68
628.85	54435.48
629.205	54364.52
629.559	54564.96
629.914	54460.33
630.269	54419.88
630.623	54373.78
630.978	54305.31
631.332	54465.53
631.687	54491.52
632.041	54358.64
632.396	54448.36
632.75	54321.58
633.104	54390.73
633.459	54114.81
633.813	54254.01
634.167	54256.27
634.521	54242.03
634.875	54254.46
635.229	54182.37
635.583	54108.25
635.937	54033
636.291	54082.49
636.645	54195.03
636.999	54069.16
637.352	54161.36
637.706	53969.72
638.06	54093.79
638.413	53993.68
638.767	54002.72
639.121	54018.09
639.474	53852.44
639.828	53894.7
640.181	53929.05
640.534	53905.55
640.888	53823.29
641.241	53771.31
641.594	53765.66
641.947	53807.24
642.301	53807.24
642.654	53793.91
643.007	53804.98
643.36	53740.13
643.713	53776.74
644.066	53790.29
644.419	53609.06
644.771	53435.5
645.124	53281.16
645.477	53177.2
645.83	52938.57
646.182	52849.75
646.535	52679.82
646.888	52819.7
647.24	52678.69
647.593	52878.23
647.945	52763.88
648.298	52635.75
648.65	52594.39
649.002	52504.45
649.355	52644.34
649.707	52550.33
650.059	52756.42
650.411	53108.05
650.763	53267.37
651.115	53394.15
651.467	53368.61
651.819	53375.16
652.171	53323.41
652.523	53247.94
652.875	53291.55
653.227	53118.45
653.578	53398.67
653.93	53195.28
654.282	53064.66
654.633	53061.27
654.985	53069.18
655.337	53151.22
655.688	53227.82
656.039	53255.62
656.391	52960.94
656.742	53011.56
657.094	53061.27
657.445	53137.43
657.796	53103.99
658.147	52955.51
658.498	52945.8
658.849	53068.05
659.2	52948.96
659.551	52839.13
659.902	53072.8
660.253	52899.92
660.604	53025.57
660.955	52873.93
661.306	52924.1
661.656	52871.45
662.007	52968.62
662.358	52806.14
662.708	52880.49
663.059	52856.76
663.409	52636.2
663.76	52865.8
664.11	52966.36
664.461	52853.6
664.811	52894.5
665.161	52780.38
665.511	52705.35
665.862	52810.89
666.212	52872.35
666.562	52814.28
666.912	52792.13
667.262	52792.81
667.612	52706.26
667.962	52703.09
668.312	52675.07
668.662	52786.48
669.011	52585.13
669.361	52577.67
669.711	52650.66
670.06	52495.41
670.41	52432.59
670.76	52385.81
671.109	52563.66
671.459	52433.27
671.808	52444.12
672.157	52563.66
672.507	52265.14
672.856	52313.95
673.205	52336.32
673.554	52447.96
673.904	52268.3
674.253	52403.21
674.602	52298.13
674.951	51734.76
675.3	51666.51
675.649	52155.99
675.998	52193.27
676.346	52127.74
676.695	52266.72
677.044	52013.84
677.393	51967.74
677.741	52108.76
678.09	51931.81
678.438	51957.12
678.787	51962.55
679.135	51923.9
679.484	51542.67
679.832	51827.41
680.181	51545.38
680.529	51661.54
680.877	51589.67
681.225	51603.46
681.573	51760.07
681.922	51511.03
682.27	51345.84
682.618	51359.85
682.966	51239.4
683.314	51278.5
683.661	51134.77
684.009	51015
684.357	50957.37
684.705	50788.79
685.053	51004.38
685.4	50846.42
685.748	50646.65
686.095	50640.32
686.443	50487.1
686.79	50471.74
687.138	50537.5
687.485	50551.51
687.832	50213.21
688.18	50314.68
688.527	50146.1
688.874	50095.7
689.221	50052.54
689.568	49990.17
689.915	49892.09
690.262	49837.63
690.609	49606
690.956	49538.66
691.303	49531.88
691.65	49321.94
691.997	49314.71
692.344	49124.43
692.69	49157.87
693.037	49142.51
693.383	48859.58
693.73	48942.74
694.077	48701.16
694.423	48728.73
694.769	48610.09
695.116	48532.35
695.462	48379.36
695.808	48249.2
696.155	48423.2
696.501	47999.71
696.847	48085.59
697.193	47853.28
697.539	47949.32
697.885	47679.95
698.231	47494.42
698.577	47486.73
698.923	47467.52
699.269	47279.96
699.614	47018.27
699.96	46925.62
700.306	47071.38
700.651	46842.68
700.997	46717.49
701.342	46740.08
701.688	46595.23
702.033	46586.19
702.379	46449.02
702.724	46396.82
703.069	46357.27
703.415	45985.08
703.76	46052.87
704.105	45983.95
704.45	45938.75
704.795	45614.24
705.14	45571.98
705.485	45503.73
705.83	45422.61
706.175	45343.74
706.52	45365.66
706.865	45156.17
707.209	45010.64
707.554	44883.41
707.899	44946.91
708.243	44778.78
708.588	44734.49
708.932	44457.66
709.277	44468.28
709.621	44544.21
709.966	44198.23
710.31	44369.98
710.654	43940.84
710.998	44041.17
711.342	44021.06
711.687	43856.54
712.031	43786.72
712.375	43645.25
712.719	43694.06
713.063	43723.44
713.407	43789.2
713.75	43408.65
714.094	43412.04
714.438	43219.5
714.782	43164.13
715.125	43128.88
715.469	43134.3
715.812	42881.2
716.156	42715.11
716.499	42886.4
716.843	42765.95
717.186	42543.13
717.53	42710.36
717.873	42693.86
718.216	42531.83
718.559	42421.33
718.902	42273.76
719.246	42298.39
719.589	42019.76
719.932	41975.24
720.275	42005.07
720.617	41898.18
720.96	41895.69
721.303	41904.28
721.646	41838.07
721.989	41630.39
722.331	41705.19
722.674	41564.85
723.016	41594.23
723.359	41479.21
723.701	41469.94
724.044	41336.61
724.386	40997.86
724.729	41170.74
725.071	41071.31
725.413	41051.87
725.755	41109.5
726.097	40822.27
726.439	40845.78
726.782	40639.68
727.124	40874.25
727.465	40777.98
727.807	40685.55
728.149	40695.95
728.491	40460.93
728.833	40456.41
729.175	40378.67
729.516	40381.38
729.858	40121.28
730.199	40300.25
730.541	40192.01
730.882	40198.79
731.224	40086.7
731.565	39946.59
731.906	39991.79
732.248	40043.76
732.589	39740.95
732.93	39659.37
733.271	39748.86
733.612	39753.15
733.953	39664.56
734.294	39513.83
734.635	39451.69
734.976	39429.09
735.317	39313.61
735.658	39420.73
735.999	39378.7
736.339	39165.59
736.68	39321.52
737.021	39087.4
737.361	38992.27
737.702	39248.98
738.042	39028.2
738.383	38934.87
738.723	38978.71
739.063	38826.17
739.404	38853.74
739.744	38820.74
740.084	38709.11
740.424	38746.85
740.764	38591.82
741.104	38809.9
741.444	38458.04
741.784	38447.87
742.124	38503.92
742.464	38516.57
742.804	38349.34
743.143	38170.14
743.483	38235.68
743.823	38172.85
744.162	38082.46
744.502	38008.34
744.841	37870.49
745.181	38103.25
745.52	37814.67
745.86	38019.41
746.199	37755.91
746.538	37796.59
746.877	37835.69
747.216	37671.62
747.556	37425.53
747.895	37503.94
748.234	37397.73
748.573	37382.14
748.911	37249.71
749.25	37428.92
749.589	37195.48
749.928	37197.51
750.267	37259.2
750.605	37087.68
750.944	37112.54
751.283	36855.37
751.621	36997.06
751.96	36673
752.298	36794.13
752.636	36791.42
752.975	36515.04
