Data from white_steel_sheet_FLMS001491_056.txt Node
Date: Tue Feb 07 10:58:05 GMT 2017
User: dcchb
Spectrometer: FLMS00149
Trigger mode: 0
Integration Time (sec): 2.000000E-2
Scans to average: 10
Electric dark correction enabled: true
Nonlinearity correction enabled: false
Boxcar width: 0
XAxis mode: Wavelengths
Number of Pixels in Spectrum: 2048
>>>>>Begin Spectral Data<<<<<
341.393	6.96
341.776	6.96
342.16	6.96
342.543	-70.32
342.927	-65.8
343.31	-63.77
343.693	-68.06
344.077	-58.35
344.46	-50.21
344.843	-62.87
345.226	-47.27
345.61	-35.3
345.993	-14.05
346.376	0.86
346.759	3.12
347.142	36.57
347.525	24.59
347.908	46.74
348.291	80.86
348.674	86.28
349.057	120.86
349.44	119.73
349.823	130.12
350.206	163.34
350.588	195.43
350.971	218.93
351.354	203.57
351.737	260.97
352.119	235.21
352.502	262.1
352.884	295.77
353.267	284.24
353.65	301.87
354.032	312.49
354.414	331.02
354.797	323.11
355.179	332.83
355.562	333.73
355.944	335.32
356.326	351.13
356.709	332.83
357.091	330.8
357.473	358.14
357.855	341.42
358.238	372.6
358.62	359.04
359.002	362.43
359.384	351.59
359.766	338.71
360.148	345.03
360.53	356.33
360.912	358.82
361.294	350.91
361.676	342.55
362.057	348.2
362.439	329.21
362.821	342.1
363.203	334.64
363.584	346.84
363.966	332.83
364.348	324.24
364.729	334.86
365.111	355.88
365.493	338.71
365.874	349.33
366.256	339.61
366.637	331.25
367.019	350
367.4	324.02
367.781	345.26
368.163	328.31
368.544	334.86
368.925	345.71
369.306	340.74
369.688	351.36
370.069	319.05
370.45	323.56
370.831	343.23
371.212	340.51
371.593	340.97
371.974	323.34
372.355	347.07
372.736	323.34
373.117	338.48
373.498	347.75
373.879	345.49
374.26	343.23
374.641	335.99
375.021	350.68
375.402	336.22
375.783	361.98
376.163	347.29
376.544	334.64
376.925	339.16
377.305	353.62
377.686	375.54
378.066	349.78
378.447	377.57
378.827	351.36
379.208	359.04
379.588	354.75
379.968	369.67
380.349	380.29
380.729	375.99
381.109	373.06
381.489	380.96
381.87	355.65
382.25	378.93
382.63	359.27
383.01	372.15
383.39	385.48
383.77	373.28
384.15	383.22
384.53	391.81
384.91	384.13
385.29	404.47
385.67	406.5
386.049	413.96
386.429	400.4
386.809	418.25
387.189	423
387.568	397.24
387.948	404.92
388.328	423
388.707	387.52
389.087	433.62
389.466	427.52
389.846	456.89
390.225	445.82
390.605	437.69
390.984	439.49
391.363	457.8
391.743	452.38
392.122	460.74
392.501	457.35
392.881	437.69
393.26	464.8
393.639	470.68
394.018	466.84
394.397	496.89
394.776	494.18
395.155	496.89
395.534	488.76
395.913	505.48
396.292	517.01
396.671	513.16
397.05	485.82
397.429	525.59
397.808	526.72
398.186	531.92
398.565	533.5
398.944	558.59
399.323	569.89
399.701	555.42
400.08	564.01
400.458	564.24
400.837	585.48
401.215	595.2
401.594	600.39
401.972	604.24
402.351	605.59
402.729	623.44
403.107	641.52
403.486	646.27
403.864	637
404.242	670
404.62	658.02
404.999	685.82
405.377	697.79
405.755	721.52
406.133	716.55
406.511	739.6
406.889	738.92
407.267	737.57
407.645	763.55
408.023	738.47
408.401	792.48
408.779	796.77
409.156	799.94
409.534	794.74
409.912	818.24
410.29	860.05
410.667	864.79
411.045	865.25
411.422	870.9
411.8	880.16
412.178	914.96
412.555	917.67
412.933	938.01
413.31	966.03
413.687	957.67
414.065	962.64
414.442	986.82
414.819	981.63
415.197	982.08
415.574	998.8
415.951	1046.94
416.328	1047.84
416.705	1048.52
417.082	1055.75
417.46	1093.94
417.837	1104.79
418.214	1110.89
418.591	1104.34
418.967	1105.24
419.344	1119.25
419.721	1122.41
420.098	1136.88
420.475	1163.99
420.852	1175.52
421.228	1188.4
421.605	1213.26
421.982	1198.12
422.358	1221.62
422.735	1255.29
423.111	1241.28
423.488	1257.55
423.864	1247.83
424.241	1283.54
424.617	1308.4
424.994	1328.96
425.37	1318.79
425.746	1357.44
426.123	1370.77
426.499	1361.96
426.875	1383.2
427.251	1423.42
427.627	1425.46
428.003	1439.69
428.379	1478.56
428.756	1445.57
429.132	1476.98
429.507	1549.97
429.883	1488.05
430.259	1569.86
430.635	1585.9
431.011	1582.97
431.387	1589.07
431.763	1676.3
432.138	1657.32
432.514	1697.09
432.89	1710.65
433.265	1730.53
433.641	1743.41
434.016	1746.8
434.392	1809.63
434.767	1801.49
435.143	1847.37
435.518	1867.48
435.894	1894.6
436.269	1891.21
436.644	1889.4
437.02	1951.09
437.395	1937.08
437.77	2013.69
438.145	2000.58
438.52	2029.73
438.895	2062.28
439.271	2079.22
439.646	2128.72
440.021	2117.19
440.395	2119.68
440.77	2132.1
441.145	2161.93
441.52	2199
441.895	2184.31
442.27	2174.59
442.645	2197.64
443.019	2254.81
443.394	2265.21
443.769	2273.57
444.143	2281.71
444.518	2299.78
444.892	2310.41
445.267	2324.64
445.641	2340.69
446.016	2393.34
446.39	2412.55
446.764	2409.61
447.139	2418.88
447.513	2471.98
447.887	2463.85
448.262	2502.49
448.636	2483.06
449.01	2529.61
449.384	2559.66
449.758	2558.99
450.132	2622.71
450.506	2590.85
450.88	2633.79
451.254	2657.29
451.628	2678.31
452.002	2734.57
452.376	2740.22
452.75	2751.07
453.123	2794.01
453.497	2842.14
453.871	2886.21
454.244	2902.03
454.618	2955.36
454.992	2976.6
455.365	2952.65
455.739	3058.86
456.112	3027
456.486	3089.82
456.859	3115.81
457.232	3151.97
457.606	3161.46
457.979	3227.22
458.352	3237.61
458.725	3373.65
459.099	3402.81
459.472	3410.49
459.845	3453.88
460.218	3473.54
460.591	3494.56
460.964	3530.94
461.337	3603.03
461.71	3647.77
462.083	3709.92
462.456	3717.6
462.829	3759.86
463.201	3804.83
463.574	3848.67
463.947	3863.58
464.32	3984.94
464.692	3985.84
465.065	4029
465.438	4088.89
465.81	4111.94
466.183	4157.59
466.555	4251.15
466.928	4314.42
467.3	4309
467.672	4379.5
468.045	4495.66
468.417	4479.39
468.789	4565.94
469.161	4596.45
469.534	4642.55
469.906	4828.53
470.278	4768.42
470.65	4880.28
471.022	4933.84
471.394	5002.54
471.766	5037.34
472.138	5112.14
472.51	5263.55
472.882	5301.06
473.253	5378.57
473.625	5471.23
473.997	5582.41
474.369	5574.5
474.74	5669.19
475.112	5761.39
475.484	5871.22
475.855	6007.71
476.227	5982.85
476.598	6173.13
476.97	6189.17
477.341	6362.95
477.713	6455.61
478.084	6485.89
478.455	6674.13
478.827	6774.24
479.198	6922.04
479.569	6902.15
479.94	7120.67
480.311	7250.39
480.682	7385.53
481.053	7461
481.424	7675.69
481.795	7721.79
482.166	7841.11
482.537	7978.05
482.908	8151.83
483.279	8206.97
483.65	8298.04
484.021	8539.62
484.391	8589.79
484.762	8614.65
485.133	8802.44
485.503	8905.71
485.874	9077.91
486.244	9194.74
486.615	9383.21
486.985	9489.2
487.356	9610.78
487.726	9697.78
488.097	9935.97
488.467	9997.43
488.837	10156.53
489.207	10271.55
489.578	10406.69
489.948	10444.65
490.318	10667.47
490.688	10673.8
491.058	10869.28
491.428	11013.91
491.798	11124.41
492.168	11376.61
492.538	11415.02
492.908	11567.56
493.278	11697.73
493.648	11735.47
494.017	11962.81
494.387	11982.24
494.757	12179.52
495.126	12237.6
495.496	12292.06
495.866	12421.55
496.235	12564.15
496.605	12709.68
496.974	12704.03
497.344	12893.63
497.713	12939.28
498.082	13138.14
498.452	13244.58
498.821	13263.56
499.19	13314.86
499.559	13531.81
499.928	13592.59
500.298	13701.74
500.667	13837.33
501.036	13817
501.405	13946.26
501.774	13993.04
502.143	14210.21
502.512	14212.47
502.88	14469.63
503.249	14498.79
503.618	14508.5
503.987	14581.72
504.356	14741.72
504.724	14799.79
505.093	14922.73
505.462	14972.45
505.83	15142.38
506.199	15251.99
506.567	15414.24
506.936	15415.6
507.304	15601.13
507.672	15706.21
508.041	15776.49
508.409	15948.24
508.777	16047.22
509.145	16167.67
509.514	16226.65
509.882	16395.01
510.25	16487.43
510.618	16514.1
510.986	16611.5
511.354	16834.32
511.722	17048.77
512.09	17154.53
512.458	17065.72
512.826	17276.34
513.193	17392.04
513.561	17425.49
513.929	17550
514.297	17866.61
514.664	17901.41
515.032	18041.07
515.4	18183.43
515.767	18273.6
516.135	18417.55
516.502	18281.28
516.869	18747.94
517.237	18766.47
517.604	18748.62
517.972	19076.97
518.339	19152.9
518.706	19288.72
519.073	19244.42
519.44	19503.63
519.808	19719.44
520.175	19751.3
520.542	20083.27
520.909	20165.3
521.276	20192.42
521.643	20376.15
522.009	20484.39
522.376	20728.23
522.743	20868.79
523.11	21077.82
523.477	21250.25
523.843	21350.81
524.21	21666.51
524.577	21765.71
524.943	21833.51
525.31	22042.99
525.676	22255.42
526.043	22394.17
526.409	22481.85
526.776	22801.84
527.142	22838.23
527.508	23005.23
527.874	23244.32
528.241	23329.51
528.607	23411.32
528.973	23547.81
529.339	23722.05
529.705	23973.79
530.071	24165.42
530.437	24152.99
530.803	24297.85
531.169	24526.54
531.535	24557.73
531.901	24543.49
532.267	24687.22
532.632	25016.25
532.998	24978.06
533.364	25243.81
533.73	25241.78
534.095	25545.05
534.461	25501.43
534.826	25704.37
535.192	25811.26
535.557	25911.37
535.923	25946.62
536.288	26115.2
536.653	26346.38
537.019	26297.12
537.384	26422.77
537.749	26529.88
538.114	26615.75
538.479	26739.14
538.845	26791.8
539.21	26773.26
539.575	26978.68
539.94	27108.4
540.305	27342.52
540.67	27259.35
541.034	27354.72
541.399	27546.35
541.764	27597.65
542.129	27683.3
542.494	27697.53
542.858	27905.21
543.223	27941.14
543.587	28150.86
543.952	28120.12
544.316	28270.85
544.681	28276.73
545.045	28510.39
545.41	28579.09
545.774	28640.33
546.138	28804.85
546.503	28839.65
546.867	28860.67
547.231	29091.62
547.595	29160.55
547.959	29221.79
548.324	29198.74
548.688	29377.04
549.052	29376.13
549.416	29539.29
549.779	29625.85
550.143	29665.39
550.507	29892.96
550.871	29985.16
551.235	29888.44
551.599	30266.05
551.962	30238.71
552.326	30398.71
552.689	30610.68
553.053	30541.08
553.417	30564.8
553.78	30876.89
554.143	30817.23
554.507	31081.63
554.87	31175.18
555.234	31372.24
555.597	31336.31
555.96	31447.04
556.323	31698.33
556.686	31623.31
557.05	31936.29
557.413	32122.05
557.776	32100.36
558.139	32254.7
558.502	32366.56
558.865	32553.45
559.228	32632.32
559.59	32772.43
559.953	32811.52
560.316	33247.67
560.679	33176.49
561.041	33411.28
561.404	33555.69
561.767	33837.49
562.129	33671.16
562.492	34084.03
562.854	34074.77
563.217	34197.7
563.579	34183.01
563.941	34428.88
564.304	34589.33
564.666	34790.23
565.028	34737.58
565.39	34965.37
565.753	35114.51
566.115	35275.41
566.477	35416.65
566.839	35599.02
567.201	35692.58
567.563	35820.71
567.925	35920.14
568.287	35977.77
568.648	36041.72
569.01	36295.73
569.372	36517.42
569.734	36272
570.095	36754.92
570.457	36742.27
570.819	36842.15
571.18	36984.97
571.542	37132.31
571.903	37186.78
572.265	37309.71
572.626	37341.35
572.987	37429.71
573.349	37587.9
573.71	37648.23
574.071	37702.7
574.432	37810.49
574.794	38187.2
575.155	38066.98
575.516	38028.11
575.877	38225.39
576.238	38190.37
576.599	38430.36
576.96	38376.58
577.32	38418.16
577.681	38428.78
578.042	38781.08
578.403	38541.32
578.763	38665.61
579.124	38847.98
579.485	38966.84
579.845	38788.99
580.206	38865.38
580.566	38901.99
580.927	38995.54
581.287	39116.67
581.648	38829.45
582.008	39082.55
582.368	38982.44
582.728	39176.78
583.089	39094.75
583.449	39038.93
583.809	39129.78
584.169	39154.86
584.529	39173.84
584.889	39418.58
585.249	39108.31
585.609	39155.09
585.969	39245.71
586.329	39136.1
586.688	39211.81
587.048	39213.16
587.408	39174.52
587.768	39165.71
588.127	39215.2
588.487	39195.31
588.846	39390.33
589.206	39006.62
589.565	39219.72
589.925	39362.54
590.284	39004.36
590.643	39152.37
591.003	39272.37
591.362	39395.31
591.721	39213.62
592.08	39233.5
592.44	39353.5
592.799	39375.42
593.158	39214.97
593.517	39226.95
593.876	39324.12
594.235	39306.04
594.593	39309.21
594.952	39556.21
595.311	39377.23
595.67	39386.27
596.029	39484.57
596.387	39579.71
596.746	39530.44
597.104	39406.38
597.463	39508.3
597.822	39547.39
598.18	39561.63
598.538	39361.41
598.897	39732.25
599.255	39343.78
599.613	39758.46
599.972	39548.52
600.33	39718.24
600.688	39358.24
601.046	39611.35
601.404	39830.55
601.762	39682.08
602.12	39786.03
602.478	39746.03
602.836	39866.93
603.194	39571.8
603.552	39671.68
603.91	39542.42
604.268	39817.89
604.625	39667.84
604.983	39804.79
605.341	39622.64
605.698	39875.97
606.056	39884.56
606.413	39813.37
606.771	40047.94
607.128	40023.09
607.485	39885.46
607.843	39907.61
608.2	40102.86
608.557	40303.08
608.914	40051.56
609.272	40216.75
609.629	40274.6
609.986	40424.21
610.343	40178.56
610.7	40543.3
611.057	40486.8
611.414	40387.6
611.771	40522.51
612.127	40609.96
612.484	40593.24
612.841	40861.26
613.198	40689.28
613.554	40634.82
613.911	40871.65
614.267	40966.79
614.624	40832.33
614.98	40968.37
615.337	41047.47
615.693	41039.78
616.05	41120.23
616.406	41262.38
616.762	41069.16
617.118	41005.66
617.475	41105.54
617.831	41245.43
618.187	41197.97
618.543	41275.26
618.899	41562.71
619.255	41337.63
619.611	41294.92
619.967	41437.06
620.323	41496.49
620.678	41437.51
621.034	41271.64
621.39	41355.48
621.746	41307.12
622.101	41773.55
622.457	41463.05
622.812	41636.15
623.168	41595.25
623.523	41588.69
623.879	41816.94
624.234	41403.61
624.589	41658.3
624.945	41658.98
625.3	41673.66
625.655	41524.06
626.01	41751.18
626.365	41624.63
626.72	41675.47
627.075	41529.04
627.43	41617.39
627.785	41519.54
628.14	41604.74
628.495	41567.68
628.85	41414.69
629.205	41324.75
629.559	41600.67
629.914	41510.73
630.269	41441.35
630.623	41327.46
630.978	41178.54
631.332	41322.03
631.687	41341.47
632.041	41140.8
632.396	41358.64
632.75	41214.69
633.104	41085.43
633.459	41007.92
633.813	41002.95
634.167	40946.23
634.521	41049.95
634.875	40949.39
635.229	40913.01
635.583	40814.93
635.937	40691.77
636.291	40714.59
636.645	40620.13
636.999	40562.96
637.352	40643.18
637.706	40310.76
638.06	40682.96
638.413	40571.09
638.767	40346.69
639.121	40446.58
639.474	40218.79
639.828	40224.44
640.181	40147.83
640.534	40258.33
640.888	40183.76
641.241	39892.47
641.594	40004.78
641.947	40048.4
642.301	39906.48
642.654	39923.88
643.007	39972.69
643.36	39838.68
643.713	39671
644.066	39760.49
644.419	39649.76
644.771	39417.45
645.124	38927.52
645.477	38994.64
645.83	38609.56
646.182	38516.01
646.535	38368.21
646.888	38608.43
647.24	38310.36
647.593	38456.35
647.945	38490.47
648.298	38238.05
648.65	38346.29
649.002	38172.29
649.355	38211.61
649.707	38041.9
650.059	38223.81
650.411	38683.91
650.763	38757.36
651.115	39072.6
651.467	38792.16
651.819	38878.94
652.171	38963.23
652.523	38653.18
652.875	38788.32
653.227	38692.73
653.578	38961.19
653.93	38830.12
654.282	38496.8
654.633	38503.8
654.985	38540.64
655.337	38570.92
655.688	38621.54
656.039	38617.93
656.391	38383.13
656.742	38417.25
657.094	38400.3
657.445	38506.06
657.796	38374.77
658.147	38406.86
658.498	38376.12
658.849	38412.28
659.2	38231.27
659.551	38121.67
659.902	38317.82
660.253	38221.33
660.604	38094.78
660.955	37848
661.306	37980.88
661.656	37921.67
662.007	37735.46
662.358	37699.53
662.708	37869.24
663.059	37778.17
663.409	37521.23
663.76	37771.39
664.11	37724.16
664.461	37615.92
664.811	37504.06
665.161	37438.3
665.511	37267
665.862	37427.22
666.212	37434
666.562	37454.57
666.912	37190.39
667.262	37087.12
667.612	37105.65
667.962	37040.11
668.312	36943.17
668.662	36957.18
669.011	36881.93
669.361	36583.18
669.711	36663.17
670.06	36490.75
670.41	36415.05
670.76	36368.27
671.109	36569.84
671.459	36323.52
671.808	36304.99
672.157	36205.56
672.507	35987.71
672.856	35914.04
673.205	35887.6
673.554	35973.02
673.904	35694.84
674.253	35873.59
674.602	35764.67
674.951	35233.38
675.3	35048.75
675.649	35558.34
675.998	35355.41
676.346	35421.85
676.695	35564.9
677.044	35274.51
677.393	35474.28
677.741	35431.34
678.09	35261.63
678.438	35165.59
678.787	35327.62
679.135	35281.29
679.484	35065.93
679.832	35240.84
680.181	35042.43
680.529	35191.57
680.877	35106.83
681.225	35013.27
681.573	35248.52
681.922	35084.46
682.27	35100.28
682.618	35090.33
682.966	34986.83
683.314	34961.3
683.661	34991.35
684.009	34791.81
684.357	34929.66
684.705	34935.76
685.053	34933.05
685.4	35006.95
685.748	34697.8
686.095	34810.57
686.443	34727.63
686.79	34842.43
687.138	34780.06
687.485	34926.72
687.832	34820.29
688.18	34899.15
688.527	34616.9
688.874	34876.33
689.221	34715.65
689.568	34591.14
689.915	34624.13
690.262	34465.27
690.609	34559.73
690.956	34488.99
691.303	34542.55
691.65	34454.64
691.997	34395.21
692.344	34253.29
692.69	34292.39
693.037	34280.41
693.383	34173.07
693.73	34147.53
694.077	34135.33
694.423	34141.21
694.769	34026.63
695.116	34032.51
695.462	34032.28
695.808	33962.45
696.155	34026.18
696.501	33623.25
696.847	33823.02
697.193	33469.13
697.539	33607.44
697.885	33496.25
698.231	33447.67
698.577	33443.37
698.923	33308.69
699.269	33180.55
699.614	32924.74
699.96	32989.15
700.306	32983.72
700.651	32837.29
700.997	32749.38
701.342	32715.03
701.688	32652.88
702.033	32645.43
702.379	32512.55
702.724	32380.12
703.069	32550.74
703.415	32151.65
703.76	32244.31
704.105	32229.84
704.45	32089.51
704.795	31943.98
705.14	32004.31
705.485	31829.86
705.83	31677.32
706.175	31673.48
706.52	31610.2
706.865	31611.1
707.209	31371.79
707.554	31435.29
707.899	31466.25
708.243	31346.03
708.588	31294.95
708.932	31039.59
709.277	31100.38
709.621	31153.26
709.966	30906.04
710.31	30913.04
710.654	30672.6
710.998	30728.64
711.342	30831.69
711.687	30612.71
712.031	30456.56
712.375	30399.16
712.719	30473.05
713.063	30308.31
713.407	30534.52
713.75	30271.48
714.094	30249.78
714.438	30047.98
714.782	30167.75
715.125	30096.57
715.469	30078.71
715.812	29986.29
716.156	29713.07
716.499	29678.05
716.843	29807.54
717.186	29572.06
717.53	29719.4
717.873	29553.08
718.216	29462.23
718.559	29465.85
718.902	29250.04
719.246	29436.92
719.589	29289.81
719.932	29095.92
720.275	29205.29
720.617	29121.23
720.96	28956.94
721.303	29016.37
721.646	28885.53
721.989	28839.88
722.331	28928.01
722.674	28776.83
723.016	28764.17
723.359	28730.05
723.701	28754.91
724.044	28570.51
724.386	28441.7
724.729	28460
725.071	28504.07
725.413	28445.99
725.755	28469.94
726.097	28416.61
726.439	28140.23
726.782	28278.31
727.124	28313.34
727.465	28211.87
727.807	28163.28
728.149	27987.24
728.491	28053.01
728.833	28054.14
729.175	28090.97
729.516	28045.1
729.858	27863.18
730.199	27906.57
730.541	27740.25
730.882	27695.27
731.224	27741.15
731.565	27475.85
731.906	27594.94
732.248	27516.07
732.589	27519.91
732.93	27386.81
733.271	27398.33
733.612	27475.39
733.953	27417.09
734.294	27307.04
734.635	27225.46
734.976	27347.49
735.317	27030.21
735.658	27228.17
735.999	27101.17
736.339	27078.12
736.68	27172.58
737.021	26999.02
737.361	26806.94
737.702	26963.54
738.042	26920.83
738.383	26782.08
738.723	26704.11
739.063	26652.14
739.404	26720.84
739.744	26689.65
740.084	26527.62
740.424	26699.82
740.764	26613.04
741.104	26649.2
741.444	26434.74
741.784	26321.3
742.124	26389.09
742.464	26378.25
742.804	26298.93
743.143	26252.6
743.483	26252.6
743.823	26126.95
744.162	26098.03
744.502	26117.91
744.841	25933.96
745.181	26125.37
745.52	25958.37
745.86	25999.5
746.199	26016.22
746.538	25796.34
746.877	25975.77
747.216	25761.77
747.556	25786.85
747.895	25772.39
748.234	25564.94
748.573	25539.4
748.911	25449.68
749.25	25511.15
749.589	25385.96
749.928	25389.8
750.267	25458.72
750.605	25288.11
750.944	25310.7
751.283	25119.3
751.621	25288.56
751.96	25070.71
752.298	24996.14
752.636	25042.01
752.975	25030.49
753.313	24808.12
753.651	25118.39
753.989	24717.05
