Data from white_wall_FLMS001491_073.txt Node
Date: Tue Feb 07 11:05:45 GMT 2017
User: dcchb
Spectrometer: FLMS00149
Trigger mode: 0
Integration Time (sec): 2.000000E-2
Scans to average: 10
Electric dark correction enabled: true
Nonlinearity correction enabled: false
Boxcar width: 0
XAxis mode: Wavelengths
Number of Pixels in Spectrum: 2048
>>>>>Begin Spectral Data<<<<<
341.393	-18.93
341.776	-18.93
342.16	-18.93
342.543	-61.41
342.927	-53.05
343.31	-60.96
343.693	-72.94
344.077	-58.7
344.46	-51.02
344.843	-49.66
345.226	-51.92
345.61	-26.61
345.993	-16.67
346.376	-10.79
346.759	-0.85
347.142	31.92
347.525	40.51
347.908	49.77
348.291	77.34
348.674	88.42
349.057	112.14
349.44	116.21
349.823	138.13
350.206	162.54
350.588	210.9
350.971	233.27
351.354	235.3
351.737	224.01
352.119	278.69
352.502	261.97
352.884	277.56
353.267	290.44
353.65	308.75
354.032	314.62
354.414	310.56
354.797	315.08
355.179	331.35
355.562	324.34
355.944	345.13
356.326	364.79
356.709	343.78
357.091	361.63
357.473	362.98
357.855	337.67
358.238	354.4
358.62	347.39
359.002	346.49
359.384	356.88
359.766	345.36
360.148	350.33
360.53	363.66
360.912	367.96
361.294	359.6
361.676	341.74
362.057	365.02
362.439	323.66
362.821	356.43
363.203	332.7
363.584	352.14
363.966	356.88
364.348	333.83
364.729	348.97
365.111	329.99
365.493	361.85
365.874	337.67
366.256	365.92
366.637	333.16
367.019	316.66
367.4	345.58
367.781	323.89
368.163	338.35
368.544	327.05
368.925	327.28
369.306	327.28
369.688	329.77
370.069	333.38
370.45	322.99
370.831	338.8
371.212	321.18
371.593	316.21
371.974	335.87
372.355	333.16
372.736	337
373.117	318.24
373.498	334.74
373.879	340.39
374.26	335.87
374.641	348.3
375.021	334.28
375.402	330.67
375.783	347.17
376.163	337.9
376.544	341.29
376.925	360.72
377.305	358.69
377.686	341.97
378.066	368.86
378.447	350.56
378.827	355.98
379.208	353.04
379.588	358.92
379.968	351.23
380.349	380.39
380.729	373.15
381.109	375.64
381.489	362.53
381.87	356.43
382.25	383.1
382.63	383.32
383.01	368.86
383.39	382.65
383.77	383.1
384.15	391.23
384.53	379.71
384.91	389.88
385.29	370.67
385.67	396.43
386.049	419.71
386.429	402.76
386.809	385.58
387.189	419.48
387.568	421.29
387.948	424.68
388.328	429.65
388.707	418.8
389.087	410.67
389.466	426.71
389.846	413.83
390.225	442.53
390.605	436.88
390.984	441.17
391.363	449.08
391.743	466.48
392.122	459.48
392.501	487.05
392.881	459.03
393.26	464.68
393.639	454.06
394.018	473.72
394.397	483.66
394.776	502.64
395.155	515.75
395.534	528.18
395.913	526.6
396.292	508.74
396.671	539.93
397.05	533.15
397.429	563.66
397.808	565.24
398.186	566.37
398.565	573.83
398.944	587.39
399.323	595.07
399.701	587.84
400.08	606.82
400.458	629.42
400.837	639.59
401.215	651.56
401.594	654.73
401.972	662.19
402.351	663.77
402.729	696.54
403.107	698.12
403.486	692.47
403.864	708.51
404.242	720.04
404.62	750.09
404.999	759.36
405.377	753.71
405.755	780.83
406.133	795.97
406.511	799.81
406.889	814.72
407.267	829.87
407.645	847.72
408.023	875.51
408.401	864.67
408.779	875.51
409.156	912.8
409.534	908.51
409.912	925.68
410.29	964.55
410.667	957.77
411.045	992.35
411.422	1011.33
411.8	1006.81
412.178	1042.06
412.555	1042.06
412.933	1020.82
413.31	1087.71
413.687	1100.37
414.065	1071.67
414.442	1131.33
414.819	1137.65
415.197	1157.54
415.574	1174.71
415.951	1194.15
416.328	1207.03
416.705	1195.96
417.082	1214.71
417.46	1231.89
417.837	1251.1
418.214	1259.68
418.591	1282.06
418.967	1280.02
419.344	1296.52
419.721	1331.32
420.098	1316.41
420.475	1347.82
420.852	1363.64
421.228	1369.51
421.605	1397.53
421.982	1379.91
422.358	1416.74
422.735	1429.4
423.111	1423.07
423.488	1474.82
423.864	1464.88
424.241	1475.27
424.617	1516.17
424.994	1496.97
425.37	1501.71
425.746	1554.37
426.123	1572.44
426.499	1587.59
426.875	1609.05
427.251	1635.72
427.627	1634.59
428.003	1664.19
428.379	1712.33
428.756	1704.19
429.132	1720.46
429.507	1760.69
429.883	1809.73
430.259	1793
430.635	1804.53
431.011	1874.13
431.387	1881.81
431.763	1959.55
432.138	1944.19
432.514	1976.73
432.89	1984.86
433.265	2034.81
433.641	2015.6
434.016	2049.49
434.392	2114.8
434.767	2112.54
435.143	2156.84
435.518	2165.42
435.894	2188.02
436.269	2216.04
436.644	2240.68
437.02	2246.78
437.395	2289.94
437.77	2322.26
438.145	2380.33
438.52	2392.54
438.895	2382.82
439.271	2411.52
439.646	2465.75
440.021	2470.5
440.395	2451.52
440.77	2462.36
441.145	2513.44
441.52	2589.14
441.895	2537.84
442.27	2561.35
442.645	2600.21
443.019	2660.1
443.394	2667.33
443.769	2687.9
444.143	2640.44
444.518	2699.65
444.892	2728.35
445.267	2747.1
445.641	2747.78
446.016	2815.12
446.39	2799.76
446.764	2852.41
447.139	2834.33
447.513	2825.74
447.887	2903.03
448.262	2872.3
448.636	2939.87
449.01	2971.05
449.384	2987.55
449.758	2981.45
450.132	3078.39
450.506	3105.06
450.88	3080.88
451.254	3102.12
451.628	3123.36
452.002	3215.34
452.376	3216.02
452.75	3241.33
453.123	3291.95
453.497	3344.15
453.871	3378.27
454.244	3462.11
454.618	3486.74
454.992	3541.43
455.365	3502.11
455.739	3613.29
456.112	3641.09
456.486	3623.46
456.859	3729.45
457.232	3779.62
457.606	3790.24
457.979	3837.24
458.352	3902.55
458.725	3955.21
459.099	3941.65
459.472	4074.75
459.845	4104.58
460.218	4127.63
460.591	4194.3
460.964	4192.94
461.337	4313.84
461.71	4371.69
462.083	4417.57
462.456	4434.06
462.829	4401.97
463.201	4548.19
463.574	4564.23
463.947	4642.19
464.32	4747.28
464.692	4815.98
465.065	4855.97
465.438	4855.3
465.81	4949.53
466.183	4988.63
466.555	5121.73
466.928	5151.56
467.3	5140.71
467.672	5274.49
468.045	5391.78
468.417	5433.81
468.789	5446.01
469.161	5537.31
469.534	5614.37
469.906	5712.67
470.278	5793.8
470.65	5862.5
471.022	6003.97
471.394	6074.93
471.766	6137.3
472.138	6227.01
472.51	6332.77
472.882	6418.42
473.253	6460.9
473.625	6630.84
473.997	6749.48
474.369	6801.01
474.74	6894.11
475.112	7090.94
475.484	7058.18
475.855	7340.88
476.227	7318.51
476.598	7597.37
476.97	7596.47
477.341	7793.3
477.713	7934.99
478.084	7983.12
478.455	8242.33
478.827	8275.09
479.198	8541.53
479.569	8613.62
479.94	8791.24
480.311	8928.41
480.682	9093.38
481.053	9309.64
481.424	9462.18
481.795	9522.29
482.166	9742.85
482.537	9883.41
482.908	10090.41
483.279	10177.64
483.65	10360.91
484.021	10551.87
484.391	10719.55
484.762	10762.26
485.133	10887.68
485.503	11066.66
485.874	11305.52
486.244	11486.53
486.615	11599.07
486.985	11809.69
487.356	12051.94
487.726	12094.43
488.097	12304.37
488.467	12396.57
488.837	12719.04
489.207	12784.35
489.578	12992.26
489.948	13127.39
490.318	13325.13
490.688	13386.37
491.058	13611.45
491.428	13794.95
491.798	14015.73
492.168	14147.48
492.538	14327.82
492.908	14495.04
493.278	14632.89
493.648	14782.04
494.017	14918.53
494.387	15107
494.757	15220.45
495.126	15348.58
495.496	15450.5
495.866	15654.33
496.235	15742.24
496.605	15969.13
496.974	16000.99
497.344	16171.83
497.713	16334.99
498.082	16407.08
498.452	16624.48
498.821	16697.02
499.19	16777.02
499.559	17014.52
499.928	17116.22
500.298	17133.17
500.667	17396.21
501.036	17344.91
501.405	17632.59
501.774	17642.08
502.143	17737.44
502.512	17925.01
502.88	18120.26
503.249	18119.13
503.618	18323.19
503.987	18447.48
504.356	18629.17
504.724	18661.03
505.093	18782.84
505.462	18823.74
505.83	19066
506.199	19175.82
506.567	19422.14
506.936	19413.33
507.304	19712.31
507.672	19828.24
508.041	19915.69
508.409	20109.36
508.777	20252.41
509.145	20481.78
509.514	20442.46
509.882	20704.14
510.25	20658.72
510.618	20861.43
510.986	21058.94
511.354	21294.64
511.722	21327.41
512.09	21705.7
512.458	21715.42
512.826	21775.08
513.193	21914.96
513.561	22035.41
513.929	22349.75
514.297	22442.63
514.664	22679.69
515.032	22712.45
515.4	22892.56
515.767	23036.06
516.135	23208.71
516.502	23173.91
516.869	23633.11
517.237	23762.82
517.604	23788.81
517.972	23985.64
518.339	24144.28
518.706	24283.71
519.073	24359.64
519.44	24580.2
519.808	24933.64
520.175	24835.11
520.542	25291.14
520.909	25370.46
521.276	25410.46
521.643	25644.13
522.009	25865.82
522.376	26107.17
522.743	26265.81
523.11	26434.39
523.477	26806.36
523.843	26866.02
524.21	27147.37
524.577	27252.45
524.943	27482.72
525.31	27703.73
525.676	28009.94
526.043	28069.37
526.409	28179.2
526.776	28399.76
527.142	28546.42
527.508	28834.78
527.874	29138.27
528.241	29266.63
528.607	29270.7
528.973	29620.29
529.339	29627.75
529.705	29964.01
530.071	30160.17
530.437	30233.16
530.803	30546.82
531.169	30613.49
531.535	30587.73
531.901	30785.24
532.267	30989.75
532.632	31093.02
532.998	31307.48
533.364	31446.91
533.73	31440.59
534.095	31758.77
534.461	31878.09
534.826	32068.14
535.192	32182.04
535.557	32468.58
535.923	32299.77
536.288	32516.04
536.653	32666.99
537.019	32692.76
537.384	32856.59
537.749	33048.68
538.114	33141.56
538.479	33073.31
538.845	33435.34
539.21	33344.72
539.575	33635.1
539.94	33630.13
540.305	33881.43
540.67	33973.85
541.034	33956
541.399	34227.18
541.764	34268.08
542.129	34527.74
542.494	34685.25
542.858	34646.15
543.223	34771.8
543.587	35024.45
543.952	35062.86
544.316	35207.72
544.681	35254.72
545.045	35346.25
545.41	35648.16
545.774	35690.19
546.138	35762.28
546.503	35858.77
546.867	36003.4
547.231	36250.63
547.595	36421.25
547.959	36621.47
548.324	36532.2
548.688	36685.87
549.052	36822.59
549.416	36910.27
549.779	37178.29
550.143	37224.39
550.507	37492.63
550.871	37545.96
551.235	37676.81
551.599	37992.96
551.962	38107.98
552.326	38216.23
552.689	38527.63
553.053	38425.71
553.417	38595.43
553.78	39037.45
554.143	38957
554.507	39226.14
554.87	39345.91
555.234	39593.82
555.597	39587.49
555.96	39629.52
556.323	39900.93
556.686	39944.99
557.05	40247.13
557.413	40231.99
557.776	40478.31
558.139	40775.03
558.502	40982.71
558.865	41064.51
559.228	41423.15
559.59	41426.76
559.953	41602.8
560.316	42097.71
560.679	42052.28
561.041	42284.59
561.404	42481.65
561.767	42682.32
562.129	42593.06
562.492	43047.74
562.854	43034.63
563.217	43202.08
563.579	43206.83
563.941	43511.45
564.304	43807.94
564.666	43908.05
565.028	44017.66
565.39	44243.64
565.753	44358.66
566.115	44350.08
566.477	44676.85
566.839	44805.66
567.201	45087.68
567.563	45165.65
567.925	45443.38
568.287	45450.84
568.648	45572.19
569.01	45827.33
569.372	45997.72
569.734	45911.17
570.095	46299.18
570.457	46470.02
570.819	46552.73
571.18	46534.65
571.542	46745.95
571.903	46771.26
572.265	46911.59
572.626	47124.47
572.987	47170.79
573.349	47333.95
573.71	47521.07
574.071	47516.32
574.432	47654.17
574.794	47947.27
575.155	47921.96
575.516	47717.9
575.877	47985.24
576.238	48086.25
576.599	48125.12
576.96	48267.04
577.32	48237.88
577.681	48357.66
578.042	48500.48
578.403	48503.64
578.763	48565.33
579.124	48546.12
579.485	48636.29
579.845	48717.19
580.206	48803.75
580.566	48725.78
580.927	48852.11
581.287	48975.72
581.648	48737.53
582.008	49084.64
582.368	48895.72
582.728	49118.76
583.089	48977.53
583.449	48939.33
583.809	48996.73
584.169	49146.11
584.529	49017.52
584.889	49292.55
585.249	49052.55
585.609	49053.46
585.969	49262.72
586.329	49019.33
586.688	49206.22
587.048	49122.83
587.408	49040.8
587.768	49091.65
588.127	49081.7
588.487	49048.71
588.846	49370.74
589.206	49107.69
589.565	49183.4
589.925	49317.86
590.284	49291.87
590.643	49316.5
591.003	49434.69
591.362	49529.83
591.721	49465.42
592.08	49390.85
592.44	49519.66
592.799	49477.85
593.158	49385.88
593.517	49324.18
593.876	49489.38
594.235	49306.1
594.593	49321.7
594.952	49373.45
595.311	49271.3
595.67	49420
596.029	49548.58
596.387	49612.54
596.746	49721.01
597.104	49511.3
597.463	49605.98
597.822	49695.47
598.18	49545.19
598.538	49615.7
598.897	49819.09
599.255	49520.79
599.613	50014.79
599.972	49791.74
600.33	49815.02
600.688	49719.2
601.046	49811.63
601.404	49963.26
601.762	49874.23
602.12	50030.61
602.478	50068.12
602.836	50068.57
603.194	49992.41
603.552	49986.31
603.91	49831.29
604.268	49973.43
604.625	50042.58
604.983	50192.41
605.341	49979.99
605.698	50165.74
606.056	50320.99
606.413	50211.84
606.771	50444.61
607.128	50450.71
607.485	50340.88
607.843	50412.97
608.2	50460.2
608.557	50556.92
608.914	50437.6
609.272	50605.73
609.629	50598.95
609.986	50832.84
610.343	50699.29
610.7	50795.56
611.057	50719.4
611.414	50847.53
611.771	50771.6
612.127	50915.78
612.484	50879.4
612.841	51032.84
613.198	50908.32
613.554	50961.2
613.911	51181.76
614.267	51109.22
614.624	51134.98
614.98	51134.53
615.337	51352.6
615.693	51207.75
616.05	51174.3
616.406	51374.98
616.762	51287.07
617.118	51391.25
617.475	51421.08
617.831	51431.7
618.187	51437.8
618.543	51458.14
618.899	51626.27
619.255	51657.91
619.611	51622.2
619.967	51707.4
620.323	51767.51
620.678	51595.99
621.034	51564.12
621.39	51592.37
621.746	51621.98
622.101	52005.69
622.457	51592.6
622.812	51772.48
623.168	51797.34
623.523	51830.56
623.879	52004.11
624.234	51620.17
624.589	51752.59
624.945	51745.59
625.3	51768.64
625.655	51773.61
626.01	51832.82
626.365	51865.36
626.72	51676.66
627.075	51706.27
627.43	51675.08
627.785	51621.98
628.14	51742.2
628.495	51715.31
628.85	51765.02
629.205	51632.82
629.559	51893.61
629.914	51621.75
630.269	51652.26
630.623	51521.41
630.978	51440.06
631.332	51616.55
631.687	51627.4
632.041	51430.57
632.396	51601.64
632.75	51449.1
633.104	51537.91
633.459	51307.86
633.813	51353.73
634.167	51306.28
634.521	51285.71
634.875	51232.61
635.229	51224.02
635.583	51066.28
635.937	51109
636.291	51006.17
636.645	51069.22
636.999	50916.23
637.352	51062.89
637.706	50917.59
638.06	51032.39
638.413	50911.49
638.767	50920.75
639.121	50932.05
639.474	50714.88
639.828	50782
640.181	50732.73
640.534	50765.5
640.888	50549.01
641.241	50471.95
641.594	50529.35
641.947	50618.16
642.301	50391.95
642.654	50452.97
643.007	50538.39
643.36	50430.59
643.713	50339.3
644.066	50422.23
644.419	50264.27
644.771	50093.43
645.124	49697.51
645.477	49659.09
645.83	49394.46
646.182	49329.38
646.535	49258.42
646.888	49190.63
647.24	48951.99
647.593	49235.37
647.945	49167.58
648.298	48897.75
648.65	48915.61
649.002	48786.57
649.355	49010.97
649.707	48827.25
650.059	48937.07
650.411	49474.91
650.763	49474.69
651.115	49777.96
651.467	49654.12
651.819	49639.43
652.171	49541.35
652.523	49460.45
652.875	49428.14
653.227	49308.14
653.578	49555.14
653.93	49476.5
654.282	49203.06
654.633	49290.06
654.985	49365.99
655.337	49326.67
655.688	49303.62
656.039	49388.14
656.391	49152.44
656.742	49147.69
657.094	49137.52
657.445	49155.15
657.796	49078.09
658.147	48992.44
658.498	49158.76
658.849	49169.61
659.2	48856.85
659.551	48877.19
659.902	49020.91
660.253	48928.26
660.604	48993.34
660.955	48714.26
661.306	48932.78
661.656	48738.66
662.007	48815.72
662.358	48752.45
662.708	48734.82
663.059	48661.15
663.409	48542.06
663.76	48853.91
664.11	48760.13
664.461	48635.61
664.811	48788.6
665.161	48733.24
665.511	48608.5
665.862	48563.3
666.212	48679.45
666.562	48723.52
666.912	48603.52
667.262	48535.73
667.612	48432.68
667.962	48689.85
668.312	48469.29
668.662	48683.75
669.011	48472.45
669.361	48453.7
669.711	48474.49
670.06	48351.78
670.41	48273.36
670.76	48220.71
671.109	48347.03
671.459	48225.91
671.808	48175.51
672.157	48238.79
672.507	48087.15
672.856	48149.52
673.205	48128.06
673.554	48090.77
673.904	47992.92
674.253	48202.4
674.602	48085.57
674.951	47470.9
675.3	47271.81
675.649	47922.86
675.998	47859.14
676.346	47840.38
676.695	48025.01
677.044	47575.53
677.393	47826.6
677.741	47825.69
678.09	47728.97
678.438	47539.37
678.787	47681.29
679.135	47564.91
679.484	47235.88
679.832	47400.62
680.181	47298.7
680.529	47381.64
680.877	47294.18
681.225	47150
681.573	47457.11
681.922	47214.41
682.27	47002.44
682.618	47038.82
682.966	46762.67
683.314	47011.7
683.661	46849.9
684.009	46598.15
684.357	46495.11
684.705	46411.27
685.053	46540.98
685.4	46346.41
685.748	46157.26
686.095	46165.4
686.443	46183.93
686.79	45950.94
687.138	46076.36
687.485	46053.08
687.832	45794.56
688.18	45784.39
688.527	45600.44
688.874	45598.41
689.221	45484.96
689.568	45323.84
689.915	45318.41
690.262	45205.42
690.609	45170.62
690.956	44941.93
691.303	44988.25
691.65	44808.37
691.997	44968.82
692.344	44659.9
692.69	44531.09
693.037	44519.11
693.383	44086.58
693.73	44324.77
694.077	44179.91
694.423	44052.91
694.769	43955.06
695.116	43790.32
695.462	43779.7
695.808	43678
696.155	43704.9
696.501	43496.77
696.847	43320.73
697.193	43170.9
697.539	43313.04
697.885	42973.62
698.231	42932.71
698.577	42828.31
698.923	42784.24
699.269	42561.88
699.614	42447.53
699.96	42434.87
700.306	42217.93
700.651	42144.03
700.997	41933.64
701.342	42065.17
701.688	41880.76
702.033	41839.63
702.379	41605.29
702.724	41636.93
703.069	41829.24
703.415	41297.05
703.76	41228.8
704.105	41415.01
704.45	41293.66
704.795	40991.3
705.14	40873.33
705.485	40881.24
705.83	40750.17
706.175	40596.28
706.52	40607.8
706.865	40458.43
707.209	40330.52
707.554	40341.14
707.899	40305.44
708.243	40216.17
708.588	40018.89
708.932	39840.82
709.277	39846.01
709.621	39730.09
709.966	39531.45
710.31	39572.58
710.654	39271.79
710.998	39396.99
711.342	39484.67
711.687	39250.32
712.031	39187.5
712.375	38986.38
712.719	39161.74
713.063	39139.14
713.407	39032.48
713.75	38768.3
714.094	38823.44
714.438	38559.72
714.782	38655.76
715.125	38475.88
715.469	38576.9
715.812	38322.66
716.156	38115.66
716.499	38143.23
716.843	38136.91
717.186	38111.6
717.53	38159.28
717.873	38056.91
718.216	37966.52
718.559	37814.43
718.902	37541.89
719.246	37672.06
719.589	37553.19
719.932	37339.41
720.275	37401.11
720.617	37358.17
720.96	37196.37
721.303	37262.13
721.646	37139.19
721.989	37110.95
722.331	37289.47
722.674	37068.46
723.016	37025.07
723.359	37054.9
723.701	37095.58
724.044	36824.62
724.386	36500.79
724.729	36851.97
725.071	36628.02
725.413	36695.59
725.755	36645.42
726.097	36416.27
726.439	36288.14
726.782	36208.6
727.124	36532.88
727.465	36156.85
727.807	36181.93
728.149	36070.29
728.491	36029.62
728.833	36061.26
729.175	35937.87
729.516	35776.29
729.858	35884.54
730.199	35869.17
730.541	35678.21
730.882	35717.08
731.224	35675.95
731.565	35433.48
731.906	35496.52
732.248	35450.42
732.589	35328.85
732.93	35305.79
733.271	35188.74
733.612	35308.28
733.953	35094.05
734.294	35124.78
734.635	35004.33
734.976	35071
735.317	34891.79
735.658	34787.62
735.999	34811.57
736.339	34729.09
736.68	34820.84
737.021	34746.04
737.361	34442.99
737.702	34710.1
738.042	34720.5
738.383	34572.48
738.723	34511.92
739.063	34529.09
739.404	34458.81
739.744	34479.6
740.084	34267.86
740.424	34274.41
740.764	34247.29
741.104	34270.57
741.444	34021.53
741.784	33867.87
742.124	34052.27
742.464	33939.05
742.804	33987.64
743.143	33850.69
743.483	33948.54
743.823	33846.85
744.162	33631.04
744.502	33707.19
744.841	33524.6
745.181	33593.75
745.52	33368.9
745.86	33580.42
746.199	33518.05
746.538	33375.68
746.877	33289.8
747.216	33232.4
747.556	33183.82
747.895	33077.6
748.234	32942.02
748.573	32936.14
748.911	32952.18
749.25	33000.54
749.589	32704.28
749.928	32825.18
750.267	32822.7
750.605	32761.23
750.944	32583.15
751.283	32564.85
751.621	32535.7
751.96	32363.05
752.298	32396.04
752.636	32299.09
752.975	32176.61
753.313	32248.93
