Data from whiteboard_FLMS001491_00095.txt Node
Date: Wed Feb 08 11:28:45 GMT 2017
User: dcchb
Spectrometer: FLMS00149
Trigger mode: 0
Integration Time (sec): 2.000000E-2
Scans to average: 10
Electric dark correction enabled: true
Nonlinearity correction enabled: false
Boxcar width: 0
XAxis mode: Wavelengths
Number of Pixels in Spectrum: 2048
>>>>>Begin Spectral Data<<<<<
341.393	-12.82
341.776	-12.82
342.16	-12.82
342.543	-41.98
342.927	-55.99
343.31	-71.13
343.693	-96.89
344.077	-78.81
344.46	-60.05
344.843	-47.63
345.226	-47.63
345.61	-37.46
345.993	-24.8
346.376	-6.5
346.759	28.08
347.142	52.94
347.525	36.21
347.908	54.97
348.291	79.15
348.674	101.52
349.057	118.02
349.44	141.52
349.823	151.46
350.206	175.42
350.588	212.03
350.971	238.47
351.354	260.39
351.737	291.35
352.119	313.49
352.502	290.9
352.884	302.65
353.267	300.61
353.65	328.64
354.032	314.17
354.414	332.03
354.797	343.1
355.179	347.62
355.562	354.4
355.944	352.82
356.326	373.15
356.709	357.11
357.091	353.72
357.473	371.35
357.855	353.49
358.238	375.87
358.62	371.12
359.002	390.55
359.384	353.72
359.766	379.71
360.148	359.14
360.53	379.71
360.912	377.67
361.294	391.91
361.676	369.54
362.057	365.47
362.439	363.21
362.821	393.04
363.203	368.41
363.584	363.44
363.966	392.59
364.348	385.81
364.729	372.25
365.111	357.11
365.493	378.35
365.874	352.59
366.256	371.12
366.637	358.92
367.019	364.11
367.4	365.7
367.781	366.6
368.163	351.23
368.544	365.47
368.925	365.02
369.306	365.92
369.688	368.63
370.069	348.75
370.45	368.41
370.831	369.09
371.212	358.92
371.593	385.36
371.974	386.71
372.355	371.57
372.736	380.84
373.117	395.3
373.498	354.17
373.879	375.41
374.26	380.84
374.641	357.11
375.021	386.94
375.402	388.97
375.783	398.24
376.163	383.78
376.544	410.22
376.925	378.58
377.305	393.94
377.686	385.36
378.066	401.4
378.447	412.25
378.827	415.19
379.208	401.85
379.588	409.76
379.968	414.73
380.349	406.83
380.729	415.41
381.109	421.29
381.489	427.62
381.87	413.38
382.25	414.06
382.63	438.01
383.01	423.32
383.39	431.46
383.77	442.53
384.15	456.54
384.53	452.02
384.91	430.78
385.29	468.52
385.67	439.59
386.049	472.36
386.429	463.55
386.809	466.71
387.189	467.39
387.568	476.88
387.948	491.57
388.328	496.31
388.707	493.15
389.087	475.3
389.466	492.47
389.846	479.59
390.225	509.2
390.605	513.49
390.984	527.5
391.363	518.91
391.743	550.32
392.122	519.82
392.501	546.26
392.881	563.88
393.26	541.96
393.639	573.83
394.018	576.09
394.397	571.79
394.776	579.02
395.155	598.91
395.534	608.4
395.913	609.08
396.292	622.41
396.671	633.26
397.05	627.84
397.429	655.41
397.808	630.77
398.186	639.14
398.565	666.25
398.944	675.97
399.323	696.08
399.701	701.28
400.08	703.09
400.458	716.87
400.837	727.49
401.215	739.92
401.594	746.25
401.972	751.22
402.351	764.78
402.729	808.17
403.107	814.72
403.486	838.23
403.864	821.28
404.242	834.16
404.62	872.35
404.999	863.31
405.377	866.7
405.755	887.72
406.133	916.87
406.511	944.66
406.889	955.96
407.267	951.44
407.645	976.3
408.023	994.61
408.401	1016.07
408.779	1026.92
409.156	1050.88
409.534	1081.38
409.912	1122.74
410.29	1142.85
410.667	1186.47
411.045	1193.25
411.422	1183.08
411.8	1232.79
412.178	1266.01
412.555	1265.11
412.933	1268.95
413.31	1332
413.687	1318.89
414.065	1357.76
414.442	1381.04
414.819	1397.31
415.197	1413.8
415.574	1423.07
415.951	1448.61
416.328	1462.84
416.705	1464.42
417.082	1507.36
417.46	1528.83
417.837	1563.63
418.214	1536.29
418.591	1573.12
418.967	1644.08
419.344	1649.73
419.721	1619.9
420.098	1665.78
420.475	1693.57
420.852	1714.59
421.228	1750.07
421.605	1719.79
421.982	1803.4
422.358	1802.27
422.735	1822.16
423.111	1823.96
423.488	1877.52
423.864	1857.18
424.241	1890.85
424.617	1956.39
424.994	1917.52
425.37	1940.34
425.746	1953.45
426.123	1994.81
426.499	2027.57
426.875	2060.57
427.251	2065.99
427.627	2183.5
428.003	2153.9
428.379	2186.21
428.756	2216.5
429.132	2253.78
429.507	2259.21
429.883	2354.8
430.259	2347.34
430.635	2352.31
431.011	2379.43
431.387	2479.31
431.763	2485.64
432.138	2547.56
432.514	2585.3
432.89	2577.84
433.265	2637.95
433.641	2675.92
434.016	2707.56
434.392	2733.09
434.767	2764.28
435.143	2784.62
435.518	2831.39
435.894	2895.8
436.269	2891.51
436.644	2910.71
437.02	2978.06
437.395	3011.05
437.77	3060.99
438.145	3053.08
438.52	3068.45
438.895	3126.75
439.271	3191.61
439.646	3217.15
440.021	3233.87
440.395	3279.52
440.77	3227.77
441.145	3303.47
441.52	3345.96
441.895	3364.71
442.27	3388.89
442.645	3369.23
443.019	3443.36
443.394	3435.67
443.769	3489.91
444.143	3492.85
444.518	3585.27
444.892	3568.55
445.267	3613.07
445.641	3627.76
446.016	3672.95
446.39	3695.78
446.764	3696.23
447.139	3716.34
447.513	3747.53
447.887	3707.98
448.262	3761.77
448.636	3795.89
449.01	3868.2
449.384	3890.58
449.758	3932.61
450.132	3950.24
450.506	3966.05
450.88	4006.96
451.254	4038.37
451.628	4110.91
452.002	4154.98
452.376	4213.96
452.75	4260.74
453.123	4255.76
453.497	4342.09
453.871	4356.1
454.244	4480.84
454.618	4479.49
454.992	4578.69
455.365	4574.4
455.739	4701.18
456.112	4728.97
456.486	4764
456.859	4810.78
457.232	4921.73
457.606	4904.33
457.979	5012.58
458.352	5106.14
458.725	5202.63
459.099	5203.76
459.472	5317.88
459.845	5383.19
460.218	5422.96
460.591	5470.87
460.964	5532.34
461.337	5641.49
461.71	5696.4
462.083	5754.93
462.456	5757.65
462.829	5830.41
463.201	5958.09
463.574	5966
463.947	6034.47
464.32	6188.14
464.692	6214.81
465.065	6247.8
465.438	6351.3
465.81	6448.93
466.183	6497.29
466.555	6669.71
466.928	6689.15
467.3	6741.12
467.672	6855.7
468.045	7030.61
468.417	7042.58
468.789	7121.45
469.161	7220.21
469.534	7295.46
469.906	7480.54
470.278	7492.51
470.65	7589.01
471.022	7820.19
471.394	7997.81
471.766	7976.8
472.138	8088.21
472.51	8352.38
472.882	8400.51
473.253	8516.44
473.625	8642.99
473.997	8805.7
474.369	8809.77
474.74	8902.2
475.112	9121.4
475.484	9190.1
475.855	9476.19
476.227	9467.15
476.598	9723.64
476.97	9847.93
477.341	10014.48
477.713	10234.59
478.084	10257.19
478.455	10619.66
478.827	10600.23
479.198	10971.29
479.569	11035.7
479.94	11314.11
480.311	11351.62
480.682	11771.72
481.053	11968.78
481.424	12103.47
481.795	12274.54
482.166	12480.41
482.537	12465.27
482.908	12891.69
483.279	12985.25
483.65	13265.02
484.021	13544.56
484.391	13644.9
484.762	13830.88
485.133	13977.77
485.503	14157.42
485.874	14415.27
486.244	14624.53
486.615	14926.67
486.985	15198.75
487.356	15335.7
487.726	15442.59
488.097	15795.12
488.467	15866.98
488.837	16148.11
489.207	16340.64
489.578	16572.5
489.948	16640.3
490.318	17026.95
490.688	17036.22
491.058	17344.46
491.428	17527.73
491.798	17639.59
492.168	17996.65
492.538	18052.69
492.908	18237.32
493.278	18567.48
493.648	18531.09
494.017	18894.47
494.387	18913.91
494.757	19171.08
495.126	19421.69
495.496	19399.55
495.866	19590.73
496.235	19839.31
496.605	19955.92
496.974	20133.76
497.344	20315
497.713	20413.53
498.082	20627.31
498.452	20915.44
498.821	20989.79
499.19	21043.12
499.559	21266.84
499.928	21414.18
500.298	21607.17
500.667	21721.29
501.036	21789.99
501.405	22043.32
501.774	22072.02
502.143	22380.03
502.512	22368.06
502.88	22628.61
503.249	22642.85
503.618	22883.75
503.987	22922.62
504.356	23051.2
504.724	23058.89
505.093	23258.88
505.462	23388.14
505.83	23384.98
506.199	23651.41
506.567	23922.82
506.936	23928.47
507.304	24188.35
507.672	24379.75
508.041	24413.43
508.409	24558.96
508.777	24696.13
509.145	24951.94
509.514	25047.53
509.882	25269
510.25	25305.38
510.618	25526.84
510.986	25574.3
511.354	25939.94
511.722	26182.87
512.09	26426.71
512.458	26418.12
512.826	26691.56
513.193	26972
513.561	27024.66
513.929	27233.92
514.297	27480.69
514.664	27625.54
515.032	27787.12
515.4	28063.05
515.767	28106.89
516.135	28327
516.502	28193.21
516.869	28872.52
517.237	28923.36
517.604	28999.52
517.972	29400.19
518.339	29435.21
518.706	29606.74
519.073	29702.55
519.44	29918.37
519.808	30314.97
520.175	30249.2
520.542	30647.84
520.909	30832.47
521.276	30856.42
521.643	31116.53
522.009	31365.56
522.376	31581.37
522.743	31712.89
523.11	31991.98
523.477	32299.55
523.843	32382.03
524.21	32820.66
524.577	33042.35
524.943	33010.71
525.31	33281.22
525.676	33534.09
526.043	33810.47
526.409	33914.87
526.776	34215.88
527.142	34409.1
527.508	34594.85
527.874	34749.88
528.241	35102.64
528.607	35152.13
528.973	35572
529.339	35579.01
529.705	36113.46
530.071	36311.19
530.437	36371.98
530.803	36656.04
531.169	36908.46
531.535	36974.45
531.901	37260.77
532.267	37325.85
532.632	37684.72
532.998	37720.19
533.364	38025.27
533.73	38172.61
534.095	38470.23
534.461	38559.49
534.826	38762.65
535.192	38856.66
535.557	39226.37
535.923	39153.6
536.288	39436.08
536.653	39593.59
537.019	39567.38
537.384	39629.3
537.749	39893.24
538.114	39921.04
538.479	40003.3
538.845	40040.36
539.21	39930.53
539.575	40218.21
539.94	40538.65
540.305	40642.38
540.67	40656.84
541.034	40724.64
541.399	40885.08
541.764	41022.03
542.129	41052.76
542.494	41184.51
542.858	41206.43
543.223	41303.38
543.587	41675.57
543.952	41629.7
544.316	41739.52
544.681	41638.06
545.045	42000.99
545.41	42227.87
545.774	42318.94
546.138	42492.27
546.503	42609.78
546.867	42543.34
547.231	43044.35
547.595	43011.58
547.959	43181.97
548.324	43257.22
548.688	43595.97
549.052	43713.48
549.416	43835.74
549.779	43943.31
550.143	43996.19
550.507	44449.28
550.871	44651.09
551.235	44574.48
551.599	45040.91
551.962	45087.01
552.326	45139.21
552.689	45387.34
553.053	45240.22
553.417	45402.03
553.78	45979.64
554.143	45759.31
554.507	45943.71
554.87	46142.8
555.234	46460.53
555.597	46377.59
555.96	46430.47
556.323	46721.99
556.686	46654.2
557.05	46962.89
557.413	47060.06
557.776	47271.36
558.139	47464.35
558.502	47410.56
558.865	47519.71
559.228	47744.56
559.59	47879.93
559.953	47752.7
560.316	48161.28
560.679	48190.65
561.041	48361.27
561.404	48461.38
561.767	48567.14
562.129	48596.07
562.492	49009.16
562.854	48893.69
563.217	49042.16
563.579	49116.51
563.941	49408.7
564.304	49521.24
564.666	49710.39
565.028	49687.34
565.39	49914.68
565.753	50031.96
566.115	50100.21
566.477	50261.56
566.839	50541.33
567.201	50697.93
567.563	50801.21
567.925	51005.04
568.287	51040.07
568.648	51203.46
569.01	51484.58
569.372	51747.85
569.734	51614.97
570.095	51875.08
570.457	52104
570.819	52182.87
571.18	52273.48
571.542	52421.5
571.903	52483.87
572.265	52612.91
572.626	52813.13
572.987	52835.05
573.349	52962.96
573.71	52953.01
574.071	53099
574.432	53223.29
574.794	53469.84
575.155	53461.48
575.516	53364.08
575.877	53558.42
576.238	53553.45
576.599	53740.56
576.96	53693.11
577.32	53721.58
577.681	53839.77
578.042	53808.81
578.403	53841.8
578.763	53731.3
579.124	53760.68
579.485	53938.75
579.845	53945.76
580.206	53894.68
580.566	53860.56
580.927	53881.13
581.287	53993.89
581.648	53808.13
582.008	54005.42
582.368	53802.94
582.728	53898.53
583.089	53945.3
583.449	53874.57
583.809	53848.58
584.169	53909.83
584.529	53825.53
584.889	54084.51
585.249	54040.22
585.609	53877.74
585.969	54001.8
586.329	53818.75
586.688	54081.8
587.048	54043.16
587.408	53893.1
587.768	53944.17
588.127	53995.7
588.487	54024.4
588.846	54217.84
589.206	54099.2
589.565	54089.03
589.925	54268.91
590.284	54143.49
590.643	54306.88
591.003	54406.76
591.362	54502.35
591.721	54529.47
592.08	54506.87
592.44	54696.7
592.799	54643.14
593.158	54620.32
593.517	54581.45
593.876	54767.88
594.235	54732.63
594.593	54693.08
594.952	54854.89
595.311	54709.35
595.67	54708.9
596.029	54902.57
596.387	54971.94
596.746	54979.18
597.104	54840.2
597.463	54754.32
597.822	54909.35
598.18	54817.15
598.538	54831.16
598.897	55006.97
599.255	54794.55
599.613	55160.41
599.972	54918.16
600.33	54988.89
600.688	54787.09
601.046	54906.64
601.404	54980.31
601.762	54796.36
602.12	54968.78
602.478	54934.21
602.836	54882.91
603.194	54628
603.552	54761.55
603.91	54600.88
604.268	54736.24
604.625	54568.11
604.983	54684.27
605.341	54510.49
605.698	54706.64
606.056	54723.59
606.413	54611.95
606.771	54717.26
607.128	54746.19
607.485	54599.07
607.843	54648.34
608.2	54841.55
608.557	54860.53
608.914	54782.57
609.272	54919.29
609.629	54959.29
609.986	55006.75
610.343	54849.24
610.7	55171.71
611.057	55056.24
611.414	55099.17
611.771	55190.47
612.127	55270.24
612.484	55296.68
612.841	55417.13
613.198	55348.88
613.554	55380.07
613.911	55577.8
614.267	55622.32
614.624	55545.49
614.98	55693.96
615.337	55909.77
615.693	55772.83
616.05	55868.87
616.406	56101.86
616.762	55964.23
617.118	56026.61
617.475	56033.61
617.831	56083.55
618.187	56181.63
618.543	56163.1
618.899	56318.35
619.255	56178.47
619.611	56265.02
619.967	56285.36
620.323	56325.81
620.678	56189.54
621.034	56187.05
621.39	56186.83
621.746	56143.89
622.101	56360.61
622.457	56161.29
622.812	56090.33
623.168	56180.73
623.523	56072.25
623.879	56171.69
624.234	55947.06
624.589	56064.8
624.945	56087.17
625.3	56089.88
625.655	56012.14
626.01	56004.01
626.365	55962.2
626.72	55876.78
627.075	55787.06
627.43	55769.21
627.785	55683.11
628.14	55765.37
628.495	55691.25
628.85	55595.66
629.205	55538.71
629.559	55705.71
629.914	55443.57
630.269	55447.41
630.623	55372.84
630.978	55279.51
631.332	55431.82
631.687	55484.7
632.041	55252.39
632.396	55282.44
632.75	55218.04
633.104	55231.15
633.459	55181.66
633.813	55136.69
634.167	55222.33
634.521	55140.53
634.875	55218.04
635.229	55201.77
635.583	55152.73
635.937	55162
636.291	55054.2
636.645	55078.61
636.999	55056.01
637.352	55215.78
637.706	55033.41
638.06	55119.06
638.413	54992.28
638.767	54986.63
639.121	55090.36
639.474	54979.18
639.828	55000.19
640.181	55159.06
640.534	55095.11
640.888	54990.7
641.241	54990.7
641.594	55034.09
641.947	55111.15
642.301	55006.07
642.654	55093.3
643.007	55080.87
643.36	55058.95
643.713	55016.01
644.066	55197.48
644.419	55011.94
644.771	54816.02
645.124	54463.48
645.477	54428.46
645.83	54136.26
646.182	54105.98
646.535	54101.46
646.888	54082.48
647.24	53932.2
647.593	54153.21
647.945	54009.03
648.298	53781.47
648.65	53728.81
649.002	53619.21
649.355	53755.93
649.707	53598.42
650.059	53609.95
650.411	53943.5
650.763	53947.11
651.115	54182.13
651.467	54053.78
651.819	54011.74
652.171	53904.63
652.523	53808.59
652.875	53757.74
653.227	53593.22
653.578	53836.38
653.93	53746.44
654.282	53608.36
654.633	53467.13
654.985	53487.69
655.337	53432.55
655.688	53358.43
656.039	53418.09
656.391	53162.95
656.742	53210.63
657.094	53136.96
657.445	53179
657.796	53160.01
658.147	52985.78
658.498	53037.53
658.849	53216.74
659.2	52976.29
659.551	52820.36
659.902	52921.6
660.253	52961.15
660.604	53079.34
660.955	52888.16
661.306	52913.24
661.656	52899.46
662.007	52920.47
662.358	52908.5
662.708	52937.65
663.059	52957.76
663.409	52778.1
663.76	52993.47
664.11	52970.19
664.461	53069.85
664.811	53124.99
665.161	53052.45
665.511	53049.06
665.862	52922.28
666.212	53093.8
666.562	53098.55
666.912	52976.29
667.262	52996.86
667.612	52985.78
667.962	53111.65
668.312	52925.67
668.662	53134.03
669.011	53134.93
669.361	53041.83
669.711	53095.38
670.06	53106.23
670.41	52992.34
670.76	52962.05
671.109	53120.69
671.459	52915.95
671.808	52940.81
672.157	53061.94
672.507	52766.58
672.856	52788.27
673.205	52766.58
673.554	52918.67
673.904	52760.48
674.253	52946.69
674.602	52863.53
674.951	52393.03
675.3	52160.72
675.649	52721.16
675.998	52592.35
676.346	52603.87
676.695	52668.73
677.044	52270.77
677.393	52500.6
677.741	52562.52
678.09	52402.07
678.438	52334.05
678.787	52291.56
679.135	52218.8
679.484	51942.65
679.832	52118.01
680.181	51699.26
680.529	51992.14
680.877	51826.26
681.225	51716.89
681.573	51863.78
681.922	51485.93
682.27	51434.64
682.618	51488.42
682.966	51270.57
683.314	51347.41
683.661	51161.65
684.009	51114.42
684.357	50970.02
684.705	50865.39
685.053	50799.85
685.4	50856.57
685.748	50515.11
686.095	50537.71
686.443	50442.8
686.79	50226.76
687.138	50274.89
687.485	50304.27
687.832	50081.23
688.18	50283.25
688.527	49935.69
688.874	49959.42
689.221	49871.29
689.568	49757.84
689.915	49735.92
690.262	49561.01
690.609	49434.46
690.956	49435.59
691.303	49459.55
691.65	49255.03
691.997	49228.59
692.344	49110.4
692.69	49031.99
693.037	49047.35
693.383	48687.59
693.73	48806
694.077	48555.39
694.423	48642.39
694.769	48484.43
695.116	48567.59
695.462	48420.03
695.808	48389.52
696.155	48369.63
696.501	48069.98
696.847	48231.33
697.193	47938.91
697.539	48098.45
697.885	47743.66
698.231	47727.39
698.577	47717.45
698.923	47666.37
699.269	47487.17
699.614	47384.57
699.96	47373.95
700.306	47357.23
700.651	47235.88
700.997	47152.49
701.342	47084.47
701.688	46989.33
702.033	46840.86
702.379	46822.55
702.724	46794.76
703.069	46804.7
703.415	46378.05
703.76	46400.64
704.105	46396.8
704.45	46312.96
704.795	46036.81
705.14	46039.52
705.485	45873.2
705.83	45788.68
706.175	45803.6
706.52	45654.45
706.865	45566.09
707.209	45378.98
707.554	45273.44
707.899	45364.06
708.243	45172.2
708.588	45021.25
708.932	44795.49
709.277	44723.17
709.621	44703.74
709.966	44362.51
710.31	44492.22
710.654	43972.23
710.998	44057.88
711.342	44045.45
711.687	43919.58
712.031	43615.63
712.375	43466.03
712.719	43502.42
713.063	43498.57
713.407	43489.99
713.75	43222.87
714.094	43065.59
714.438	42850.23
714.782	42930.23
715.125	42689.1
715.469	42628.99
715.812	42476
716.156	42280.53
716.499	42285.95
716.843	42121.66
717.186	41962.12
717.53	42121.89
717.873	42044.6
718.216	42108.1
718.559	41627.89
718.902	41283.26
719.246	41523.26
719.589	41222.7
719.932	41128.01
720.275	41167.34
720.617	41114.46
720.96	41031.29
721.303	40900.45
721.646	40988.81
721.989	40497.75
722.331	40737.29
722.674	40749.72
723.016	40551.98
723.359	40533.23
723.701	40503.4
724.044	40239
724.386	40015.73
724.729	40361.71
725.071	40167.59
725.413	40143.41
725.755	40007.14
726.097	39750.88
726.439	39824.32
726.782	39685.34
727.124	39879.46
727.465	39679.24
727.807	39765.11
728.149	39587.49
728.491	39503.2
728.833	39561.73
729.175	39286.71
729.516	39182.98
729.858	39206.26
730.199	39371.22
730.541	39091.91
730.882	39203.32
731.224	39132.59
731.565	38880.62
731.906	39076.54
732.248	39045.58
732.589	39055.3
732.93	38905.47
733.271	38980.5
733.612	38887.62
733.953	38953.61
734.294	38840.17
734.635	38748.64
734.976	38768.75
735.317	38723.33
735.658	38592.04
735.999	38553.85
736.339	38556.78
736.68	38760.39
737.021	38526.28
737.361	38338.26
737.702	38566.73
738.042	38477.46
738.383	38312.95
738.723	38372.38
739.063	38128.09
739.404	38328.77
739.744	38173.74
740.084	37990.24
740.424	38145.72
740.764	37919.51
741.104	37938.95
741.444	37875.9
741.784	37629.12
742.124	37644.94
742.464	37680.42
742.804	37534.21
743.143	37477.72
743.483	37402.24
743.823	37274.78
744.162	37220.55
744.502	37336.93
744.841	37120.21
745.181	37048.8
745.52	36991.17
745.86	37034.11
746.199	36945.98
746.538	36791.86
746.877	36823.95
747.216	36678.19
747.556	36610.17
747.895	36642.71
748.234	36454.47
748.573	36280.91
748.911	36164.98
749.25	36189.16
749.589	36039.56
749.928	36057.19
750.267	35906.46
750.605	35813.35
750.944	35709.63
751.283	35557.99
751.621	35547.6
751.96	35145.57
752.298	35247.49
752.636	35260.15
752.975	34972.7
