Data from white_poster_card_FLMS001491_00045.txt Node
Date: Wed Feb 08 11:51:34 GMT 2017
User: dcchb
Spectrometer: FLMS00149
Trigger mode: 0
Integration Time (sec): 2.000000E-2
Scans to average: 10
Electric dark correction enabled: true
Nonlinearity correction enabled: false
Boxcar width: 0
XAxis mode: Wavelengths
Number of Pixels in Spectrum: 2048
>>>>>Begin Spectral Data<<<<<
341.393	-23.83
341.776	-23.83
342.16	-23.83
342.543	-48.01
342.927	-78.51
343.31	-88.23
343.693	-55.01
344.077	-82.81
344.46	-66.09
344.843	-56.59
345.226	-39.65
345.61	-30.38
345.993	-32.64
346.376	-8.01
346.759	15.27
347.142	39.22
347.525	48.49
347.908	68.6
348.291	66.11
348.674	103.63
349.057	118.09
349.44	120.8
349.823	140.01
350.206	165.55
350.588	189.95
350.971	229.05
351.354	235.38
351.737	231.08
352.119	239.89
352.502	252.55
352.884	286.67
353.267	295.94
353.65	284.19
354.032	297.97
354.414	304.75
354.797	305.66
355.179	322.38
355.562	301.14
355.944	345.88
356.326	340.01
356.709	331.19
357.091	322.38
357.473	330.29
357.855	325.54
358.238	330.74
358.62	336.84
359.002	332.77
359.384	334.58
359.766	361.02
360.148	343.62
360.53	343.17
360.912	331.42
361.294	333.23
361.676	334.58
362.057	328.25
362.439	341.81
362.821	322.15
363.203	317.18
363.584	306.11
363.966	344.98
364.348	321.93
364.729	324.64
365.111	314.92
365.493	325.09
365.874	311.31
366.256	314.47
366.637	306.79
367.019	319.44
367.4	321.93
367.781	331.19
368.163	306.33
368.544	317.41
368.925	307.01
369.306	325.77
369.688	317.41
370.069	313.34
370.45	305.2
370.831	315.15
371.212	298.65
371.593	306.79
371.974	306.56
372.355	315.83
372.736	338.42
373.117	331.42
373.498	327.58
373.879	295.71
374.26	303.62
374.641	312.44
375.021	326.22
375.402	330.97
375.783	341.14
376.163	353.56
376.544	310.63
376.925	326.45
377.305	314.92
377.686	329.61
378.066	336.84
378.447	326.45
378.827	326.67
379.208	332.77
379.588	342.49
379.968	336.62
380.349	336.39
380.729	340.01
381.109	333.23
381.489	330.06
381.87	337.29
382.25	343.39
382.63	336.62
383.01	346.56
383.39	354.24
383.77	361.47
384.15	350.17
384.53	351.98
384.91	351.76
385.29	364.19
385.67	332.55
386.049	360.34
386.429	382.94
386.809	385.88
387.189	360.12
387.568	365.77
387.948	364.19
388.328	345.88
388.707	357.63
389.087	368.25
389.466	372.32
389.846	385.65
390.225	361.25
390.605	383.17
390.984	382.26
391.363	389.04
391.743	357.63
392.122	403.28
392.501	414.58
392.881	398.76
393.26	417.52
393.639	403.28
394.018	392.43
394.397	393.79
394.776	394.92
395.155	403.28
395.534	406.67
395.913	395.14
396.292	428.59
396.671	420.23
397.05	438.08
397.429	411.42
397.808	437.86
398.186	440.34
398.565	417.97
398.944	440.79
399.323	430.17
399.701	420.68
400.08	419.78
400.458	447.8
400.837	427.91
401.215	448.48
401.594	432.43
401.972	443.96
402.351	448.93
402.729	457.74
403.107	466.33
403.486	473.79
403.864	471.75
404.242	486.22
404.62	476.95
404.999	483.28
405.377	478.76
405.755	490.06
406.133	476.05
406.511	495.03
406.889	521.47
407.267	514.24
407.645	513.79
408.023	527.57
408.401	531.86
408.779	546.55
409.156	580.9
409.534	559.89
409.912	560.56
410.29	567.12
410.667	580.45
411.045	619.77
411.422	623.61
411.8	618.42
412.178	606.21
412.555	665.42
412.933	660
413.31	678.3
413.687	654.8
414.065	688.47
414.442	695.7
414.819	733.22
415.197	714.91
415.574	748.81
415.951	778.19
416.328	766.89
416.705	792.42
417.082	809.82
417.46	805.98
417.837	852.53
418.214	829.94
418.591	864.51
418.967	878.52
419.344	873.32
419.721	928.46
420.098	909.48
420.475	926.2
420.852	943.61
421.228	960.55
421.605	980.21
421.982	997.84
422.358	988.12
422.735	1027.22
423.111	1036.26
423.488	1065.64
423.864	1055.69
424.241	1080.55
424.617	1078.97
424.994	1100.89
425.37	1131.85
425.746	1126.2
426.123	1127.78
426.499	1164.16
426.875	1154.22
427.251	1195.35
427.627	1233.54
428.003	1231.96
428.379	1228.8
428.756	1265.18
429.132	1288.91
429.507	1285.07
429.883	1308.34
430.259	1328
430.635	1358.74
431.011	1383.59
431.387	1397.15
431.763	1444.38
432.138	1423.82
432.514	1450.94
432.89	1460.2
433.265	1460.88
433.641	1516.7
434.016	1523.93
434.392	1570.03
434.767	1585.4
435.143	1578.84
435.518	1610.71
435.894	1628.33
436.269	1650.25
436.644	1666.07
437.02	1684.6
437.395	1685.51
437.77	1729.12
438.145	1755.34
438.52	1744.04
438.895	1751.04
439.271	1783.81
439.646	1817.03
440.021	1843.02
440.395	1839.17
440.77	1846.86
441.145	1874.88
441.52	1914.2
441.895	1879.17
442.27	1917.82
442.645	1927.53
443.019	1942.67
443.394	1914.88
443.769	1971.15
444.143	1949.91
444.518	1944.93
444.892	1987.19
445.267	1979.06
445.641	1986.52
446.016	2034.65
446.39	2023.35
446.764	2058.15
447.139	2031.94
447.513	2070.13
447.887	2082.56
448.262	2126.85
448.636	2092.05
449.01	2137.92
449.384	2141.31
449.758	2172.27
450.132	2212.72
450.506	2236
450.88	2223.12
451.254	2210.92
451.628	2255.21
452.002	2265.6
452.376	2282.1
452.75	2312.16
453.123	2346.51
453.497	2349.67
453.871	2372.95
454.244	2429.89
454.618	2443
454.992	2500.17
455.365	2490.91
455.739	2515.99
456.112	2549.21
456.486	2594.86
456.859	2631.7
457.232	2642.54
457.606	2640.96
457.979	2670.11
458.352	2730.22
458.725	2747.85
459.099	2797.57
459.472	2828.53
459.845	2858.58
460.218	2870.11
460.591	2906.04
460.964	2856.1
461.337	2971.8
461.71	3033.95
462.083	3024.91
462.456	3112.59
462.829	3088.18
463.201	3113.49
463.574	3168.41
463.947	3198.91
464.32	3243.66
464.692	3277.78
465.065	3300.38
465.438	3337.21
465.81	3374.95
466.183	3392.13
466.555	3470.77
466.928	3477.78
467.3	3508.28
467.672	3532.01
468.045	3671.89
468.417	3619.24
468.789	3656.75
469.161	3739.92
469.534	3806.13
469.906	3871.21
470.278	3915.73
470.65	3958.67
471.022	4030.3
471.394	4107.59
471.766	4099.68
472.138	4182.16
472.51	4237.3
472.882	4335.83
473.253	4366.79
473.625	4414.47
473.997	4510.29
474.369	4573.57
474.74	4579.67
475.112	4687.69
475.484	4696.05
475.855	4796.16
476.227	4790.74
476.598	5002.71
476.97	4995.25
477.341	5129.26
477.713	5191.63
478.084	5215.58
478.455	5369.03
478.827	5361.57
479.198	5519.53
479.569	5538.74
479.94	5667.77
480.311	5750.03
480.682	5876.13
481.053	5990.7
481.424	6082
481.795	6187.08
482.166	6277.02
482.537	6354.54
482.908	6430.47
483.279	6450.35
483.65	6667.52
484.021	6734.41
484.391	6806.28
484.762	6885.6
485.133	6945.71
485.503	7005.59
485.874	7237.9
486.244	7264.79
486.615	7389.09
486.985	7490.55
487.356	7605.12
487.726	7692.35
488.097	7855.06
488.467	7865.23
488.837	8079.69
489.207	8127.6
489.578	8248.72
489.948	8370.53
490.318	8469.28
490.688	8496.63
491.058	8604.42
491.428	8728.71
491.798	8803.29
492.168	9055.93
492.538	9069.49
492.908	9110.62
493.278	9346.1
493.648	9261.8
494.017	9354.23
494.387	9512.65
494.757	9601.91
495.126	9631.51
495.496	9690.27
495.866	9809.13
496.235	9898.4
496.605	9998.28
496.974	10027.89
497.344	10237.15
497.713	10163.7
498.082	10291.16
498.452	10436.46
498.821	10406.86
499.19	10514.43
499.559	10652.95
499.928	10698.83
500.298	10732.05
500.667	10842.33
501.036	10879.39
501.405	11028.99
501.774	10971.36
502.143	11114.41
502.512	11163
502.88	11326.61
503.249	11324.8
503.618	11378.36
503.987	11457.68
504.356	11517.79
504.724	11622.65
505.093	11685.24
505.462	11813.83
505.83	11818.12
506.199	11929.98
506.567	12104.22
506.936	12044.1
507.304	12370.42
507.672	12283.65
508.041	12366.36
508.409	12482.28
508.777	12588.72
509.145	12689.74
509.514	12660.13
509.882	12755.72
510.25	12793.46
510.618	12997.98
510.986	13001.82
511.354	13127.24
511.722	13251.53
512.09	13358.87
512.458	13392.32
512.826	13547.57
513.193	13620.79
513.561	13687.45
513.929	13824.62
514.297	13980.55
514.664	14076.82
515.032	14028.23
515.4	14296.02
515.767	14311.16
516.135	14366.76
516.502	14417.15
516.869	14618.95
517.237	14612.85
517.604	14688.78
517.972	14930.58
518.339	14954.54
518.706	14960.86
519.073	15056.68
519.44	15188.65
519.808	15399.95
520.175	15380.97
520.542	15492.38
520.909	15762.88
521.276	15773.5
521.643	15866.83
522.009	15988.86
522.376	16045.35
522.743	16286.93
523.11	16429.75
523.477	16603.98
523.843	16672.91
524.21	16827.26
524.577	16956.97
524.943	17090.75
525.31	17128.49
525.676	17324.87
526.043	17454.81
526.409	17576.61
526.776	17755.14
527.142	17853.22
527.508	17977.96
527.874	18008.47
528.241	18174.34
528.607	18152.42
528.973	18401.45
529.339	18491.17
529.705	18648.9
530.071	18761.22
530.437	18898.39
530.803	19015.9
531.169	19064.71
531.535	19082.11
531.901	19167.08
532.267	19310.13
532.632	19399.39
532.998	19504.47
533.364	19604.81
533.73	19671.02
534.095	19827.18
534.461	19892.71
534.826	20093.16
535.192	20090.67
535.557	20233.72
535.923	20279.59
536.288	20325.24
536.653	20433.04
537.019	20305.36
537.384	20618.34
537.749	20666.48
538.114	20690.2
538.479	20820.82
538.845	20827.6
539.21	20941.72
539.575	21046.13
539.94	21145.56
540.305	21148.5
540.67	21309.4
541.034	21390.53
541.399	21381.71
541.764	21468.04
542.129	21531.31
542.494	21677.3
542.858	21763.17
543.223	21769.95
543.587	21949.61
543.952	21883.17
544.316	21964.3
544.681	22126.55
545.045	22123.39
545.41	22307.56
545.774	22344.17
546.138	22363.61
546.503	22335.81
546.867	22534.9
547.231	22702.13
547.595	22749.59
547.959	22868.9
548.324	22779.87
548.688	23082.23
549.052	23054.44
549.416	23104.15
549.779	23185.05
550.143	23161.33
550.507	23412.84
550.871	23505.5
551.235	23465.72
551.599	23597.02
551.962	23726.73
552.326	23862.55
552.689	23923.79
553.053	23874.98
553.417	23921.08
553.78	24298.47
554.143	24168.76
554.507	24364.01
554.87	24440.16
555.234	24650.78
555.597	24586.37
555.96	24667.95
556.323	24763.77
556.686	24892.58
557.05	24989.07
557.413	25148.17
557.776	25088.51
558.139	25265.68
558.502	25426.8
558.865	25399.69
559.228	25724.87
559.59	25793.57
559.953	25814.82
560.316	26029.27
560.679	26169.83
561.041	26220.91
561.404	26291.19
561.767	26511.07
562.129	26514.68
562.492	26795.81
562.854	26761.23
563.217	26716.03
563.579	26886.65
563.941	27125.74
564.304	27228.34
564.666	27403.47
565.028	27394.89
565.39	27575.22
565.753	27694.09
566.115	27891.37
566.477	27878.94
566.839	27992.84
567.201	28172.49
567.563	28307.86
567.925	28394.18
568.287	28470.56
568.648	28526.16
569.01	28599.38
569.372	28915.75
569.734	28741.07
570.095	29035.3
570.457	29051.34
570.819	29099.25
571.18	29192.35
571.542	29358.9
571.903	29376.3
572.265	29563.87
572.626	29556.19
572.987	29683.19
573.349	29856.29
573.71	29987.14
574.071	30056.96
574.432	30021.94
574.794	30280.91
575.155	30224.87
575.516	30186.9
575.877	30270.07
576.238	30353
576.599	30374.02
576.96	30377.18
577.32	30575.59
577.681	30653.56
578.042	30811.75
578.403	30779.88
578.763	30824.85
579.124	30794.57
579.485	30984.4
579.845	31066.43
580.206	30970.61
580.566	30948.69
580.927	30990.95
581.287	31106.65
581.648	31102.36
582.008	31235.92
582.368	31140.33
582.728	31224.16
583.089	31209.48
583.449	31178.06
583.809	31309.59
584.169	31310.72
584.529	31170.38
584.889	31542.35
585.249	31347.33
585.609	31202.24
585.969	31577.83
586.329	31332.64
586.688	31374.22
587.048	31353.88
587.408	31359.08
587.768	31384.39
588.127	31283.15
588.487	31404.5
588.846	31589.35
589.206	31343.94
589.565	31451.5
589.925	31592.97
590.284	31348.68
590.643	31388
591.003	31395.23
591.362	31593.65
591.721	31481.79
592.08	31472.75
592.44	31562.24
592.799	31713.64
593.158	31543.25
593.517	31665.96
593.876	31658.28
594.235	31617.6
594.593	31581.44
594.952	31660.09
595.311	31511.84
595.67	31642.91
596.029	31740.99
596.387	31849.01
596.746	31876.58
597.104	31789.35
597.463	31730.37
597.822	31799.52
598.18	31842.68
598.538	31800.19
598.897	31938.04
599.255	31616.92
599.613	32218.71
599.972	31771.72
600.33	31934.88
600.688	31957.25
601.046	31934.65
601.404	32017.14
601.762	32090.36
602.12	32276.57
602.478	32336.9
602.836	32253.74
603.194	32017.36
603.552	32226.62
603.91	32044.93
604.268	32257.36
604.625	32070.24
604.983	32263.23
605.341	32237.25
605.698	32286.06
606.056	32481.53
606.413	32337.58
606.771	32491.25
607.128	32385.94
607.485	32363.12
607.843	32456.22
608.2	32575.32
608.557	32721.3
608.914	32576.22
609.272	32708.42
609.629	32724.01
609.986	32848.75
610.343	32663
610.7	32927.85
611.057	32882.65
611.414	32883.78
611.771	32911.8
612.127	32951.58
612.484	32916.78
612.841	33075.42
613.198	32944.12
613.554	33001.97
613.911	33225.02
614.267	33256.2
614.624	33144.57
614.98	33241.51
615.337	33340.04
615.693	33357.22
616.05	33281.06
616.406	33377.55
616.762	33353.6
617.118	33383.43
617.475	33235.41
617.831	33449.64
618.187	33530.32
618.543	33457.33
618.899	33653.48
619.255	33597.21
619.611	33481.51
619.967	33699.35
620.323	33604.67
620.678	33533.71
621.034	33552.01
621.39	33536.65
621.746	33513.37
622.101	33859.35
622.457	33627.04
622.812	33754.49
623.168	33795.62
623.523	33689.86
623.879	33875.17
624.234	33638.56
624.589	33712.69
624.945	33811.89
625.3	33696.19
625.655	33729.64
626.01	33739.8
626.365	33844.21
626.72	33704.55
627.075	33604.67
627.43	33671.33
627.785	33518.57
628.14	33654.61
628.495	33600.83
628.85	33496.65
629.205	33509.53
629.559	33777.32
629.914	33446.48
630.269	33586.14
630.623	33498.68
630.978	33379.14
631.332	33436.54
631.687	33596.08
632.041	33435.86
632.396	33391.57
632.75	33237.67
633.104	33212.59
633.459	33124.91
633.813	33095.53
634.167	33184.11
634.521	33131.23
634.875	33131.01
635.229	33064.79
635.583	32968.53
635.937	33048.98
636.291	32804.69
636.645	32917.91
636.999	32861.18
637.352	33015.98
637.706	32771.24
638.06	32923.33
638.413	32755.65
638.767	32595.43
639.121	32702.09
639.474	32464.13
639.828	32565.82
640.181	32559.95
640.534	32468.43
640.888	32402.89
641.241	32263.69
641.594	32333.51
641.947	32440.86
642.301	32244.25
642.654	32170.35
643.007	32264.59
643.36	32297.58
643.713	32016.23
644.066	32267.98
644.419	32058.49
644.771	31706.64
645.124	31557.04
645.477	31435.91
645.83	31263.26
646.182	31122.02
646.535	31128.8
646.888	31082.02
647.24	30865.3
647.593	31064.85
647.945	30980.33
648.298	30790.05
648.65	30817.17
649.002	30771.97
649.355	30847.45
649.707	30633.45
650.059	30803.84
650.411	31307.78
650.763	31263.94
651.115	31591.61
651.467	31429.81
651.819	31365.86
652.171	31391.84
652.523	31244.96
652.875	31305.52
653.227	31235.24
653.578	31310.49
653.93	31316.59
654.282	30979.43
654.633	31064.62
654.985	31222.36
655.337	31039.54
655.688	31065.07
656.039	31264.62
656.391	30826.44
656.742	31027.11
657.094	30906.43
657.445	31055.81
657.796	31037.73
658.147	30850.16
658.498	30855.81
658.849	30944.4
659.2	30836.38
659.551	30921.57
659.902	30961.57
660.253	30816.94
660.604	30847.9
660.955	30722.26
661.306	30675.03
661.656	30700.56
662.007	30710.28
662.358	30692.2
662.708	30674.8
663.059	30534.92
663.409	30509.16
663.76	30735.82
664.11	30610.17
664.461	30607.68
664.811	30601.58
665.161	30502.6
665.511	30480.46
665.862	30603.84
666.212	30494.92
666.562	30659.89
666.912	30551.41
667.262	30402.27
667.612	30409.72
667.962	30568.81
668.312	30388.03
668.662	30419.89
669.011	30432.32
669.361	30444.98
669.711	30419.89
670.06	30163.4
670.41	30273.68
670.76	30228.94
671.109	30353.68
671.459	30218.99
671.808	30158.66
672.157	30244.3
672.507	30022.39
672.856	30103.74
673.205	30121.59
673.554	30286.34
673.904	29973.58
674.253	30267.35
674.602	30073.91
674.951	29678.89
675.3	29509.18
675.649	29877.08
675.998	29888.38
676.346	30004.99
676.695	29969.51
677.044	29694.71
677.393	29838.89
677.741	29825.33
678.09	29643.64
678.438	29736.07
678.787	29833.92
679.135	29715.5
679.484	29448.62
679.832	29647.71
680.181	29635.05
680.529	29570.65
680.877	29632.12
681.225	29465.12
681.573	29494.49
681.922	29405.68
682.27	29216.99
682.618	29208.85
682.966	29177.89
683.314	29258.79
683.661	29150.77
684.009	29099.47
684.357	29053.6
684.705	28980.38
685.053	28951
685.4	28924.56
685.748	28734.29
686.095	28768.86
686.443	28676.44
686.79	28548.08
687.138	28711.69
687.485	28673.27
687.832	28454.97
688.18	28508.3
688.527	28339.04
688.874	28221.76
689.221	28217.46
689.568	28188.76
689.915	28091.59
690.262	28124.13
690.609	27990.8
690.956	27972.95
691.303	27888.89
691.65	27779.96
691.997	27804.14
692.344	27797.81
692.69	27682.34
693.037	27725.27
693.383	27381.33
693.73	27500.87
694.077	27321.89
694.423	27389.69
694.769	27276.47
695.116	27122.13
695.462	27181.79
695.808	27056.14
696.155	26912.64
696.501	26794.45
696.847	26736.37
697.193	26521.69
697.539	26708.13
697.885	26629.71
698.231	26413.9
698.577	26406.44
698.923	26354.91
699.269	26196.73
699.614	26074.7
699.96	26154.69
700.306	26089.38
700.651	25933.68
700.997	25897.98
701.342	25833.35
701.688	25877.64
702.033	25663.86
702.379	25690.07
702.724	25701.15
703.069	25719.68
703.415	25336.18
703.76	25413.47
704.105	25329.18
704.45	25374.6
704.795	25138.45
705.14	25183.65
705.485	25048.06
705.83	24950.66
706.175	24978.68
706.52	24939.58
706.865	24846.25
707.209	24806.25
707.554	24694.62
707.899	24716.99
708.243	24477.68
708.588	24550.89
708.932	24268.19
709.277	24289.21
709.621	24374.63
709.966	24197.01
710.31	24314.29
710.654	24030
710.998	24064.13
711.342	24051.25
711.687	23994.52
712.031	23954.75
712.375	23939.16
712.719	23838.6
713.063	23846.96
713.407	23853.29
713.75	23786.39
714.094	23602.22
714.438	23620.75
714.782	23663.01
715.125	23504.14
715.469	23539.85
715.812	23385.73
716.156	23391.6
716.499	23254.66
716.843	23275.9
717.186	23144.83
717.53	23271.61
717.873	23228.67
718.216	23195.68
718.559	23040.88
718.902	22832.52
719.246	23088.11
719.589	22888.56
719.932	22677.95
720.275	22919.3
720.617	22780.32
720.96	22669.36
721.303	22736.03
721.646	22660.55
721.989	22588.69
722.331	22642.24
722.674	22580.32
723.016	22652.19
723.359	22480.21
723.701	22455.58
724.044	22361.57
724.386	22228.24
724.729	22311.4
725.071	22259.65
725.413	22273.67
725.755	22185.98
726.097	22068.47
726.439	22051.75
726.782	22009.04
727.124	22081.81
727.465	21952.09
727.807	21929.27
728.149	21885.43
728.491	21858.08
728.833	21876.39
729.175	21744.19
729.516	21793.68
729.858	21586.68
730.199	21756.17
730.541	21573.12
730.882	21687.92
731.224	21645.21
731.565	21443.18
731.906	21475.95
732.248	21547.58
732.589	21424.87
732.93	21253.58
733.271	21283.41
733.612	21321.15
733.953	21306.69
734.294	21229.17
734.635	21286.12
734.976	21199.8
735.317	21197.54
735.658	21089.97
735.999	21116.86
736.339	21000.25
736.68	21136.97
737.021	21019.46
737.361	20852.91
737.702	21116.18
738.042	20944.21
738.383	20800.94
738.723	20857.21
739.063	20868.5
739.404	20874.61
739.744	20787.83
740.084	20554.39
740.424	20699.24
740.764	20680.04
741.104	20692.69
741.444	20600.04
741.784	20589.87
742.124	20604.11
742.464	20436.88
742.804	20550.1
743.143	20253.61
743.483	20428.29
743.823	20282.31
744.162	20308.29
744.502	20221.29
744.841	20141.52
745.181	20219.71
745.52	20112.37
745.86	20227.39
746.199	20099.94
746.538	20164.79
746.877	20117.11
747.216	20036.89
747.556	19986.04
747.895	20100.39
748.234	20001.64
748.573	19863.56
748.911	19880.06
749.25	19868.76
749.589	19690.46
749.928	19762.32
750.267	19713.51
750.605	19675.77
750.944	19615.88
751.283	19625.6
751.621	19569.78
751.96	19475.32
752.298	19475.55
752.636	19470.35
752.975	19414.76
753.313	19243.01
753.651	19378.15
753.989	19279.62
