Data from White_reflection_standard_FLMS001491_054.txt Node
Date: Tue Feb 07 10:32:06 GMT 2017
User: dcchb
Spectrometer: FLMS00149
Trigger mode: 0
Integration Time (sec): 2.000000E-2
Scans to average: 10
Electric dark correction enabled: true
Nonlinearity correction enabled: false
Boxcar width: 0
XAxis mode: Wavelengths
Number of Pixels in Spectrum: 2048
>>>>>Begin Spectral Data<<<<<
341.393	-5.4
341.776	-5.4
342.16	-5.4
342.543	-48.78
342.927	-61.67
343.31	-67.77
343.693	-70.03
344.077	-69.57
344.46	-54.89
344.843	-44.04
345.226	-35.23
345.61	-22.34
345.993	-7.88
346.376	8.39
346.759	-0.65
347.142	23.08
347.525	48.16
347.908	58.11
348.291	68.28
348.674	71.89
349.057	94.49
349.44	126.35
349.823	141.49
350.206	175.84
350.588	227.37
350.971	266.91
351.354	281.38
351.737	317.53
352.119	289.06
352.502	318.66
352.884	334.93
353.267	339
353.65	334.71
354.032	354.14
354.414	344.65
354.797	371.54
355.179	386.68
355.562	388.72
355.944	379
356.326	387.59
356.709	412.9
357.091	411.32
357.473	405.89
357.855	388.72
358.238	421.03
358.62	403.41
359.002	401.37
359.384	405.44
359.766	418.55
360.148	393.69
360.53	406.12
360.912	403.18
361.294	406.35
361.676	403.18
362.057	426.68
362.439	425.78
362.821	430.75
363.203	425.33
363.584	414.71
363.966	419.45
364.348	417.64
364.729	417.87
365.111	429.85
365.493	412.67
365.874	430.75
366.256	415.84
366.637	414.48
367.019	397.31
367.4	437.3
367.781	418.55
368.163	435.27
368.544	432.33
368.925	428.04
369.306	434.14
369.688	439.11
370.069	447.47
370.45	456.74
370.831	457.19
371.212	446.34
371.593	462.61
371.974	454.71
372.355	473.01
372.736	440.47
373.117	442.28
373.498	472.56
373.879	441.82
374.26	474.14
374.641	436.85
375.021	463.52
375.402	483.86
375.783	483.18
376.163	514.14
376.544	511.43
376.925	487.02
377.305	503.74
377.686	503.07
378.066	521.82
378.447	520.01
378.827	492.9
379.208	525.89
379.588	542.84
379.968	538.55
380.349	540.13
380.729	508.26
381.109	546.23
381.489	534.25
381.87	583.74
382.25	549.84
382.63	574.02
383.01	564.76
383.39	590.97
383.77	569.05
384.15	582.16
384.53	582.84
384.91	594.14
385.29	584.87
385.67	652.89
386.049	626.9
386.429	611.76
386.809	608.15
387.189	637.75
387.568	647.47
387.948	653.57
388.328	679.56
388.707	656.28
389.087	673.46
389.466	699.9
389.846	688.6
390.225	701.25
390.605	702.16
390.984	681.82
391.363	723.4
391.743	730.63
392.122	761.36
392.501	726.79
392.881	747.35
393.26	750.74
393.639	764.08
394.018	759.1
394.397	796.84
394.776	773.34
395.155	791.65
395.534	813.79
395.913	826.45
396.292	807.69
396.671	833.9
397.05	870.97
397.429	863.96
397.808	860.8
398.186	873.68
398.565	896.73
398.944	873
399.323	888.82
399.701	896.5
400.08	901.47
400.458	915.03
400.837	919.33
401.215	934.92
401.594	942.38
401.972	937.4
402.351	976.95
402.729	967.01
403.107	974.47
403.486	981.92
403.864	1002.94
404.242	1020.11
404.62	992.09
404.999	1002.94
405.377	1063.96
405.755	1063.96
406.133	1095.59
406.511	1088.59
406.889	1101.02
407.267	1113.45
407.645	1159.77
408.023	1107.34
408.401	1184.4
408.779	1170.84
409.156	1215.36
409.534	1195.7
409.912	1243.39
410.29	1261.24
410.667	1268.47
411.045	1293.55
411.422	1285.64
411.8	1323.61
412.178	1313.89
412.555	1373.78
412.933	1376.72
413.31	1411.74
413.687	1407.22
414.065	1432.53
414.442	1436.6
414.819	1456.26
415.197	1453.78
415.574	1512.3
415.951	1486.99
416.328	1538.74
416.705	1561.34
417.082	1543.49
417.46	1573.55
417.837	1600.66
418.214	1614.45
418.591	1615.35
418.967	1639.99
419.344	1639.08
419.721	1701.45
420.098	1701.9
420.475	1720.89
420.852	1718.63
421.228	1733.77
421.605	1753.65
421.982	1788.23
422.358	1808.34
422.735	1822.13
423.111	1837.72
423.488	1867.32
423.864	1865.74
424.241	1883.14
424.617	1894.89
424.994	1933.08
425.37	1961.78
425.746	1958.17
426.123	1981.22
426.499	2013.31
426.875	2050.6
427.251	2036.81
427.627	2138.73
428.003	2109.35
428.379	2184.15
428.756	2187.77
429.132	2222.57
429.507	2254.43
429.883	2291.95
430.259	2296.69
430.635	2329.68
431.011	2346.18
431.387	2395.9
431.763	2422.56
432.138	2447.87
432.514	2522.9
432.89	2540.75
433.265	2600.86
433.641	2623.01
434.016	2625.72
434.392	2644.93
434.767	2738.26
435.143	2741.2
435.518	2771.71
435.894	2785.04
436.269	2857.58
436.644	2845.83
437.02	2944.13
437.395	2934.19
437.77	2963.57
438.145	3000.18
438.52	3056.9
438.895	3091.92
439.271	3086.27
439.646	3163.33
440.021	3184.13
440.395	3192.03
440.77	3177.12
441.145	3209.44
441.52	3271.81
441.895	3279.49
442.27	3310.9
442.645	3328.3
443.019	3358.36
443.394	3401.07
443.769	3417.34
444.143	3391.13
444.518	3467.51
444.892	3488.52
445.267	3502.54
445.641	3542.08
446.016	3568.3
446.39	3640.38
446.764	3574.62
447.139	3624.11
447.513	3657.79
447.887	3673.15
448.262	3703.66
448.636	3720.38
449.01	3794.28
449.384	3828.4
449.758	3849.87
450.132	3889.64
450.506	3936.65
450.88	3937.33
451.254	3923.99
451.628	4041.96
452.002	4090.54
452.376	4126.47
452.75	4181.84
453.123	4228.17
453.497	4294.15
453.871	4348.61
454.244	4401.72
454.618	4427.26
454.992	4485.56
455.365	4489.85
455.739	4603.3
456.112	4635.61
456.486	4643.3
456.859	4724.42
457.232	4847.58
457.606	4815.95
457.979	4854.14
458.352	4974.13
458.725	5130.29
459.099	5089.16
459.472	5202.38
459.845	5217.74
460.218	5262.94
460.591	5342.49
460.964	5393.78
461.337	5532.54
461.71	5555.81
462.083	5699.99
462.456	5677.85
462.829	5717.39
463.201	5786.77
463.574	5798.52
463.947	5966.88
464.32	6030.83
464.692	6107.44
465.065	6147.44
465.438	6237.83
465.81	6326.42
466.183	6427.66
466.555	6532.06
466.928	6563.92
467.3	6569.12
467.672	6767.53
468.045	6891.6
468.417	6869
468.789	6958.72
469.161	7088.2
469.534	7143.34
469.906	7370
470.278	7348.99
470.65	7428.53
471.022	7623.78
471.394	7795.3
471.766	7812.93
472.138	7954.4
472.51	8139.7
472.882	8239.36
473.253	8297.66
473.625	8434.38
473.997	8660.14
474.369	8689.74
474.74	8808.16
475.112	8982.39
475.484	9103.29
475.855	9236.62
476.227	9347.35
476.598	9534.69
476.97	9683.16
477.341	9912.76
477.713	10033.44
478.084	10079.54
478.455	10443.82
478.827	10487.66
479.198	10756.36
479.569	10770.37
479.94	11126.97
480.311	11293.74
480.682	11467.52
481.053	11728.08
481.424	11940.51
481.795	12075.42
482.166	12276.99
482.537	12400.61
482.908	12714.95
483.279	12812.57
483.65	13028.16
484.021	13338.21
484.391	13431.54
484.762	13601.93
485.133	13811.42
485.503	13910.4
485.874	14240.11
486.244	14278.75
486.615	14643.03
486.985	14763.71
487.356	15051.38
487.726	15222.23
488.097	15502.45
488.467	15594.87
488.837	15901.08
489.207	15993.05
489.578	16346.04
489.948	16402.99
490.318	16662.64
490.688	16789.42
491.058	17092.23
491.428	17350.31
491.798	17451.32
492.168	17806.34
492.538	17771.76
492.908	18065.54
493.278	18322.48
493.648	18339.43
494.017	18555.25
494.387	18788.01
494.757	18990.49
495.126	19138.51
495.496	19257.38
495.866	19326.53
496.235	19593.19
496.605	19774.88
496.974	19873.63
497.344	20126.5
497.713	20170.57
498.082	20422.09
498.452	20601.97
498.821	20762.65
499.19	20790.67
499.559	21060.72
499.928	21081.96
500.298	21203.31
500.667	21560.14
501.036	21506.13
501.405	21677.88
501.774	21890.3
502.143	22046.45
502.512	22090.97
502.88	22395.82
503.249	22432.88
503.618	22559.89
503.987	22627.23
504.356	22849.82
504.724	23004.85
505.093	23040.78
505.462	23130.95
505.83	23382.01
506.199	23576.81
506.567	23918.72
506.936	23842.79
507.304	24278.26
507.672	24249.56
508.041	24314.42
508.409	24635.09
508.777	24835.31
509.145	24967.96
509.514	24998.47
509.882	25193.04
510.25	25449.75
510.618	25569.3
510.986	25720.03
511.354	25989.63
511.722	26190.53
512.09	26333.12
512.458	26412.44
512.826	26684.07
513.193	26718.2
513.561	26883.16
513.929	27135.13
514.297	27459.42
514.664	27679.53
515.032	27691.5
515.4	27915.9
515.767	28098.95
516.135	28237.03
516.502	28227.08
516.869	28749.33
517.237	28876.33
517.604	28792.72
517.972	29127.85
518.339	29486.48
518.706	29352.25
519.073	29676.31
519.44	29915.17
519.808	30310.64
520.175	30324.65
520.542	30761.71
520.909	30943.62
521.276	30995.6
521.643	31290.5
522.009	31527.11
522.376	31694.34
522.743	31971.39
523.11	32241.21
523.477	32500.19
523.843	32572.51
524.21	33061.53
524.577	33218.59
524.943	33314.63
525.31	33517.79
525.676	33972.47
526.043	34083.2
526.409	34406.58
526.776	34652
527.142	34827.14
527.508	35197.29
527.874	35494.69
528.241	35370.4
528.607	35604.29
528.973	36141.9
529.339	36026.2
529.705	36370.37
530.071	36601.33
530.437	36866.63
530.803	37041.77
531.169	37200.63
531.535	37333.06
531.901	37557.68
532.267	37565.82
532.632	37884.68
532.998	38053.49
533.364	38308.17
533.73	38293.94
534.095	38635.85
534.461	38790.42
534.826	39009.17
535.192	39043.3
535.557	39327.36
535.923	39395.15
536.288	39573
536.653	39797.4
537.019	39776.38
537.384	39953.1
537.749	40306.99
538.114	40205.07
538.479	40313.54
538.845	40497.95
539.21	40498.62
539.575	40727.77
539.94	40829.69
540.305	41151.71
540.67	41055.22
541.034	41337.02
541.399	41532.95
541.764	41631.02
542.129	41709.67
542.494	41890.23
542.858	41995.76
543.223	42108.3
543.587	42271.69
543.952	42437.56
544.316	42383.32
544.681	42447.95
545.045	42679.13
545.41	42951.44
545.774	43099.91
546.138	43084.09
546.503	43173.13
546.867	43282.51
547.231	43651.31
547.595	43775.15
547.959	43968.36
548.324	43991.41
548.688	44079.32
549.052	44230.73
549.416	44314.8
549.779	44494.45
550.143	44482.93
550.507	44906.87
550.871	44925.63
551.235	44847.44
551.599	45307.99
551.962	45355.67
552.326	45572.16
552.689	45756.79
553.053	45508.89
553.417	45840.86
553.78	46415.98
554.143	46151.81
554.507	46393.38
554.87	46448.75
555.234	47029.07
555.597	46851.9
555.96	46966.02
556.323	47086.25
556.686	47144.78
557.05	47421.61
557.413	47560.81
557.776	47723.97
558.139	48086.22
558.502	48050.97
558.865	48142.72
559.228	48400.11
559.59	48576.38
559.953	48639.2
560.316	48992.64
560.679	49081.45
561.041	49318.73
561.404	49358.73
561.767	49721.66
562.129	49607.31
562.492	49991.48
562.854	49900.64
563.217	49982.22
563.579	50146.96
563.941	50350.79
564.304	50561.86
564.666	50810.67
565.028	50810.22
565.39	51035.75
565.753	51178.34
566.115	51315.29
566.477	51416.08
566.839	51482.52
567.201	51673.25
567.563	51832.34
567.925	51984.65
568.287	51955.95
568.648	52138.32
569.01	52223.74
569.372	52436.39
569.734	52447.01
570.095	52614.69
570.457	52698.53
570.819	52774.46
571.18	52832.54
571.542	53079.08
571.903	53037.05
572.265	53162.02
572.626	53244.28
572.987	53278.18
573.349	53371.28
573.71	53517.27
574.071	53579.18
574.432	53730.14
574.794	53879.97
575.155	53859.63
575.516	53719.52
575.877	53864.15
576.238	54001.77
576.599	54119.51
576.96	54144.37
577.32	54151.6
577.681	54245.61
578.042	54345.49
578.403	54337.81
578.763	54405.38
579.124	54421.42
579.485	54505.04
579.845	54519.5
580.206	54487.41
580.566	54561.76
580.927	54499.39
581.287	54687.18
581.648	54605.82
582.008	54753.16
582.368	54674.97
582.728	54789.1
583.089	54727.63
583.449	54697.35
583.809	54768.98
584.169	54721.75
584.529	54707.52
584.889	54966.04
585.249	54767.85
585.609	54671.81
585.969	54783.45
586.329	54773.96
586.688	54831.58
587.048	54843.56
587.408	54779.83
587.768	54790.9
588.127	54793.84
588.487	54773.73
588.846	55000.16
589.206	54771.7
589.565	54763.79
589.925	54942.31
590.284	54830.45
590.643	54863.22
591.003	54953.16
591.362	55016.43
591.721	54954.97
592.08	55064.57
592.44	54972.59
592.799	54980.5
593.158	54944.35
593.517	54935.76
593.876	55024.8
594.235	54953.61
594.593	54990.67
594.952	55068.18
595.311	54937.11
595.67	55072.7
596.029	55194.28
596.387	55251.46
596.746	55272.93
597.104	55100.27
597.463	55066.38
597.822	55183.44
598.18	55144.57
598.538	55164.91
598.897	55349.31
599.255	55052.59
599.613	55499.81
599.972	55250.55
600.33	55344.79
600.688	55242.87
601.046	55369.65
601.404	55408.74
601.762	55359.7
602.12	55547.04
602.478	55459.81
602.836	55479.02
603.194	55423.2
603.552	55453.49
603.91	55360.61
604.268	55515.86
604.625	55430.21
604.983	55597.44
605.341	55463.43
605.698	55662.07
606.056	55631.33
606.413	55650.77
606.771	55698.68
607.128	55702.97
607.485	55601.96
607.843	55690.32
608.2	55805.11
608.557	55908.16
608.914	55732.8
609.272	55942.51
609.629	55994.04
609.986	56083.07
610.343	55909.74
610.7	56111.77
611.057	56047.59
611.414	55966.24
611.771	56082.85
612.127	56150.64
612.484	56212.34
612.841	56256.4
613.198	56194.48
613.554	56187.25
613.911	56337.76
614.267	56289.17
614.624	56242.39
614.98	56323.07
615.337	56390.64
615.693	56344.31
616.05	56377.53
616.406	56520.12
616.762	56346.34
617.118	56415.04
617.475	56390.18
617.831	56525.32
618.187	56409.84
618.543	56549.05
618.899	56689.61
619.255	56602.61
619.611	56555.15
619.967	56604.42
620.323	56734.81
620.678	56538.88
621.034	56495.49
621.39	56504.76
621.746	56467.92
622.101	56783.17
622.457	56569.16
622.812	56637.18
623.168	56702.27
623.523	56605.09
623.879	56716.73
624.234	56518.77
624.589	56632.21
624.945	56614.81
625.3	56644.41
625.655	56668.59
626.01	56636.73
626.365	56763.73
626.72	56605.55
627.075	56620.01
627.43	56614.58
627.785	56535.94
628.14	56624.53
628.495	56636.51
628.85	56602.61
629.205	56537.98
629.559	56638.31
629.914	56508.37
630.269	56526
630.623	56420.69
630.978	56357.64
631.332	56504.31
631.687	56565.55
632.041	56322.39
632.396	56366.23
632.75	56305.44
633.104	56306.12
633.459	56262.05
633.813	56301.82
634.167	56244.2
634.521	56130.53
634.875	56177.76
635.229	56104.54
635.583	55968.5
635.937	55924.21
636.291	55932.12
636.645	55933.02
636.999	55936.64
637.352	56054.83
637.706	55794.72
638.06	55994.94
638.413	55799.24
638.767	55679.02
639.121	55845.57
639.474	55613.93
639.828	55683.76
640.181	55699.35
640.534	55665.91
640.888	55572.13
641.241	55406.48
641.594	55536.87
641.947	55581.62
642.301	55460.49
642.654	55463.43
643.007	55460.49
643.36	55497.33
643.713	55262.08
644.066	55435.86
644.419	55128.52
644.771	55055.3
645.124	54794.97
645.477	54718.36
645.83	54514.08
646.182	54422.1
646.535	54279.05
646.888	54300.07
647.24	54200.86
647.593	54395.43
647.945	54285.61
648.298	54167.87
648.65	54099.62
649.002	53925.16
649.355	54104.82
649.707	54059.4
650.059	54191.6
650.411	54501.65
650.763	54440.86
651.115	54846.04
651.467	54620.96
651.819	54727.18
652.171	54534.41
652.523	54579.84
652.875	54621.64
653.227	54327.64
653.578	54538.71
653.93	54445.38
654.282	54324.7
654.633	54287.41
654.985	54313.18
655.337	54248.09
655.688	54256
656.039	54386.62
656.391	54216
656.742	54129.23
657.094	54114.76
657.445	54217.59
657.796	54124.71
658.147	54155.21
658.498	54098.72
658.849	54145.72
659.2	54019.17
659.551	53940.3
659.902	54074.99
660.253	53966.74
660.604	54005.84
660.955	53893.3
661.306	54034.99
661.656	53963.13
662.007	53949.8
662.358	53911.15
662.708	53877.93
663.059	53839.97
663.409	53659.18
663.76	53806.98
664.11	53837.03
664.461	53921.32
664.811	53828.67
665.161	53812.4
665.511	53687.88
665.862	53710.71
666.212	53820.76
666.562	53829.12
666.912	53664.38
667.262	53551.61
667.612	53711.16
667.962	53580.31
668.312	53529.69
668.662	53698.73
669.011	53589.81
669.361	53493.31
669.711	53493.54
670.06	53393.65
670.41	53389.36
670.76	53282.47
671.109	53402.92
671.459	53351.17
671.808	53362.69
672.157	53407.66
672.507	53192.08
672.856	53242.47
673.205	53218.06
673.554	53242.24
673.904	53117.28
674.253	53353.65
674.602	53289.93
674.951	52782.37
675.3	52610.85
675.649	53135.13
675.998	53105.52
676.346	53066.2
676.695	53174.45
677.044	52860.11
677.393	53007.67
677.741	53030.27
678.09	52980.1
678.438	52912.31
678.787	52844.74
679.135	52854.68
679.484	52717.74
679.832	52767
680.181	52653.79
680.529	52739.21
680.877	52594.8
681.225	52539.89
681.573	52681.81
681.922	52546.22
682.27	52264.42
682.618	52380.8
682.966	52307.35
683.314	52367.01
683.661	52247.92
684.009	52089.96
684.357	51947.81
684.705	51950.98
685.053	52000.92
685.4	51931.54
685.748	51800.25
686.095	51705.11
686.443	51585.11
686.79	51606.35
687.138	51554.83
687.485	51529.75
687.832	51455.85
688.18	51430.54
688.527	51370.2
688.874	51274.84
689.221	51252.24
689.568	51063.54
689.915	50942.42
690.262	51046.6
690.609	50897.22
690.956	50712.59
691.303	50655.19
691.65	50497.91
691.997	50557.79
692.344	50341.53
692.69	50304.02
693.037	50355.54
693.383	50051.14
693.73	50150.57
694.077	49853.63
694.423	49975.44
694.769	49708.1
695.116	49687.31
695.462	49622.45
695.808	49327.77
696.155	49523.02
696.501	49258.85
696.847	49261.56
697.193	49124.16
697.539	49186.98
697.885	48845.98
698.231	48733.44
698.577	48918.97
698.923	48582.93
699.269	48441.69
699.614	48213
699.96	48187.46
700.306	48230.85
700.651	48048.03
700.997	47923.29
701.342	47823.86
701.688	47862.72
702.033	47628.61
702.379	47686.23
702.724	47525.78
703.069	47554.26
703.415	47073.59
703.76	47145.46
704.105	47197.43
704.45	46944.78
704.795	46683.09
705.14	46581.63
705.485	46598.58
705.83	46495.98
706.175	46508.86
706.52	46428.41
706.865	46211.69
707.209	46088.53
707.554	46086.27
707.899	46081.08
708.243	45883.79
708.588	45812.61
708.932	45481.32
709.277	45567.87
709.621	45650.13
709.966	45209.69
710.31	45267.09
710.654	44924.5
710.998	45070.03
711.342	45160.87
711.687	44925.85
712.031	44836.59
712.375	44597.05
712.719	44631.62
713.063	44602.92
713.407	44675.69
713.75	44324.96
714.094	44487.45
714.438	44221.46
714.782	44239.54
715.125	44061.47
715.469	44049.72
715.812	43895.15
716.156	43641.82
716.499	43731.08
716.843	43618.99
717.186	43391.43
717.53	43741.48
717.873	43602.5
718.216	43445.67
718.559	43264.65
718.902	43025.11
719.246	42987.15
719.589	42955.28
719.932	42773.14
720.275	42833.03
720.617	42890.88
720.96	42753.48
721.303	42717.55
721.646	42620.38
721.989	42397.33
722.331	42477.78
722.674	42351.91
723.016	42364.34
723.359	42159.15
723.701	42242.99
724.044	42026.27
724.386	41867.18
724.729	42055.19
725.071	41894.29
725.413	41762.55
725.755	41786.27
726.097	41599.61
726.439	41282.56
726.782	41417.24
727.124	41578.14
727.465	41414.98
727.807	41193.75
728.149	41190.36
728.491	41019.51
728.833	41240.07
729.175	40977.93
729.516	40845.28
729.858	40804.38
730.199	40828.56
730.541	40848.9
730.882	40736.81
731.224	40843.02
731.565	40431.73
731.906	40565.52
732.248	40516.93
732.589	40380.21
732.93	40244.85
733.271	40213.89
733.612	40237.84
733.953	40211.17
734.294	40096.15
734.635	39848.92
734.976	39982.93
735.317	39739.1
735.658	39741.58
735.999	39784.97
736.339	39579.1
736.68	39678.31
737.021	39510.85
737.361	39434.7
737.702	39530.29
738.042	39433.79
738.383	39283.52
738.723	39270.18
739.063	39097.98
739.404	39208.26
739.744	39016.86
740.084	39110.19
740.424	38956.74
740.764	38902.51
741.104	38914.49
741.444	38817.54
741.784	38705.45
742.124	38629.52
742.464	38665.9
742.804	38530.31
743.143	38480.82
743.483	38479.69
743.823	38270.89
744.162	38140.72
744.502	38211.9
744.841	38072.7
745.181	38360.15
745.52	38154.96
745.86	38089.42
746.199	37975.53
746.538	37935.08
746.877	37873.83
747.216	37875.64
747.556	37715.42
747.895	37640.17
748.234	37524.69
748.573	37540.06
748.911	37485.82
749.25	37338.93
749.589	37185.94
749.928	37224.81
750.267	37242.89
750.605	37113.85
750.944	36928.1
751.283	36917.25
751.621	36964.93
751.96	36698.72
752.298	36763.81
