Data from White_paper_FLMS001491_002.txt Node
Date: Tue Feb 07 10:34:34 GMT 2017
User: dcchb
Spectrometer: FLMS00149
Trigger mode: 0
Integration Time (sec): 2.000000E-2
Scans to average: 10
Electric dark correction enabled: true
Nonlinearity correction enabled: false
Boxcar width: 0
XAxis mode: Wavelengths
Number of Pixels in Spectrum: 2048
>>>>>Begin Spectral Data<<<<<
341.393	-5.54
341.776	-5.54
342.16	-5.54
342.543	-48.7
342.927	-55.93
343.31	-57.96
343.693	-75.14
344.077	-63.61
344.46	-70.62
344.843	-58.42
345.226	-52.99
345.61	-15.71
345.993	-11.64
346.376	12.99
346.759	12.09
347.142	44.63
347.525	38.98
347.908	45.08
348.291	60.45
348.674	81.24
349.057	110.62
349.44	131.86
349.823	158.53
350.206	179.09
350.588	227.45
350.971	235.59
351.354	257.28
351.737	268.35
352.119	297.51
352.502	293.66
352.884	324.4
353.267	299.99
353.65	334.12
354.032	343.15
354.414	351.74
354.797	335.25
355.179	342.7
355.562	370.27
355.944	374.34
356.326	363.27
356.709	384.51
357.091	369.37
357.473	377.73
357.855	382.25
358.238	394.45
358.62	346.32
359.002	376.15
359.384	400.1
359.766	398.07
360.148	357.62
360.53	374.57
360.912	360.33
361.294	372.31
361.676	375.24
362.057	384.28
362.439	377.5
362.821	376.15
363.203	368.01
363.584	369.14
363.966	375.47
364.348	365.3
364.729	342.7
365.111	375.7
365.493	379.54
365.874	375.47
366.256	351.97
366.637	360.78
367.019	353.55
367.4	371.18
367.781	361.69
368.163	348.58
368.544	370.5
368.925	353.55
369.306	370.72
369.688	364.4
370.069	394.23
370.45	378.63
370.831	363.04
371.212	358.3
371.593	365.53
371.974	350.84
372.355	363.95
372.736	370.5
373.117	379.76
373.498	371.63
373.879	374.34
374.26	380.22
374.641	367.11
375.021	392.87
375.402	370.72
375.783	391.52
376.163	384.06
376.544	397.62
376.925	402.36
377.305	393.55
377.686	405.75
378.066	401.91
378.447	402.59
378.827	406.88
379.208	394.45
379.588	424.51
379.968	402.59
380.349	412.08
380.729	429.93
381.109	402.59
381.489	413.44
381.87	424.73
382.25	426.32
382.63	433.32
383.01	448.24
383.39	431.97
383.77	422.93
384.15	448.69
384.53	440.78
384.91	434.9
385.29	459.54
385.67	451.85
386.049	473.55
386.429	446.88
386.809	451.4
387.189	467.45
387.568	485.98
387.948	451.17
388.328	502.7
388.707	486.65
389.087	482.59
389.466	475.35
389.846	497.5
390.225	480.55
390.605	472.42
390.984	511.06
391.363	513.77
391.743	521.68
392.122	514.68
392.501	532.75
392.881	534.34
393.26	531.17
393.639	538.18
394.018	550.61
394.397	568.69
394.776	571.62
395.155	563.49
395.534	562.36
395.913	554.22
396.292	573.21
396.671	582.02
397.05	598.97
397.429	591.74
397.808	607.1
398.186	606.42
398.565	627.44
398.944	615.24
399.323	615.46
399.701	615.69
400.08	622.7
400.458	641.68
400.837	620.89
401.215	657.95
401.594	679.42
401.972	668.34
402.351	711.73
402.729	705.41
403.107	719.87
403.486	714.67
403.864	723.03
404.242	732.3
404.62	731.39
404.999	765.29
405.377	779.98
405.755	802.58
406.133	804.16
406.511	810.04
406.889	831.96
407.267	886.64
407.645	841.45
408.023	900.65
408.401	916.25
408.779	922.35
409.156	975.45
409.534	957.6
409.912	971.84
410.29	1036.7
410.667	1033.98
411.045	1060.42
411.422	1099.07
411.8	1134.55
412.178	1127.09
412.555	1166.18
412.933	1194.88
413.31	1223.13
413.687	1276.92
414.065	1303.13
414.442	1319.17
414.819	1337.93
415.197	1349
415.574	1410.7
415.951	1389
416.328	1454.31
416.705	1459.51
417.082	1486.85
417.46	1527.76
417.837	1558.49
418.214	1615.89
418.591	1594.65
418.967	1611.6
419.344	1641.88
419.721	1697.02
420.098	1692.27
420.475	1717.13
420.852	1753.29
421.228	1780.86
421.605	1802.1
421.982	1814.98
422.358	1856.34
422.735	1909.22
423.111	1841.19
423.488	1954.86
423.864	1940.85
424.241	1984.47
424.617	2002.09
424.994	2052.71
425.37	2041.19
425.746	2052.04
426.123	2088.87
426.499	2116.67
426.875	2137.23
427.251	2225.59
427.627	2264.91
428.003	2275.76
428.379	2285.25
428.756	2344.46
429.132	2391.91
429.507	2389.43
429.883	2415.19
430.259	2470.56
430.635	2495.64
431.011	2512.82
431.387	2576.99
431.763	2633.04
432.138	2623.55
432.514	2706.26
432.89	2714.62
433.265	2789.19
433.641	2876.87
434.016	2831.68
434.392	2885.23
434.767	2937.21
435.143	2936.53
435.518	2991.67
435.894	3006.36
436.269	3108.28
436.644	3121.61
437.02	3144.66
437.395	3166.36
437.77	3216.75
438.145	3254.26
438.52	3309.18
438.895	3329.97
439.271	3353.02
439.646	3434.15
440.021	3443.86
440.395	3488.61
440.77	3454.26
441.145	3499.68
441.52	3545.78
441.895	3600.92
442.27	3583.97
442.645	3627.14
443.019	3678.66
443.394	3659.9
443.769	3709.39
444.143	3726.34
444.518	3794.14
444.892	3720.24
445.267	3747.59
445.641	3833.23
446.016	3827.81
446.39	3852.22
446.764	3898.09
447.139	3863.06
447.513	3962.95
447.887	3950.74
448.262	3960.46
448.636	4000.23
449.01	4050.18
449.384	4085.43
449.758	4099.89
450.132	4112.1
450.506	4182.15
450.88	4178.31
451.254	4204.97
451.628	4293.56
452.002	4310.28
452.376	4385.99
452.75	4412.43
453.123	4425.99
453.497	4535.81
453.871	4542.82
454.244	4609.03
454.618	4610.16
454.992	4719.08
455.365	4736.94
455.739	4810.16
456.112	4823.04
456.486	4894.9
456.859	4935.58
457.232	5059.19
457.606	5037.72
457.979	5107.32
458.352	5182.12
458.725	5277.04
459.099	5310.26
459.472	5426.41
459.845	5469.8
460.218	5493.08
460.591	5573.3
460.964	5633.19
461.337	5727.65
461.71	5813.75
462.083	5858.94
462.456	5889.9
462.829	5924.93
463.201	6096.9
463.574	6020.52
463.947	6156.34
464.32	6269.55
464.692	6303.68
465.065	6399.04
465.438	6455.99
465.81	6595.87
466.183	6644.68
466.555	6795.64
466.928	6835.64
467.3	6900.95
467.672	6928.74
468.045	7064.33
468.417	7152.47
468.789	7217.32
469.161	7324.67
469.534	7418.9
469.906	7568.5
470.278	7598.56
470.65	7690.08
471.022	7844.2
471.394	8066.79
471.766	8120.35
472.138	8117.19
472.51	8339.1
472.882	8518.76
473.253	8561.02
473.625	8685.53
473.997	8886.21
474.369	8945.41
474.74	9027.22
475.112	9188.12
475.484	9351.51
475.855	9464.72
476.227	9609.13
476.598	9772.96
476.97	9957.37
477.341	10135.21
477.713	10292.27
478.084	10325.94
478.455	10628.31
478.827	10753.5
479.198	11128.18
479.569	11036.88
479.94	11461.28
480.311	11433.26
480.682	11659.47
481.053	11930.65
481.424	12140.13
481.795	12278.21
482.166	12433.91
482.537	12592.32
482.908	12844.75
483.279	13071.18
483.65	13164.96
484.021	13408.35
484.391	13610.6
484.762	13712.75
485.133	13892.86
485.503	14039.74
485.874	14405.38
486.244	14494.2
486.615	14774.19
486.985	14924.92
487.356	15208.98
487.726	15322.87
488.097	15636.99
488.467	15773.03
488.837	16015.51
489.207	16136.64
489.578	16378.21
489.948	16468.61
490.318	16806.45
490.688	16846.68
491.058	17088.03
491.428	17377.06
491.798	17445.3
492.168	17730.04
492.538	17920.55
492.908	18066.3
493.278	18339.29
493.648	18291.16
494.017	18562.34
494.387	18725.5
494.757	18859.5
495.126	19116.45
495.496	19171.59
495.866	19370.23
496.235	19489.77
496.605	19619.26
496.974	19851.34
497.344	19853.6
497.713	20070.32
498.082	20216.53
498.452	20415.17
498.821	20499.46
499.19	20616.52
499.559	20800.92
499.928	20983.97
500.298	21030.07
500.667	21301.7
501.036	21317.74
501.405	21390.06
501.774	21469.6
502.143	21699.88
502.512	21714.34
502.88	22076.82
503.249	21980.78
503.618	22152.98
503.987	22279.98
504.356	22398.39
504.724	22602.91
505.093	22710.93
505.462	22743.24
505.83	23034.76
506.199	23126.51
506.567	23401.98
506.936	23380.74
507.304	23710.45
507.672	23781.18
508.041	23910.22
508.409	24013.27
508.777	24160.61
509.145	24400.83
509.514	24483.09
509.882	24683.31
510.25	24726.69
510.618	24942.28
510.986	24944.54
511.354	25251.43
511.722	25432.66
512.09	25728.25
512.458	25630.85
512.826	25911.75
513.193	26027.45
513.561	26011.86
513.929	26365.97
514.297	26679.64
514.664	26751.5
515.032	26819.29
515.4	27077.59
515.767	27152.17
516.135	27339.96
516.502	27223.13
516.869	27707.41
517.237	27902.66
517.604	27819.95
517.972	28127.28
518.339	28261.29
518.706	28241.4
519.073	28420.83
519.44	28746.25
519.808	28991.22
520.175	28997.99
520.542	29292
520.909	29490.19
521.276	29553.01
521.643	29901.02
522.009	29959.78
522.376	30221.92
522.743	30525.41
523.11	30792.3
523.477	30976.02
523.843	31080.43
524.21	31355.45
524.577	31582.33
524.943	31841.08
525.31	31877.01
525.676	32290.34
526.043	32380.96
526.409	32526.72
526.776	32955.63
527.142	32881.06
527.508	33183.2
527.874	33357.2
528.241	33645.56
528.607	33842.39
528.973	34009.39
529.339	34124.19
529.705	34362.6
530.071	34724.4
530.437	34857.28
530.803	35009.81
531.169	35193.99
531.535	35246.64
531.901	35304.27
532.267	35485.06
532.632	35810.7
532.998	35884.59
533.364	36216.34
533.73	36249.1
534.095	36579.49
534.461	36585.37
534.826	36762.31
535.192	36896.32
535.557	37181.96
535.923	37162.98
536.288	37432.35
536.653	37564.77
537.019	37430.77
537.384	37858.78
537.749	37941.94
538.114	38118.66
538.479	38125.44
538.845	38285.43
539.21	38206.34
539.575	38393.68
539.94	38527.46
540.305	38815.14
540.67	38753.22
541.034	39008.13
541.399	39206.99
541.764	39323.15
542.129	39500.54
542.494	39510.49
542.858	39648.34
543.223	39654.44
543.587	39930.14
543.952	40042.9
544.316	40209.45
544.681	40163.35
545.045	40448.31
545.41	40626.84
545.774	40683.79
546.138	40667.74
546.503	41003.1
546.867	40878.36
547.231	41363.32
547.595	41381.62
547.959	41395.18
548.324	41526.03
548.688	41606.7
549.052	41895.06
549.416	41885.79
549.779	42006.01
550.143	42096.18
550.507	42420.24
550.871	42454.14
551.235	42511.99
551.599	42888.48
551.962	42771.64
552.326	42879.66
552.689	43221.8
553.053	43014.35
553.417	43195.36
553.78	43636.93
554.143	43470.16
554.507	43704.73
554.87	43860.65
555.234	44238.72
555.597	44013.87
555.96	44326.63
556.323	44479.62
556.686	44450.7
557.05	44907.63
557.413	44941.08
557.776	44962.55
558.139	45242.54
558.502	45343.1
558.865	45440.27
559.228	45753.26
559.59	45814.73
559.953	45852.47
560.316	46351.89
560.679	46271.89
561.041	46520.25
561.404	46642.05
561.767	47060.12
562.129	46778.54
562.492	47252.43
562.854	47152.09
563.217	47266.21
563.579	47488.81
563.941	47721.57
564.304	47855.35
564.666	48024.16
565.028	48117.72
565.39	48319.97
565.753	48499.63
566.115	48540.08
566.477	48768.1
566.839	48889
567.201	49107.75
567.563	49120.18
567.925	49303.9
568.287	49432.03
568.648	49509.77
569.01	49698.69
569.372	49977.78
569.734	49870.21
570.095	50076.99
570.457	50304.78
570.819	50334.16
571.18	50314.5
571.542	50644.88
571.903	50589.29
572.265	50851.21
572.626	50860.24
572.987	51038.32
573.349	51123.97
573.71	51201.7
574.071	51385.88
574.432	51457.74
574.794	51659.77
575.155	51576.38
575.516	51548.81
575.877	51688.47
576.238	51848.24
576.599	51968.69
576.96	51997.84
577.32	52086.43
577.681	52125.75
578.042	52307.66
578.403	52271.28
578.763	52340.88
579.124	52390.15
579.485	52544.27
579.845	52616.13
580.206	52493.2
580.566	52621.55
580.927	52671.72
581.287	52708.78
581.648	52633.31
582.008	52845.96
582.368	52870.14
582.728	52882.79
583.089	52938.83
583.449	52878.72
583.809	52990.81
584.169	53030.13
584.529	52947.65
584.889	53183.35
585.249	53036.68
585.609	52948.33
585.969	53165.72
586.329	53036.23
586.688	53246.4
587.048	53174.76
587.408	53109.45
587.768	53187.19
588.127	53180.86
588.487	53171.82
588.846	53424.92
589.206	53052.05
589.565	53236.45
589.925	53335.21
590.284	53291.59
590.643	53367.52
591.003	53360.52
591.362	53610.68
591.721	53418.6
592.08	53477.35
592.44	53591.02
592.799	53627.86
593.158	53442.78
593.517	53607.74
593.876	53616.1
594.235	53565.48
594.593	53598.7
594.952	53626.05
595.311	53593.05
595.67	53606.16
596.029	53797.57
596.387	53833.95
596.746	53932.93
597.104	53716.44
597.463	53773.84
597.822	53931.35
598.18	53802.77
598.538	53812.71
598.897	53956.43
599.255	53765.7
599.613	54099.71
599.972	53996.43
600.33	54063.32
600.688	53901.29
601.046	53997.34
601.404	54116.88
601.762	54118.69
602.12	54147.84
602.478	54291.34
602.836	54223.55
603.194	54122.31
603.552	54167.73
603.91	54141.06
604.268	54313.04
604.625	54184.68
604.983	54332.7
605.341	54176.54
605.698	54386.03
606.056	54403.88
606.413	54374.5
606.771	54468.74
607.128	54520.49
607.485	54350.1
607.843	54477.78
608.2	54557.77
608.557	54576.08
608.914	54539.92
609.272	54694.27
609.629	54707.6
609.986	54808.84
610.343	54611.78
610.7	54861.72
611.057	54878.67
611.414	54850.2
611.771	54829.41
612.127	55001.38
612.484	54915.28
612.841	54976.97
613.198	54947.59
613.554	54870.99
613.911	55080.7
614.267	55061.49
614.624	55035.28
614.98	55048.38
615.337	55196.18
615.693	55102.17
616.05	55077.08
616.406	55274.37
616.762	55190.98
617.118	55158.66
617.475	55188.04
617.831	55240.92
618.187	55322.95
618.543	55330.86
618.899	55449.05
619.255	55389.39
619.611	55338.77
619.967	55481.59
620.323	55523.4
620.678	55503.29
621.034	55323.63
621.39	55372.44
621.746	55375.38
622.101	55658.08
622.457	55441.82
622.812	55433.23
623.168	55522.95
623.523	55502.16
623.879	55597.3
624.234	55351.2
624.589	55511.42
624.945	55616.28
625.3	55535.15
625.655	55561.59
626.01	55482.95
626.365	55506.22
626.72	55574.24
627.075	55527.01
627.43	55510.07
627.785	55434.81
628.14	55481.14
628.495	55493.12
628.85	55459.45
629.205	55451.54
629.559	55625.09
629.914	55444.76
630.269	55509.16
630.623	55447.47
630.978	55320.01
631.332	55559.33
631.687	55541.48
632.041	55391.88
632.396	55528.14
632.75	55442.05
633.104	55413.57
633.459	55342.61
633.813	55321.37
634.167	55324.99
634.521	55273.91
634.875	55358.66
635.229	55362.27
635.583	55165.67
635.937	55209.51
636.291	55223.52
636.645	55201.37
636.999	55150.3
637.352	55205.22
637.706	55036.41
638.06	55192.33
638.413	55144.2
638.767	55062.85
639.121	55126.12
639.474	54955.73
639.828	54984.66
640.181	55066.01
640.534	55080.02
640.888	54955.28
641.241	54892.68
641.594	54865.79
641.947	54984.2
642.301	54914.15
642.654	55011.55
643.007	54949.18
643.36	54910.31
643.713	54876.64
644.066	54863.98
644.419	54780.82
644.771	54565.68
645.124	54285.69
645.477	54364.11
645.83	54120.95
646.182	53987.17
646.535	54076.43
646.888	54038.92
647.24	53859.26
647.593	54059.03
647.945	53987.17
648.298	53849.32
648.65	53841.64
649.002	53735.2
649.355	53894.97
649.707	53791.92
650.059	53931.8
650.411	54301.51
650.763	54398.68
651.115	54620.15
651.467	54527.04
651.819	54488.62
652.171	54432.13
652.523	54389.42
652.875	54386.03
653.227	54307.16
653.578	54510.54
653.93	54465.12
654.282	54278.91
654.633	54231.46
654.985	54215.41
655.337	54301.96
655.688	54209.31
656.039	54332.02
656.391	54129.99
656.742	54212.02
657.094	54232.59
657.445	54327.5
657.796	54258.35
658.147	54200.72
658.498	54160.95
658.849	54235.75
659.2	54118.69
659.551	54065.36
659.902	54318.91
660.253	54084.11
660.604	54173.38
660.955	54032.14
661.306	54151.23
661.656	54076.66
662.007	54040.73
662.358	54061.06
662.708	54064.68
663.059	54006.15
663.409	53893.16
663.76	54028.3
664.11	54025.81
664.461	54139.48
664.811	53949.65
665.161	54009.31
665.511	53874.85
665.862	54020.84
666.212	53996.43
666.562	53946.49
666.912	53896.1
667.262	53934.06
667.612	53994.85
667.962	53944.46
668.312	53856.1
668.662	54019.94
669.011	53942.2
669.361	53854.29
669.711	53809.55
670.06	53739.72
670.41	53652.49
670.76	53662.43
671.109	53804.8
671.459	53756.44
671.808	53668.31
672.157	53690.68
672.507	53468.31
672.856	53490.23
673.205	53492.94
673.554	53617.69
673.904	53532.72
674.253	53737.46
674.602	53536.11
674.951	53125.27
675.3	52852.73
675.649	53463.79
675.998	53397.13
676.346	53383.12
676.695	53478.25
677.044	53281.2
677.393	53372.27
677.741	53338.6
678.09	53167.53
678.438	53234.42
678.787	53212.05
679.135	53177.7
679.484	52946.29
679.832	53014.31
680.181	52921.21
680.529	53033.52
680.877	52889.12
681.225	52831.27
681.573	53019.96
681.922	52768.22
682.27	52658.62
682.618	52624.72
682.966	52593.53
683.314	52583.82
683.661	52490.94
684.009	52330.94
684.357	52275.57
684.705	52225.63
685.053	52230.38
685.4	52149.48
685.748	52054.79
686.095	52015.24
686.443	51991.29
686.79	51810.73
687.138	51859.99
687.485	51853.66
687.832	51721.24
688.18	51701.58
688.527	51462.94
688.874	51529.83
689.221	51459.78
689.568	51378.65
689.915	51218.88
690.262	51277.41
690.609	51073.57
690.956	50899.57
691.303	51053.91
691.65	50906.57
691.997	50787.25
692.344	50660.7
692.69	50493.7
693.037	50498.45
693.383	50208.74
693.73	50458.22
694.077	50234.95
694.423	50224.1
694.769	50133.94
695.116	49859.59
695.462	50060.04
695.808	49860.95
696.155	49902.53
696.501	49513.39
696.847	49548.87
697.193	49311.81
697.539	49427.74
697.885	49173.06
698.231	49162.89
698.577	49096.22
698.923	49047.41
699.269	48857.13
699.614	48590.02
699.96	48518.84
700.306	48596.8
700.651	48494.88
700.997	48250.37
701.342	48264.61
701.688	48263.93
702.033	48041.56
702.379	48124.95
702.724	48008.34
703.069	48005.86
703.415	47630.73
703.76	47456.72
704.105	47507.56
704.45	47406.32
704.795	47228.02
705.14	47179.89
705.485	47130.63
705.83	46944.42
706.175	47058.31
706.52	46754.82
706.865	46798.43
707.209	46718.21
707.554	46424.2
707.899	46640.92
708.243	46440.47
708.588	46408.16
708.932	46052.46
709.277	46132.01
709.621	46070.09
709.966	45808.85
710.31	45824.9
710.654	45508.75
710.998	45729.98
711.342	45585.81
711.687	45537.9
712.031	45390.56
712.375	45274.63
712.719	45225.36
713.063	45135.42
713.407	45325.93
713.75	45023.79
714.094	45055.65
714.438	44851.59
714.782	44936.78
715.125	44608.66
715.469	44664.25
715.812	44491.6
716.156	44313.98
716.499	44287.54
716.843	44348.78
717.186	44094.09
717.53	44394.2
717.873	44300.42
718.216	44129.8
718.559	44047.77
718.902	43682.35
719.246	43868.79
719.589	43547.22
719.932	43623.82
720.275	43599.42
720.617	43510.38
720.96	43429.48
721.303	43391.29
721.646	43348.13
721.989	43096.83
722.331	43179.54
722.674	43178.86
723.016	43164.63
723.359	43063.61
723.701	43135.48
724.044	42710.4
724.386	42624.3
724.729	42781.81
725.071	42653.68
725.413	42561.48
725.755	42523.97
726.097	42488.49
726.439	42345.21
726.782	42348.83
727.124	42471.76
727.465	42214.14
727.807	42217.08
728.149	42176.63
728.491	42062.51
728.833	42111.55
729.175	41979.35
729.516	41890.76
729.858	41763.99
730.199	41924.89
730.541	41759.24
730.882	41714.27
731.224	41767.83
731.565	41475.41
731.906	41686.47
732.248	41571.9
732.589	41356.77
732.93	41257.56
733.271	41246.49
733.612	41326.94
733.953	41261.4
734.294	41116.32
734.635	40910.9
734.976	41131.46
735.317	41020.5
735.658	40841.75
735.999	40846.5
736.339	40732.15
736.68	40888.98
737.021	40809.21
737.361	40567.41
737.702	40831.58
738.042	40564.24
738.383	40635.2
738.723	40541.87
739.063	40373.51
739.404	40336.23
739.744	40244.48
740.084	40249
740.424	40113.18
740.764	40121.77
741.104	40219.85
741.444	39952.96
741.784	39963.13
742.124	40097.14
742.464	39842.68
742.804	39940.08
743.143	39771.5
743.483	39832.74
743.823	39513.88
744.162	39514.55
744.502	39584.61
744.841	39411.05
745.181	39558.17
745.52	39360.21
745.86	39479.07
746.199	39185.75
746.538	39404.95
746.877	39288.12
747.216	39273.88
747.556	39197.73
747.895	39091.06
748.234	38958.64
748.573	38989.82
748.911	38939.2
749.25	38870.73
749.589	38638.19
749.928	38787.12
750.267	38729.26
750.605	38548.25
750.944	38481.59
751.283	38373.57
751.621	38492.21
751.96	38154.82
752.298	38230.52
752.636	38364.75
752.975	38095.83
