Data from whiteboard_FLMS001491_00073.txt Node
Date: Wed Feb 08 11:28:02 GMT 2017
User: dcchb
Spectrometer: FLMS00149
Trigger mode: 0
Integration Time (sec): 2.000000E-2
Scans to average: 10
Electric dark correction enabled: true
Nonlinearity correction enabled: false
Boxcar width: 0
XAxis mode: Wavelengths
Number of Pixels in Spectrum: 2048
>>>>>Begin Spectral Data<<<<<
341.393	1.2
341.776	1.2
342.16	1.2
342.543	-71.34
342.927	-78.35
343.31	-63.66
343.693	-65.01
344.077	-50.78
344.46	-72.92
344.843	-53.94
345.226	-34.28
345.61	-40.38
345.993	-32.7
346.376	-3.32
346.759	-4.45
347.142	33.52
347.525	43.01
347.908	81.65
348.291	72.39
348.674	90.01
349.057	100.86
349.44	116.45
349.823	164.13
350.206	152.16
350.588	219.95
350.971	235.09
351.354	245.71
351.737	276.9
352.119	283.68
352.502	306.28
352.884	296.56
353.267	337.24
353.65	340.85
354.032	321.19
354.414	350.57
354.797	337.24
355.179	377.46
355.562	377.91
355.944	361.19
356.326	362.55
356.709	365.03
357.091	389.89
357.473	393.73
357.855	379.27
358.238	383.56
358.62	385.15
359.002	390.34
359.384	379.95
359.766	372.72
360.148	374.98
360.53	354.41
360.912	400.74
361.294	377.01
361.676	362.55
362.057	358.03
362.439	364.81
362.821	372.04
363.203	369.1
363.584	354.41
363.966	379.72
364.348	367.74
364.729	355.09
365.111	362.09
365.493	361.19
365.874	344.24
366.256	377.01
366.637	355.09
367.019	370.91
367.4	356.22
367.781	366.39
368.163	347.18
368.544	341.98
368.925	380.17
369.306	363.68
369.688	362.09
370.069	362.77
370.45	364.81
370.831	359.16
371.212	353.73
371.593	360.74
371.974	357.8
372.355	379.04
372.736	365.48
373.117	364.81
373.498	374.52
373.879	369.78
374.26	373.17
374.641	353.73
375.021	364.81
375.402	374.52
375.783	391.25
376.163	384.92
376.544	397.35
376.925	386.5
377.305	383.34
377.686	377.46
378.066	395.09
378.447	386.5
378.827	401.42
379.208	408.65
379.588	408.42
379.968	394.86
380.349	396.22
380.729	412.04
381.109	414.97
381.489	411.36
381.87	419.27
382.25	439.38
382.63	404.13
383.01	422.88
383.39	424.69
383.77	411.59
384.15	434.64
384.53	414.07
384.91	444.35
385.29	447.52
385.67	440.29
386.049	441.87
386.429	427.86
386.809	450.91
387.189	451.36
387.568	470.79
387.948	467.85
388.328	466.5
388.707	469.21
389.087	466.73
389.466	489.55
389.846	482.32
390.225	473.5
390.605	525.48
390.984	510.57
391.363	523.22
391.743	501.3
392.122	507.63
392.501	521.86
392.881	506.27
393.26	515.76
393.639	560.51
394.018	527.29
394.397	552.37
394.776	557.8
395.155	596.21
395.534	569.77
395.913	580.62
396.292	617
396.671	607.06
397.05	612.48
397.429	616.1
397.808	609.09
398.186	633.05
398.565	652.93
398.944	649.09
399.323	655.42
399.701	664.69
400.08	672.6
400.458	677.57
400.837	703.1
401.215	710.79
401.594	735.64
401.972	733.16
402.351	756.66
402.729	776.32
403.107	769.54
403.486	797.34
403.864	793.27
404.242	817.68
404.62	814.29
404.999	833.04
405.377	848.86
405.755	848.64
406.133	892.7
406.511	911.23
406.889	921.18
407.267	933.38
407.645	955.98
408.023	960.72
408.401	1005.92
408.779	1033.94
409.156	1049.31
409.534	1043.66
409.912	1075.3
410.29	1128.18
410.667	1129.08
411.045	1135.63
411.422	1160.72
411.8	1194.84
412.178	1236.2
412.555	1239.36
412.933	1258.79
413.31	1275.29
413.687	1323.2
414.065	1323.2
414.442	1345.8
414.819	1343.09
415.197	1363.2
415.574	1391.45
415.951	1434.84
416.328	1440.03
416.705	1460.82
417.082	1473.48
417.46	1533.36
417.837	1512.8
418.214	1532.69
418.591	1549.41
418.967	1579.46
419.344	1605
419.721	1631.89
420.098	1634.38
420.475	1645.23
420.852	1659.01
421.228	1700.82
421.605	1714.83
421.982	1750.99
422.358	1762.74
422.735	1784.66
423.111	1781.94
423.488	1863.52
423.864	1837.08
424.241	1863.75
424.617	1883.18
424.994	1895.61
425.37	1934.48
425.746	1930.42
426.123	1987.14
426.499	1988.04
426.875	2029.85
427.251	2059.68
427.627	2116.85
428.003	2131.09
428.379	2167.25
428.756	2172.44
429.132	2201.37
429.507	2237.53
429.883	2260.12
430.259	2306
430.635	2348.71
431.011	2316.85
431.387	2397.75
431.763	2467.12
432.138	2477.97
432.514	2485.65
432.89	2519.33
433.265	2575.82
433.641	2602.49
434.016	2634.58
434.392	2663.05
434.767	2753.9
435.143	2703.5
435.518	2766.55
435.894	2780.79
436.269	2838.64
436.644	2861.24
437.02	2892.88
437.395	2928.36
437.77	2988.47
438.145	3004.06
438.52	3054.45
438.895	3045.64
439.271	3066.66
439.646	3163.6
440.021	3167.22
440.395	3187.33
440.77	3167.44
441.145	3207.67
441.52	3264.17
441.895	3272.75
442.27	3310.04
442.645	3310.04
443.019	3341.68
443.394	3373.09
443.769	3413.99
444.143	3382.58
444.518	3491.28
444.892	3435.01
445.267	3464.61
445.641	3542.58
446.016	3539.41
446.39	3567.21
446.764	3606.98
447.139	3583.25
447.513	3618.51
447.887	3656.92
448.262	3658.05
448.636	3748.45
449.01	3788.45
449.384	3787.09
449.758	3787.32
450.132	3854.66
450.506	3912.28
450.88	3940.76
451.254	3911.38
451.628	3944.83
452.002	4020.53
452.376	4054.65
452.75	4122.9
453.123	4154.54
453.497	4218.26
453.871	4256.23
454.244	4372.61
454.618	4372.16
454.992	4430.69
455.365	4402.89
455.739	4557.69
456.112	4616.45
456.486	4689.66
456.859	4695.54
457.232	4783.9
457.606	4777.35
457.979	4812.83
458.352	4980.73
458.725	5047.85
459.099	5034.97
459.472	5138.01
459.845	5144.12
460.218	5244.23
460.591	5263.89
460.964	5295.98
461.337	5441.28
461.71	5514.28
462.083	5616.87
462.456	5620.26
462.829	5632.46
463.201	5766.47
463.574	5720.82
463.947	5870.65
464.32	5975.28
464.692	6047.82
465.065	6058.89
465.438	6188.38
465.81	6281.26
466.183	6319
466.555	6434.7
466.928	6480.8
467.3	6476.74
467.672	6614.81
468.045	6822.72
468.417	6795.6
468.789	6867.23
469.161	6918.98
469.534	7085.31
469.906	7210.5
470.278	7247.11
470.65	7317.62
471.022	7523.04
471.394	7622.24
471.766	7700.66
472.138	7788.57
472.51	7966.19
472.882	8085.73
473.253	8172.96
473.625	8266.07
473.997	8528.66
474.369	8519.17
474.74	8614.31
475.112	8851.36
475.484	8992.15
475.855	9057.91
476.227	9171.81
476.598	9427.17
476.97	9490.89
477.341	9781.73
477.713	9873.48
478.084	9909.41
478.455	10189.86
478.827	10226.92
479.198	10580.13
479.569	10648.15
479.94	10921.82
480.311	10987.8
480.682	11225.76
481.053	11459.88
481.424	11657.17
481.795	11768.35
482.166	11959.3
482.537	12183.48
482.908	12300.31
483.279	12522.45
483.65	12720.64
484.021	12988.66
484.391	13170.12
484.762	13204.24
485.133	13442.2
485.503	13593.84
485.874	13963.09
486.244	14016.2
486.615	14333.48
486.985	14382.74
487.356	14690.08
487.726	14822.96
488.097	15147.69
488.467	15175.04
488.837	15447.57
489.207	15691.86
489.578	15909.48
489.948	16092.3
490.318	16234.9
490.688	16312.86
491.058	16613.19
491.428	16803.47
491.798	16977.25
492.168	17331.82
492.538	17369.78
492.908	17627.4
493.278	17882.54
493.648	17824.23
494.017	18049.54
494.387	18222.64
494.757	18428.51
495.126	18668.05
495.496	18560.71
495.866	18870.31
496.235	19071.21
496.605	19177.19
496.974	19288.83
497.344	19449.28
497.713	19546.9
498.082	19726.11
498.452	19896.95
498.821	19915.48
499.19	20039.77
499.559	20269.14
499.928	20420.55
500.298	20570.6
500.667	20730.6
501.036	20834.78
501.405	20949.58
501.774	21002
502.143	21360.64
502.512	21322.9
502.88	21629.11
503.249	21596.34
503.618	21805.37
503.987	21891.47
504.356	22006.05
504.724	22191.35
505.093	22168.75
505.462	22395.87
505.83	22573.71
506.199	22738.46
506.567	23075.17
506.936	22935.51
507.304	23352
507.672	23464.76
508.041	23498.21
508.409	23604.87
508.777	23929.61
509.145	24053.68
509.514	24002.15
509.882	24267.46
510.25	24333.44
510.618	24545.64
510.986	24653.89
511.354	24859.08
511.722	25035.34
512.09	25386.52
512.458	25385.17
512.826	25606.85
513.193	25637.36
513.561	25810.01
513.929	26038.93
514.297	26255.65
514.664	26487.74
515.032	26573.84
515.4	26715.75
515.767	26763.89
516.135	27155.29
516.502	27031.68
516.869	27416.75
517.237	27579.68
517.604	27470.31
517.972	27866
518.339	28122.04
518.706	28243.85
519.073	28350.74
519.44	28541.92
519.808	28781.69
520.175	28884.06
520.542	29158.4
520.909	29421.67
521.276	29308.9
521.643	29718.84
522.009	29954.76
522.376	30050.58
522.743	30349.1
523.11	30612.6
523.477	30828.41
523.843	30985.24
524.21	31444.67
524.577	31491.45
524.943	31733.47
525.31	31946.58
525.676	32108.6
526.043	32341.59
526.409	32634.92
526.776	32865.65
527.142	33049.15
527.508	33165.07
527.874	33354
528.241	33584.95
528.607	33816.81
528.973	34090.7
529.339	34111.94
529.705	34335.21
530.071	34768.87
530.437	34840.51
530.803	34943.78
531.169	35213.61
531.535	35339.03
531.901	35415.64
532.267	35612.02
532.632	35883.19
532.998	36113.02
533.364	36266.69
533.73	36348.95
534.095	36628.71
534.461	36784.87
534.826	36936.27
535.192	36995.71
535.557	37282.93
535.923	37214.91
536.288	37383.49
536.653	37655.8
537.019	37571.29
537.384	37859.64
537.749	37883.59
538.114	38047.88
538.479	37961.33
538.845	38328.55
539.21	38232.51
539.575	38585.5
539.94	38616.68
540.305	38959.95
540.67	38860.29
541.034	39139.15
541.399	39276.33
541.764	39191.36
542.129	39301.41
542.494	39545.7
542.858	39692.13
543.223	39713.6
543.587	40120.37
543.952	40056.87
544.316	40327.82
544.681	40148.85
545.045	40333.47
545.41	40661.15
545.774	40664.54
546.138	40782.28
546.503	40951.99
546.867	41020.01
547.231	41487.34
547.595	41304.97
547.959	41536.15
548.324	41510.84
548.688	41689.6
549.052	41910.61
549.416	41973.43
549.779	42078.51
550.143	42175.01
550.507	42544.71
550.871	42498.16
551.235	42598.95
551.599	42969.34
551.962	43127.3
552.326	43075.32
552.689	43300.85
553.053	43191.93
553.417	43447.06
553.78	43865.36
554.143	43695.87
554.507	43993.94
554.87	44023.32
555.234	44490.43
555.597	44396.87
555.96	44555.96
556.323	44702.4
556.686	44683.42
557.05	45033.46
557.413	45091.31
557.776	45062.84
558.139	45492.43
558.502	45519.55
558.865	45654.92
559.228	45900.11
559.59	46054.9
559.953	46251.74
560.316	46655.34
560.679	46651.95
561.041	46813.08
561.404	47056.46
561.767	47216.23
562.129	47162.45
562.492	47670
562.854	47460.52
563.217	47610.34
563.579	47718.14
563.941	48095.53
564.304	48215.98
564.666	48376.88
565.028	48489.64
565.39	48566.48
565.753	48712.91
566.115	48852.57
566.477	49101.6
566.839	49125.33
567.201	49413.69
567.563	49370.52
567.925	49750.17
568.287	49754.02
568.648	49734.58
569.01	49835.82
569.372	50160.11
569.734	50113.1
570.095	50438.74
570.457	50510.38
570.819	50557.84
571.18	50646.2
571.542	50839.86
571.903	50877.6
572.265	51004.15
572.626	51074.43
572.987	51212.96
573.349	51283.69
573.71	51387.19
574.071	51451.6
574.432	51532.5
574.794	51744.25
575.155	51741.99
575.516	51647.75
575.877	51851.36
576.238	51866.05
576.599	51958.03
576.96	51972.94
577.32	52079.15
577.681	52225.14
578.042	52308.07
578.403	52298.58
578.763	52340.62
579.124	52441.86
579.485	52466.71
579.845	52542.42
580.206	52656.99
580.566	52414.74
580.927	52563.89
581.287	52621.96
581.648	52550.33
582.008	52782.64
582.368	52637.78
582.728	52760.49
583.089	52704.67
583.449	52760.04
583.809	52803.88
584.169	52927.49
584.529	52779.25
584.889	52965.23
585.249	52863.31
585.609	52781.73
585.969	52981.73
586.329	52891.34
586.688	53020.15
587.048	52943.54
587.408	52909.19
587.768	52914.84
588.127	52989.64
588.487	52908.74
588.846	53061.73
589.206	52803.65
589.565	52948.06
589.925	53139.24
590.284	52951.67
590.643	53039.81
591.003	53084.78
591.362	53150.31
591.721	53158.22
592.08	53084.55
592.44	53187.82
592.799	53146.47
593.158	53159.58
593.517	53105.11
593.876	53166.13
594.235	53103.53
594.593	53217.2
594.952	53303.53
595.311	53063.99
595.67	53128.39
596.029	53233.25
596.387	53286.13
596.746	53239.57
597.104	53193.7
597.463	53103.53
597.822	53248.84
598.18	53209.07
598.538	53164.1
598.897	53388.95
599.255	53096.08
599.613	53525.22
599.972	53384.43
600.33	53416.29
600.688	53356.18
601.046	53444.32
601.404	53589.4
601.762	53566.12
602.12	53616.97
602.478	53622.84
602.836	53664.42
603.194	53386.69
603.552	53569.74
603.91	53362.74
604.268	53560.24
604.625	53446.57
604.983	53551.2
605.341	53470.08
605.698	53628.94
606.056	53621.94
606.413	53574.93
606.771	53634.59
607.128	53767.92
607.485	53613.8
607.843	53750.3
608.2	53812.89
608.557	53913.91
608.914	53797.98
609.272	53969.5
609.629	53985.54
609.986	54050.85
610.343	53820.8
610.7	54154.58
611.057	54111.64
611.414	54003.62
611.771	54088.14
612.127	54245.65
612.484	54075.03
612.841	54177.4
613.198	54134.69
613.554	54148.25
613.911	54314.12
614.267	54360.9
614.624	54180.79
614.98	54241.13
615.337	54380.79
615.693	54360.9
616.05	54291.98
616.406	54607.22
616.762	54480.9
617.118	54436.61
617.475	54422.59
617.831	54501.24
618.187	54519.54
618.543	54510.95
618.899	54618.75
619.255	54573.55
619.611	54568.81
619.967	54654.9
620.323	54625.75
620.678	54552.31
621.034	54461.01
621.39	54516.38
621.746	54491.29
622.101	54683.38
622.457	54531.74
622.812	54497.62
623.168	54607.22
623.523	54594.34
623.879	54651.29
624.234	54459.88
624.589	54490.84
624.945	54555.7
625.3	54598.86
625.655	54650.16
626.01	54628.24
626.365	54557.28
626.72	54548.92
627.075	54573.1
627.43	54522.7
627.785	54499.65
628.14	54505.76
628.495	54548.24
628.85	54461.24
629.205	54395.25
629.559	54491.52
629.914	54342.37
630.269	54305.76
630.623	54183.28
630.978	54179.44
631.332	54350.28
631.687	54388.02
632.041	54198.65
632.396	54264.18
632.75	54146.9
633.104	54197.52
633.459	54080
633.813	54014.47
634.167	53953.23
634.521	54002.49
634.875	54020.12
635.229	54005.43
635.583	53742.16
635.937	53804.98
636.291	53760.01
636.645	53727.25
636.999	53641.15
637.352	53597.76
637.706	53557.76
638.06	53704.2
638.413	53663.07
638.767	53443.64
639.121	53497.87
639.474	53406.8
639.828	53395.73
640.181	53408.84
640.534	53458.1
640.888	53336.07
641.241	53205.45
641.594	53343.07
641.947	53303.53
642.301	53174.27
642.654	53202.74
643.007	53263.3
643.36	53219.24
643.713	53165
644.066	53238.67
644.419	52926.81
644.771	52740.38
645.124	52453.15
645.477	52285.02
645.83	52172.71
646.182	52094.07
646.535	52034.41
646.888	52013.62
647.24	51885.49
647.593	52078.93
647.945	51982.66
648.298	51810.69
648.65	51788.31
649.002	51682.1
649.355	51772.27
649.707	51716.45
650.059	51864.24
650.411	52152.82
650.763	52194.18
651.115	52549.2
651.467	52342.65
651.819	52290.22
652.171	52396.66
652.523	52268.07
652.875	52180.62
653.227	52070.34
653.578	52374.51
653.93	52223.33
654.282	52074.63
654.633	51965.48
654.985	52070.57
655.337	52052.04
655.688	52040.74
656.039	52134.29
656.391	51765.26
656.742	51841.65
657.094	51877.35
657.445	51915.32
657.796	51801.42
658.147	51786.51
658.498	51609.79
658.849	51859.05
659.2	51713.74
659.551	51487.08
659.902	51750.12
660.253	51628.32
660.604	51633.52
660.955	51427.19
661.306	51599.62
661.656	51472.62
662.007	51502.45
662.358	51527.08
662.708	51517.13
663.059	51438.04
663.409	51164.38
663.76	51518.49
664.11	51440.53
664.461	51391.26
664.811	51334.77
665.161	51357.14
665.511	51259.06
665.862	51325.95
666.212	51312.39
666.562	51296.8
666.912	51268.1
667.262	51253.86
667.612	51174.09
667.962	51251.38
668.312	51039.41
668.662	51240.76
669.011	51126.41
669.361	51098.16
669.711	51083.47
670.06	51066.3
670.41	50896.36
670.76	50933.42
671.109	51050.93
671.459	50914.21
671.808	50779.75
672.157	51032.63
672.507	50652.75
672.856	50686.2
673.205	50741.79
673.554	50734.56
673.904	50647.1
674.253	50833.99
674.602	50696.82
674.951	50250.05
675.3	49990.62
675.649	50578.4
675.998	50522.58
676.346	50509.93
676.695	50605.75
677.044	50347.9
677.393	50459.99
677.741	50384.06
678.09	50263.61
678.438	50280.1
678.787	50218.64
679.135	50308.35
679.484	50071.3
679.832	50112.2
680.181	49938.64
680.529	50140
680.877	49896.16
681.225	49801.02
681.573	50107.23
681.922	49717.86
682.27	49653.45
682.618	49631.31
682.966	49556.06
683.314	49556.51
683.661	49388.38
684.009	49248.72
684.357	49317.64
684.705	49118.33
685.053	49187.48
685.4	49189.29
685.748	48943.87
686.095	48861.38
686.443	48690.09
686.79	48781.39
687.138	48855.51
687.485	48751.33
687.832	48553.14
688.18	48636.76
688.527	48292.36
688.874	48448.51
689.221	48201.74
689.568	48107.28
689.915	47940.05
690.262	47941.18
690.609	47824.12
690.956	47735.76
691.303	47578.03
691.65	47416.9
691.997	47400.86
692.344	47253.97
692.69	47295.1
693.037	47232.5
693.383	46816.24
693.73	46922.68
694.077	46674.55
694.423	46606.3
694.769	46514.78
695.116	46505.97
695.462	46364.73
695.808	46134.22
696.155	46359.53
696.501	45891.29
696.847	45946.89
697.193	45614.24
697.539	45897.39
697.885	45547.8
698.231	45343.96
698.577	45431.42
698.923	45253.12
699.269	45093.35
699.614	44960.92
699.96	44800.47
700.306	44792.57
700.651	44707.6
700.997	44503.31
701.342	44500.37
701.688	44404.78
702.033	44156.65
702.379	44146.71
702.724	43994.17
703.069	44128.18
703.415	43667.85
703.76	43678.7
704.105	43719.6
704.45	43585.37
704.795	43452.26
705.14	43207.07
705.485	43168.88
705.83	42803.24
706.175	43055.44
706.52	42845.27
706.865	42670.59
707.209	42764.82
707.554	42593.3
707.899	42597.82
708.243	42422.91
708.588	42219.53
708.932	41940.66
709.277	42172.75
709.621	42067.89
709.966	41858.41
710.31	41878.29
710.654	41699.99
710.998	41755.81
711.342	41653.44
711.687	41598.75
712.031	41202.15
712.375	41140.46
712.719	41260.23
713.063	41115.37
713.407	41252.55
713.75	40921.48
714.094	40997.18
714.438	40860.92
714.782	40915.83
715.125	40727.59
715.469	40738.21
715.812	40529.17
716.156	40336.86
716.499	40263.64
716.843	40354.72
717.186	39948.4
717.53	40339.12
717.873	40254.38
718.216	40192.23
718.559	39900.72
718.902	39592.7
719.246	39658.01
719.589	39564
719.932	39488.52
720.275	39453.72
720.617	39479.48
720.96	39325.82
721.303	39121.75
721.646	39322.43
721.989	38989.78
722.331	39031.81
722.674	38906.62
723.016	38944.13
723.359	38814.87
723.701	38900.29
724.044	38607.19
724.386	38427.31
724.729	38517.02
725.071	38355.45
725.413	38177.82
725.755	38277.03
726.097	38128.11
726.439	37913.88
726.782	37933.31
727.124	38036.81
727.465	37669.14
727.807	37705.97
728.149	37565.41
728.491	37513.89
728.833	37642.02
729.175	37505.07
729.516	37400.22
729.858	37269.37
730.199	37386.88
730.541	37241.35
730.882	37146.89
731.224	37150.96
731.565	36838.88
731.906	36979.44
732.248	36933.56
732.589	36780.8
732.93	36609.96
733.271	36689.05
733.612	36605.44
733.953	36667.81
734.294	36609.73
734.635	36384.88
734.976	36433.91
735.317	36266.01
735.658	36244.77
735.999	36218.33
736.339	36206.12
736.68	36173.58
737.021	36036.64
737.361	35979.24
737.702	36062.85
738.042	35996.86
738.383	35863.31
738.723	35806.36
739.063	35610.43
739.404	35633.48
739.744	35515.29
740.084	35420.16
740.424	35384.45
740.764	35287.96
741.104	35345.36
741.444	35038.47
741.784	34958.7
742.124	34990.56
742.464	35031.01
742.804	34855.2
743.143	34900.62
743.483	34935.88
743.823	34589.44
744.162	34630.57
744.502	34706.73
744.841	34430.58
745.181	34645.26
745.52	34517.81
745.86	34498.6
746.199	34372.95
746.538	34300.86
746.877	34432.16
747.216	34276.91
747.556	34272.84
747.895	34216.8
748.234	33985.84
748.573	33948.1
748.911	33876.24
749.25	34129.79
749.589	33763.02
749.928	33941.33
750.267	33957.37
750.605	33734.1
750.944	33678.28
751.283	33532.52
751.621	33544.95
751.96	33316.93
752.298	33443.26
752.636	33357.39
752.975	33131.18
753.313	32911.3
