Data from whiteboard_FLMS001491_00037.txt Node
Date: Wed Feb 08 11:26:17 GMT 2017
User: dcchb
Spectrometer: FLMS00149
Trigger mode: 0
Integration Time (sec): 2.000000E-2
Scans to average: 10
Electric dark correction enabled: true
Nonlinearity correction enabled: false
Boxcar width: 0
XAxis mode: Wavelengths
Number of Pixels in Spectrum: 2048
>>>>>Begin Spectral Data<<<<<
341.393	-5.59
341.776	-5.59
342.16	-5.59
342.543	-60.05
342.927	-65.93
343.31	-73.84
343.693	-81.75
344.077	-74.74
344.46	-65.03
344.843	-44.24
345.226	-48.53
345.61	-38.81
345.993	-16.67
346.376	9.1
346.759	8.19
347.142	21.07
347.525	41.41
347.908	54.97
348.291	73.27
348.674	117.79
349.057	117.79
349.44	115.31
349.823	141.52
350.206	166.83
350.588	240.5
350.971	241.86
351.354	273.95
351.737	264.68
352.119	301.29
352.502	292.48
352.884	305.13
353.267	316.66
353.65	330.67
354.032	334.74
354.414	330.67
354.797	361.63
355.179	359.6
355.562	361.18
355.944	375.64
356.326	375.64
356.709	376.09
357.091	389.42
357.473	379.93
357.855	391.23
358.238	401.85
358.62	385.13
359.002	382.19
359.384	383.1
359.766	403.44
360.148	376.54
360.53	380.61
360.912	381.29
361.294	393.27
361.676	379.93
362.057	393.27
362.439	378.8
362.821	394.4
363.203	386.49
363.584	378.13
363.966	395.07
364.348	379.48
364.729	380.16
365.111	380.39
365.493	380.16
365.874	373.83
366.256	396.88
366.637	365.24
367.019	367.5
367.4	371.35
367.781	377.45
368.163	377.9
368.544	386.49
368.925	407.28
369.306	411.12
369.688	365.47
370.069	381.52
370.45	383.32
370.831	398.01
371.212	362.31
371.593	393.04
371.974	400.95
372.355	387.84
372.736	402.76
373.117	400.05
373.498	386.94
373.879	388.75
374.26	372.7
374.641	408.63
375.021	395.3
375.402	416.54
375.783	406.37
376.163	416.09
376.544	441.4
376.925	423.55
377.305	451.8
377.686	415.41
378.066	425.36
378.447	445.02
378.827	443.43
379.208	461.29
379.588	432.14
379.968	438.46
380.349	458.8
380.729	456.09
381.109	452.93
381.489	462.19
381.87	462.19
382.25	479.82
382.63	446.15
383.01	468.07
383.39	475.52
383.77	468.07
384.15	480.27
384.53	475.75
384.91	495.64
385.29	502.42
385.67	498.8
386.049	518.91
386.429	513.72
386.809	522.75
387.189	513.72
387.568	500.38
387.948	546.03
388.328	517.78
388.707	543.32
389.087	544
389.466	551.23
389.846	574.05
390.225	572.24
390.605	551.91
390.984	573.15
391.363	599.59
391.743	590.32
392.122	604.79
392.501	618.12
392.881	626.93
393.26	612.7
393.639	655.18
394.018	622.64
394.397	646.37
394.776	656.08
395.155	677.78
395.534	680.26
395.913	673.03
396.292	702.41
396.671	702.18
397.05	697.67
397.429	739.02
397.808	741.51
398.186	702.18
398.565	753.93
398.944	765.69
399.323	773.14
399.701	770.21
400.08	788.96
400.458	785.8
400.837	822.86
401.215	834.61
401.594	826.25
401.972	846.36
402.351	839.81
402.729	861.95
403.107	885.68
403.486	901.95
403.864	903.76
404.242	909.86
404.62	936.98
404.999	946.02
405.377	977.21
405.755	958
406.133	984.21
406.511	1027.15
406.889	1061.95
407.267	1069.86
407.645	1048.39
408.023	1067.83
408.401	1098.33
408.779	1119.35
409.156	1176.07
409.534	1178.1
409.912	1194.15
410.29	1214.71
410.667	1240.7
411.045	1255.84
411.422	1269.4
411.8	1317.54
412.178	1294.94
412.555	1338.33
412.933	1346.01
413.31	1403.41
413.687	1447.48
414.065	1438.66
414.442	1459.45
414.819	1477.98
415.197	1505.33
415.574	1524.99
415.951	1555.04
416.328	1575.38
416.705	1606.57
417.082	1607.02
417.46	1630.75
417.837	1664.19
418.214	1650.18
418.591	1683.63
418.967	1711.65
419.344	1735.6
419.721	1744.42
420.098	1781.03
420.475	1788.94
420.852	1824.19
421.228	1870.52
421.605	1842.04
421.982	1893.79
422.358	1921.59
422.735	1933.79
423.111	1941.25
423.488	1992.77
423.864	2027.35
424.241	2020.79
424.617	2043.17
424.994	2095.82
425.37	2087.91
425.746	2140.11
426.123	2169.04
426.499	2201.13
426.875	2209.04
427.251	2251.97
427.627	2296.27
428.003	2348.47
428.379	2331.75
428.756	2364.51
429.132	2391.41
429.507	2414.68
429.883	2479.54
430.259	2550.27
430.635	2545.3
431.011	2563.38
431.387	2657.39
431.763	2687.9
432.138	2702.58
432.514	2757.27
432.89	2774.22
433.265	2829.36
433.641	2833.88
434.016	2917.95
434.392	2929.92
434.767	2970.37
435.143	2977.15
435.518	3027.32
435.894	3102.8
436.269	3150.26
436.644	3198.62
437.02	3202.46
437.395	3243.59
437.77	3303.02
438.145	3339.63
438.52	3354.09
438.895	3398.61
439.271	3416.92
439.646	3521.09
440.021	3505.95
440.395	3544.6
440.77	3537.36
441.145	3594.31
441.52	3648.32
441.895	3627.53
442.27	3711.37
442.645	3704.82
443.019	3751.14
443.394	3788.21
443.769	3820.07
444.143	3826.62
444.518	3917.02
444.892	3859.62
445.267	3930.8
445.641	3979.16
446.016	3970.8
446.39	4045.6
446.764	4053.28
447.139	4070.91
447.513	4129.44
447.887	4173.96
448.262	4149.1
448.636	4203.79
449.01	4251.47
449.384	4215.54
449.758	4299.15
450.132	4378.7
450.506	4383.9
450.88	4453.5
451.254	4494.85
451.628	4570.11
452.002	4601.29
452.376	4634.74
452.75	4661.85
453.123	4696.43
453.497	4823.88
453.871	4839.25
454.244	4951.56
454.618	4998.12
454.992	5059.58
455.365	5073.37
455.739	5242.86
456.112	5239.47
456.486	5297.77
456.859	5304.32
457.232	5483.3
457.606	5497.99
457.979	5553.58
458.352	5670.42
458.725	5819.56
459.099	5792.9
459.472	5903.4
459.845	5955.83
460.218	6038.54
460.591	6116.05
460.964	6109.05
461.337	6264.75
461.71	6382.26
462.083	6469.94
462.456	6515.14
462.829	6566.66
463.201	6675.14
463.574	6687.34
463.947	6739.31
464.32	6935.24
464.692	7043.04
465.065	7085.75
465.438	7185.86
465.81	7278.28
466.183	7347.21
466.555	7569.35
466.928	7572.29
467.3	7565.51
467.672	7790.13
468.045	7955.1
468.417	7993.52
468.789	7980.41
469.161	8132.5
469.534	8323
469.906	8456.56
470.278	8516.44
470.65	8649.09
471.022	8825.36
471.394	8959.14
471.766	9065.81
472.138	9184.67
472.51	9399.58
472.882	9527.72
473.253	9684.32
473.625	9809.97
473.997	10042.73
474.369	10080.7
474.74	10215.38
475.112	10371.76
475.484	10604.3
475.855	10792.99
476.227	10889.94
476.598	11224.39
476.97	11302.13
477.341	11530.6
477.713	11733.31
478.084	11832.97
478.455	12133.52
478.827	12291.26
479.198	12604.24
479.569	12747.29
479.94	13142.08
480.311	13159.71
480.682	13532.81
481.053	13716.08
481.424	13947.71
481.795	14137.31
482.166	14342.73
482.537	14600.58
482.908	14883.05
483.279	15074.24
483.65	15257.96
484.021	15627.89
484.391	15864.5
484.762	15984.04
485.133	16218.39
485.503	16347.65
485.874	16745.6
486.244	16977.24
486.615	17233.73
486.985	17374.97
487.356	17717.1
487.726	17899.92
488.097	18249.52
488.467	18350.53
488.837	18811.99
489.207	18940.8
489.578	19198.2
489.948	19391.19
490.318	19749.14
490.688	19694.45
491.058	20116.36
491.428	20415.34
491.798	20620.53
492.168	20962.9
492.538	21112.72
492.908	21444.46
493.278	21646.94
493.648	21757.9
494.017	21979.82
494.387	22305.23
494.757	22479.47
495.126	22735.73
495.496	22785.67
495.866	22952.45
496.235	23357.86
496.605	23438.99
496.974	23756.04
497.344	23835.81
497.713	24037.84
498.082	24197.84
498.452	24502.46
498.821	24588.56
499.19	24686.41
499.559	24897.71
499.928	25050.47
500.298	25250.24
500.667	25486.62
501.036	25479.39
501.405	25760.74
501.774	25780.62
502.143	26156.2
502.512	26226.26
502.88	26476.2
503.249	26511.9
503.618	26671.67
503.987	26850.42
504.356	27006.8
504.724	27148.27
505.093	27390.75
505.462	27491.31
505.83	27730.17
506.199	28004.29
506.567	28297.84
506.936	28320.22
507.304	28700.54
507.672	28896.47
508.041	29005.62
508.409	29350.7
508.777	29490.13
509.145	29778.93
509.514	29877.69
509.882	30146.16
510.25	30179.6
510.618	30540.5
510.986	30646.26
511.354	30886.7
511.722	31199.24
512.09	31463.41
512.458	31509.51
512.826	31705.89
513.193	31958.09
513.561	32027.01
513.929	32347.68
514.297	32619.31
514.664	32805.07
515.032	32819.08
515.4	33181.1
515.767	33298.62
516.135	33688.21
516.502	33415.68
516.869	34203
517.237	34163.9
517.604	34161.19
517.972	34505.36
518.339	34668.52
518.706	34842.53
519.073	35073.48
519.44	35331.1
519.808	35688.61
520.175	35757.99
520.542	36161.14
520.909	36462.6
521.276	36385.99
521.643	36805.64
522.009	37294.67
522.376	37429.81
522.743	37709.8
523.11	38101.43
523.477	38455.32
523.843	38728.76
524.21	39262.53
524.577	39552.69
524.943	39644.89
525.31	39848.95
525.676	40263.86
526.043	40616.62
526.409	40663.85
526.776	41221.12
527.142	41335.69
527.508	41611.39
527.874	41859.97
528.241	42022
528.607	42080.76
528.973	42604.13
529.339	42497.02
529.705	42984.46
530.071	43261.52
530.437	43478.69
530.803	43689.3
531.169	43872.12
531.535	43918.22
531.901	44078.45
532.267	44207.48
532.632	44471.43
532.998	44587.58
533.364	44882.04
533.73	44795.71
534.095	45213.1
534.461	45312.09
534.826	45498.75
535.192	45624.39
535.557	45865.07
535.923	45759.76
536.288	46011.05
536.653	46327.88
537.019	46239.29
537.384	46480.42
537.749	46701.65
538.114	46880.63
538.479	46966.28
538.845	47104.35
539.21	47271.36
539.575	47315.42
539.94	47511.8
540.305	47829.08
540.67	47815.07
541.034	48095.52
541.399	48210.31
541.764	48354.49
542.129	48542.73
542.494	48697.08
542.858	48965.55
543.223	48953.12
543.587	49307.69
543.952	49179.78
544.316	49478.08
544.681	49448.93
545.045	49599.43
545.41	49869.93
545.774	49901.34
546.138	49977.27
546.503	50041.45
546.867	50056.82
547.231	50415
547.595	50384.72
547.959	50506.3
548.324	50515.11
548.688	50519.86
549.052	50682.11
549.416	50716.46
549.779	50824.93
550.143	50882.33
550.507	51047.98
550.871	51228.31
551.235	51054.76
551.599	51347.18
551.962	51430.79
552.326	51498.36
552.689	51657
553.053	51478.48
553.417	51685.25
553.78	51980.38
554.143	51716.44
554.507	52042.98
554.87	52118.69
555.234	52418.11
555.597	52222.41
555.96	52486.36
556.323	52658.56
556.686	52662.85
557.05	52990.98
557.413	53118.66
557.776	53120.24
558.139	53366.56
558.502	53499.21
558.865	53556.61
559.228	53836.83
559.59	53966.77
559.953	54057.17
560.316	54304.17
560.679	54447.44
561.041	54598.39
561.404	54757.94
561.767	54943.24
562.129	54791.38
562.492	55165.61
562.854	55213.29
563.217	55134.43
563.579	55371.03
563.941	55615.77
564.304	55615.54
564.666	55824.13
565.028	55787.97
565.39	55867.74
565.753	56099.15
566.115	56189.99
566.477	56324.68
566.839	56362.87
567.201	56481.74
567.563	56526.48
567.925	56631.34
568.287	56612.58
568.648	56671.56
569.01	56792.69
569.372	56900.03
569.734	56817.77
570.095	56930.31
570.457	57038.78
570.819	57093.7
571.18	57126.92
571.542	57275.84
571.903	57249.17
572.265	57311.09
572.626	57376.17
572.987	57412.11
573.349	57497.08
573.71	57602.16
574.071	57601.71
574.432	57727.58
574.794	57964.63
575.155	57871.53
575.516	57819.55
575.877	57942.26
576.238	58060
576.599	58138.87
576.96	58166.89
577.32	58198.98
577.681	58315.36
578.042	58338.41
578.403	58366.21
578.763	58459.08
579.124	58551.06
579.485	58658.85
579.845	58721.45
580.206	58730.26
580.566	58717.38
580.927	58784.5
581.287	58940.88
581.648	58876.02
582.008	58982.46
582.368	59001.67
582.728	59055.9
583.089	59080.76
583.449	59128.45
583.809	59079.18
584.169	59159.4
584.529	59118.95
584.889	59229.01
585.249	59143.81
585.609	59074.66
585.969	59208.44
586.329	59094.77
586.688	59175.22
587.048	59161.89
587.408	59085.06
587.768	59080.99
588.127	59085.51
588.487	59054.77
588.846	59124.38
589.206	59007.09
589.565	58978.17
589.925	59095.23
590.284	59015.91
590.643	59069.01
591.003	59080.54
591.362	59120.76
591.721	59015.91
592.08	59054.1
592.44	59080.31
592.799	59089.12
593.158	59074.66
593.517	59047.32
593.876	59156.47
594.235	59078.28
594.593	59043.02
594.952	59123.7
595.311	59024.95
595.67	59132.51
596.029	59243.47
596.387	59204.15
596.746	59273.3
597.104	59135.68
597.463	59214.77
597.822	59332.28
598.18	59201.21
598.538	59227.65
598.897	59344.48
599.255	59201.89
599.613	59588.55
599.972	59364.82
600.33	59518.94
600.688	59410.25
601.046	59528.43
601.404	59643.91
601.762	59618.6
602.12	59683.68
602.478	59718.71
602.836	59694.76
603.194	59614.53
603.552	59685.04
603.91	59616.34
604.268	59770.69
604.625	59740.86
604.983	59834.87
605.341	59690.69
605.698	59777.92
606.056	59900.18
606.413	59928.88
606.771	59948.54
607.128	59948.31
607.485	59863.34
607.843	59836.9
608.2	60028.31
608.557	60041.42
608.914	59975.65
609.272	60140.85
609.629	60077.8
609.986	60220.85
610.343	60065.82
610.7	60269.66
611.057	60134.75
611.414	60093.39
611.771	60085.71
612.127	60199.15
612.484	60198.25
612.841	60162.09
613.198	60160.51
613.554	60148.76
613.911	60282.31
614.267	60236.89
614.624	60192.37
614.98	60218.13
615.337	60295.65
615.693	60182.2
616.05	60149.66
616.406	60356.66
616.762	60270.34
617.118	60260.39
617.475	60276.44
617.831	60360.5
618.187	60385.14
618.543	60345.14
618.899	60542.65
619.255	60516.66
619.611	60465.13
619.967	60590.55
620.323	60614.73
620.678	60506.71
621.034	60516.43
621.39	60521.85
621.746	60487.28
622.101	60704.68
622.457	60588.29
622.812	60601.17
623.168	60699.25
623.523	60637.11
623.879	60804.33
624.234	60649.08
624.589	60779.7
624.945	60823.09
625.3	60784.45
625.655	60800.27
626.01	60826.25
626.365	60815.41
626.72	60882.3
627.075	60873.71
627.43	60835.07
627.785	60755.3
628.14	60814.5
628.495	60828.97
628.85	60767.5
629.205	60751.91
629.559	60824.9
629.914	60703.09
630.269	60688.86
630.623	60675.75
630.978	60569.09
631.332	60650.44
631.687	60697.22
632.041	60580.84
632.396	60574.73
632.75	60495.64
633.104	60529.99
633.459	60374.97
633.813	60366.15
634.167	60310.34
634.521	60352.37
634.875	60310.56
635.229	60245.25
635.583	60132.94
635.937	60110.34
636.291	60099.27
636.645	60027.63
636.999	59973.17
637.352	59972.49
637.706	59828.09
638.06	59975.43
638.413	59895.2
638.767	59803.23
639.121	59824.7
639.474	59645.95
639.828	59660.18
640.181	59667.19
640.534	59665.61
640.888	59555.1
641.241	59448.21
641.594	59539.28
641.947	59585.16
642.301	59556.23
642.654	59542.22
643.007	59573.41
643.36	59518.94
643.713	59448.21
644.066	59547.19
644.419	59446.85
644.771	59255.9
645.124	59079.63
645.477	59091.84
645.83	58915.8
646.182	58877.83
646.535	58730.49
646.888	58829.7
647.24	58697.27
647.593	58798.96
647.945	58761
648.298	58639.87
648.65	58605.97
649.002	58591.51
649.355	58763.26
649.707	58746.08
650.059	58885.51
650.411	59174.55
650.763	59144.04
651.115	59337.25
651.467	59327.08
651.819	59279.63
652.171	59264.03
652.523	59169.57
652.875	59195.34
653.227	59085.06
653.578	59216.58
653.93	59151.95
654.282	59087.77
654.633	58981.1
654.985	59073.76
655.337	59095.9
655.688	58996.7
656.039	59124.6
656.391	58829.92
656.742	58937.94
657.094	58889.58
657.445	58914.44
657.796	58882.58
658.147	58755.8
658.498	58704.5
658.849	58812.97
659.2	58672.41
659.551	58634.22
659.902	58627.44
660.253	58497.5
660.604	58568.46
660.955	58401.46
661.306	58516.26
661.656	58401.46
662.007	58384.74
662.358	58349.03
662.708	58359.88
663.059	58313.78
663.409	58156.72
663.76	58287.79
664.11	58197.4
664.461	58170.5
664.811	58198.53
665.161	58164.63
665.511	58095.25
665.862	58152.43
666.212	58134.57
666.562	58154.23
666.912	58073.11
667.262	58058.19
667.612	57988.59
667.962	58059.32
668.312	58017.97
668.662	58034.01
669.011	57945.65
669.361	57966.89
669.711	58015.03
670.06	57959.89
670.41	57952.21
670.76	57915.6
671.109	58022.49
671.459	57919.89
671.808	57902.71
672.157	58015.71
672.507	57856.16
672.856	57890.96
673.205	57919.89
673.554	58018.64
673.904	57949.27
674.253	58030.62
674.602	58002.15
674.951	57587.02
675.3	57565.55
675.649	58005.31
675.998	57973
676.346	57964.63
676.695	58053.22
677.044	57808.48
677.393	57958.98
677.741	58070.39
678.09	57985.42
678.438	57893
678.787	57960.11
679.135	57882.83
679.484	57748.59
679.832	57895.71
680.181	57737.97
680.529	57892.55
680.877	57791.31
681.225	57666.34
681.573	57858.2
681.922	57552.67
682.27	57508.6
682.618	57495.95
682.966	57430.64
683.314	57518.32
683.661	57359.68
684.009	57276.06
684.357	57184.32
684.705	57157.65
685.053	57100.02
685.4	57063.19
685.748	56910.65
686.095	57014.83
686.443	56782.52
686.79	56723.76
687.138	56725.8
687.485	56648.06
687.832	56551.34
688.18	56578.46
688.527	56376.65
688.874	56395.41
689.221	56226.6
689.568	56137.56
689.915	56029.54
690.262	56097.11
690.609	55987.96
690.956	55896.89
691.303	55793.84
691.65	55641.31
691.997	55563.57
692.344	55415.32
692.69	55404.7
693.037	55433.85
693.383	55170.58
693.73	55215.33
694.077	54958.39
694.423	54954.54
694.769	54892.17
695.116	54818.95
695.462	54778.73
695.808	54711.16
696.155	54794.1
696.501	54612.63
696.847	54493.54
697.193	54319.31
697.539	54463.26
697.885	54306.43
698.231	54167.45
698.577	54165.86
698.923	54040.9
699.269	54022.36
699.614	53863.05
699.96	53902.82
700.306	53985.08
700.651	53799.55
700.997	53704.41
701.342	53715.03
701.688	53576.73
702.033	53520.23
702.379	53550.96
702.724	53415.15
703.069	53498.54
703.415	53191.43
703.76	53203.4
704.105	53313.46
704.45	53143.97
704.795	53106.91
705.14	52967.7
705.485	53044.76
705.83	52953.47
706.175	53015.39
706.52	52853.81
706.865	52840.02
707.209	52745.11
707.554	52670.76
707.899	52792.34
708.243	52537.43
708.588	52506.47
708.932	52317.78
709.277	52430.09
709.621	52370.2
709.966	52144.45
710.31	52219.7
710.654	51926.15
710.998	52028.07
711.342	51963.89
711.687	51834.63
712.031	51751.69
712.375	51576.55
712.719	51650
713.063	51571.13
713.407	51606.84
713.75	51438.7
714.094	51390.8
714.438	51137.47
714.782	51171.82
715.125	50965.27
715.469	50992.61
715.812	50860.19
716.156	50571.38
716.499	50744.71
716.843	50725.95
717.186	50425.4
717.53	50638.73
717.873	50501.78
718.216	50400.54
718.559	50146.08
718.902	49930.72
719.246	50049.36
719.589	49897.05
719.932	49655.93
720.275	49747
720.617	49642.14
720.96	49553.78
721.303	49495.25
721.646	49484.63
721.989	49142.27
722.331	49339.32
722.674	49235.82
723.016	49193.34
723.359	48989.05
723.701	49040.12
724.044	48718.78
724.386	48557.65
724.729	48679.23
725.071	48348.62
725.413	48470.87
725.755	48380.93
726.097	48314.94
726.439	47933.26
726.782	48011.68
727.124	48165.34
727.465	47918.57
727.807	47855.3
728.149	47768.07
728.491	47753.6
728.833	47845.35
729.175	47471.8
729.516	47303.22
729.858	47390.22
730.199	47538.24
730.541	47394.74
730.882	47337.34
731.224	47241.53
731.565	47165.14
731.906	47108.87
732.248	47098.93
732.589	46909.78
732.93	46977.58
733.271	46989.33
733.612	47041.08
733.953	47008.09
734.294	46792.27
734.635	46751.14
734.976	46928.99
735.317	46628.21
735.658	46642.67
735.999	46681.09
736.339	46483.13
736.68	46666.4
737.021	46491.94
737.361	46306.86
737.702	46488.1
738.042	46280.42
738.383	46321.32
738.723	46371.27
739.063	46277.48
739.404	46333.75
739.744	46143.48
740.084	46096.7
740.424	46125.4
740.764	46099.64
741.104	46162.46
741.444	45929.7
741.784	45905.52
742.124	46058.51
742.464	45805.63
742.804	45768.12
743.143	45745.52
743.483	45663.94
743.823	45498.75
744.162	45470.5
744.502	45390.5
744.841	45318.41
745.181	45585.75
745.52	45342.82
745.86	45254.23
746.199	45157.74
746.538	45145.99
746.877	45183.5
747.216	45083.84
747.556	44898.08
747.895	45011.53
748.234	44772.44
748.573	44787.13
748.911	44723.17
749.25	44653.35
749.589	44329.51
749.928	44403.86
750.267	44428.94
750.605	44369.06
750.944	44131.78
751.283	43887.04
751.621	44057.66
751.96	43714.84
752.298	43806.59
752.636	43704.44
752.975	43592.13
