Data from white_poster_card_FLMS001491_00033.txt Node
Date: Wed Feb 08 11:51:25 GMT 2017
User: dcchb
Spectrometer: FLMS00149
Trigger mode: 0
Integration Time (sec): 2.000000E-2
Scans to average: 10
Electric dark correction enabled: true
Nonlinearity correction enabled: false
Boxcar width: 0
XAxis mode: Wavelengths
Number of Pixels in Spectrum: 2048
>>>>>Begin Spectral Data<<<<<
341.393	-5.88
341.776	-5.88
342.16	-5.88
342.543	-68.25
342.927	-62.6
343.31	-58.53
343.693	-84.97
344.077	-69.38
344.46	-35.03
344.843	-56.27
345.226	-53.78
345.61	-52.2
345.993	-13.33
346.376	-9.27
346.759	10.85
347.142	8.81
347.525	57.63
347.908	63.28
348.291	66.89
348.674	100.11
349.057	125.19
349.44	119.77
349.823	150.73
350.206	169.71
350.588	193.67
350.971	220.33
351.354	234.8
351.737	255.81
352.119	251.97
352.502	250.16
352.884	295.36
353.267	298.3
353.65	307.34
354.032	299.88
354.414	297.17
354.797	328.58
355.179	319.54
355.562	340.56
355.944	329.26
356.326	316.6
356.709	335.36
357.091	357.28
357.473	346.43
357.855	335.58
358.238	325.64
358.62	334.45
359.002	352.99
359.384	350.05
359.766	324.29
360.148	342.14
360.53	344.62
360.912	348.24
361.294	342.59
361.676	333.55
362.057	346.21
362.439	342.82
362.821	334.91
363.203	335.13
363.584	322.7
363.966	323.38
364.348	319.09
364.729	333.55
365.111	327.68
365.493	324.29
365.874	302.59
366.256	320.44
366.637	316.15
367.019	324.06
367.4	321.35
367.781	318.41
368.163	306.43
368.544	309.37
368.925	300.33
369.306	309.37
369.688	296.26
370.069	324.06
370.45	317.28
370.831	326.32
371.212	326.09
371.593	317.28
371.974	330.84
372.355	330.39
372.736	326.77
373.117	331.06
373.498	310.95
373.879	300.56
374.26	318.64
374.641	333.78
375.021	324.74
375.402	308.24
375.783	332.42
376.163	339.2
376.544	339.2
376.925	329.48
377.305	328.35
377.686	336.26
378.066	341.01
378.447	330.39
378.827	324.06
379.208	332.19
379.588	343.49
379.968	325.19
380.349	349.14
380.729	316.83
381.109	343.72
381.489	354.79
381.87	359.99
382.25	349.14
382.63	332.65
383.01	351.18
383.39	350.27
383.77	339.2
384.15	348.24
384.53	362.25
384.91	376.94
385.29	373.32
385.67	351.4
386.049	370.61
386.429	362.48
386.809	362.48
387.189	373.1
387.568	371.06
387.948	363.15
388.328	382.36
388.707	365.19
389.087	388.46
389.466	370.39
389.846	370.16
390.225	391.85
390.605	394.34
390.984	394.79
391.363	401.8
391.743	387.79
392.122	406.32
392.501	394.11
392.881	396.83
393.26	403.15
393.639	388.24
394.018	411.51
394.397	406.54
394.776	438.18
395.155	407.22
395.534	426.2
395.913	411.97
396.292	427.56
396.671	418.52
397.05	420.1
397.429	443.6
397.808	420.78
398.186	432.31
398.565	429.82
398.944	430.05
399.323	422.59
399.701	442.25
400.08	449.25
400.458	430.72
400.837	439.99
401.215	461.68
401.594	464.85
401.972	454.45
402.351	464.17
402.729	447.45
403.107	470.95
403.486	458.29
403.864	453.32
404.242	477.05
404.62	499.65
404.999	499.65
405.377	492.42
405.755	503.94
406.133	496.48
406.511	504.17
406.889	517.5
407.267	531.51
407.645	525.18
408.023	516.6
408.401	551.85
408.779	559.76
409.156	551.62
409.534	576.71
409.912	536.03
410.29	589.14
410.667	599.31
411.045	597.05
411.422	624.16
411.8	619.87
412.178	618.06
412.555	633.2
412.933	683.82
413.31	668.01
413.687	684.05
414.065	701.45
414.442	722.92
414.819	721.11
415.197	737.83
415.574	761.56
415.951	748
416.328	783.03
416.705	784.84
417.082	809.92
417.46	817.61
417.837	829.58
418.214	847.44
418.591	849.02
418.967	879.3
419.344	876.14
419.721	904.38
420.098	909.35
420.475	929.24
420.852	936.25
421.228	959.07
421.605	969.92
421.982	989.35
422.358	1006.3
422.735	979.86
423.111	1000.43
423.488	1015.11
423.864	1016.02
424.241	1047.2
424.617	1078.16
424.994	1096.92
425.37	1085.4
425.746	1093.3
426.123	1127.43
426.499	1126.52
426.875	1172.4
427.251	1180.31
427.627	1194.09
428.003	1203.58
428.379	1224.37
428.756	1241.1
429.132	1265.96
429.507	1293.3
429.883	1269.35
430.259	1294.43
430.635	1322.9
431.011	1342.56
431.387	1390.25
431.763	1397.48
432.138	1400.42
432.514	1404.71
432.89	1429.11
433.265	1487.19
433.641	1483.35
434.016	1470.7
434.392	1527.19
434.767	1566.74
435.143	1543.69
435.518	1583.91
435.894	1582.33
436.269	1644.93
436.644	1664.59
437.02	1689.22
437.395	1660.75
437.77	1690.8
438.145	1705.72
438.52	1706.4
438.895	1751.82
439.271	1753.4
439.646	1766.06
440.021	1785.94
440.395	1786.39
440.77	1784.59
441.145	1823
441.52	1837.47
441.895	1859.61
442.27	1890.8
442.645	1863
443.019	1900.52
443.394	1880.18
443.769	1905.03
444.143	1919.95
444.518	1958.14
444.892	1914.07
445.267	1980.51
445.641	1963.11
446.016	1978.48
446.39	2023.9
446.764	2035.43
447.139	2035.43
447.513	2040.17
447.887	2037.23
448.262	2045.6
448.636	2108.19
449.01	2126.72
449.384	2116.33
449.758	2124.01
450.132	2147.97
450.506	2152.49
450.88	2168.53
451.254	2168.53
451.628	2220.05
452.002	2237.46
452.376	2253.27
452.75	2257.12
453.123	2291.24
453.497	2361.29
453.871	2329.66
454.244	2392.71
454.618	2411.01
454.992	2420.95
455.365	2402.87
455.739	2476.09
456.112	2515.41
456.486	2519.71
456.859	2544.11
457.232	2582.3
457.606	2604.68
457.979	2653.72
458.352	2654.62
458.725	2710.21
459.099	2701.85
459.472	2729.42
459.845	2791.79
460.218	2802.19
460.591	2805.35
460.964	2839.02
461.337	2926.25
461.71	2985.91
462.083	3018.23
462.456	2995.63
462.829	3016.19
463.201	3072.69
463.574	3102.29
463.947	3118.34
464.32	3219.12
464.692	3215.73
465.065	3248.73
465.438	3268.39
465.81	3385.9
466.183	3340.03
466.555	3430.19
466.928	3447.59
467.3	3437.2
467.672	3527.14
468.045	3550.19
468.417	3581.15
468.789	3643.07
469.161	3658.66
469.534	3706.57
469.906	3762.61
470.278	3796.51
470.65	3902.72
471.022	3908.82
471.394	3938.43
471.766	4030.85
472.138	4058.42
472.51	4142.94
472.882	4164.64
473.253	4225.88
473.625	4317.85
473.997	4402.6
474.369	4421.8
474.74	4434.91
475.112	4521.46
475.484	4592.65
475.855	4700.44
476.227	4749.48
476.598	4859.53
476.97	4883.49
477.341	4996.7
477.713	5035.35
478.084	5094.56
478.455	5202.35
478.827	5266.53
479.198	5409.12
479.569	5447.77
479.94	5558.72
480.311	5635.78
480.682	5794.2
481.053	5872.61
481.424	5921.65
481.795	6000.52
482.166	6112.38
482.537	6185.15
482.908	6289.33
483.279	6376.56
483.65	6494.07
484.021	6643.44
484.391	6645.7
484.762	6748.3
485.133	6806.37
485.503	6900.38
485.874	7111.45
486.244	7101.96
486.615	7221.28
486.985	7293.37
487.356	7440.93
487.726	7534.04
488.097	7640.48
488.467	7696.52
488.837	7836.63
489.207	7920.24
489.578	8049.05
489.948	8120.92
490.318	8274.13
490.688	8295.15
491.058	8419.44
491.428	8513.67
491.798	8566.1
492.168	8772.2
492.538	8807.45
492.908	8920.9
493.278	9002.25
493.648	9076.82
494.017	9148.69
494.387	9318.85
494.757	9323.82
495.126	9422.58
495.496	9440.43
495.866	9534.89
496.235	9650.14
496.605	9790.48
496.974	9884.94
497.344	9941.66
497.713	9961.09
498.082	10139.17
498.452	10206.51
498.821	10223.91
499.19	10247.41
499.559	10327.19
499.928	10479.72
500.298	10476.56
500.667	10604.69
501.036	10630.45
501.405	10757.46
501.774	10802.2
502.143	10857.79
502.512	10953.84
502.88	11058.69
503.249	11072.48
503.618	11199.48
503.987	11164.23
504.356	11258.91
504.724	11358.8
505.093	11475.86
505.462	11487.83
505.83	11595.63
506.199	11631.33
506.567	11839.01
506.936	11794.04
507.304	11972.11
507.672	12053.69
508.041	12061.83
508.409	12219.11
508.777	12275.16
509.145	12356.29
509.514	12384.76
509.882	12483.97
510.25	12598.76
510.618	12678.99
510.986	12687.58
511.354	12818.42
511.722	12962.82
512.09	13072.65
512.458	13022.93
512.826	13309.03
513.193	13365.52
513.561	13323.49
513.929	13559.19
514.297	13593.99
514.664	13710.15
515.032	13725.06
515.4	13836.25
515.767	13925.28
516.135	13951.72
516.502	13972.97
516.869	14186.07
517.237	14267.65
517.604	14279.4
517.972	14481.65
518.339	14501.31
518.706	14658.82
519.073	14799.61
519.44	14894.75
519.808	15022.66
520.175	15054.29
520.542	15199.6
520.909	15290.67
521.276	15339.48
521.643	15562.3
522.009	15604.11
522.376	15658.8
522.743	15872.13
523.11	16046.81
523.477	16147.15
523.843	16293.13
524.21	16373.81
524.577	16553.69
524.943	16578.77
525.31	16753.23
525.676	16936.28
526.043	16993.68
526.409	17076.39
526.776	17278.64
527.142	17346.89
527.508	17477.05
527.874	17646.77
528.241	17764.96
528.607	17810.15
528.973	17941.9
529.339	18027.77
529.705	18294.21
530.071	18356.58
530.437	18479.97
530.803	18621.43
531.169	18627.76
531.535	18649
531.901	18777.36
532.267	18931.93
532.632	19017.35
532.998	19034.75
533.364	19155.65
533.73	19208.08
534.095	19460.96
534.461	19446.95
534.826	19545.25
535.192	19672.7
535.557	19737.33
535.923	19790.67
536.288	19878.57
536.653	19975.75
537.019	19886.26
537.384	20028.85
537.749	20209.41
538.114	20268.39
538.479	20305
538.845	20402.85
539.21	20348.17
539.575	20562.85
539.94	20515.39
540.305	20770.3
540.67	20765.33
541.034	20814.37
541.399	20931.65
541.764	20939.79
542.129	21116.05
542.494	21100.91
542.858	21192.44
543.223	21227.01
543.587	21439.89
543.952	21374.58
544.316	21494.58
544.681	21607.12
545.045	21630.17
545.41	21743.61
545.774	21793.55
546.138	21832.19
546.503	21902.47
546.867	21982.47
547.231	22216.82
547.595	22196.93
547.959	22255.01
548.324	22271.28
548.688	22375.23
549.052	22400.77
549.416	22521.22
549.779	22559.18
550.143	22617.71
550.507	22847.76
550.871	22896.35
551.235	22950.81
551.599	23055.44
551.962	23125.04
552.326	23254.3
552.689	23282.78
553.053	23289.33
553.417	23376.33
553.78	23665.82
554.143	23581.07
554.507	23740.84
554.87	23877.56
555.234	23905.59
555.597	23993.49
555.96	24053.38
556.323	24151.68
556.686	24282.75
557.05	24376.76
557.413	24588.05
557.776	24572.24
558.139	24722.29
558.502	24762.74
558.865	24882.74
559.228	25048.15
559.59	25114.82
559.953	25167.02
560.316	25421.7
560.679	25424.64
561.041	25574.92
561.404	25701.7
561.767	25925.19
562.129	25689.27
562.492	26054.46
562.854	26096.04
563.217	26074.57
563.579	26243.15
563.941	26532.41
564.304	26530.38
564.666	26625.51
565.028	26740.54
565.39	26834.1
565.753	26876.58
566.115	27107.08
566.477	27234.54
566.839	27359.05
567.201	27507.75
567.563	27467.98
567.925	27655.54
568.287	27684.7
568.648	27955.88
569.01	28007.4
569.372	28192.25
569.734	28006.95
570.095	28278.8
570.457	28340.95
570.819	28424.79
571.18	28428.63
571.542	28637.89
571.903	28619.81
572.265	28709.3
572.626	28780.03
572.987	28964.21
573.349	28949.97
573.71	29014.83
574.071	29180.48
574.432	29301.6
574.794	29549.51
575.155	29423.86
575.516	29406.68
575.877	29647.36
576.238	29632.22
576.599	29666.11
576.96	29700.91
577.32	29729.61
577.681	29824.53
578.042	29848.71
578.403	30002.15
578.763	29995.6
579.124	30079.66
579.485	30159.43
579.845	30369.37
580.206	30179.77
580.566	30167.79
580.927	30274.68
581.287	30385.19
581.648	30213.89
582.008	30387.45
582.368	30338.41
582.728	30370.95
583.089	30424.96
583.449	30437.62
583.809	30462.48
584.169	30459.99
584.529	30555.81
584.889	30634.22
585.249	30466.09
585.609	30385.19
585.969	30731.17
586.329	30448.24
586.688	30612.98
587.048	30549.93
587.408	30524.17
587.768	30667.44
588.127	30542.02
588.487	30514.45
588.846	30776.14
589.206	30608.46
589.565	30594.22
589.925	30706.09
590.284	30671.74
590.643	30746.31
591.003	30695.46
591.362	30831.73
591.721	30776.59
592.08	30675.8
592.44	30885.97
592.799	30924.16
593.158	30801
593.517	30728.23
593.876	30794.67
594.235	30785.63
594.593	30786.76
594.952	30856.82
595.311	30653.88
595.67	30838.06
596.029	31020.2
596.387	30963.25
596.746	31068.11
597.104	30888.45
597.463	30897.27
597.822	31053.42
598.18	30890.26
598.538	30992.18
598.897	31085.74
599.255	30916.93
599.613	31275.79
599.972	31087.54
600.33	31244.15
600.688	31059.07
601.046	31281.21
601.404	31285.73
601.762	31266.97
602.12	31364.83
602.478	31415.22
602.836	31435.56
603.194	31305.39
603.552	31409.34
603.91	31244.38
604.268	31602.78
604.625	31306.52
604.983	31385.84
605.341	31321.44
605.698	31549
606.056	31614.31
606.413	31493.64
606.771	31731.14
607.128	31590.81
607.485	31445.95
607.843	31476.01
608.2	31797.81
608.557	31912.83
608.914	31691.37
609.272	31890.46
609.629	31995.32
609.986	32111.02
610.343	31671.48
610.7	32057.69
611.057	32054.3
611.414	32057.24
611.771	31956.45
612.127	32162.09
612.484	32168.65
612.841	32252.94
613.198	32187.63
613.554	32207.97
613.911	32296.1
614.267	32191.47
614.624	32157.12
614.98	32241.64
615.337	32399.6
615.693	32320.51
616.05	32285.93
616.406	32439.6
616.762	32496.77
617.118	32455.42
617.475	32588.52
617.831	32518.92
618.187	32568.18
618.543	32667.39
618.899	32742.19
619.255	32626.94
619.611	32580.16
619.967	32762.98
620.323	32750.78
620.678	32680.95
621.034	32619.71
621.39	32499.71
621.746	32625.58
622.101	33004.33
622.457	32600.72
622.812	32770.21
623.168	32848.4
623.523	32935.63
623.879	32936.31
624.234	32769.76
624.589	32870.77
624.945	32793.94
625.3	32840.72
625.655	32939.02
626.01	32712.81
626.365	32924.33
626.72	32920.94
627.075	32828.29
627.43	32815.63
627.785	32643.89
628.14	32834.62
628.495	32694.06
628.85	32714.85
629.205	32542.42
629.559	32769.76
629.914	32631.68
630.269	32614.28
630.623	32462.65
630.978	32544.91
631.332	32577.45
631.687	32757.1
632.041	32513.72
632.396	32744.9
632.75	32387.17
633.104	32455.87
633.459	32308.08
633.813	32389.2
634.167	32435.08
634.521	32418.36
634.875	32379.71
635.229	32219.27
635.583	32106.95
635.937	32100.62
636.291	32121.87
636.645	31999.84
636.999	31971.59
637.352	32115.31
637.706	31797.36
638.06	31885.94
638.413	31930.01
638.767	31774.76
639.121	31788.54
639.474	31683.69
639.828	31693.4
640.181	31657.92
640.534	31685.95
640.888	31648.66
641.241	31306.3
641.594	31524.59
641.947	31458.38
642.301	31478.72
642.654	31485.05
643.007	31287.31
643.36	31320.98
643.713	31342.9
644.066	31360.08
644.419	31250.93
644.771	30941.11
645.124	30675.35
645.477	30725.29
645.83	30504.06
646.182	30354.23
646.535	30342.48
646.888	30318.3
647.24	30023.39
647.593	30179.77
647.945	30286.89
648.298	30103.39
648.65	30003.05
649.002	29892.77
649.355	30080.34
649.707	29993.56
650.059	30061.13
650.411	30487.33
650.763	30460.22
651.115	30662.47
651.467	30616.14
651.819	30591.06
652.171	30495.24
652.523	30559.87
652.875	30384.96
653.227	30365.98
653.578	30500.67
653.93	30426.77
654.282	30330.28
654.633	30210.05
654.985	30239.88
655.337	30259.77
655.688	30318.75
656.039	30353.78
656.391	29947.01
656.742	30101.58
657.094	30032.43
657.445	30143.16
657.796	30057.51
658.147	30071.98
658.498	30021.81
658.849	30014.58
659.2	29968.7
659.551	29975.26
659.902	30102.94
660.253	30004.63
660.604	29950.17
660.955	29848.93
661.306	29903.17
661.656	29921.47
662.007	29951.08
662.358	29802.38
662.708	29869.95
663.059	29917.18
663.409	29638.09
663.76	29874.69
664.11	29806.45
664.461	29688.26
664.811	29751.31
665.161	29700.24
665.511	29638.99
665.862	29662.04
666.212	29692.33
666.562	29683.51
666.912	29567.13
667.262	29666.34
667.612	29470.41
667.962	29606.91
668.312	29516.06
668.662	29701.14
669.011	29425.22
669.361	29499.79
669.711	29407.81
670.06	29490.07
670.41	29377.53
670.76	29440.36
671.109	29488.94
671.459	29435.16
671.808	29385.22
672.157	29512.22
672.507	29260.02
672.856	29286.69
673.205	29299.34
673.554	29429.28
673.904	29238.55
674.253	29364.2
674.602	29219.34
674.951	28919.92
675.3	28726.48
675.649	29123.98
675.998	29043.76
676.346	29103.42
676.695	29122.17
677.044	28836.98
677.393	29092.34
677.741	29013.93
678.09	28837.21
678.438	28918.79
678.787	29099.35
679.135	29006.24
679.484	28668.85
679.832	28774.38
680.181	28749.53
680.529	28817.55
680.877	28587.5
681.225	28663.2
681.573	28818.68
681.922	28614.39
682.27	28406.94
682.618	28444.68
682.966	28371.91
683.314	28513.83
683.661	28290.56
684.009	28242.65
684.357	28231.35
684.705	28123.1
685.053	28153.38
685.4	28099.15
685.748	27968.08
686.095	27795.65
686.443	27736.9
686.79	27837.23
687.138	27941.64
687.485	27885.14
687.832	27717.92
688.18	27789.78
688.527	27583.46
688.874	27547.98
689.221	27519.73
689.568	27320.86
689.915	27380.3
690.262	27281.99
690.609	27331.71
690.956	27138.72
691.303	27223.46
691.65	27009.23
691.997	26927.88
692.344	26909.12
692.69	26800.65
693.037	26885.17
693.383	26605.63
693.73	26688.11
694.077	26600.43
694.423	26571.96
694.769	26473.2
695.116	26327.22
695.462	26283.38
695.808	26230.5
696.155	26294.45
696.501	26050.61
696.847	26156.15
697.193	25938.08
697.539	25958.41
697.885	25830.06
698.231	25693.11
698.577	25678.42
698.923	25565.88
699.269	25646.78
699.614	25431.2
699.96	25373.8
700.306	25383.74
700.651	25267.58
700.997	25190.3
701.342	25210.41
701.688	25126.34
702.033	25087.25
702.379	25075.5
702.724	24919.12
703.069	24904.66
703.415	24728.62
703.76	24737.88
704.105	24725.45
704.45	24594.16
704.795	24496.08
705.14	24380.15
705.485	24359.13
705.83	24335.86
706.175	24299.02
706.52	24152.13
706.865	24062.64
707.209	24120.27
707.554	24051.57
707.899	24061.06
708.243	23922.76
708.588	23870.33
708.932	23800.5
709.277	23645.48
709.621	23754.63
709.966	23483.22
710.31	23593.05
710.654	23433.28
710.998	23438.48
711.342	23520.06
711.687	23379.72
712.031	23376.56
712.375	23158.94
712.719	23270.12
713.063	23106.06
713.407	23316.45
713.75	23092.73
714.094	23038.72
714.438	22964.82
714.782	22936.35
715.125	22887.53
715.469	22854.54
715.812	22772.96
716.156	22652.74
716.499	22720.31
716.843	22743.81
717.186	22585.85
717.53	22590.37
717.873	22610.25
718.216	22569.58
718.559	22396.47
718.902	22315.8
719.246	22429.24
719.589	22260.43
719.932	22128.91
720.275	22183.82
720.617	22186.08
720.96	22064.5
721.303	22170.72
721.646	22093.66
721.989	21904.73
722.331	22023.15
722.674	21916.71
723.016	21967.56
723.359	21784.29
723.701	21950.61
724.044	21741.12
724.386	21690.73
724.729	21842.36
725.071	21706.55
725.413	21642.37
725.755	21587.91
726.097	21545.42
726.439	21509.04
726.782	21561.01
727.124	21573.44
727.465	21422.26
727.807	21356.05
728.149	21283.96
728.491	21243.74
728.833	21253.9
729.175	21194.47
729.516	21168.26
729.858	21100.91
730.199	21061.14
730.541	21116.05
730.882	21020.46
731.224	21014.81
731.565	20913.12
731.906	20912.67
732.248	20851.43
732.589	20856.4
732.93	20739.57
733.271	20707.03
733.612	20836.97
733.953	20777.53
734.294	20698.21
734.635	20655.95
734.976	20675.84
735.317	20713.13
735.658	20573.92
735.999	20538.89
736.339	20481.5
736.68	20632
737.021	20503.19
737.361	20361.05
737.702	20439.01
738.042	20370.99
738.383	20284.89
738.723	20358.33
739.063	20289.41
739.404	20377.77
739.744	20251.22
740.084	20149.53
740.424	20227.04
740.764	20097.55
741.104	20179.58
741.444	20105.46
741.784	20015.74
742.124	20066.37
742.464	20016.87
742.804	19832.02
743.143	19908.18
743.483	19909.31
743.823	19843.55
744.162	19803.77
744.502	19723.55
744.841	19668.18
745.181	19744.79
745.52	19693.49
745.86	19641.52
746.199	19641.97
746.538	19530.79
746.877	19589.99
747.216	19512.03
747.556	19511.35
747.895	19512.71
748.234	19360.62
748.573	19295.31
748.911	19335.31
749.25	19337.12
749.589	19226.16
749.928	19259.83
750.267	19318.81
750.605	19198.82
750.944	19218.7
751.283	19020.97
751.621	19028.43
751.96	18919.5
752.298	18884.7
752.636	18879.5
752.975	18845.15
753.313	18758.15
753.651	18852.84
753.989	18677.7
754.327	18689.45
