Data from white_poster_card_FLMS001491_00093.txt Node
Date: Wed Feb 08 11:52:17 GMT 2017
User: dcchb
Spectrometer: FLMS00149
Trigger mode: 0
Integration Time (sec): 2.000000E-2
Scans to average: 10
Electric dark correction enabled: true
Nonlinearity correction enabled: false
Boxcar width: 0
XAxis mode: Wavelengths
Number of Pixels in Spectrum: 2048
>>>>>Begin Spectral Data<<<<<
341.393	-6.48
341.776	-6.48
342.16	-6.48
342.543	-83.32
342.927	-72.7
343.31	-77.67
343.693	-86.25
344.077	-73.37
344.46	-60.49
344.843	-34.96
345.226	-39.48
345.61	-33.37
345.993	-18.46
346.376	-4.45
346.759	-1.29
347.142	23.8
347.525	63.8
347.908	61.31
348.291	81.42
348.674	94.08
349.057	105.38
349.44	117.81
349.823	125.49
350.206	157.58
350.588	207.52
350.971	213.85
351.354	230.57
351.737	238.26
352.119	240.29
352.502	244.81
352.884	268.99
353.267	283.23
353.65	275.77
354.032	290.68
354.414	298.14
354.797	308.54
355.179	317.8
355.562	311.25
355.944	324.13
356.326	333.4
356.709	327.97
357.091	311.47
357.473	355.54
357.855	347.41
358.238	340.63
358.62	323.9
359.002	365.48
359.384	346.5
359.766	329.33
360.148	317.35
360.53	342.43
360.912	335.66
361.294	339.5
361.676	324.58
362.057	314.86
362.439	326.84
362.821	325.94
363.203	325.71
363.584	325.49
363.966	311.93
364.348	323
364.729	332.94
365.111	322.77
365.493	326.84
365.874	338.59
366.256	318.25
366.637	316.67
367.019	318.71
367.4	316.9
367.781	306.96
368.163	312.38
368.544	317.58
368.925	308.31
369.306	326.84
369.688	304.7
370.069	320.29
370.45	340.85
370.831	308.31
371.212	333.17
371.593	308.31
371.974	314.19
372.355	308.76
372.736	310.57
373.117	308.99
373.498	307.86
373.879	312.15
374.26	323.45
374.641	307.41
375.021	305.37
375.402	339.95
375.783	338.59
376.163	325.71
376.544	326.39
376.925	318.93
377.305	330.46
377.686	328.65
378.066	352.83
378.447	327.52
378.827	329.1
379.208	339.04
379.588	351.02
379.968	343.56
380.349	318.71
380.729	308.31
381.109	343.56
381.489	326.62
381.87	361.64
382.25	349.21
382.63	330.46
383.01	333.17
383.39	359.38
383.77	348.31
384.15	337.69
384.53	355.77
384.91	356.67
385.29	342.89
385.67	366.39
386.049	356.67
386.429	344.92
386.809	365.03
387.189	356.22
387.568	360.97
387.948	366.16
388.328	373.85
388.707	363.45
389.087	372.26
389.466	374.3
389.846	384.02
390.225	381.53
390.605	376.33
390.984	386.28
391.363	386.5
391.743	396.67
392.122	388.53
392.501	400.06
392.881	405.48
393.26	401.19
393.639	403.45
394.018	391.25
394.397	394.64
394.776	384.92
395.155	405.48
395.534	409.55
395.913	416.1
396.292	424.69
396.671	426.27
397.05	400.29
397.429	417.46
397.808	404.58
398.186	420.17
398.565	436.44
398.944	442.77
399.323	424.01
399.701	444.35
400.08	458.82
400.458	437.12
400.837	462.88
401.215	436.44
401.594	435.77
401.972	434.18
402.351	450
402.729	464.01
403.107	449.32
403.486	463.56
403.864	450.68
404.242	470.57
404.62	453.17
404.999	495.42
405.377	472.37
405.755	472.37
406.133	490.91
406.511	502.66
406.889	504.01
407.267	517.35
407.645	529.1
408.023	510.57
408.401	506.5
408.779	528.87
409.156	527.97
409.534	554.86
409.912	564.58
410.29	557.12
410.667	561.41
411.045	607.29
411.422	595.99
411.8	615.65
412.178	624.46
412.555	649.55
412.933	633.27
413.31	652.71
413.687	645.03
414.065	687.74
414.442	685.25
414.819	692.93
415.197	685.7
415.574	737.45
415.951	731.12
416.328	747.4
416.705	777.45
417.082	779.49
417.46	747.85
417.837	811.35
418.214	814.51
418.591	837.34
418.967	834.62
419.344	852.7
419.721	856.55
420.098	871.01
420.475	891.35
420.852	888.41
421.228	925.7
421.605	925.02
421.982	945.13
422.358	958.46
422.735	960.95
423.111	923.44
423.488	995.52
423.864	1010.44
424.241	1031.23
424.617	1041.17
424.994	1046.14
425.37	1070.32
425.746	1052.25
426.123	1105.13
426.499	1052.92
426.875	1108.29
427.251	1127.5
427.627	1165.46
428.003	1193.94
428.379	1176.31
428.756	1221.51
429.132	1182.19
429.507	1243.43
429.883	1233.71
430.259	1263.09
430.635	1285.69
431.011	1282.07
431.387	1340.6
431.763	1346.02
432.138	1357.55
432.514	1383.31
432.89	1381.73
433.265	1411.56
433.641	1405.91
434.016	1455.17
434.392	1457.89
434.767	1502.18
435.143	1504.21
435.518	1539.24
435.894	1542.63
436.269	1512.12
436.644	1603.19
437.02	1590.54
437.395	1633.02
437.77	1641.38
438.145	1650.65
438.52	1654.72
438.895	1654.04
439.271	1709.86
439.646	1738.56
440.021	1708.73
440.395	1715.28
440.77	1740.82
441.145	1741.49
441.52	1770.19
441.895	1795.28
442.27	1771.55
442.645	1814.03
443.019	1835.05
443.394	1837.54
443.769	1859.46
444.143	1820.81
444.518	1861.94
444.892	1850.64
445.267	1901.94
445.641	1917.08
446.016	1900.36
446.39	1928.16
446.764	1936.74
447.139	1919.57
447.513	1941.26
447.887	1969.06
448.262	1957.99
448.636	1991.43
449.01	2027.59
449.384	2022.39
449.758	2052.22
450.132	2065.33
450.506	2037.31
450.88	2066.91
451.254	2093.12
451.628	2139.68
452.002	2143.07
452.376	2120.47
452.75	2180.8
453.123	2204.98
453.497	2235.72
453.871	2267.13
454.244	2283.4
454.618	2296.96
454.992	2332.89
455.365	2333.79
455.739	2376.96
456.112	2421.02
456.486	2423.96
456.859	2402.27
457.232	2467.12
457.606	2455.83
457.979	2505.09
458.352	2562.94
458.725	2603.84
459.099	2596.39
459.472	2658.76
459.845	2651.07
460.218	2702.6
460.591	2728.36
460.964	2737.63
461.337	2767.46
461.71	2809.49
462.083	2862.82
462.456	2912.76
462.829	2925.42
463.201	2912.31
463.574	2952.54
463.947	3021.91
464.32	3075.24
464.692	3051.06
465.065	3090.16
465.438	3169.25
465.81	3202.92
466.183	3218.74
466.555	3281.79
466.928	3248.57
467.3	3298.06
467.672	3322.92
468.045	3418.96
468.417	3424.61
468.789	3411.51
469.161	3553.2
469.534	3563.14
469.906	3600.65
470.278	3673.65
470.65	3695.57
471.022	3772.4
471.394	3823.92
471.766	3830.03
472.138	3884.94
472.51	3962.23
472.882	4017.14
473.253	4038.38
473.625	4095.78
473.997	4219.17
474.369	4241.09
474.74	4256.68
475.112	4400.86
475.484	4396.11
475.855	4456
476.227	4523.79
476.598	4652.6
476.97	4637.69
477.341	4802.2
477.713	4806.95
478.084	4834.52
478.455	4982.76
478.827	5053.95
479.198	5196.77
479.569	5221.4
479.94	5295.98
480.311	5417.33
480.682	5501.85
481.053	5587.27
481.424	5645.35
481.795	5703.2
482.166	5873.81
482.537	5827.04
482.908	5978.67
483.279	6083.98
483.65	6148.61
484.021	6257.08
484.391	6325.33
484.762	6383.86
485.133	6480.8
485.503	6563.06
485.874	6704.3
486.244	6758.09
486.615	6918.98
486.985	6940.68
487.356	7147.23
487.726	7076.49
488.097	7300.44
488.467	7338.63
488.837	7474.9
489.207	7539.08
489.578	7667.44
489.948	7755.57
490.318	7891.84
490.688	7840.32
491.058	8049.35
491.428	8137.26
491.798	8160.53
492.168	8372.28
492.538	8375.9
492.908	8435.78
493.278	8630.8
493.648	8620.41
494.017	8706.28
494.387	8796
494.757	8919.84
495.126	8990.12
495.496	9004.13
495.866	9049.55
496.235	9260.84
496.605	9233.95
496.974	9306.27
497.344	9465.13
497.713	9444.12
498.082	9537.45
498.452	9648.86
498.821	9729.76
499.19	9777.89
499.559	9816.76
499.928	9981.05
500.298	10006.81
500.667	10081.61
501.036	10130.88
501.405	10275.51
501.774	10232.57
502.143	10357.99
502.512	10419.91
502.88	10501.72
503.249	10451.77
503.618	10553.69
503.987	10668.72
504.356	10680.47
504.724	10800.46
505.093	10875.26
505.462	10953.91
505.83	10997.75
506.199	11044.53
506.567	11248.36
506.936	11185.77
507.304	11349.83
507.672	11458.53
508.041	11506.21
508.409	11582.36
508.777	11663.94
509.145	11751.4
509.514	11778.52
509.882	11900.77
510.25	11866.2
510.618	12063.26
510.986	12019.42
511.354	12231.39
511.722	12354.1
512.09	12431.61
512.458	12512.74
512.826	12530.81
513.193	12663.24
513.561	12738.72
513.929	12851.03
514.297	12887.19
514.664	13023.23
515.032	13053.29
515.4	13241.98
515.767	13339.38
516.135	13348.87
516.502	13276.78
516.869	13450.34
517.237	13565.59
517.604	13585.7
517.972	13812.14
518.339	13872.25
518.706	13898.46
519.073	13989.99
519.44	14136.2
519.808	14294.16
520.175	14193.6
520.542	14477.66
520.909	14562.4
521.276	14649.85
521.643	14711.1
522.009	14826.12
522.376	14936.85
522.743	15012.78
523.11	15270.4
523.477	15340.68
523.843	15492.77
524.21	15594.24
524.577	15686.89
524.943	15827.23
525.31	15882.36
525.676	16044.17
526.043	16108.35
526.409	16228.57
526.776	16371.62
527.142	16471.73
527.508	16649.12
527.874	16772.74
528.241	16922.34
528.607	16940.87
528.973	17126.17
529.339	17073.29
529.705	17191.71
530.071	17349.44
530.437	17469.44
530.803	17568.65
531.169	17733.84
531.535	17660.4
531.901	17760.51
532.267	17904.46
532.632	18046.6
532.998	18025.36
533.364	18232.59
533.73	18195.07
534.095	18355.29
534.461	18435.74
534.826	18640.26
535.192	18652.69
535.557	18787.6
535.923	18831.44
536.288	18829.86
536.653	19006.8
537.019	18879.12
537.384	19086.12
537.749	19176.06
538.114	19146.23
538.479	19303.74
538.845	19344.19
539.21	19319.56
539.575	19459.67
539.94	19571.76
540.305	19737.18
540.67	19641.81
541.034	19763.17
541.399	19935.82
541.764	19973.56
542.129	19985.08
542.494	20173.33
542.858	20177.17
543.223	20235.47
543.587	20362.25
543.952	20277.5
544.316	20526.54
544.681	20471.85
545.045	20598.17
545.41	20625.97
545.774	20675.46
546.138	20668.91
546.503	20810.14
546.867	20864.15
547.231	21070.03
547.595	21121.78
547.959	21159.97
548.324	21206.29
548.688	21278.16
549.052	21394.99
549.416	21383.69
549.779	21528.54
550.143	21521.31
550.507	21787.75
550.871	21625.04
551.235	21755.43
551.599	21887.86
551.962	21973.28
552.326	22017.57
552.689	22148.87
553.053	22158.36
553.417	22111.58
553.78	22453.94
554.143	22394.28
554.507	22470.67
554.87	22641.96
555.234	22682.64
555.597	22751.34
555.96	22850.32
556.323	22878.79
556.686	23050.31
557.05	23169.18
557.413	23217.31
557.776	23337.76
558.139	23423.86
558.502	23418.66
558.865	23617.75
559.228	23789.73
559.59	23803.06
559.953	23858.65
560.316	24121.47
560.679	24053.9
561.041	24159.66
561.404	24299.54
561.767	24541.35
562.129	24397.17
562.492	24827.21
562.854	24735.69
563.217	24761.91
563.579	24784.05
563.941	25084.61
564.304	25127.55
564.666	25355.11
565.028	25370.03
565.39	25518.04
565.753	25591.71
566.115	25701.77
566.477	25809.34
566.839	25919.16
567.201	26016.34
567.563	26080.97
567.925	26404.35
568.287	26293.62
568.648	26316.21
569.01	26534.06
569.372	26756.88
569.734	26653.16
570.095	26865.58
570.457	26960.49
570.819	26982.86
571.18	27026.25
571.542	27208.62
571.903	27287.04
572.265	27278
572.626	27377.2
572.987	27548.95
573.349	27474.6
573.71	27627.59
574.071	27740.36
574.432	27749.62
574.794	27852.22
575.155	27997.53
575.516	27938.77
575.877	28088.15
576.238	28122.95
576.599	28111.2
576.96	28206.33
577.32	28173.79
577.681	28306.44
578.042	28346.22
578.403	28389.61
578.763	28515.25
579.124	28517.06
579.485	28657.4
579.845	28667.34
580.206	28643.39
580.566	28571.52
580.927	28721.35
581.287	28667.34
581.648	28676.83
582.008	28901.23
582.368	28823.49
582.728	28840.89
583.089	28852.65
583.449	28914.79
583.809	28981.46
584.169	29070.72
584.529	28922.47
584.889	29022.81
585.249	28934.23
585.609	28852.19
585.969	29224.84
586.329	28898.52
586.688	29003.15
587.048	29027.56
587.408	28805.87
587.768	29037.73
588.127	29049.48
588.487	28883.38
588.846	29150.72
589.206	28888.8
589.565	29032.98
589.925	29182.58
590.284	29010.61
590.643	29013.09
591.003	29153.43
591.362	29292.41
591.721	29108.01
592.08	29183.26
592.44	29144.16
592.799	29281.33
593.158	29194.78
593.517	29183.71
593.876	29230.04
594.235	29127.44
594.593	29140.55
594.952	29129.93
595.311	29156.82
595.67	29205.86
596.029	29389.81
596.387	29415.57
596.746	29325.85
597.104	29269.13
597.463	29197.49
597.822	29324.72
598.18	29393.42
598.538	29320.88
598.897	29563.81
599.255	29269.58
599.613	29646.75
599.972	29596.58
600.33	29573.53
600.688	29427.32
601.046	29620.76
601.404	29654.66
601.762	29569.24
602.12	29832.51
602.478	29748.67
602.836	29692.17
603.194	29514.77
603.552	29711.15
603.91	29693.3
604.268	29778.04
604.625	29779.4
604.983	29800.42
605.341	29707.54
605.698	29996.8
606.056	29937.36
606.413	29907.53
606.771	29983.46
607.128	30059.39
607.485	29999.28
607.843	29906.4
608.2	30182.55
608.557	30218.26
608.914	30110.24
609.272	30347.97
609.629	30311.14
609.986	30455.09
610.343	30240.63
610.7	30402.89
611.057	30328.31
611.414	30369.89
611.771	30390.91
612.127	30573.5
612.484	30488.76
612.841	30606.27
613.198	30472.04
613.554	30529.44
613.911	30708.42
614.267	30612.37
614.624	30658.02
614.98	30644.24
615.337	30768.08
615.693	30706.83
616.05	30625.03
616.406	30831.12
616.762	30695.76
617.118	30676.33
617.475	30762.43
617.831	30812.37
618.187	30876.32
618.543	30937.56
618.899	31078.8
619.255	31073.15
619.611	30935.53
619.967	31113.6
620.323	31083.1
620.678	30973.95
621.034	31040.84
621.39	30956.54
621.746	30940.73
622.101	31229.31
622.457	31026.83
622.812	31098.91
623.168	31113.6
623.523	31188.4
623.879	31178.23
624.234	31051.68
624.589	31203.54
624.945	31194.5
625.3	31185.69
625.655	31083.1
626.01	31287.16
626.365	31251
626.72	31169.65
627.075	31078.8
627.43	31162.42
627.785	31063.66
628.14	31128.29
628.495	31113.83
628.85	31124.22
629.205	30953.38
629.559	31095.52
629.914	30952.03
630.269	30981.63
630.623	30917.22
630.978	30759.04
631.332	30872.25
631.687	31054.4
632.041	30778.02
632.396	30855.08
632.75	30798.81
633.104	30742.99
633.459	30696.44
633.813	30665.93
634.167	30602.88
634.521	30591.58
634.875	30557.46
635.229	30543.45
635.583	30451.02
635.937	30375.54
636.291	30389.55
636.645	30372.61
636.999	30400.63
637.352	30354.3
637.706	30133.52
638.06	30286.05
638.413	30271.59
638.767	30129
639.121	30159.28
639.474	30004.93
639.828	29878.61
640.181	30105.04
640.534	29990.02
640.888	29856.23
641.241	29793.19
641.594	29889.91
641.947	29960.41
642.301	29740.31
642.654	29752.06
643.007	29730.14
643.36	29736.24
643.713	29609.91
644.066	29812.85
644.419	29570.14
644.771	29344.16
645.124	29175.8
645.477	28977.39
645.83	28820.78
646.182	28727
646.535	28598.19
646.888	28646.32
647.24	28569.71
647.593	28757.28
647.945	28717.06
648.298	28410.17
648.65	28365.65
649.002	28343.28
649.355	28461.92
649.707	28328.59
650.059	28564.29
650.411	28731.52
650.763	28764.74
651.115	29100.32
651.467	29040.44
651.819	29010.38
652.171	28910.72
652.523	28786.66
652.875	28829.82
653.227	28673.44
653.578	28893.32
653.93	28825.98
654.282	28678.19
654.633	28606.78
654.985	28598.19
655.337	28732.87
655.688	28607.91
656.039	28604.06
656.391	28357.07
656.742	28563.39
657.094	28569.04
657.445	28609.04
657.796	28578.75
658.147	28489.49
658.498	28411.07
658.849	28503.28
659.2	28345.31
659.551	28385.54
659.902	28430.28
660.253	28288.37
660.604	28342.15
660.955	28161.14
661.306	28325.2
661.656	28231.87
662.007	28263.06
662.358	28304.86
662.708	28282.72
663.059	28173.34
663.409	28011.31
663.76	28124.98
664.11	28231.42
664.461	28186.22
664.811	28291.98
665.161	28056.96
665.511	28042.72
665.862	28082.5
666.212	28247.01
666.562	28110.07
666.912	28090.18
667.262	28094.02
667.612	28016.74
667.962	28097.41
668.312	28002.95
668.662	28148.26
669.011	28055.6
669.361	27984.42
669.711	28122.5
670.06	27958.66
670.41	27845.44
670.76	27896.06
671.109	27973.35
671.459	27894.48
671.808	27817.42
672.157	27877.76
672.507	27712.56
672.856	27668.5
673.205	27757.76
673.554	27830.07
673.904	27655.61
674.253	27857.87
674.602	27669.4
674.951	27272.35
675.3	27129.98
675.649	27512.12
675.998	27568.84
676.346	27602.51
676.695	27661.94
677.044	27481.38
677.393	27488.61
677.741	27606.8
678.09	27475.73
678.438	27323.65
678.787	27438.22
679.135	27323.87
679.484	27230.09
679.832	27281.84
680.181	27113.26
680.529	27285.45
680.877	27102.86
681.225	27057.89
681.573	27230.77
681.922	27092.92
682.27	26974.5
682.618	27133.82
682.966	26943.32
683.314	26981.51
683.661	26918.68
684.009	26795.98
684.357	26796.88
684.705	26637.34
685.053	26665.58
685.4	26638.47
685.748	26442.09
686.095	26370.45
686.443	26410.68
686.79	26413.39
687.138	26316.67
687.485	26351.92
687.832	26158.48
688.18	26242.77
688.527	26054.07
688.874	26096.79
689.221	25940.18
689.568	25941.08
689.915	25924.59
690.262	25939.5
690.609	25814.53
690.956	25755.55
691.303	25768.43
691.65	25587.65
691.997	25549.91
692.344	25479.85
692.69	25416.58
693.037	25388.1
693.383	25130.71
693.73	25311.04
694.077	25109.47
694.423	25059.52
694.769	25005.06
695.116	24936.82
695.462	24844.16
695.808	24756.26
696.155	24808.91
696.501	24657.28
696.847	24646.43
697.193	24416.15
697.539	24632.19
697.885	24363.95
698.231	24282.37
698.577	24361.92
698.923	24285.31
699.269	24115.14
699.614	24125.99
699.96	23948.14
700.306	23935.94
700.651	24004.86
700.997	23855.49
701.342	23788.15
701.688	23693.68
702.033	23559.45
702.379	23472.9
702.724	23599.45
703.069	23568.04
703.415	23212.34
703.76	23371.21
704.105	23317.65
704.45	23308.84
704.795	23134.38
705.14	23076.3
705.485	23144.77
705.83	22999.69
706.175	22977.55
706.52	22931.45
706.865	22823.43
707.209	22793.14
707.554	22686.48
707.899	22757.21
708.243	22473.6
708.588	22514.28
708.932	22380.95
709.277	22495.98
709.621	22362.87
709.966	22320.16
710.31	22272.25
710.654	22102.99
710.998	22277.68
711.342	22181.18
711.687	22106.16
712.031	22033.16
712.375	21800.18
712.719	22025.25
713.063	21953.84
713.407	21890.12
713.75	21892.6
714.094	21791.59
714.438	21738.71
714.782	21786.62
715.125	21722.44
715.469	21600.18
715.812	21543.01
716.156	21446.29
716.499	21461.88
716.843	21489.45
717.186	21220.3
717.53	21400.86
717.873	21350.02
718.216	21309.79
718.559	21152.96
718.902	21078.16
719.246	21150.25
719.589	21007.43
719.932	20999.29
720.275	20884.04
720.617	20916.36
720.96	20857.83
721.303	20909.13
721.646	20917.03
721.989	20727.66
722.331	20750.94
722.674	20715.01
723.016	20743.25
723.359	20681.56
723.701	20637.27
724.044	20498.97
724.386	20331.06
724.729	20593.88
725.071	20407.67
725.413	20419.19
725.755	20331.29
726.097	20267.33
726.439	20215.36
726.782	20194.34
727.124	20295.58
727.465	20230.27
727.807	20231.4
728.149	20096.94
728.491	20002.26
728.833	20072.99
729.175	20018.75
729.516	19950.28
729.858	19942.6
730.199	20004.06
730.541	19837.52
730.882	19814.46
731.224	19807.01
731.565	19797.29
731.906	19754.81
732.248	19765.88
732.589	19672.77
732.93	19475.72
733.271	19533.57
733.612	19515.72
733.953	19536.28
734.294	19520.46
734.635	19437.07
734.976	19455.38
735.317	19287.7
735.658	19382.39
735.999	19312.78
736.339	19218.77
736.68	19334.7
737.021	19279.11
737.361	19095.39
737.702	19259.9
738.042	19204.31
738.383	19084.99
738.723	19216.29
739.063	19124.54
739.404	19097.87
739.744	19042.73
740.084	18940.36
740.424	19099.91
740.764	18969.06
741.104	18955.28
741.444	19003.86
741.784	18833.02
742.124	18882.74
742.464	18792.34
742.804	18743.98
743.143	18758.45
743.483	18723.42
743.823	18643.42
744.162	18658.34
744.502	18647.49
744.841	18550.09
745.181	18586.02
745.52	18438.68
745.86	18521.62
746.199	18384.9
746.538	18423.77
746.877	18396.65
747.216	18428.51
747.556	18385.8
747.895	18279.59
748.234	18249.99
748.573	18148.75
748.911	18101.97
749.25	18193.04
749.589	18062.65
749.928	18121.63
750.267	18133.38
750.605	18143.32
750.944	18078.47
751.283	17887.74
751.621	17912.14
751.96	17911.46
752.298	17784.69
752.636	17891.13
752.975	17827.4
753.313	17667.4
753.651	17780.85
753.989	17635.31
754.327	17574.52
