Data from White_paper_FLMS001491_007.txt Node
Date: Tue Feb 07 10:34:35 GMT 2017
User: dcchb
Spectrometer: FLMS00149
Trigger mode: 0
Integration Time (sec): 2.000000E-2
Scans to average: 10
Electric dark correction enabled: true
Nonlinearity correction enabled: false
Boxcar width: 0
XAxis mode: Wavelengths
Number of Pixels in Spectrum: 2048
>>>>>Begin Spectral Data<<<<<
341.393	-9.35
341.776	-9.35
342.16	-9.35
342.543	-53.42
342.927	-83.7
343.31	-69.24
343.693	-55.22
344.077	-84.83
344.46	-53.64
344.843	-50.48
345.226	-51.61
345.61	-21.33
345.993	-10.48
346.376	-13.87
346.759	21.16
347.142	20.71
347.525	47.82
347.908	67.48
348.291	60.93
348.674	86.92
349.057	105.68
349.44	102.29
349.823	150.87
350.206	182.28
350.588	224.77
350.971	222.28
351.354	232
351.737	256.41
352.119	291.21
352.502	290.08
352.884	301.38
353.267	303.18
353.65	319.91
354.032	310.87
354.414	362.39
354.797	361.04
355.179	337.76
355.562	360.81
355.944	351.54
356.326	379.57
356.709	375.27
357.091	358.32
357.473	374.59
357.855	380.02
358.238	361.94
358.62	348.38
359.002	363.97
359.384	375.72
359.766	366.23
360.148	398.32
360.53	357.87
360.912	356.97
361.294	374.59
361.676	352.45
362.057	387.48
362.439	374.37
362.821	371.2
363.203	371.66
363.584	372.79
363.966	375.05
364.348	379.79
364.729	366.91
365.111	343.18
365.493	368.95
365.874	356.74
366.256	327.14
366.637	349.06
367.019	361.71
367.4	347.48
367.781	356.52
368.163	364.65
368.544	367.59
368.925	355.61
369.306	367.82
369.688	358.32
370.069	372.11
370.45	371.43
370.831	380.92
371.212	370.98
371.593	387.48
371.974	352.9
372.355	368.72
372.736	372.11
373.117	383.41
373.498	373.24
373.879	367.59
374.26	364.2
374.641	368.27
375.021	377.98
375.402	386.57
375.783	375.72
376.163	402.62
376.544	394.48
376.925	392.67
377.305	381.15
377.686	407.81
378.066	384.09
378.447	398.55
378.827	399.23
379.208	388.83
379.588	395.84
379.968	413.46
380.349	394.71
380.729	415.95
381.109	415.5
381.489	411.2
381.87	417.31
382.25	399.68
382.63	420.24
383.01	411.88
383.39	424.08
383.77	434.71
384.15	446.91
384.53	455.5
384.91	436.06
385.29	422.05
385.67	444.2
386.049	460.92
386.429	475.16
386.809	463.18
387.189	476.51
387.568	445.55
387.948	457.08
388.328	482.61
388.707	493.24
389.087	491.65
389.466	478.55
389.846	484.87
390.225	491.88
390.605	495.04
390.984	493.69
391.363	503.63
391.743	514.03
392.122	541.14
392.501	504.76
392.881	507.92
393.26	539.34
393.639	531.65
394.018	521.26
394.397	555.15
394.776	536.85
395.155	549.28
395.534	565.32
395.913	571.65
396.292	582.05
396.671	574.82
397.05	580.24
397.429	592.44
397.808	598.09
398.186	599.67
398.565	620.92
398.944	620.92
399.323	615.04
399.701	624.31
400.08	643.74
400.458	642.38
400.837	662.5
401.215	662.04
401.594	653.23
401.972	636.73
402.351	680.58
402.729	686.22
403.107	712.21
403.486	720.57
403.864	721.7
404.242	709.73
404.62	754.7
404.999	763.51
405.377	765.77
405.755	779.78
406.133	791.76
406.511	809.16
406.889	832.21
407.267	858.65
407.645	879.67
408.023	888.48
408.401	897.52
408.779	894.81
409.156	949.04
409.534	947.23
409.912	987.23
410.29	1031.53
410.667	1023.39
411.045	1041.47
411.422	1074.92
411.8	1104.97
412.178	1122.6
412.555	1184.97
412.933	1193.1
413.31	1208.47
413.687	1247.57
414.065	1287.11
414.442	1302.48
414.819	1333.44
415.197	1373.66
415.574	1415.25
415.951	1422.02
416.328	1429.03
416.705	1461.8
417.082	1505.86
417.46	1520.55
417.837	1547.22
418.214	1570.04
418.591	1591.29
418.967	1594.45
419.344	1662.02
419.721	1678.29
420.098	1696.14
420.475	1692.53
420.852	1729.14
421.228	1799.42
421.605	1779.08
421.982	1815.01
422.358	1840.09
422.735	1903.82
423.111	1873.09
423.488	1906.76
423.864	1962.35
424.241	1948.56
424.617	1991.73
424.994	2026.3
425.37	2035.57
425.746	2080.76
426.123	2082.35
426.499	2119.41
426.875	2156.69
427.251	2196.47
427.627	2243.47
428.003	2289.57
428.379	2285.28
428.756	2323.92
429.132	2370.02
429.507	2419.74
429.883	2419.29
430.259	2451.6
430.635	2477.82
431.011	2534.76
431.387	2584.71
431.763	2659.28
432.138	2609.11
432.514	2710.13
432.89	2733.63
433.265	2766.85
433.641	2846.39
434.016	2860.63
434.392	2898.14
434.767	2948.09
435.143	2945.15
435.518	3036.22
435.894	3061.98
436.269	3092.94
436.644	3122.55
437.02	3153.96
437.395	3167.06
437.77	3176.33
438.145	3290
438.52	3275.76
438.895	3311.01
439.271	3388.75
439.646	3418.13
440.021	3466.49
440.395	3466.04
440.77	3466.94
441.145	3478.69
441.52	3581.06
441.895	3557.79
442.27	3609.54
442.645	3598.01
443.019	3687.73
443.394	3632.14
443.769	3690.67
444.143	3666.49
444.518	3754.17
444.892	3748.29
445.267	3787.84
445.641	3794.84
446.016	3838.23
446.39	3863.99
446.764	3886.82
447.139	3873.94
447.513	3920.72
447.887	3932.24
448.262	3958
448.636	3928.63
449.01	4026.25
449.384	4066.47
449.758	4080.71
450.132	4159.58
450.506	4148.96
450.88	4197.32
451.254	4219.47
451.628	4254.04
452.002	4284.32
452.376	4315.06
452.75	4399.57
453.123	4377.65
453.497	4462.17
453.871	4536.97
454.244	4612.45
454.618	4602.28
454.992	4690.41
455.365	4705.55
455.739	4811.54
456.112	4858.09
456.486	4880.46
456.859	4980.12
457.232	5074.81
457.606	5014.25
457.979	5111.65
458.352	5192.77
458.725	5242.26
459.099	5275.48
459.472	5412.2
459.845	5448.81
460.218	5487.23
460.591	5616.04
460.964	5549.83
461.337	5753.89
461.71	5802.25
462.083	5844.51
462.456	5864.62
462.829	5927.67
463.201	6020.1
463.574	6038.4
463.947	6168.11
464.32	6291.95
464.692	6322.23
465.065	6385.96
465.438	6415.57
465.81	6532.85
466.183	6615.11
466.555	6803.58
466.928	6802.9
467.3	6772.62
467.672	6969.68
468.045	7086.96
468.417	7150.01
468.789	7198.6
469.161	7298.25
469.534	7408.76
469.906	7571.92
470.278	7622.09
470.65	7730.11
471.022	7850.1
471.394	8054.84
471.766	8037.22
472.138	8147.72
472.51	8336.42
472.882	8517.43
473.253	8598.33
473.625	8684.88
473.997	8846.01
474.369	8909.74
474.74	9013.92
475.112	9225.44
475.484	9370.97
475.855	9490.74
476.227	9554.01
476.598	9815.48
476.97	9958.98
477.341	10140.21
477.713	10253.2
478.084	10303.6
478.455	10617.94
478.827	10773.64
479.198	10986.75
479.569	11040.53
479.94	11370.46
480.311	11458.15
480.682	11744.47
481.053	11941.3
481.424	12167.96
481.795	12184.23
482.166	12481.17
482.537	12628.51
482.908	12937.65
483.279	12992.57
483.65	13189.62
484.021	13503.97
484.391	13636.39
484.762	13759.55
485.133	13968.14
485.503	14016.5
485.874	14385.07
486.244	14437.05
486.615	14709.81
486.985	14941.9
487.356	15218.5
487.726	15343.92
488.097	15539.85
488.467	15611.03
488.837	15940.29
489.207	16224.35
489.578	16330.79
489.948	16555.64
490.318	16771.45
490.688	16785.24
491.058	17133.7
491.428	17391.1
491.798	17469.74
492.168	17870.41
492.538	17854.81
492.908	18147.01
493.278	18304.29
493.648	18260.9
494.017	18559.2
494.387	18702.7
494.757	18865.18
495.126	19073.09
495.496	19115.57
495.866	19232.18
496.235	19517.37
496.605	19632.39
496.974	19656.35
497.344	19953.29
497.713	19991.71
498.082	20206.84
498.452	20425.59
498.821	20514.18
499.19	20581.75
499.559	20644.57
499.928	20917.78
500.298	20984.9
500.667	21305.34
501.036	21287.49
501.405	21364.55
501.774	21438
502.143	21647.93
502.512	21767.48
502.88	22028.49
503.249	22016.74
503.618	22209.05
503.987	22268.48
504.356	22374.69
504.724	22614.01
505.093	22618.98
505.462	22731.07
505.83	23000.21
506.199	23062.59
506.567	23301.22
506.936	23444.5
507.304	23694.66
507.672	23752.96
508.041	23869.8
508.409	24083.12
508.777	24297.36
509.145	24266.62
509.514	24491.25
509.882	24605.37
510.25	24748.19
510.618	24895.98
510.986	25004.46
511.354	25313.37
511.722	25337.33
512.09	25584.1
512.458	25601.73
512.826	25894.15
513.193	25939.57
513.561	26095.95
513.929	26298.43
514.297	26570.52
514.664	26851.19
515.032	26821.58
515.4	27099.32
515.767	27184.74
516.135	27209.37
516.502	27217.28
516.869	27632.18
517.237	27692.97
517.604	27752.18
517.972	28078.27
518.339	28283.47
518.706	28256.35
519.073	28430.13
519.44	28709.22
519.808	28926.61
520.175	28961.41
520.542	29235.08
520.909	29516.65
521.276	29475.75
521.643	29832.8
522.009	30061.95
522.376	30214.49
522.743	30465.33
523.11	30771.99
523.477	30927.69
523.843	31127.01
524.21	31389.6
524.577	31691.96
524.943	31765.18
525.31	32030.94
525.676	32227.77
526.043	32473.41
526.409	32494.88
526.776	32804.02
527.142	33007.86
527.508	33162.66
527.874	33348.87
528.241	33627.05
528.607	33656.88
528.973	33956.54
529.339	34105.01
529.705	34284.66
530.071	34665.67
530.437	34862.73
530.803	34940.92
531.169	35143.17
531.535	35079.44
531.901	35355.6
532.267	35506.78
532.632	35681.01
532.998	35745.19
533.364	36172.3
533.73	36151.73
534.095	36537.94
534.461	36544.94
534.826	36826.29
535.192	36905.16
535.557	37147.41
535.923	37150.12
536.288	37445.48
536.653	37514.86
537.019	37440.29
537.384	37835.3
537.749	37772.71
538.114	37996.43
538.479	38105.13
538.845	38327.72
539.21	38125.92
539.575	38503.76
539.94	38602.74
540.305	38752.79
540.67	38763.42
541.034	38969.06
541.399	39118.89
541.764	39295.61
542.129	39364.98
542.494	39521.14
542.858	39611.98
543.223	39719.55
543.587	39887
543.952	39860.11
544.316	40263.26
544.681	40203.83
545.045	40239.08
545.41	40740.09
545.774	40730.6
546.138	40658.73
546.503	40950.02
546.867	40897.14
547.231	41230.47
547.595	41300.75
547.959	41465.04
548.324	41572.38
548.688	41591.14
549.052	41788.65
549.416	41768.99
549.779	42036.78
550.143	42012.6
550.507	42362.87
550.871	42469.98
551.235	42545.24
551.599	42733.71
551.962	42873.59
552.326	42903.87
552.689	43281.26
553.053	43121.49
553.417	43217.99
553.78	43767.8
554.143	43486.68
554.507	43728.93
554.87	43862.72
555.234	44237.17
555.597	44256.15
555.96	44250.5
556.323	44461.57
556.686	44454.79
557.05	44805.29
557.413	44882.12
557.776	44981.11
558.139	45291.83
558.502	45345.39
558.865	45327.99
559.228	45655.66
559.59	45825.15
559.953	45962.77
560.316	46228.3
560.679	46210.23
561.041	46566.83
561.404	46685.02
561.767	47018.34
562.129	46878.46
562.492	47226.24
562.854	47110.77
563.217	47246.58
563.579	47371.78
563.941	47679.79
564.304	47897.86
564.666	48073.68
565.028	48044.75
565.39	48292.88
565.753	48463.73
566.115	48560.9
566.477	48746.88
566.839	48767.9
567.201	49154.1
567.563	48997.5
567.925	49478.84
568.287	49439.75
568.648	49551.38
569.01	49729.68
569.372	49896.46
569.734	49798.15
570.095	50056
570.457	50261.64
570.819	50357.91
571.18	50224.13
571.542	50641.97
571.903	50716.1
572.265	50747.73
572.626	50861.18
572.987	50958.58
573.349	51147.72
573.71	51190.21
574.071	51210.55
574.432	51428.62
574.794	51759.23
575.155	51613.47
575.516	51590.88
575.877	51690.99
576.238	51719.91
576.599	51909.96
576.96	51997.87
577.32	52022.5
577.681	52130.3
578.042	52227.92
578.403	52309.73
578.763	52288.26
579.124	52296.62
579.485	52447.35
579.845	52540.45
580.206	52450.97
580.566	52578.19
580.927	52719.43
581.287	52684.86
581.648	52669.49
582.008	52854.57
582.368	52777.74
582.728	52960.56
583.089	52833.33
583.449	52851.18
583.809	52909.48
584.169	53048.46
584.529	52945.64
584.889	53211.4
585.249	53048.46
585.609	52953.1
585.969	53131.85
586.329	53092.3
586.688	53141.12
587.048	53181.12
587.408	53123.94
587.768	53251.62
588.127	53128.91
588.487	53121.68
588.846	53413.88
589.206	53147.9
589.565	53178.4
589.925	53372.75
590.284	53288.01
590.643	53366.87
591.003	53445.06
591.362	53477.38
591.721	53431.96
592.08	53441.45
592.44	53566.64
592.799	53540.88
593.158	53526.42
593.517	53490.03
593.876	53579.75
594.235	53482.58
594.593	53601.9
594.952	53687.77
595.311	53560.31
595.67	53673.08
596.029	53840.31
596.387	53830.14
596.746	53846.41
597.104	53830.59
597.463	53761.67
597.822	53917.37
598.18	53815.68
598.538	53761.44
598.897	53920.53
599.255	53757.37
599.613	54132.96
599.972	54016.8
600.33	54042.34
600.688	53927.31
601.046	54100.87
601.404	54140.41
601.762	54090.47
602.12	54135.21
602.478	54224.03
602.836	54264.93
603.194	54007.31
603.552	54148.1
603.91	54131.83
604.268	54239.17
604.625	54093.86
604.983	54204.59
605.341	54174.76
605.698	54328.66
606.056	54334.08
606.413	54312.16
606.771	54451.14
607.128	54523.45
607.485	54301.09
607.843	54412.27
608.2	54580.63
608.557	54618.37
608.914	54555.99
609.272	54686.61
609.629	54670.34
609.986	54764.35
610.343	54632.38
610.7	54875.08
611.057	54818.59
611.414	54830.79
611.771	54777.23
612.127	54922.99
612.484	54813.16
612.841	54955.08
613.198	54926.38
613.554	54947.62
613.911	55086.38
614.267	55086.6
614.624	55092.03
614.98	55067.17
615.337	55177.22
615.693	55139.03
616.05	55141.06
616.406	55278.69
616.762	55130.44
617.118	55160.05
617.475	55137.67
617.831	55266.03
618.187	55261.51
618.543	55289.99
618.899	55473.94
619.255	55384
619.611	55347.16
619.967	55374.5
620.323	55468.97
620.678	55391.91
621.034	55386.93
621.39	55357.1
621.746	55364.34
622.101	55649.53
622.457	55348.52
622.812	55422.19
623.168	55551.9
623.523	55495.63
623.879	55602.97
624.234	55378.8
624.589	55508.74
624.945	55478.91
625.3	55553.93
625.655	55509.64
626.01	55593.03
626.365	55534.5
626.72	55433.26
627.075	55495.18
627.43	55452.92
627.785	55449.08
628.14	55479.36
628.495	55605.46
628.85	55498.12
629.205	55389.65
629.559	55583.31
629.914	55400.27
630.269	55448.17
630.623	55377.67
630.978	55346.48
631.332	55490.43
631.687	55562.97
632.041	55371.34
632.396	55507.83
632.75	55392.36
633.104	55410.89
633.459	55280.5
633.813	55270.33
634.167	55215.86
634.521	55232.59
634.875	55334.96
635.229	55190.33
635.583	55185.58
635.937	55167.96
636.291	55152.36
636.645	55203.44
636.999	55105.81
637.352	55199.14
637.706	55046.15
638.06	55142.42
638.413	55067.62
638.767	55117.79
639.121	55161.85
639.474	54966.83
639.828	54924.8
640.181	55094.06
640.534	55042.99
640.888	54934.52
641.241	54942.88
641.594	54978.58
641.947	55050.22
642.301	54855.2
642.654	54941.52
643.007	54927.28
643.36	54886.38
643.713	54888.87
644.066	54971.8
644.419	54793.5
644.771	54607.29
645.124	54252.95
645.477	54273.52
645.83	54129.34
646.182	54055.22
646.535	53869.69
646.888	53973.86
647.24	53834.21
647.593	54049.79
647.945	53906.97
648.298	53839.4
648.65	53786.52
649.002	53714.66
649.355	53830.82
649.707	53824.26
650.059	53997.37
650.411	54289.34
650.763	54368.43
651.115	54642.32
651.467	54549.89
651.819	54558.48
652.171	54398.94
652.523	54334.08
652.875	54414.76
653.227	54221.31
653.578	54524.13
653.93	54421.08
654.282	54319.84
654.633	54240.07
654.985	54294.31
655.337	54288.21
655.688	54307.87
656.039	54392.16
656.391	54036.46
656.742	54154.88
657.094	54206.17
657.445	54299.05
657.796	54186.51
658.147	54146.29
658.498	54226.06
658.849	54210.69
659.2	54162.11
659.551	54101.54
659.902	54172.95
660.253	54148.55
660.604	54214.31
660.955	53971.6
661.306	54087.53
661.656	54077.82
662.007	54036.23
662.358	54096.12
662.708	54091.15
663.059	54015.44
663.409	53736.13
663.76	54095.67
664.11	53978.83
664.461	54034.2
664.811	54071.71
665.161	54033.97
665.511	53932.28
665.862	54006.18
666.212	53980.42
666.562	54061.32
666.912	53980.19
667.262	53895
667.612	53923.92
667.962	53910.14
668.312	53818.61
668.662	53988.55
669.011	53857.71
669.361	53861.78
669.711	53785.85
670.06	53652.52
670.41	53706.53
670.76	53679.63
671.109	53674.89
671.459	53709.01
671.808	53646.64
672.157	53695.23
672.507	53585.62
672.856	53558.96
673.205	53625.62
673.554	53662.01
673.904	53493.2
674.253	53696.58
674.602	53537.49
674.951	53082.14
675.3	52982.7
675.649	53420.66
675.998	53438.28
676.346	53379.98
676.695	53481.67
677.044	53217.05
677.393	53282.58
677.741	53253.43
678.09	53195.8
678.438	53176.14
678.787	53242.81
679.135	53126.2
679.484	53012.08
679.832	53059.09
680.181	52875.59
680.529	52991.74
680.877	52846.21
681.225	52805.08
681.573	52951.29
681.922	52697.96
682.27	52624.07
682.618	52679.66
682.966	52533.22
683.314	52558.08
683.661	52611.19
684.009	52378.43
684.357	52278.09
684.705	52167.58
685.053	52342.95
685.4	52196.28
685.748	52032.67
686.095	52013.01
686.443	51937.98
686.79	51806.69
687.138	51869.96
687.485	51858.44
687.832	51615.73
688.18	51769.18
688.527	51454.16
688.874	51468.62
689.221	51492.35
689.568	51312.24
689.915	51207.16
690.262	51240.38
690.609	51139.81
690.956	50999.93
691.303	51035.86
691.65	50811.23
691.997	50808.52
692.344	50561.75
692.69	50614.18
693.037	50678.13
693.383	50306.84
693.73	50414.18
694.077	50147.75
694.423	50289.89
694.769	50115.21
695.116	49917.47
695.462	49960.18
695.808	49834.31
696.155	49858.49
696.501	49619.4
696.847	49586.86
697.193	49347.54
697.539	49531.27
697.885	49169.24
698.231	49111.84
698.577	49144.84
698.923	49079.75
699.269	48855.81
699.614	48697.39
699.96	48631.18
700.306	48697.62
700.651	48494.46
700.997	48221.25
701.342	48240.45
701.688	48277.06
702.033	48042.49
702.379	48195.71
702.724	47904.19
703.069	48010.86
703.415	47497.42
703.76	47566.12
704.105	47568.61
704.45	47454.49
704.795	47357.31
705.14	47106.7
705.485	47068.73
705.83	47042.29
706.175	47076.87
706.52	46798.91
706.865	46838.01
707.209	46675.52
707.554	46510.33
707.899	46651.57
708.243	46273.27
708.588	46397.11
708.932	46161.41
709.277	46051.36
709.621	46126.61
709.966	45818.6
710.31	45915.77
710.654	45638.26
710.998	45673.97
711.342	45691.6
711.687	45447.31
712.031	45375.22
712.375	45197.14
712.719	45299.74
713.063	45195.11
713.407	45441.21
713.75	45191.27
714.094	45013.65
714.438	44868.57
714.782	44881.22
715.125	44505.41
715.469	44720.55
715.812	44477.16
716.156	44194.01
716.499	44422.7
716.843	44429.26
717.186	44095.03
717.53	44321.91
717.873	44325.3
718.216	44110.39
718.559	43886.9
718.902	43840.34
719.246	43900.68
719.589	43692.55
719.932	43626.11
720.275	43648.49
720.617	43598.32
720.96	43373.01
721.303	43545.21
721.646	43427.47
721.989	43031.33
722.331	43259.57
722.674	43044.21
723.016	43164.88
723.359	43020.93
723.701	43122.17
724.044	42756.98
724.386	42686.02
724.729	42896.19
725.071	42698.68
725.413	42558.57
725.755	42561.73
726.097	42448.52
726.439	42339.37
726.782	42365.13
727.124	42529.64
727.465	42115.64
727.807	42379.14
728.149	42119.03
728.491	42181.63
728.833	42131.24
729.175	41977.34
729.516	41801.98
729.858	41747.29
730.199	41825.93
730.541	41887.18
730.882	41611.7
731.224	41725.37
731.565	41505.26
731.906	41651.02
732.248	41642.44
732.589	41325.16
732.93	41329.22
733.271	41313.41
733.612	41298.26
733.953	41338.26
734.294	41125.39
734.635	41112.51
734.976	41112.28
735.317	40914.77
735.658	41029.34
735.999	40997.93
736.339	40871.16
736.68	40794.32
737.021	40575.35
737.361	40546.65
737.702	40725.4
738.042	40609.02
738.383	40494.44
738.723	40594.1
739.063	40371.06
739.404	40466.42
739.744	40392.07
740.084	40223.04
740.424	40224.62
740.764	40143.72
741.104	40241.12
741.444	39992.76
741.784	39816.5
742.124	40028.47
742.464	39765.42
742.804	39828.25
743.143	39720.68
743.483	39775.37
743.823	39491.76
744.162	39589.61
744.502	39484.75
744.841	39412.44
745.181	39544.64
745.52	39437.07
745.86	39376.51
746.199	39238.21
746.538	39199.79
746.877	39395.26
747.216	39243.86
747.556	38999.57
747.895	39297.64
748.234	39055.61
748.573	38688.39
748.911	38795.51
749.25	38829.4
749.589	38752.79
749.928	38696.52
750.267	38636.87
750.605	38661.72
750.944	38486.36
751.283	38361.84
751.621	38458.79
751.96	38283.88
752.298	38195.97
752.636	38150.32
