Data from white_poster_card_FLMS001491_00022.txt Node
Date: Wed Feb 08 11:51:17 GMT 2017
User: dcchb
Spectrometer: FLMS00149
Trigger mode: 0
Integration Time (sec): 2.000000E-2
Scans to average: 10
Electric dark correction enabled: true
Nonlinearity correction enabled: false
Boxcar width: 0
XAxis mode: Wavelengths
Number of Pixels in Spectrum: 2048
>>>>>Begin Spectral Data<<<<<
341.393	-10.48
341.776	-10.48
342.16	-10.48
342.543	-55.22
342.927	-68.33
343.31	-75.34
343.693	-62.23
344.077	-70.59
344.46	-60.65
344.843	-57.03
345.226	-37.82
345.61	-37.82
345.993	-13.19
346.376	-18.39
346.759	15.96
347.142	23.87
347.525	33.81
347.908	77.43
348.291	71.55
348.674	104.77
349.057	105.68
349.44	135.5
349.823	138.67
350.206	165.11
350.588	191.55
350.971	215.05
351.354	222.73
351.737	249.4
352.119	245.56
352.502	239.91
352.884	268.16
353.267	290.3
353.65	276.29
354.032	292.11
354.414	297.76
354.797	309.06
355.179	336.63
355.562	317.2
355.944	309.29
356.326	314.94
356.709	349.06
357.091	344.31
357.473	339.57
357.855	336.4
358.238	344.31
358.62	332.79
359.002	341.15
359.384	347.48
359.766	336.86
360.148	321.26
360.53	333.24
360.912	352.45
361.294	326.91
361.676	329.4
362.057	334.6
362.439	331.66
362.821	320.13
363.203	340.02
363.584	323.3
363.966	326.69
364.348	325.56
364.729	328.04
365.111	313.35
365.493	310.64
365.874	315.61
366.256	305.44
366.637	312.22
367.019	309.06
367.4	297.08
367.781	317.65
368.163	312.68
368.544	310.87
368.925	323.75
369.306	306.12
369.688	297.08
370.069	328.27
370.45	275.39
370.831	302.96
371.212	308.83
371.593	313.58
371.974	331.88
372.355	299.79
372.736	309.06
373.117	311.09
373.498	321.04
373.879	317.2
374.26	331.88
374.641	328.72
375.021	297.99
375.402	321.04
375.783	308.38
376.163	314.03
376.544	331.21
376.925	324.2
377.305	331.43
377.686	326.91
378.066	357.65
378.447	338.44
378.827	326.23
379.208	333.01
379.588	334.37
379.968	340.47
380.349	334.82
380.729	330.75
381.109	346.12
381.489	333.01
381.87	349.28
382.25	350.64
382.63	352.45
383.01	339.79
383.39	361.26
383.77	342.05
384.15	348.38
384.53	360.81
384.91	345.44
385.29	357.87
385.67	348.61
386.049	373.92
386.429	358.32
386.809	356.74
387.189	351.32
387.568	359.45
387.948	354.26
388.328	354.48
388.707	375.05
389.087	362.84
389.466	354.48
389.846	370.98
390.225	363.3
390.605	377.76
390.984	395.39
391.363	394.48
391.743	378.44
392.122	375.05
392.501	386.8
392.881	378.66
393.26	362.17
393.639	385.89
394.018	386.35
394.397	405.33
394.776	391.32
395.155	411.2
395.534	399
395.913	387.02
396.292	413.24
396.671	379.57
397.05	394.26
397.429	400.36
397.808	417.08
398.186	436.06
398.565	411.66
398.944	420.02
399.323	420.7
399.701	426.12
400.08	419.11
400.458	449.62
400.837	457.76
401.215	454.37
401.594	430.41
401.972	435.61
402.351	445.55
402.729	444.88
403.107	450.07
403.486	435.61
403.864	469.06
404.242	448.04
404.62	455.72
404.999	483.07
405.377	469.06
405.755	479.68
406.133	478.55
406.511	506.34
406.889	495.72
407.267	509.05
407.645	498.43
408.023	516.96
408.401	532.78
408.779	523.29
409.156	536.85
409.534	575.27
409.912	547.47
410.29	568.49
410.667	570.52
411.045	567.58
411.422	564.42
411.8	590.18
412.178	614.81
412.555	622.05
412.933	641.48
413.31	671.54
413.687	684.87
414.065	671.08
414.442	690.52
414.819	714.7
415.197	722.83
415.574	726.45
415.951	752.21
416.328	764.19
416.705	773.91
417.082	788.6
417.46	798.54
417.837	833.34
418.214	829.95
418.591	839.22
418.967	820.46
419.344	861.59
419.721	877.18
420.098	881.47
420.475	882.38
420.852	897.74
421.228	937.97
421.605	958.76
421.982	971.64
422.358	956.5
422.735	995.6
423.111	982.49
423.488	1016.16
423.864	1017.52
424.241	1045.76
424.617	1046.89
424.994	1050.28
425.37	1063.16
425.746	1066.1
426.123	1101.58
426.499	1092.54
426.875	1107.68
427.251	1134.12
427.627	1184.06
428.003	1198.98
428.379	1196.72
428.756	1220.67
429.132	1214.12
429.507	1247.34
429.883	1240.56
430.259	1264.29
430.635	1281.24
431.011	1325.3
431.387	1336.83
431.763	1344.96
432.138	1370.05
432.514	1390.16
432.89	1382.93
433.265	1421.12
433.641	1465.87
434.016	1454.57
434.392	1475.81
434.767	1493.66
435.143	1542.93
435.518	1517.62
435.894	1546.77
436.269	1567.78
436.644	1591.96
437.02	1620.21
437.395	1615.47
437.77	1651.85
438.145	1673.54
438.52	1664.05
438.895	1699.76
439.271	1708.57
439.646	1766.87
440.021	1765.74
440.395	1766.2
440.77	1777.04
441.145	1755.35
441.52	1809.13
441.895	1819.3
442.27	1847.78
442.645	1786.08
443.019	1864.5
443.394	1853.65
443.769	1856.82
444.143	1876.7
444.518	1880.09
444.892	1910.15
445.267	1925.51
445.641	1901.11
446.016	1904.27
446.39	1985.85
446.764	1966.19
447.139	1950.15
447.513	1984.72
447.887	1982.01
448.262	1992.63
448.636	2011.84
449.01	2052.97
449.384	2081.22
449.758	2078.05
450.132	2094.55
450.506	2096.36
450.88	2083.93
451.254	2107.43
451.628	2158.05
452.002	2173.19
452.376	2192.4
452.75	2217.03
453.123	2218.16
453.497	2260.65
453.871	2231.04
454.244	2293.64
454.618	2306.97
454.992	2332.06
455.365	2360.31
455.739	2441.21
456.112	2460.42
456.486	2446.4
456.859	2467.2
457.232	2523.24
457.606	2520.98
457.979	2537.48
458.352	2570.24
458.725	2654.08
459.099	2620.86
459.472	2664.93
459.845	2730.92
460.218	2716
460.591	2789.45
460.964	2756.23
461.337	2845.72
461.71	2867.18
462.083	2915.09
462.456	2916.45
462.829	2918.03
463.201	2974.98
463.574	2999.84
463.947	3037.58
464.32	3055.65
464.692	3097.46
465.065	3096.56
465.438	3154.63
465.81	3201.19
466.183	3253.39
466.555	3290.68
466.928	3356.44
467.3	3304.91
467.672	3366.83
468.045	3462.88
468.417	3471.24
468.789	3487.51
469.161	3556.88
469.534	3582.65
469.906	3652.25
470.278	3708.52
470.65	3728.86
471.022	3773.6
471.394	3852.24
471.766	3915.52
472.138	3948.06
472.51	4030.77
472.882	4110.54
473.253	4105.8
473.625	4170.65
473.997	4211.1
474.369	4256.07
474.74	4307.6
475.112	4386.92
475.484	4443.19
475.855	4517.08
476.227	4583.07
476.598	4693.13
476.97	4730.64
477.341	4823.29
477.713	4886.79
478.084	4889.5
478.455	5084.75
478.827	5109.16
479.198	5247.46
479.569	5253.56
479.94	5391.41
480.311	5418.98
480.682	5538.75
481.053	5671.4
481.424	5725.87
481.795	5802.93
482.166	5839.54
482.537	5946.65
482.908	6063.48
483.279	6093.31
483.65	6221.67
484.021	6346.64
484.391	6395.68
484.762	6470.25
485.133	6534.21
485.503	6635.45
485.874	6772.39
486.244	6846.06
486.615	7008.77
486.985	7084.02
487.356	7162.66
487.726	7196.79
488.097	7382.55
488.467	7421.87
488.837	7586.16
489.207	7645.14
489.578	7737.11
489.948	7854.85
490.318	7895.3
490.688	7996.32
491.058	8104.33
491.428	8218.68
491.798	8281.96
492.168	8494.38
492.538	8470.65
492.908	8621.16
493.278	8678.56
493.648	8728.95
494.017	8820.25
494.387	8928.95
494.757	8997.19
495.126	9116.29
495.496	9081.48
495.866	9230.41
496.235	9254.59
496.605	9368.03
496.974	9470.63
497.344	9504.3
497.713	9598.53
498.082	9666.78
498.452	9798.75
498.821	9827.23
499.19	9878.98
499.559	9980.9
499.928	10010.95
500.298	10163.26
500.667	10228.12
501.036	10200.55
501.405	10320.77
501.774	10375.46
502.143	10438.74
502.512	10568.68
502.88	10615
503.249	10616.13
503.618	10713.53
503.987	10800.54
504.356	10877.37
504.724	10909.91
505.093	11002.79
505.462	11052.51
505.83	11174.76
506.199	11202.33
506.567	11308.32
506.936	11301.31
507.304	11546.96
507.672	11599.16
508.041	11603
508.409	11715.31
508.777	11847.74
509.145	11894.07
509.514	11908.53
509.882	12034.85
510.25	12117.11
510.618	12136.77
510.986	12179.03
511.354	12337.44
511.722	12501.51
512.09	12602.75
512.458	12555.97
512.826	12766.36
513.193	12803.87
513.561	12892.91
513.929	12992.57
514.297	13079.57
514.664	13136.29
515.032	13198.21
515.4	13338.55
515.767	13414.03
516.135	13494.93
516.502	13445.66
516.869	13672.78
517.237	13825.09
517.604	13761.14
517.972	13905.09
518.339	14050.85
518.706	14065.08
519.073	14178.07
519.44	14243.83
519.808	14449.7
520.175	14528.12
520.542	14699.87
520.909	14762.01
521.276	14735.8
521.643	14961.56
522.009	15057.37
522.376	15121.33
522.743	15230.93
523.11	15369.91
523.477	15613.97
523.843	15686.06
524.21	15890.8
524.577	15911.36
524.943	16036.33
525.31	16131.69
525.676	16254.4
526.043	16449.2
526.409	16441.29
526.776	16627.95
527.142	16681.51
527.508	16836.53
527.874	16983.88
528.241	17163.53
528.607	17239.24
528.973	17347.71
529.339	17300.48
529.705	17473.35
530.071	17639.9
530.437	17761.71
530.803	17806
531.169	17907.92
531.535	17892.33
531.901	18013.9
532.267	18149.72
532.632	18360.56
532.998	18299.55
533.364	18558.98
533.73	18521.46
534.095	18634.23
534.461	18794
534.826	18804.62
535.192	18896.14
535.557	19147.66
535.923	19072.18
536.288	19139.52
536.653	19243.7
537.019	19263.59
537.384	19313.76
537.749	19483.7
538.114	19552.17
538.479	19600.08
538.845	19731.83
539.21	19738.15
539.575	19810.47
539.94	19839.39
540.305	20055.43
540.67	19999.84
541.034	20105.6
541.399	20201.64
541.764	20275.54
542.129	20318.25
542.494	20330.68
542.858	20434.86
543.223	20595.31
543.587	20747.17
543.952	20646.15
544.316	20716.43
544.681	20725.02
545.045	20881.85
545.41	20951.45
545.774	21141.51
546.138	21088.4
546.503	21167.95
546.867	21173.14
547.231	21436.87
547.595	21431.89
547.959	21545.56
548.324	21535.62
548.688	21654.49
549.052	21715.5
549.416	21684.09
549.779	21764.31
550.143	21813.8
550.507	22089.96
550.871	22075.04
551.235	22158.88
551.599	22277.52
551.962	22476.84
552.326	22443.62
552.689	22554.35
553.053	22503.05
553.417	22558.87
553.78	22902.14
554.143	22851.74
554.507	22798.86
554.87	23022.13
555.234	23165.86
555.597	23199.76
555.96	23248.12
556.323	23331.51
556.686	23402.01
557.05	23517.49
557.413	23578.73
557.776	23796.8
558.139	23825.5
558.502	23972.17
558.865	23979.17
559.228	24245.83
559.59	24251.03
559.953	24317.47
560.316	24576.9
560.679	24610.57
561.041	24871.58
561.404	24862.99
561.767	25078.35
562.129	24969.88
562.492	25293.71
562.854	25265.47
563.217	25276.09
563.579	25341.62
563.941	25609.19
564.304	25604.44
564.666	25891.89
565.028	25831.55
565.39	25917.43
565.753	26111.55
566.115	26196.97
566.477	26339.34
566.839	26344.76
567.201	26480.12
567.563	26486
567.925	26801.24
568.287	26833.33
568.648	27002.37
569.01	27162.14
569.372	27310.84
569.734	27199.2
570.095	27420.89
570.457	27441.45
570.819	27574.78
571.18	27487.33
571.542	27710.37
571.903	27763.48
572.265	27882.8
572.626	28008.9
572.987	27979.74
573.349	28224.03
573.71	28249.12
574.071	28372.73
574.432	28333.86
574.794	28555.55
575.155	28575.21
575.516	28450.92
575.877	28582.21
576.238	28581.08
576.599	28855.43
576.96	28716.22
577.32	28847.74
577.681	29013.62
578.042	29015.42
578.403	29003.45
578.763	29051.35
579.124	29176.1
579.485	29303.1
579.845	29241.86
580.206	29233.5
580.566	29228.75
580.927	29302.42
581.287	29347.84
581.648	29409.09
582.008	29412.25
582.368	29459.93
582.728	29452.25
583.089	29340.61
583.449	29440.5
583.809	29568.86
584.169	29584.67
584.529	29569.76
584.889	29752.13
585.249	29619.93
585.609	29448.18
585.969	29633.03
586.329	29584.45
586.688	29600.27
587.048	29493.6
587.408	29623.09
587.768	29628.74
588.127	29609.98
588.487	29584.45
588.846	29853.59
589.206	29516.88
589.565	29614.5
589.925	29765.91
590.284	29698.12
590.643	29742.18
591.003	29767.04
591.362	29826.02
591.721	29831
592.08	29745.57
592.44	29854.05
592.799	29820.37
593.158	29742.41
593.517	29856.76
593.876	29877.32
594.235	29738.12
594.593	29934.27
594.952	29965
595.311	29837.1
595.67	29990.99
596.029	30040.93
596.387	30068.05
596.746	30060.37
597.104	30010.88
597.463	29933.37
597.822	30154.15
598.18	29924.55
598.538	29923.87
598.897	30224.43
599.255	29990.09
599.613	30334.26
599.972	30076.19
600.33	30237.76
600.688	30063.53
601.046	30258.55
601.404	30354.82
601.762	30218.78
602.12	30426.91
602.478	30407.03
602.836	30270.76
603.194	30280.7
603.552	30293.13
603.91	30207.03
604.268	30292
604.625	30337.42
604.983	30560.69
605.341	30353.47
605.698	30464.88
606.056	30574.48
606.413	30507.14
606.771	30741.48
607.128	30672.56
607.485	30613.35
607.843	30674.81
608.2	30730.86
608.557	30846.11
608.914	30739.22
609.272	30943.73
609.629	30957.07
609.986	30961.14
610.343	30941.7
610.7	31241.13
611.057	30976.05
611.414	31115.03
611.771	30983.96
612.127	31099.66
612.484	31237.96
612.841	31313.67
613.198	31200
613.554	31161.13
613.911	31322.71
614.267	31336.04
614.624	31385.76
614.98	31377.17
615.337	31448.58
615.693	31377.85
616.05	31431.41
616.406	31717.5
616.762	31514.34
617.118	31416.04
617.475	31596.15
617.831	31642.02
618.187	31731.28
618.543	31583.94
618.899	31844.5
619.255	31761.11
619.611	31726.99
619.967	31760.21
620.323	31907.32
620.678	31722.24
621.034	31651.06
621.39	31763.6
621.746	31595.92
622.101	32023.48
622.457	31708.91
622.812	31873.2
623.168	31847.21
623.523	31776.48
623.879	31986.87
624.234	31627.56
624.589	31858.06
624.945	31821.45
625.3	31876.82
625.655	31889.02
626.01	31874.56
626.365	31853.99
626.72	31783.94
627.075	31741
627.43	31802.24
627.785	31669.37
628.14	31786.42
628.495	31765.18
628.85	31719.08
629.205	31602.25
629.559	31927.44
629.914	31661.91
630.269	31701.23
630.623	31593.43
630.978	31597.28
631.332	31622.81
631.687	31674.34
632.041	31550.72
632.396	31640.44
632.75	31479.77
633.104	31494.45
633.459	31358.86
633.813	31416.26
634.167	31308.7
634.521	31215.59
634.875	31400.45
635.229	31277.06
635.583	31160.45
635.937	31183.5
636.291	31084.75
636.645	31166.1
636.999	30940.8
637.352	31146.67
637.706	30931.31
638.06	30924.75
638.413	30859.67
638.767	30735.38
639.121	30933.11
639.474	30720.01
639.828	30568.6
640.181	30664.42
640.534	30743.74
640.888	30552.56
641.241	30548.26
641.594	30460.81
641.947	30642.27
642.301	30546
642.654	30409.96
643.007	30509.85
643.36	30404.99
643.713	30379.23
644.066	30433.24
644.419	30214.04
644.771	30100.82
645.124	29716.65
645.477	29821.28
645.83	29552.81
646.182	29366.83
646.535	29226.94
646.888	29367.96
647.24	29247.51
647.593	29406.6
647.945	29329.54
648.298	29038.02
648.65	29096.33
649.002	29086.61
649.355	29167.06
649.707	29052.03
650.059	29194.63
650.411	29479.14
650.763	29558.01
651.115	29830.54
651.467	29748.74
651.819	29577.67
652.171	29586.71
652.523	29560.27
652.875	29455.19
653.227	29478.01
653.578	29564.56
653.93	29513.26
654.282	29366.37
654.633	29304
654.985	29285.92
655.337	29318.69
655.688	29364.11
656.039	29433.94
656.391	29243.21
656.742	29188.53
657.094	29216.55
657.445	29318.92
657.796	29246.15
658.147	29229.66
658.498	29197.57
658.849	29220.84
659.2	29149.21
659.551	29084.12
659.902	29146.49
660.253	29058.13
660.604	29155.76
660.955	28981.07
661.306	29019.49
661.656	29007.74
662.007	29049.55
662.358	28924.13
662.708	28882.32
663.059	28940.85
663.409	28717.35
663.76	28873.96
664.11	28864.69
664.461	28993.73
664.811	28850.68
665.161	28868.08
665.511	28664.25
665.862	28804.13
666.212	28866.73
666.562	28730.91
666.912	28696.11
667.262	28789.67
667.612	28811.59
667.962	28827.86
668.312	28687.75
668.662	28760.29
669.011	28685.04
669.361	28625.83
669.711	28610.01
670.06	28626.06
670.41	28569.33
670.76	28582.89
671.109	28561.65
671.459	28504.25
671.808	28519.62
672.157	28558.03
672.507	28319.4
672.856	28357.81
673.205	28496.34
673.554	28316.91
673.904	28316.91
674.253	28438.72
674.602	28353.52
674.951	27981.78
675.3	27760.77
675.649	28320.3
675.998	28252.96
676.346	28294.99
676.695	28354.42
677.044	28075.56
677.393	28108.33
677.741	28195.11
678.09	28150.59
678.438	27979.29
678.787	28056.8
679.135	27954.43
679.484	28000.08
679.832	27934.55
680.181	27790.37
680.529	27955.79
680.877	27923.93
681.225	27841.67
681.573	27878.28
681.922	27672.63
682.27	27629.47
682.618	27620.21
682.966	27596.48
683.314	27703.37
683.661	27499.31
684.009	27440.1
684.357	27351.29
684.705	27257.28
685.053	27398.06
685.4	27331.85
685.748	27230.84
686.095	27147.9
686.443	26994.01
686.79	26953.78
687.138	27082.59
687.485	26995.14
687.832	26867.91
688.18	26905.42
688.527	26787.23
688.874	26792.21
689.221	26775.03
689.568	26584.53
689.915	26407.58
690.262	26529.84
690.609	26544.98
690.956	26413.01
691.303	26324.42
691.65	26194.03
691.997	26203.52
692.344	26010.76
692.69	26018.67
693.037	25974.37
693.383	25698.9
693.73	25870.65
694.077	25779.8
694.423	25738.45
694.769	25661.84
695.116	25549.3
695.462	25466.36
695.808	25443.77
696.155	25455.97
696.501	25226.14
696.847	25286.26
697.193	25036.32
697.539	25230.89
697.885	24990.22
698.231	24926.94
698.577	25025.7
698.923	24860.96
699.269	24803.56
699.614	24568.99
699.96	24579.16
700.306	24546.16
700.651	24427.75
700.997	24405.6
701.342	24297.81
701.688	24279.73
702.033	24190.24
702.379	24195.44
702.724	24113.63
703.069	24211.26
703.415	23972.84
703.76	23903.69
704.105	23819.63
704.45	23873.86
704.795	23672.29
705.14	23677.71
705.485	23662.57
705.83	23503.03
706.175	23603.81
706.52	23439.75
706.865	23399.53
707.209	23293.54
707.554	23273.65
707.899	23321.11
708.243	23195.92
708.588	23075.47
708.932	23072.53
709.277	23068.91
709.621	22985.75
709.966	22951.85
710.31	22898.52
710.654	22730.84
710.998	22696.95
711.342	22803.16
711.687	22713.22
712.031	22522.26
712.375	22471.19
712.719	22535.37
713.063	22473.67
713.407	22498.08
713.75	22318.65
714.094	22378.54
714.438	22232.1
714.782	22349.84
715.125	22148.71
715.469	22142.38
715.812	22102.38
716.156	22035.27
716.499	22005.21
716.843	21925.21
717.186	21949.85
717.53	21933.35
717.873	21973.57
718.216	21784.65
718.559	21748.95
718.902	21588.5
719.246	21651.78
719.589	21620.36
719.932	21452.68
720.275	21559.35
720.617	21551.66
720.96	21477.99
721.303	21421.95
721.646	21459.01
721.989	21311.67
722.331	21400.03
722.674	21288.62
723.016	21209.08
723.359	21232.58
723.701	21207.95
724.044	21081.17
724.386	20969.76
724.729	21073.26
725.071	20983.32
725.413	20917.78
725.755	20866.94
726.097	20961.62
726.439	20685.02
726.782	20757.34
727.124	20724.12
727.465	20697
727.807	20661.74
728.149	20652.93
728.491	20601.86
728.833	20600.96
729.175	20574.29
729.516	20566.15
729.858	20471.47
730.199	20390.79
730.541	20435.99
730.882	20442.09
731.224	20439.38
731.565	20264.24
731.906	20338.59
732.248	20309.89
732.589	20133.85
732.93	20110.12
733.271	20153.28
733.612	20059.5
733.953	20210.46
734.294	20007.3
734.635	20077.35
734.976	20002.33
735.317	19960.29
735.658	19950.35
735.999	19961.2
736.339	19904.7
736.68	19858.83
737.021	19847.08
737.361	19733.86
737.702	19931.14
738.042	19776.57
738.383	19686.18
738.723	19789.45
739.063	19640.53
739.404	19710.58
739.744	19574.77
740.084	19548.55
740.424	19586.52
740.764	19471.72
741.104	19490.7
741.444	19383.81
741.784	19366.19
742.124	19402.57
742.464	19325.28
742.804	19315.57
743.143	19219.75
743.483	19312.4
743.823	19162.8
744.162	19143.59
744.502	19175.23
744.841	19050.26
745.181	19122.58
745.52	19083.26
745.86	19087.1
746.199	19002.58
746.538	18935.91
746.877	19002.81
747.216	18928.23
747.556	18905.41
747.895	18870.15
748.234	18886.2
748.573	18784.51
748.911	18731.85
749.25	18747.22
749.589	18603.27
749.928	18676.71
750.267	18624.51
750.605	18529.37
750.944	18510.84
751.283	18459.99
751.621	18543.38
751.96	18353.1
752.298	18389.94
752.636	18451.18
752.975	18181.81
753.313	18125.31
753.651	18212.54
753.989	18167.12
754.327	18160.12
754.666	18057.07
