Data from white_wall_FLMS001491_034.txt Node
Date: Tue Feb 07 11:04:17 GMT 2017
User: dcchb
Spectrometer: FLMS00149
Trigger mode: 0
Integration Time (sec): 2.000000E-2
Scans to average: 10
Electric dark correction enabled: true
Nonlinearity correction enabled: false
Boxcar width: 0
XAxis mode: Wavelengths
Number of Pixels in Spectrum: 2048
>>>>>Begin Spectral Data<<<<<
341.393	6.62
341.776	6.62
342.16	6.62
342.543	-58.46
342.927	-52.36
343.31	-79.93
343.693	-79.93
344.077	-49.19
344.46	-64.11
344.843	-49.19
345.226	-49.65
345.61	-17.33
345.993	-31.79
346.376	-5.13
346.759	-15.97
347.142	22.22
347.525	56.11
347.908	70.35
348.291	72.61
348.674	102.89
349.057	118.03
349.44	152.61
349.823	137.92
350.206	172.72
350.588	224.92
350.971	219.05
351.354	226.96
351.737	258.37
352.119	252.72
352.502	282.78
352.884	281.87
353.267	305.83
353.65	302.21
354.032	296.11
354.414	312.83
354.797	330.01
355.179	352.38
355.562	314.19
355.944	344.92
356.326	361.87
356.709	363.45
357.091	356.67
357.473	357.12
357.855	342.89
358.238	370.23
358.62	369.55
359.002	346.95
359.384	339.5
359.766	360.06
360.148	358.25
360.53	360.74
360.912	358.93
361.294	357.8
361.676	330.91
362.057	351.93
362.439	338.14
362.821	337.69
363.203	327.29
363.584	333.62
363.966	338.37
364.348	327.97
364.729	323.45
365.111	356.9
365.493	337.01
365.874	328.2
366.256	308.76
366.637	339.72
367.019	329.55
367.4	345.6
367.781	327.97
368.163	329.78
368.544	305.83
368.925	337.01
369.306	343.56
369.688	324.36
370.069	325.26
370.45	313.73
370.831	344.92
371.212	323.45
371.593	337.69
371.974	336.56
372.355	345.37
372.736	350.34
373.117	316.9
373.498	326.16
373.879	351.93
374.26	322.77
374.641	332.27
375.021	342.89
375.402	339.72
375.783	334.98
376.163	354.64
376.544	335.88
376.925	338.82
377.305	344.69
377.686	368.87
378.066	367.29
378.447	351.93
378.827	365.03
379.208	355.77
379.588	364.13
379.968	368.65
380.349	348.54
380.729	354.86
381.109	369.1
381.489	359.84
381.87	398.7
382.25	376.56
382.63	368.65
383.01	375.65
383.39	357.8
383.77	378.37
384.15	374.07
384.53	402.55
384.91	381.98
385.29	381.08
385.67	380.4
386.049	394.86
386.429	396.67
386.809	381.76
387.189	414.07
387.568	400.51
387.948	401.19
388.328	398.48
388.707	409.78
389.087	399.16
389.466	407.52
389.846	449.55
390.225	441.87
390.605	444.35
390.984	438.48
391.363	438.25
391.743	437.57
392.122	467.4
392.501	452.94
392.881	459.95
393.26	463.56
393.639	471.92
394.018	474.41
394.397	476.44
394.776	483.67
395.155	484.8
395.534	504.46
395.913	486.84
396.292	511.02
396.671	506.27
397.05	540.62
397.429	533.84
397.808	527.74
398.186	533.62
398.565	582.2
398.944	567.74
399.323	575.87
399.701	576.1
400.08	596.89
400.458	608.64
400.837	629.21
401.215	598.47
401.594	630.11
401.972	645.7
402.351	661.52
402.729	669.43
403.107	684.12
403.486	679.15
403.864	704.91
404.242	688.19
404.62	732.48
404.999	738.81
405.377	758.69
405.755	766.6
406.133	778.81
406.511	777.45
406.889	774.97
407.267	797.34
407.645	810.44
408.023	821.74
408.401	846.6
408.779	857
409.156	879.14
409.534	897.22
409.912	901.74
410.29	918.01
410.667	902.65
411.045	948.97
411.422	958.01
411.8	962.53
412.178	988.97
412.555	1013.15
412.933	1029.87
413.31	1024
413.687	1056.09
414.065	1057.67
414.442	1090.21
414.819	1083.43
415.197	1087.95
415.574	1104.9
415.951	1146.93
416.328	1145.35
416.705	1159.59
417.082	1182.19
417.46	1197.55
417.837	1205.24
418.214	1207.5
418.591	1231
418.967	1237.78
419.344	1254.27
419.721	1244.33
420.098	1267.83
420.475	1287.27
420.852	1324.1
421.228	1308.74
421.605	1327.49
421.982	1332.24
422.358	1341.5
422.735	1383.99
423.111	1359.58
423.488	1379.7
423.864	1408.4
424.241	1410.65
424.617	1428.96
424.994	1457.43
425.37	1454.72
425.746	1462.63
426.123	1489.97
426.499	1521.16
426.875	1547.83
427.251	1587.6
427.627	1622.17
428.003	1616.3
428.379	1622.17
428.756	1629.63
429.132	1658.33
429.507	1679.57
429.883	1692.46
430.259	1726.35
430.635	1743.3
431.011	1782.85
431.387	1783.98
431.763	1816.52
432.138	1850.64
432.514	1864.2
432.89	1860.13
433.265	1910.98
433.641	1939.91
434.016	1970.19
434.392	1982.62
434.767	2023.75
435.143	2010.87
435.518	2070.75
435.894	2073.69
436.269	2102.61
436.644	2158.66
437.02	2167.7
437.395	2168.38
437.77	2214.48
438.145	2222.16
438.52	2240.46
438.895	2270.52
439.271	2281.37
439.646	2321.82
440.021	2344.19
440.395	2372.21
440.77	2347.13
441.145	2386.9
441.52	2427.13
441.895	2429.84
442.27	2451.98
442.645	2477.75
443.019	2497.63
443.394	2486.11
443.769	2543.96
444.143	2554.58
444.518	2571.98
444.892	2582.6
445.267	2589.16
445.641	2649.49
446.016	2648.59
446.39	2708.25
446.764	2691.98
447.139	2680.9
447.513	2689.04
447.887	2738.3
448.262	2768.13
448.636	2809.71
449.01	2830.05
449.384	2851.52
449.758	2837.06
450.132	2908.69
450.506	2907.34
450.88	2949.82
451.254	2961.12
451.628	2997.51
452.002	3070.72
452.376	3056.94
452.75	3080.89
453.123	3113.66
453.497	3176.94
453.871	3183.72
454.244	3252.19
454.618	3267.33
454.992	3336.71
455.365	3341.9
455.739	3408.79
456.112	3433.2
456.486	3507.1
456.859	3523.37
457.232	3593.42
457.606	3586.42
457.979	3621.22
458.352	3697.37
458.725	3732.4
459.099	3793.42
459.472	3860.08
459.845	3934.43
460.218	3929.01
460.591	3998.84
460.964	4004.03
461.337	4107.31
461.71	4155.89
462.083	4218.26
462.456	4190.24
462.829	4288.09
463.201	4307.75
463.574	4349.33
463.947	4382.55
464.32	4537.8
464.692	4530.12
465.065	4577.58
465.438	4651.7
465.81	4679.72
466.183	4760.17
466.555	4868.42
466.928	4877.91
467.3	4908.19
467.672	4990.45
468.045	5083.1
468.417	5132.82
468.789	5142.76
469.161	5227.73
469.534	5339.14
469.906	5486.48
470.278	5545.91
470.65	5573.26
471.022	5675.85
471.394	5807.6
471.766	5787.72
472.138	5828.39
472.51	6012.34
472.882	6109.97
473.253	6169.4
473.625	6298.89
473.997	6432.67
474.369	6534.36
474.74	6533.68
475.112	6662.04
475.484	6792.66
475.855	6920.79
476.227	6957.85
476.598	7192.42
476.97	7237.62
477.341	7406.66
477.713	7531.17
478.084	7555.13
478.455	7793.09
478.827	7894.33
479.198	8093.19
479.569	8133.42
479.94	8342
480.311	8394.43
480.682	8616.57
481.053	8747.64
481.424	8939.95
481.795	9003.9
482.166	9177
482.537	9303.78
482.908	9549.2
483.279	9579.48
483.65	9775.63
484.021	9969.98
484.391	10111.9
484.762	10208.62
485.133	10327.71
485.503	10505.33
485.874	10731.99
486.244	10764.08
486.615	10961.36
486.985	11138.76
487.356	11385.99
487.726	11474.35
488.097	11677.05
488.467	11673.44
488.837	12000.89
489.207	12120.88
489.578	12259.41
489.948	12434.77
490.318	12676.57
490.688	12766.51
491.058	12863.91
491.428	13107.52
491.798	13199.5
492.168	13358.59
492.538	13489.21
492.908	13646.04
493.278	13865.47
493.648	13880.84
494.017	14086.25
494.387	14262.29
494.757	14341.16
495.126	14484.89
495.496	14600.59
495.866	14680.59
496.235	14885.78
496.605	15022.27
496.974	15129.84
497.344	15293.45
497.713	15413
498.082	15631.07
498.452	15741.13
498.821	15705.19
499.19	15800.79
499.559	15997.84
499.928	16120.1
500.298	16227.89
500.667	16413.2
501.036	16424.72
501.405	16720.08
501.774	16717.82
502.143	16859.97
502.512	16934.99
502.88	17153.97
503.249	17187.64
503.618	17238.94
503.987	17537.01
504.356	17558.7
504.724	17730.9
505.093	17724.12
505.462	17861.07
505.83	18063.32
506.199	18199.59
506.567	18351.68
506.936	18403.65
507.304	18648.17
507.672	18812.01
508.041	18867.6
508.409	18987.37
508.777	19197.08
509.145	19294.7
509.514	19292.9
509.882	19575.83
510.25	19623.74
510.618	19814.24
510.986	19945.99
511.354	20108.69
511.722	20335.81
512.09	20321.8
512.458	20448.57
512.826	20677.49
513.193	20700.77
513.561	20803.82
513.929	21105.5
514.297	21278.83
514.664	21440.86
515.032	21577.58
515.4	21755.43
515.767	21789.78
516.135	21855.32
516.502	21906.39
516.869	22384.79
517.237	22395.19
517.604	22420.5
517.972	22665.46
518.339	22834.05
518.706	22912.46
519.073	23092.57
519.44	23218.67
519.808	23601.48
520.175	23551.99
520.542	23707.7
520.909	23937.29
521.276	24013
521.643	24250.96
522.009	24488.69
522.376	24618.86
522.743	24822.92
523.11	24990.15
523.477	25240.08
523.843	25393.53
524.21	25668.1
524.577	25844.14
524.943	25812.27
525.31	26110.57
525.676	26333.84
526.043	26466.04
526.409	26677.56
526.776	27037.1
527.142	27058.12
527.508	27250.65
527.874	27421.27
528.241	27532.91
528.607	27628.04
528.973	28011.31
529.339	27971.99
529.705	28191.65
530.071	28527.91
530.437	28588.7
530.803	28772.2
531.169	28974.68
531.535	28825.08
531.901	29089.93
532.267	29256.48
532.632	29448.34
532.998	29443.82
533.364	29775.78
533.73	29612.85
534.095	30115.89
534.461	30198.15
534.826	30370.57
535.192	30519.27
535.557	30790.45
535.923	30637.23
536.288	30773.5
536.653	30954.51
537.019	30931.23
537.384	31152.7
537.749	31389.3
538.114	31297.1
538.479	31357.89
538.845	31663.87
539.21	31489.86
539.575	31775.28
539.94	31850.31
540.305	32170.07
540.67	32239
541.034	32198.77
541.399	32393.57
541.764	32526.9
542.129	32702.71
542.494	32758.08
542.858	32932.54
543.223	32903.61
543.587	33140.89
543.952	33198.97
544.316	33407.1
544.681	33402.81
545.045	33560.77
545.41	33739.97
545.774	33917.14
546.138	33850.03
546.503	33969.57
546.867	34105.39
547.231	34407.3
547.595	34529.33
547.959	34687.07
548.324	34730.68
548.688	34788.99
549.052	35016.33
549.416	35129.99
549.779	35186.26
550.143	35315.53
550.507	35653.82
550.871	35719.36
551.235	35765.46
551.599	36058.56
551.962	36005.45
552.326	36205.9
552.689	36452.9
553.053	36417.19
553.417	36534.7
553.78	36843.17
554.143	36854.92
554.507	37254.01
554.87	37253.33
555.234	37710.49
555.597	37467.56
555.96	37776.93
556.323	38006.3
556.686	38063.25
557.05	38328.1
557.413	38338.95
557.776	38540.3
558.139	38730.58
558.502	38957.01
558.865	38987.97
559.228	39321.97
559.59	39406.04
559.953	39377.34
560.316	39967.83
560.679	39875.63
561.041	40160.6
561.404	40302.74
561.767	40598.78
562.129	40582.05
562.492	41044.87
562.854	40955.83
563.217	40973.23
563.579	41110.4
563.941	41324.18
564.304	41553.33
564.666	41891.17
565.028	41876.03
565.39	42006.42
565.753	42260.65
566.115	42481.21
566.477	42625.39
566.839	42727.53
567.201	42883.46
567.563	42932.28
567.925	43198.93
568.287	43228.99
568.648	43342.89
569.01	43626.27
569.372	43854.51
569.734	43940.84
570.095	44168.4
570.457	44235.97
570.819	44397.77
571.18	44292.69
571.542	44709.63
571.903	44706.01
572.265	44722.06
572.626	44866.24
572.987	44948.27
573.349	45184.42
573.71	45434.81
574.071	45359.1
574.432	45576.27
574.794	45808.36
575.155	45759.55
575.516	45739.21
575.877	45973.33
576.238	46051.74
576.599	46062.14
576.96	46107.78
577.32	46126.09
577.681	46343.03
578.042	46515.46
578.403	46407.21
578.763	46448.79
579.124	46572.63
579.485	46663.93
579.845	46760.65
580.206	46772.4
580.566	46758.16
580.927	46711.84
581.287	46999.29
581.648	46880.87
582.008	46987.08
582.368	46866.41
582.728	47072.28
583.089	46940.08
583.449	47059.17
583.809	47062.11
584.169	47043.35
584.529	46974.65
584.889	47380.07
585.249	47147.76
585.609	46972.85
585.969	47280.86
586.329	47020.53
586.688	47286.28
587.048	47178.49
587.408	47069.79
587.768	47129
588.127	47180.07
588.487	47130.13
588.846	47363.57
589.206	47115.89
589.565	47224.59
589.925	47233.86
590.284	47136.68
590.643	47247.64
591.003	47340.97
591.362	47404.02
591.721	47217.36
592.08	47259.39
592.44	47345.49
592.799	47372.38
593.158	47306.17
593.517	47347.75
593.876	47430.69
594.235	47275.21
594.593	47345.27
594.952	47428.43
595.311	47298.94
595.67	47494.19
596.029	47648.08
596.387	47545.04
596.746	47732.83
597.104	47588.65
597.463	47579.61
597.822	47701.19
598.18	47665.03
598.538	47558.82
598.897	47738.25
599.255	47470.01
599.613	47876.55
599.972	47728.53
600.33	47812.15
600.688	47830
601.046	47865.03
601.404	47984.12
601.762	47949.77
602.12	48074.74
602.478	48186.37
602.836	47997.68
603.194	47797.23
603.552	47944.57
603.91	47862.99
604.268	48070.22
604.625	48015.76
604.983	48057.11
605.341	47903.44
605.698	48096.66
606.056	48255.75
606.413	48307.73
606.771	48338.46
607.128	48340.49
607.485	48222.76
607.843	48368.97
608.2	48515.18
608.557	48597.44
608.914	48533.26
609.272	48722.86
609.629	48753.82
609.986	48806.24
610.343	48713.82
610.7	48888.5
611.057	48864.55
611.414	48835.17
611.771	48842.85
612.127	48870.42
612.484	48961.04
612.841	49176.63
613.198	49114.49
613.554	49017.31
613.911	49368.72
614.267	49291.88
614.624	49283.97
614.98	49231.77
615.337	49372.56
615.693	49357.42
616.05	49210.08
616.406	49496.85
616.762	49377.3
617.118	49320.36
617.475	49401.48
617.831	49434.93
618.187	49589.05
618.543	49616.17
618.899	49799.21
619.255	49667.01
619.611	49635.6
619.967	49804.64
620.323	49860.91
620.678	49730.29
621.034	49665.43
621.39	49677.86
621.746	49561.93
622.101	50026.78
622.457	49623.85
622.812	49823.62
623.168	49828.82
623.523	49818.42
623.879	49864.3
624.234	49646.45
624.589	49836.73
624.945	49884.18
625.3	49864.3
625.655	49836.05
626.01	49853.22
626.365	49917.18
626.72	49755.37
627.075	49811.19
627.43	49836.73
627.785	49660.91
628.14	49789.27
628.495	49824.3
628.85	49905.88
629.205	49664.53
629.559	49905.65
629.914	49767.8
630.269	49742.94
630.623	49667.69
630.978	49538.43
631.332	49849.61
631.687	49891.87
632.041	49691.87
632.396	49584.76
632.75	49531.2
633.104	49647.35
633.459	49417.08
633.813	49440.13
634.167	49414.14
634.521	49418.88
634.875	49415.04
635.229	49390.18
635.583	49266.35
635.937	49304.08
636.291	49245.33
636.645	49211.66
636.999	49062.06
637.352	49225.22
637.706	48896.41
638.06	49095.28
638.413	49035.17
638.767	48956.07
639.121	49013.25
639.474	48640.83
639.828	48832.23
640.181	48849.18
640.534	48846.47
640.888	48706.13
641.241	48530.55
641.594	48588.62
641.947	48719.02
642.301	48436.09
642.654	48595.4
643.007	48630.88
643.36	48451.68
643.713	48422.75
644.066	48512.69
644.419	48342.08
644.771	47996.1
645.124	47639.95
645.477	47587.52
645.83	47430.24
646.182	47229.56
646.535	47135.78
646.888	47253.52
647.24	47071.83
647.593	47184.59
647.945	47170.58
648.298	47009.68
648.65	46846.52
649.002	46603.82
649.355	46952.06
649.707	46884.71
650.059	47006.52
650.411	47503.23
650.763	47339.16
651.115	47731.7
651.467	47464.36
651.819	47605.15
652.171	47453.29
652.523	47471.14
652.875	47428.65
653.227	47319.96
653.578	47493.29
653.93	47297.13
654.282	47298.71
654.633	46984.37
654.985	47198.6
655.337	47185.5
655.688	47262.1
656.039	47310.92
656.391	46844.26
656.742	47120.41
657.094	47110.24
657.445	47108.89
657.796	46961.32
658.147	46804.26
658.498	46910.93
658.849	46988.21
659.2	46780.99
659.551	46756.81
659.902	46879.52
660.253	46637.71
660.604	46858.5
660.955	46585.29
661.306	46832.51
661.656	46675.23
662.007	46735.34
662.358	46768.78
662.708	46615.57
663.059	46753.64
663.409	46452.18
663.76	46683.59
664.11	46535.12
664.461	46671.84
664.811	46657.15
665.161	46600.43
665.511	46572.18
665.862	46457.83
666.212	46514.78
666.562	46421
666.912	46437.27
667.262	46466.42
667.612	46402.01
667.962	46478.62
668.312	46281.57
668.662	46610.6
669.011	46438.4
669.361	46240.66
669.711	46301
670.06	46344.84
670.41	46193.88
670.76	46108.69
671.109	46198.63
671.459	46187.33
671.808	46102.81
672.157	46139.65
672.507	45952.76
672.856	45981.23
673.205	45930.16
673.554	46056.49
673.904	45884.06
674.253	46154.79
674.602	45911.18
674.951	45358.65
675.3	45151.65
675.649	45810.39
675.998	45766.32
676.346	45800.9
676.695	45962.93
677.044	45530.62
677.393	45660.11
677.741	45689.49
678.09	45550.96
678.438	45529.27
678.787	45517.07
679.135	45492.66
679.484	45190.07
679.832	45235.49
680.181	45134.03
680.529	45285.43
680.877	45091.77
681.225	45114.36
681.573	45251.08
681.922	44892.68
682.27	44873.92
682.618	44911.88
682.966	44674.15
683.314	44933.8
683.661	44685.22
684.009	44563.42
684.357	44351.45
684.705	44257.89
685.053	44290.43
685.4	44248.17
685.748	43991
686.095	44012.02
686.443	43861.97
686.79	43788.52
687.138	43938.35
687.485	43914.17
687.832	43642.76
688.18	43641.63
688.527	43404.81
688.874	43407.29
689.221	43327.07
689.568	43184.92
689.915	43043.23
690.262	42872.16
690.609	42919.17
690.956	42783.58
691.303	42771.38
691.65	42602.11
691.997	42596.46
692.344	42365.06
692.69	42350.82
693.037	42327.09
693.383	42119.64
693.73	42196.7
694.077	41931.62
694.423	41841.46
694.769	41824.73
695.116	41558.3
695.462	41627.45
695.808	41489.15
696.155	41586.1
696.501	41275.14
696.847	41251.19
697.193	41165.54
697.539	41175.49
697.885	40831.09
698.231	40657.76
698.577	40563.52
698.923	40590.87
699.269	40521.49
699.614	40248.28
699.96	40114.5
700.306	40134.83
700.651	40062.07
700.997	39724.9
701.342	39801.74
701.688	39673.83
702.033	39608.52
702.379	39699.59
702.724	39475.42
703.069	39564.23
703.415	39025.94
703.76	39111.81
704.105	39209.44
704.45	38962.21
704.795	38824.81
705.14	38706.4
705.485	38676.57
705.83	38512.5
706.175	38537.14
706.52	38393.64
706.865	38372.85
707.209	38316.35
707.554	38134.44
707.899	38256.69
708.243	37986.64
708.588	38071.16
708.932	37662.13
709.277	37827.55
709.621	37673.66
709.966	37451.06
710.31	37555.47
710.654	37179.43
710.998	37346.89
711.342	37341.91
711.687	37309.6
712.031	37150.51
712.375	37080.45
712.719	37059.21
713.063	36880.23
713.407	37048.81
713.75	36800.01
714.094	36930.85
714.438	36567.47
714.782	36673
715.125	36409.51
715.469	36660.58
715.812	36366.12
716.156	36181.49
716.499	36183.98
716.843	36298.55
717.186	36047.48
717.53	36202.28
717.873	36085.22
718.216	36069.18
718.559	35952.57
718.902	35788.96
719.246	35853.82
719.589	35612.24
719.932	35701.28
720.275	35579.47
720.617	35518.46
720.96	35412.7
721.303	35487.05
721.646	35515.29
721.989	35066.04
722.331	35267.17
722.674	35100.16
723.016	35165.02
723.359	35000.51
723.701	34958.7
724.044	34833.05
724.386	34694.3
724.729	34798.7
725.071	34582.66
725.413	34675.54
725.755	34500.63
726.097	34470.12
726.439	34328.21
726.782	34410.01
727.124	34549.9
727.465	34328.89
727.807	34233.52
728.149	34236.46
728.491	34127.08
728.833	34086.41
729.175	33904.94
729.516	33927.99
729.858	33886.19
730.199	33935.9
730.541	33913.53
730.882	33766.19
731.224	33711.5
731.565	33500.21
731.906	33586.98
732.248	33613.88
732.589	33433.99
732.93	33402.58
733.271	33383.6
733.612	33415.01
733.953	33406.2
734.294	33232.19
734.635	33279.65
734.976	33338.4
735.317	32999.88
735.658	33134.11
735.999	33041.01
736.339	32874.69
736.68	32919.43
737.021	32851.18
737.361	32704.97
737.702	32865.65
738.042	32709.95
738.383	32748.59
738.723	32742.26
739.063	32513.11
739.404	32559.21
739.744	32342.95
740.084	32373
740.424	32309.05
740.764	32516.73
741.104	32526.45
741.444	32234.93
741.784	32145.89
742.124	32218.88
742.464	31949.29
742.804	31996.74
743.143	32004.88
743.483	32088.49
743.823	31829.06
744.162	31887.37
744.502	31915.39
744.841	31746.13
745.181	31914.94
745.52	31664.77
745.86	31780.93
746.199	31425.91
746.538	31508.39
746.877	31594.95
747.216	31446.02
747.556	31401.5
747.895	31492.58
748.234	31170.32
748.573	31105.24
748.911	31196.31
749.25	31076.77
749.589	31112.92
749.928	31090.1
750.267	31017.79
750.605	30908.64
750.944	30771.46
751.283	30710
751.621	30787.28
751.96	30549.1
752.298	30593.16
752.636	30601.98
752.975	30373.96
753.313	30343.91
753.651	30347.07
753.989	30126.51
