Data from white_poster_card_FLMS001491_00008.txt Node
Date: Wed Feb 08 11:50:58 GMT 2017
User: dcchb
Spectrometer: FLMS00149
Trigger mode: 0
Integration Time (sec): 2.000000E-2
Scans to average: 10
Electric dark correction enabled: true
Nonlinearity correction enabled: false
Boxcar width: 0
XAxis mode: Wavelengths
Number of Pixels in Spectrum: 2048
>>>>>Begin Spectral Data<<<<<
341.393	-9.65
341.776	-9.65
342.16	-9.65
342.543	-79.93
342.927	-79.93
343.31	-74.73
343.693	-55.07
344.077	-66.59
344.46	-55.75
344.843	-62.98
345.226	-51.68
345.61	-29.53
345.993	-15.3
346.376	-12.13
346.759	5.95
347.142	27.19
347.525	45.49
347.908	60.86
348.291	76.23
348.674	95.89
349.057	112.16
349.44	116.9
349.823	133.4
350.206	172.27
350.588	194.87
350.971	241.19
351.354	236.22
351.737	255.21
352.119	256.34
352.502	268.31
352.884	276.22
353.267	294.07
353.65	288.42
354.032	310.57
354.414	312.15
354.797	330.23
355.179	313.06
355.562	311.47
355.944	311.7
356.326	330.68
356.709	366.84
357.091	341.98
357.473	337.91
357.855	334.53
358.238	350.8
358.62	348.99
359.002	331.59
359.384	332.94
359.766	363.68
360.148	379.5
360.53	334.75
360.912	328.2
361.294	356.45
361.676	335.2
362.057	336.11
362.439	343.11
362.821	339.95
363.203	351.47
363.584	341.53
363.966	341.08
364.348	323.23
364.729	338.59
365.111	340.17
365.493	329.55
365.874	304.24
366.256	341.98
366.637	328.42
367.019	301.76
367.4	331.14
367.781	338.82
368.163	313.96
368.544	317.35
368.925	307.41
369.306	309.44
369.688	309.67
370.069	309.22
370.45	303.57
370.831	308.54
371.212	325.71
371.593	321.87
371.974	334.3
372.355	337.01
372.736	334.3
373.117	331.59
373.498	320.97
373.879	318.25
374.26	324.13
374.641	323.23
375.021	330.68
375.402	323
375.783	320.06
376.163	349.44
376.544	358.03
376.925	341.53
377.305	343.34
377.686	345.37
378.066	345.82
378.447	350.34
378.827	354.41
379.208	341.53
379.588	343.79
379.968	355.54
380.349	329.55
380.729	357.12
381.109	366.84
381.489	356.67
381.87	369.1
382.25	350.57
382.63	330.23
383.01	362.09
383.39	380.85
383.77	372.26
384.15	349.44
384.53	356.45
384.91	388.53
385.29	375.43
385.67	377.24
386.049	371.59
386.429	380.85
386.809	375.43
387.189	378.82
387.568	374.07
387.948	400.29
388.328	361.42
388.707	388.53
389.087	398.03
389.466	394.64
389.846	399.16
390.225	397.57
390.605	419.95
390.984	398.93
391.363	407.07
391.743	420.85
392.122	410
392.501	420.85
392.881	406.84
393.26	420.4
393.639	440.51
394.018	434.86
394.397	433.28
394.776	406.84
395.155	443.9
395.534	447.97
395.913	428.53
396.292	423.11
396.671	437.35
397.05	445.26
397.429	433.05
397.808	445.93
398.186	457.23
398.565	468.31
398.944	460.17
399.323	457.23
399.701	474.63
400.08	489.1
400.458	478.02
400.837	476.22
401.215	499.04
401.594	486.39
401.972	483
402.351	484.58
402.729	516.44
403.107	493.84
403.486	497.23
403.864	502.43
404.242	513.96
404.62	527.97
404.999	518.25
405.377	511.7
405.755	546.04
406.133	543.33
406.511	558.02
406.889	551.47
407.267	573.39
407.645	568.64
408.023	590.79
408.401	595.76
408.779	596.67
409.156	608.19
409.534	605.7
409.912	638.02
410.29	628.3
410.667	648.64
411.045	659.71
411.422	683.44
411.8	698.36
412.178	689.32
412.555	709.43
412.933	705.14
413.31	754.4
413.687	754.4
414.065	783.78
414.442	793.04
414.819	812.93
415.197	819.94
415.574	828.3
415.951	831.46
416.328	863.32
416.705	871.23
417.082	906.26
417.46	922.31
417.837	932.02
418.214	936.32
418.591	968.41
418.967	955.98
419.344	993.94
419.721	1013.38
420.098	1023.32
420.475	1045.24
420.852	1065.13
421.228	1064.45
421.605	1091.57
421.982	1093.6
422.358	1111.45
422.735	1131.57
423.111	1147.84
423.488	1190.1
423.864	1180.15
424.241	1211.79
424.617	1219.93
424.994	1243.43
425.37	1261.28
425.746	1273.48
426.123	1270.77
426.499	1286.14
426.875	1303.99
427.251	1357.32
427.627	1380.6
428.003	1383.31
428.379	1407.04
428.756	1453.37
429.132	1438.9
429.507	1482.07
429.883	1467.38
430.259	1499.69
430.635	1520.03
431.011	1546.02
431.387	1594.6
431.763	1613.14
432.138	1599.8
432.514	1633.7
432.89	1660.14
433.265	1669.18
433.641	1729.52
434.016	1719.57
434.392	1750.31
434.767	1787.59
435.143	1838.44
435.518	1827.59
435.894	1828.72
436.269	1875.95
436.644	1872.56
437.02	1931.32
437.395	1922.28
437.77	1969.28
438.145	1973.35
438.52	1951.88
438.895	2017.19
439.271	2028.94
439.646	2076.4
440.021	2099
440.395	2083.63
440.77	2054.03
441.145	2131.99
441.52	2139
441.895	2150.07
442.27	2155.27
442.645	2164.76
443.019	2201.82
443.394	2204.31
443.769	2226.45
444.143	2205.21
444.518	2224.19
444.892	2271.42
445.267	2236.85
445.641	2313.91
446.016	2297.86
446.39	2316.85
446.764	2327.47
447.139	2336.73
447.513	2378.77
447.887	2375.83
448.262	2416.28
448.636	2411.31
449.01	2456.28
449.384	2489.04
449.758	2463.06
450.132	2523.17
450.506	2478.42
450.88	2547.8
451.254	2496.05
451.628	2591.41
452.002	2591.87
452.376	2632.09
452.75	2636.39
453.123	2673.67
453.497	2702.82
453.871	2716.16
454.244	2762.26
454.618	2826.21
454.992	2828.47
455.365	2767
455.739	2888.58
456.112	2939.65
456.486	2920.22
456.859	2957.28
457.232	3044.06
457.606	3008.35
457.979	3044.74
458.352	3131.29
458.725	3148.69
459.099	3181.68
459.472	3241.57
459.845	3242.92
460.218	3303.71
460.591	3327.89
460.964	3334.9
461.337	3400.66
461.71	3465.06
462.083	3469.58
462.456	3510.03
462.829	3526.31
463.201	3588
463.574	3576.25
463.947	3651.5
464.32	3736.92
464.692	3750.03
465.065	3762.68
465.438	3842.23
465.81	3913.64
466.183	3970.36
466.555	4004.49
466.928	3981.66
467.3	4052.85
467.672	4101.21
468.045	4194.99
468.417	4199.73
468.789	4257.13
469.161	4289.9
469.534	4345.49
469.906	4486.05
470.278	4533.28
470.65	4572.15
471.022	4637.91
471.394	4708.65
471.766	4724.24
472.138	4758.82
472.51	4894.63
472.882	4974.63
473.253	5025.02
473.625	5072.93
473.997	5197.67
474.369	5183.44
474.74	5264.11
475.112	5379.14
475.484	5431.11
475.855	5516.31
476.227	5621.17
476.598	5744.1
476.97	5777.09
477.341	5888.28
477.713	5980.25
478.084	5998.33
478.455	6197.2
478.827	6222.51
479.198	6404.42
479.569	6410.75
479.94	6626.11
480.311	6646.9
480.682	6822.72
481.053	6894.8
481.424	7078.75
481.795	7138.19
482.166	7219.54
482.537	7319.88
482.908	7407.79
483.279	7533.21
483.65	7706.99
484.021	7820.88
484.391	7920.54
484.762	8030.82
485.133	8104.72
485.503	8152.62
485.874	8320.98
486.244	8406.86
486.615	8533.86
486.985	8682.33
487.356	8801.87
487.726	9012.49
488.097	9129.77
488.467	9101.07
488.837	9249.77
489.207	9390.33
489.578	9581.51
489.948	9631.46
490.318	9770.89
490.688	9893.82
491.058	9961.62
491.428	10159.35
491.798	10231.89
492.168	10383.53
492.538	10490.19
492.908	10546.91
493.278	10741.94
493.648	10780.58
494.017	10849.95
494.387	10997.52
494.757	11095.6
495.126	11212.21
495.496	11305.08
495.866	11337.63
496.235	11467.34
496.605	11651.74
496.974	11757.5
497.344	11768.57
497.713	11876.82
498.082	11983.71
498.452	12023.26
498.821	12143.93
499.19	12206.98
499.559	12353.42
499.928	12371.27
500.298	12493.08
500.667	12637.03
501.036	12539.85
501.405	12788.43
501.774	12773.29
502.143	12905.27
502.512	12916.12
502.88	13023.01
503.249	12991.14
503.618	13248.31
503.987	13258.71
504.356	13350.45
504.724	13488.53
505.093	13622.31
505.462	13671.8
505.83	13727.17
506.199	13820.05
506.567	13980.95
506.936	13983.88
507.304	14222.52
507.672	14295.97
508.041	14347.72
508.409	14378.9
508.777	14583.42
509.145	14660.93
509.514	14653.92
509.882	14810.75
510.25	14876.74
510.618	15025.44
510.986	15101.37
511.354	15230.86
511.722	15427.46
512.09	15518.53
512.458	15498.42
512.826	15708.36
513.193	15800.56
513.561	15754.68
513.929	16075.58
514.297	16185.63
514.664	16359.41
515.032	16345.86
515.4	16436.93
515.767	16592.63
516.135	16631.95
516.502	16629.69
516.869	16951.49
517.237	16999.4
517.604	16933.64
517.972	17247.98
518.339	17351.7
518.706	17340.63
519.073	17460.4
519.44	17634.64
519.808	17787.4
520.175	17848.64
520.542	18123.44
520.909	18206.37
521.276	18218.8
521.643	18479.13
522.009	18545.8
522.376	18752.12
522.743	18815.85
523.11	18967.26
523.477	19115.5
523.843	19322.5
524.21	19452.21
524.577	19620.12
524.943	19718.87
525.31	19929.94
525.676	20060.33
526.043	20219.2
526.409	20254.68
526.776	20599.53
527.142	20531.96
527.508	20696.02
527.874	20929.92
528.241	21009.69
528.607	21058.27
528.973	21242.9
529.339	21316.57
529.705	21572.38
530.071	21747.3
530.437	21829.55
530.803	21903.68
531.169	22128.98
531.535	22164.46
531.901	22153.16
532.267	22426.15
532.632	22548.4
532.998	22594.28
533.364	22783.2
533.73	22905.68
534.095	22950.88
534.461	23092.57
534.826	23161.04
535.192	23268.61
535.557	23401.72
535.923	23410.08
536.288	23604.87
536.653	23690.52
537.019	23626.79
537.384	23806.45
537.749	23896.17
538.114	24056.39
538.479	24048.25
538.845	24152.66
539.21	24158.31
539.575	24365.98
539.94	24408.02
540.305	24605.75
540.67	24558.75
541.034	24734.79
541.399	24770.94
541.764	24876.48
542.129	24887.55
542.494	24964.61
542.858	25146.53
543.223	25157.83
543.587	25447.54
543.952	25297.48
544.316	25440.76
544.681	25489.12
545.045	25664.25
545.41	25824.48
545.774	25884.14
546.138	25742.9
546.503	25937.02
546.867	26056.11
547.231	26341.75
547.595	26257.91
547.959	26455.42
548.324	26402.99
548.688	26446.61
549.052	26533.16
549.416	26760.72
549.779	26694.51
550.143	26763.66
550.507	26881.4
550.871	27131.79
551.235	27190.32
551.599	27302.63
551.962	27349.41
552.326	27534.71
552.689	27660.81
553.053	27529.97
553.417	27630.08
553.78	27996.17
554.143	27988.04
554.507	28071.65
554.87	28156.84
555.234	28335.14
555.597	28384.86
555.96	28460.11
556.323	28527.91
556.686	28762.48
557.05	28896.03
557.413	29066.2
557.776	29031.4
558.139	29206.99
558.502	29181.22
558.865	29411.95
559.228	29530.59
559.59	29628.22
559.953	29797.03
560.316	30070.24
560.679	30065.49
561.041	30225.04
561.404	30388.88
561.767	30627.97
562.129	30539.61
562.492	30977.79
562.854	30890.78
563.217	30925.81
563.579	31063.21
563.941	31208.29
564.304	31399.25
564.666	31570.09
565.028	31643.76
565.39	31817.99
565.753	31887.59
566.115	31992.9
566.477	32231.77
566.839	32316.51
567.201	32468.82
567.563	32514.92
567.925	32860.22
568.287	32902.26
568.648	32890.28
569.01	33171.63
569.372	33316.26
569.734	33209.37
570.095	33325.3
570.457	33524.16
570.819	33685.74
571.18	33686.64
571.542	33823.36
571.903	33991.27
572.265	34111.49
572.626	34181.54
572.987	34354.2
573.349	34342.44
573.71	34434.65
574.071	34582.89
574.432	34653.85
574.794	34882.77
575.155	34884.58
575.516	34793.96
575.877	35087.51
576.238	35214.06
576.599	35064.69
576.96	35178.35
577.32	35219.94
577.681	35387.61
578.042	35473.04
578.403	35439.59
578.763	35501.96
579.124	35492.24
579.485	35567.05
579.845	35786.7
580.206	35611.79
580.566	35767.49
580.927	35854.95
581.287	35906.47
581.648	35729.75
582.008	35978.33
582.368	35960.71
582.728	35961.84
583.089	35966.81
583.449	36000.48
583.809	36056.98
584.169	36066.47
584.529	35981.05
584.889	36287.03
585.249	36006.36
585.609	35893.59
585.969	36282.05
586.329	36086.35
586.688	36229.63
587.048	36108.27
587.408	36090.42
587.768	36026.24
588.127	36057.65
588.487	36040.48
588.846	36365.22
589.206	36080.03
589.565	36054.49
589.925	36401.83
590.284	36205.22
590.643	36289.06
591.003	36270.08
591.362	36365.67
591.721	36346.01
592.08	36308.95
592.44	36302.39
592.799	36432.56
593.158	36307.36
593.517	36327.03
593.876	36419.45
594.235	36357.53
594.593	36270.08
594.952	36407.93
595.311	36307.82
595.67	36397.31
596.029	36667.58
596.387	36760.46
596.746	36691.08
597.104	36437.76
597.463	36362.96
597.822	36678.88
598.18	36503.52
598.538	36508.49
598.897	36708.48
599.255	36257.2
599.613	36999.32
599.972	36689.28
600.33	36833
600.688	36628.49
601.046	36908.25
601.404	36933.56
601.762	36886.78
602.12	37131.3
602.478	37080.23
602.836	37111.64
603.194	36961.36
603.552	37046.1
603.91	36920.46
604.268	37126.1
604.625	36903.96
604.983	37051.53
605.341	37023.5
605.698	37158.87
606.056	37315.02
606.413	37254.68
606.771	37332.65
607.128	37363.16
607.485	37249.71
607.843	37287.9
608.2	37562.92
608.557	37606.54
608.914	37498.97
609.272	37705.97
609.629	37653.54
609.986	37835.69
610.343	37669.81
610.7	37988.9
611.057	37763.6
611.414	37779.64
611.771	37880.66
612.127	37912.52
612.484	37959.98
612.841	38079.52
613.198	37957.49
613.554	37955.68
613.911	38216.92
614.267	38152.51
614.624	38223.02
614.98	38235.22
615.337	38356.12
615.693	38273.41
616.05	38178.5
616.406	38470.25
616.762	38412.17
617.118	38388.89
617.475	38422.11
617.831	38446.07
618.187	38492.62
618.543	38570.81
618.899	38727.41
619.255	38609.22
619.611	38504.59
619.967	38637.47
620.323	38792.72
620.678	38552.73
621.034	38480.19
621.39	38556.12
621.746	38366.97
622.101	38868.88
622.457	38471.6
622.812	38555.22
623.168	38747.3
623.523	38799.28
623.879	38874.3
624.234	38699.39
624.589	38773.74
624.945	38674.53
625.3	38870.24
625.655	38763.35
626.01	38736
626.365	38675.21
626.72	38640.64
627.075	38721.31
627.43	38632.5
627.785	38561.77
628.14	38612.84
628.495	38703.46
628.85	38618.72
629.205	38530.81
629.559	38736.23
629.914	38557.7
630.269	38580.75
630.623	38452.17
630.978	38291.49
631.332	38396.35
631.687	38622.33
632.041	38336.24
632.396	38519.06
632.75	38183.93
633.104	38399.51
633.459	38092.18
633.813	38175.34
634.167	38105.51
634.521	38120.88
634.875	38049.01
635.229	38075.23
635.583	37820.32
635.937	37837.72
636.291	37884.27
636.645	37913.65
636.999	37744.84
637.352	37742.13
637.706	37590.49
638.06	37713.66
638.413	37662.13
638.767	37614
639.121	37581.46
639.474	37324.96
639.828	37405.19
640.181	37391.4
640.534	37376.71
640.888	37330.16
641.241	37019.44
641.594	37190.96
641.947	37282.03
642.301	37105.76
642.654	37145.99
643.007	37164.74
643.36	37101.02
643.713	37009.49
644.066	37055.59
644.419	36885.65
644.771	36630.29
645.124	36395.27
645.477	36296.07
645.83	36045.22
646.182	35848.62
646.535	35736.08
646.888	35790.09
647.24	35577.44
647.593	35776.31
647.945	35698.34
648.298	35546.48
648.65	35254.74
649.002	35351.91
649.355	35415.18
649.707	35462.87
650.059	35536.31
650.411	35851.56
650.763	35909.41
651.115	36351.43
651.467	36149.18
651.819	36104.21
652.171	36001.61
652.523	35896.08
652.875	35953.48
653.227	35763.88
653.578	35992.57
653.93	35855.17
654.282	35629.87
654.633	35684.78
654.985	35830.09
655.337	35771.79
655.688	35642.52
656.039	35827.15
656.391	35553.94
656.742	35499.93
657.094	35493.6
657.445	35684.78
657.796	35697.66
658.147	35483.21
658.498	35470.32
658.849	35555.97
659.2	35522.98
659.551	35411.57
659.902	35431
660.253	35460.83
660.604	35379.71
660.955	35228.07
661.306	35277.11
661.656	35203.44
662.007	35285.7
662.358	35262.42
662.708	35231.91
663.059	35242.08
663.409	34979.72
663.76	35303.32
664.11	35195.98
664.461	35187.62
664.811	35148.07
665.161	35212.93
665.511	35103.55
665.862	35107.85
666.212	35163.21
666.562	35235.53
666.912	35089.32
667.262	35097
667.612	34994.63
667.962	35135.64
668.312	34904.24
668.662	35103.33
669.011	35020.84
669.361	34984.46
669.711	34940.85
670.06	34928.64
670.41	34698.37
670.76	34651.59
671.109	34802.55
671.459	34747.63
671.808	34695.66
672.157	34763.45
672.507	34559.39
672.856	34458.15
673.205	34626.96
673.554	34621.53
673.904	34561.42
674.253	34813.17
674.602	34475.1
674.951	34165.27
675.3	33923.7
675.649	34445.49
675.998	34413.4
676.346	34401.65
676.695	34587.18
677.044	34279.62
677.393	34332.05
677.741	34300.19
678.09	34180.41
678.438	34153.75
678.787	34191.26
679.135	34268.1
679.484	33951.49
679.832	34091.15
680.181	33804.61
680.529	34026.52
680.877	33835.57
681.225	33704.72
681.573	33944.71
681.922	33770.03
682.27	33663.82
682.618	33685.29
682.966	33606.42
683.314	33739.97
683.661	33557.61
684.009	33404.62
684.357	33340.89
684.705	33334.34
685.053	33457.27
685.4	33269.7
685.748	33123.04
686.095	33057.96
686.443	33118.75
686.79	32953.33
687.138	33011.41
687.485	32845.99
687.832	32791.75
688.18	32783.84
688.527	32676.5
688.874	32598.54
689.221	32487.8
689.568	32410.97
689.915	32366
690.262	32317.86
690.609	32213.91
690.956	32049.17
691.303	32130.07
691.65	31963.3
691.997	31979.79
692.344	31720.82
692.69	31647.83
693.037	31684.89
693.383	31400.15
693.73	31580.03
694.077	31448.28
694.423	31387.49
694.769	31285.58
695.116	31202.19
695.462	31059.82
695.808	31070.67
696.155	31065.02
696.501	30874.97
696.847	30854.85
697.193	30607.85
697.539	30738.92
697.885	30631.13
698.231	30331.93
698.577	30413.28
698.923	30466.39
699.269	30245.83
699.614	30062.33
699.96	30067.75
700.306	30047.19
700.651	29832.28
700.997	29713.41
701.342	29769.68
701.688	29605.85
702.033	29623.7
702.379	29513.19
702.724	29440.88
703.069	29446.53
703.415	29139.42
703.76	29183.26
704.105	29217.83
704.45	29011.06
704.795	28968.12
705.14	28918.18
705.485	28898.75
705.83	28824.4
706.175	28817.62
706.52	28554.57
706.865	28511.64
707.209	28400.91
707.554	28458.53
707.899	28386.89
708.243	28274.58
708.588	28251.53
708.932	28044.98
709.277	28006.11
709.621	28028.49
709.966	27878.89
710.31	27931.09
710.654	27650.42
710.998	27724.54
711.342	27667.59
711.687	27565
712.031	27484.09
712.375	27428.95
712.719	27409.07
713.063	27400.71
713.407	27485.9
713.75	27299.92
714.094	27245.23
714.438	27095.4
714.782	27209.75
715.125	27130.43
715.469	27143.31
715.812	26946.93
716.156	26798.01
716.499	26811.34
716.843	26886.6
717.186	26598.92
717.53	26710.1
717.873	26741.97
718.216	26625.13
718.559	26570.45
718.902	26429.21
719.246	26439.6
719.589	26426.49
719.932	26177.46
720.275	26204.13
720.617	26231.92
720.96	26272.37
721.303	26144.24
721.646	26099.27
721.989	25827.64
722.331	26117.58
722.674	25931.14
723.016	25965.49
723.359	25873.06
723.701	25835.1
724.044	25769.56
724.386	25630.81
724.729	25642.56
725.071	25621.54
725.413	25575.9
725.755	25463.81
726.097	25364.38
726.439	25351.27
726.782	25379.06
727.124	25517.82
727.465	25318.73
727.807	25245.51
728.149	25139.97
728.491	25153.76
728.833	25193.76
729.175	25003.93
729.516	24985.18
729.858	24984.27
730.199	25071.05
730.541	24941.79
730.882	24859.08
731.224	24892.75
731.565	24674
731.906	24757.39
732.248	24725.75
732.589	24631.51
732.93	24535.24
733.271	24440.78
733.612	24612.76
733.953	24651.63
734.294	24528.47
734.635	24372.09
734.976	24347
735.317	24268.59
735.658	24285.53
735.999	24189.72
736.339	24147.01
736.68	24311.75
737.021	24130.51
737.361	24074.24
737.702	24165.99
738.042	24030.63
738.383	23984.52
738.723	24074.69
739.063	23939.55
739.404	23942.49
739.744	23826.11
740.084	23711.54
740.424	23886.22
740.764	23803.96
741.104	23835.6
741.444	23743.85
741.784	23597.19
742.124	23597.42
742.464	23584.08
742.804	23529.4
743.143	23420.7
743.483	23440.36
743.823	23276.75
744.162	23287.14
744.502	23401.04
744.841	23322.4
745.181	23313.13
745.52	23155.17
745.86	23217.31
746.199	23151.55
746.538	23069.07
746.877	23170.99
747.216	23048.5
747.556	23032.46
747.895	22950.65
748.234	22789.08
748.573	22938.45
748.911	22766.48
749.25	22853.93
749.589	22700.94
749.928	22744.11
750.267	22562.19
750.605	22618.68
750.944	22606.48
751.283	22598.8
751.621	22492.36
751.96	22374.62
752.298	22416.66
752.636	22368.07
752.975	22318.58
753.313	22155.65
753.651	22248.3
753.989	22186.83
754.327	22128.08
