Data from White_reflection_standard_FLMS001491_067.txt Node
Date: Tue Feb 07 10:32:08 GMT 2017
User: dcchb
Spectrometer: FLMS00149
Trigger mode: 0
Integration Time (sec): 2.000000E-2
Scans to average: 10
Electric dark correction enabled: true
Nonlinearity correction enabled: false
Boxcar width: 0
XAxis mode: Wavelengths
Number of Pixels in Spectrum: 2048
>>>>>Begin Spectral Data<<<<<
341.393	-6.34
341.776	-6.34
342.16	-6.34
342.543	-47.24
342.927	-80.01
343.31	-58.09
343.693	-80.46
344.077	-70.07
344.46	-53.12
344.843	-50.86
345.226	-39.79
345.61	-29.84
345.993	-14.48
346.376	8.8
346.759	21.45
347.142	19.42
347.525	19.42
347.908	54.9
348.291	71.62
348.674	85.86
349.057	115.24
349.44	121.79
349.823	149.36
350.206	164.28
350.588	247.44
350.971	243.14
351.354	281.56
351.737	277.72
352.119	302.8
352.502	321.56
352.884	311.16
353.267	329.47
353.65	359.07
354.032	331.28
354.414	378.73
354.797	376.93
355.179	367.43
355.562	386.64
355.944	381.44
356.326	385.29
356.709	385.06
357.091	389.81
357.473	388.68
357.855	421.44
358.238	403.59
358.62	376.47
359.002	410.14
359.384	408.56
359.766	403.14
360.148	418.28
360.53	402.01
360.912	393.65
361.294	419.18
361.676	417.83
362.057	403.37
362.439	398.17
362.821	413.31
363.203	402.69
363.584	430.48
363.966	418.05
364.348	426.42
364.729	413.08
365.111	417.6
365.493	396.81
365.874	419.86
366.256	425.29
366.637	415.79
367.019	443.14
367.4	402.46
367.781	422.35
368.163	420.54
368.544	429.13
368.925	416.25
369.306	421.44
369.688	420.09
370.069	435.91
370.45	417.6
370.831	428.9
371.212	465.28
371.593	425.74
371.974	432.06
372.355	451.05
372.736	433.42
373.117	438.39
373.498	447.66
373.879	433.87
374.26	431.39
374.641	441.33
375.021	444.49
375.402	460.99
375.783	465.51
376.163	514.77
376.544	505.06
376.925	498.28
377.305	484.04
377.686	496.02
378.066	476.58
378.447	498.05
378.827	503.93
379.208	506.64
379.588	514.1
379.968	515.45
380.349	527.66
380.729	513.42
381.109	532.63
381.489	517.26
381.87	550.03
382.25	518.16
382.63	563.13
383.01	558.39
383.39	566.75
383.77	574.89
384.15	569.46
384.53	571.27
384.91	577.15
385.29	598.39
385.67	611.72
386.049	605.39
386.429	641.1
386.809	620.31
387.189	637.26
387.568	616.01
387.948	644.04
388.328	646.75
388.707	641.78
389.087	667.54
389.466	697.14
389.846	663.25
390.225	695.33
390.605	714.32
390.984	702.34
391.363	704.6
391.743	707.76
392.122	717.93
392.501	743.47
392.881	733.75
393.26	726.52
393.639	771.27
394.018	778.72
394.397	777.37
394.776	787.76
395.155	777.59
395.534	784.15
395.913	814.88
396.292	801.77
396.671	828.21
397.05	829.57
397.429	825.5
397.808	858.72
398.186	842.9
398.565	856.01
398.944	853.07
399.323	881.77
399.701	875.44
400.08	896.69
400.458	921.54
400.837	935.33
401.215	912.05
401.594	885.61
401.972	949.11
402.351	952.28
402.729	992.5
403.107	979.4
403.486	982.56
403.864	991.37
404.242	981.88
404.62	1025.5
404.999	1037.7
405.377	1039.51
405.755	1088.77
406.133	1075.66
406.511	1087.41
406.889	1110.47
407.267	1133.97
407.645	1129.67
408.023	1173.51
408.401	1171.93
408.779	1170.35
409.156	1194.08
409.534	1204.25
409.912	1214.87
410.29	1258.26
410.667	1267.52
411.045	1292.61
411.422	1286.05
411.8	1284.7
412.178	1338.26
412.555	1366.28
412.933	1358.37
413.31	1405.15
413.687	1418.71
414.065	1398.14
414.442	1422.55
414.819	1427.97
415.197	1460.06
415.574	1484.47
415.951	1497.8
416.328	1538.02
416.705	1508.42
417.082	1534.63
417.46	1565.14
417.837	1584.58
418.214	1576.44
418.591	1605.14
418.967	1631.81
419.344	1619.6
419.721	1647.85
420.098	1664.35
420.475	1726.27
420.852	1706.61
421.228	1725.82
421.605	1760.62
421.982	1748.41
422.358	1783.67
422.735	1820.5
423.111	1808.3
423.488	1865.02
423.864	1861.86
424.241	1885.13
424.617	1915.87
424.994	1886.72
425.37	1908.64
425.746	1956.77
426.123	1976.88
426.499	2003.55
426.875	2032.47
427.251	2035.19
427.627	2087.61
428.003	2128.29
428.379	2153.38
428.756	2172.81
429.132	2215.75
429.507	2258.23
429.883	2258.23
430.259	2352.92
430.635	2346.82
431.011	2340.72
431.387	2403.54
431.763	2434.95
432.138	2446.48
432.514	2467.94
432.89	2542.29
433.265	2580.48
433.641	2611.22
434.016	2641.27
434.392	2653.48
434.767	2743.19
435.143	2723.98
435.518	2729.18
435.894	2803.75
436.269	2832.68
436.644	2850.08
437.02	2907.48
437.395	2890.31
437.77	2925.33
438.145	3018.44
438.52	3017.31
438.895	3061.83
439.271	3043.52
439.646	3122.39
440.021	3183.4
440.395	3184.31
440.77	3144.76
441.145	3189.05
441.52	3238.77
441.895	3279.67
442.27	3304.08
442.645	3330.97
443.019	3352.89
443.394	3384.53
443.769	3412.78
444.143	3410.29
444.518	3455.26
444.892	3458.88
445.267	3502.27
445.641	3554.69
446.016	3565.09
446.39	3596.73
446.764	3615.48
447.139	3608.25
447.513	3658.19
447.887	3660.45
448.262	3696.39
448.636	3717.85
449.01	3766.67
449.384	3824.52
449.758	3853.44
450.132	3899.09
450.506	3907.23
450.88	3989.71
451.254	3992.88
451.628	4035.81
452.002	4089.6
452.376	4120.33
452.75	4104.74
453.123	4167.79
453.497	4243.94
453.871	4255.92
454.244	4349.48
454.618	4377.5
454.992	4440.1
455.365	4454.11
455.739	4599.86
456.112	4619.98
456.486	4669.02
456.859	4690.71
457.232	4836.69
457.606	4800.76
457.979	4902.23
458.352	4937.94
458.725	5077.14
459.099	5091.83
459.472	5213.41
459.845	5239.17
460.218	5259.73
460.591	5324.82
460.964	5332.73
461.337	5454.08
461.71	5564.13
462.083	5701.53
462.456	5651.59
462.829	5744.92
463.201	5778.82
463.574	5832.6
463.947	5908.76
464.32	6032.14
464.692	6079.37
465.065	6165.93
465.438	6288.18
465.81	6318.92
466.183	6346.26
466.555	6578.12
466.928	6604.11
467.3	6590.55
467.672	6744.67
468.045	6831.9
468.417	6910.09
468.789	6921.84
469.161	7045.45
469.534	7092.91
469.906	7285.22
470.278	7313.01
470.65	7434.14
471.022	7612.22
471.394	7770.4
471.766	7847.01
472.138	7905.77
472.51	8139.43
472.882	8174.91
473.253	8308.24
473.625	8435.02
473.997	8604.28
474.369	8701.45
474.74	8800.66
475.112	8920.66
475.484	9112.51
475.855	9241.78
476.227	9346.86
476.598	9637.92
476.97	9667.3
477.341	9913.85
477.713	10071.13
478.084	10106.16
478.455	10434.29
478.827	10575.75
479.198	10821.85
479.569	10805.8
479.94	11100.71
480.311	11217.77
480.682	11466.8
481.053	11744.31
481.424	11985.21
481.795	12032.44
482.166	12263.84
482.537	12446.44
482.908	12675.58
483.279	12761.46
483.65	13083.94
484.021	13191.28
484.391	13453.42
484.762	13530.48
485.133	13734.31
485.503	14024.48
485.874	14228.31
486.244	14378.59
486.615	14634.63
486.985	14815.42
487.356	15120.04
487.726	15224.67
488.097	15506.02
488.467	15589.41
488.837	15917.76
489.207	16073.91
489.578	16309.84
489.948	16482.26
490.318	16679.77
490.688	16769.26
491.058	16991.4
491.428	17289.25
491.798	17423.26
492.168	17772.4
492.538	17937.82
492.908	18069.79
493.278	18245.38
493.648	18420.74
494.017	18548.88
494.387	18772.83
494.757	18922.65
495.126	19192.48
495.496	19200.38
495.866	19377.1
496.235	19571.22
496.605	19820.48
496.974	19935.73
497.344	20090.76
497.713	20298.89
498.082	20356.29
498.452	20575.72
498.821	20625.43
499.19	20770.97
499.559	21016.83
499.928	21173.44
500.298	21228.58
500.667	21579.31
501.036	21504.05
501.405	21731.84
501.774	21833.08
502.143	22052.97
502.512	22088.67
502.88	22344.71
503.249	22363.92
503.618	22509
503.987	22607.75
504.356	22787.41
504.724	22926.61
505.093	23081.19
505.462	23235.53
505.83	23429.88
506.199	23597.56
506.567	23989.19
506.936	23954.61
507.304	24139.92
507.672	24287.93
508.041	24390.31
508.409	24557.08
508.777	24795.72
509.145	25070.06
509.514	25023.51
509.882	25219.66
510.25	25321.81
510.618	25613.78
510.986	25799.31
511.354	25916.82
511.722	26098.51
512.09	26487.2
512.458	26435.22
512.826	26737.59
513.193	26761.77
513.561	26897.81
513.929	27091.7
514.297	27227.29
514.664	27646.26
515.032	27661.41
515.4	27916.77
515.767	27959.7
516.135	28251.67
516.502	28191.11
516.869	28735.5
517.237	28814.37
517.604	28720.36
517.972	29163.74
518.339	29474.69
518.706	29381.59
519.073	29657.51
519.44	29887.56
519.808	30291.62
520.175	30121.91
520.542	30682.79
520.909	30791.27
521.276	30928.44
521.643	31322.55
522.009	31480.74
522.376	31626.95
522.743	32003.89
523.11	32208.86
523.477	32588.96
523.843	32606.13
524.21	33016.29
524.577	33130.19
524.943	33422.38
525.31	33578.99
525.676	33874.58
526.043	34226.43
526.409	34302.13
526.776	34672.75
527.142	34872.74
527.508	34936.47
527.874	35304.37
528.241	35480.18
528.607	35672.72
528.973	35983.67
529.339	36015.76
529.705	36268.41
530.071	36595.18
530.437	36757.89
530.803	36988.39
531.169	37301.38
531.535	37250.98
531.901	37489.62
532.267	37515.84
532.632	37819.1
532.998	38016.84
533.364	38241.47
533.73	38336.83
534.095	38655.92
534.461	38813.65
534.826	38980.88
535.192	39086.64
535.557	39294.32
535.923	39259.07
536.288	39654.31
536.653	39694.08
537.019	39704.93
537.384	40007.75
537.749	40158.25
538.114	40165.94
538.479	40287.06
538.845	40592.14
539.21	40562.54
539.575	40796.43
539.94	40922.98
540.305	41193.48
540.67	41024.22
541.034	41379.69
541.399	41322.74
541.764	41660.36
542.129	41698.55
542.494	41892.44
542.858	42032.55
543.223	42033.91
543.587	42357.74
543.952	42341.47
544.316	42583.95
544.681	42508.25
545.045	42792.08
545.41	42912.98
545.774	43067.55
546.138	43128.57
546.503	43321.11
546.867	43262.35
547.231	43669.8
547.595	43741.43
547.959	43951.6
548.324	43966.97
548.688	44004.93
549.052	44096.91
549.416	44218.26
549.779	44394.3
550.143	44606.27
550.507	44835.87
550.871	44929.88
551.235	44938.69
551.599	45300.04
551.962	45472.69
552.326	45428.17
552.689	45758.56
553.053	45660.03
553.417	45849.85
553.78	46344.53
554.143	46073.8
554.507	46386.79
554.87	46564.41
555.234	46868.81
555.597	46703.62
555.96	46918.75
556.323	47123.72
556.686	47299.76
557.05	47490.71
557.413	47594.89
557.776	47711.27
558.139	47924.83
558.502	48184.93
558.865	48152.17
559.228	48434.87
559.59	48541.76
559.953	48680.97
560.316	49038.47
560.679	48992.6
561.041	49308.97
561.404	49298.35
561.767	49612.69
562.129	49533.15
562.492	49961.38
562.854	49917.32
563.217	49996.19
563.579	50113.24
563.941	50398.43
564.304	50410.19
564.666	50783.96
565.028	50842.49
565.39	51011.07
565.753	51159.77
566.115	51253.33
566.477	51478.86
566.839	51570.61
567.201	51624.84
567.563	51797.49
567.925	51856.02
568.287	51972.4
568.648	51980.54
569.01	52246.75
569.372	52344.15
569.734	52234.77
570.095	52586.4
570.457	52746.85
570.819	52740.52
571.18	52769.22
571.542	52989.55
571.903	53022.32
572.265	53119.72
572.626	53265.7
572.987	53281.75
573.349	53407.4
573.71	53477
574.071	53589.76
574.432	53717.67
574.794	53878.57
575.155	53856.42
575.516	53733.04
575.877	53896.42
576.238	54003.31
576.599	54131.22
576.96	54107.94
577.32	54132.8
577.681	54302.74
578.042	54309.52
578.403	54285.79
578.763	54305.22
579.124	54448.27
579.485	54469.29
579.845	54480.81
580.206	54508.84
580.566	54547.93
580.927	54586.8
581.287	54624.09
581.648	54611.88
582.008	54746.12
582.368	54690.98
582.728	54674.71
583.089	54696.63
583.449	54711.09
583.809	54720.81
584.169	54768.04
584.529	54693.46
584.889	54947.02
585.249	54757.87
585.609	54689.17
585.969	54870.18
586.329	54816.62
586.688	54837.87
587.048	54766.68
587.408	54735.04
587.768	54777.3
588.127	54677.19
588.487	54802.39
588.846	54952.67
589.206	54814.59
589.565	54751.09
589.925	54926
590.284	54842.16
590.643	54828.6
591.003	54958.09
591.362	55025.88
591.721	54897.75
592.08	54936.17
592.44	55013.45
592.799	55024.08
593.158	54939.56
593.517	54977.98
593.876	55091.19
594.235	54916.28
594.593	55016.62
594.952	55048.26
595.311	54950.86
595.67	55064.53
596.029	55205.54
596.387	55166.22
596.746	55229.95
597.104	55093.45
597.463	55085.09
597.822	55240.79
598.18	55076.28
598.538	55081.02
598.897	55269.27
599.255	55075.6
599.613	55463.16
599.972	55213.45
600.33	55314.24
600.688	55183.62
601.046	55335.93
601.404	55408.7
601.762	55358.53
602.12	55510.84
602.478	55491.41
602.836	55539.09
603.194	55356.27
603.552	55440.11
603.91	55403.95
604.268	55545.19
604.625	55352.43
604.983	55550.39
605.341	55432.2
605.698	55634
606.056	55664.74
606.413	55578.86
606.771	55733.44
607.128	55737.28
607.485	55655.92
607.843	55689.37
608.2	55746.09
608.557	55823.15
608.914	55856.37
609.272	55938.18
609.629	55991.96
609.986	56068.34
610.343	55950.38
610.7	56128.68
611.057	56070.6
611.414	56022.92
611.771	56052.98
612.127	56133.43
612.484	56175.46
612.841	56159.19
613.198	56176.36
613.554	56141.11
613.911	56274.89
614.267	56240.77
614.624	56261.78
614.98	56324.83
615.337	56351.95
615.693	56367.77
616.05	56297.71
616.406	56511.72
616.762	56278.28
617.118	56400.54
617.475	56401.21
617.831	56490.48
618.187	56408.22
618.543	56526.41
618.899	56631.04
619.255	56602.34
619.611	56533.19
619.967	56617.93
620.323	56659.29
620.678	56612.06
621.034	56533.87
621.39	56479.18
621.746	56541.55
622.101	56788.55
622.457	56473.3
622.812	56638.95
623.168	56616.12
623.523	56656.12
623.879	56726.86
624.234	56477.14
624.589	56598.05
624.945	56632.17
625.3	56653.41
625.655	56645.73
626.01	56624.26
626.365	56656.35
626.72	56683.92
627.075	56607.31
627.43	56566.41
627.785	56516.24
628.14	56667.65
628.495	56588.78
628.85	56559.63
629.205	56524.6
629.559	56632.4
629.914	56461.78
630.269	56495.45
630.623	56491.61
630.978	56361.89
631.332	56520.08
631.687	56474.89
632.041	56313.08
632.396	56485.28
632.75	56260.65
633.104	56316.02
633.459	56196.02
633.813	56144.95
634.167	56144.95
634.521	56164.38
634.875	56183.82
635.229	56142.46
635.583	55960.77
635.937	55959.19
636.291	55996.71
636.645	55979.76
636.999	55858.86
637.352	56005.74
637.706	55822.7
638.06	55943.37
638.413	55810.95
638.767	55761.01
639.121	55808.24
639.474	55636.26
639.828	55626.32
640.181	55685.53
640.534	55605.98
640.888	55535.7
641.241	55501.13
641.594	55468.13
641.947	55615.7
642.301	55437.85
642.654	55465.87
643.007	55434.46
643.36	55312.88
643.713	55270.17
644.066	55403.73
644.419	55154.47
644.771	54987.24
645.124	54746.79
645.477	54670.19
645.83	54430.42
646.182	54307.03
646.535	54266.58
646.888	54412.79
647.24	54116.98
647.593	54413.7
647.945	54239.92
648.298	54165.57
648.65	54102.97
649.002	54011.9
649.355	54099.13
649.707	53986.59
650.059	54082.86
650.411	54433.58
650.763	54466.58
651.115	54736.63
651.467	54618.44
651.819	54649.62
652.171	54565.33
652.523	54531.66
652.875	54497.99
653.227	54347.94
653.578	54517.2
653.93	54489.63
654.282	54392.45
654.633	54205.79
654.985	54315.85
655.337	54277.43
655.688	54286.92
656.039	54331.66
656.391	54081.73
656.742	54197.88
657.094	54156.53
657.445	54258.9
657.796	54172.35
658.147	54107.26
658.498	54058.9
658.849	54102.07
659.2	54077.43
659.551	54032.24
659.902	54062.97
660.253	53957.21
660.604	53974.61
660.955	53906.14
661.306	54062.07
661.656	53897.78
662.007	53877.44
662.358	53844.67
662.708	53859.36
663.059	53785.24
663.409	53634.73
663.76	53839.25
664.11	53872.69
664.461	53868.17
664.811	53804.67
665.161	53691
665.511	53665.47
665.862	53715.41
666.212	53744.56
666.562	53755.86
666.912	53579.37
667.262	53635.86
667.612	53674.05
667.962	53669.76
668.312	53589.99
668.662	53670.67
669.011	53510.67
669.361	53512.48
669.711	53527.62
670.06	53394.06
670.41	53400.84
670.76	53305.02
671.109	53471.12
671.459	53414.63
671.808	53341.86
672.157	53363.55
672.507	53250.56
672.856	53187.06
673.205	53328.75
673.554	53274.52
673.904	53185.93
674.253	53239.94
674.602	53184.8
674.951	52818.03
675.3	52643.8
675.649	53128.76
675.998	53064.35
676.346	53011.47
676.695	53277.46
677.044	52843.79
677.393	52921.08
677.741	52943.45
678.09	52854.87
678.438	52804.47
678.787	52900.74
679.135	52874.98
679.484	52694.65
679.832	52769.45
680.181	52623.91
680.529	52755.21
680.877	52596.34
681.225	52542.11
681.573	52770.58
681.922	52475.89
682.27	52396.8
682.618	52404.26
682.966	52324.26
683.314	52357.25
683.661	52214.43
684.009	52113.42
684.357	51944.16
684.705	51941.44
685.053	52007.43
685.4	52007.43
685.748	51811.96
686.095	51715.91
686.443	51613.09
686.79	51526.31
687.138	51754.78
687.485	51534.9
687.832	51368.13
688.18	51512.08
688.527	51267.56
688.874	51335.36
689.221	51156.38
689.568	51105.08
689.915	50915.71
690.262	50894.01
690.609	50884.98
690.956	50706.45
691.303	50642.95
691.65	50491.77
691.997	50454.48
692.344	50278.21
692.69	50290.64
693.037	50192.34
693.383	49907.83
693.73	50152.11
694.077	49944.44
694.423	49834.83
694.769	49762.97
695.116	49617.89
695.462	49553.26
695.808	49457.89
696.155	49556.2
696.501	49213.16
696.847	49251.35
697.193	48903.11
697.539	49082.99
697.885	48830.34
698.231	48681.87
698.577	48732.94
698.923	48576.34
699.269	48501.99
699.614	48236.46
699.96	48188.78
700.306	48160.75
700.651	48012.51
700.997	47831.5
701.342	47953.08
701.688	47810.25
702.033	47762.35
702.379	47709.24
702.724	47464.05
703.069	47593.99
703.415	46931.86
703.76	47171.17
704.105	46970.05
704.45	46925.98
704.795	46775.48
705.14	46653.45
705.485	46717.85
705.83	46437.63
706.175	46515.82
706.52	46239.9
706.865	46250.75
707.209	46202.16
707.554	45901.6
707.899	46017.98
708.243	45735.28
708.588	45864.54
708.932	45478.56
709.277	45453.71
709.621	45522.18
709.966	45222.75
710.31	45326.93
710.654	45020.72
710.998	45174.62
711.342	45048.07
711.687	44867.51
712.031	44649.89
712.375	44673.61
712.719	44745.48
713.063	44478.82
713.407	44699.38
713.75	44334.64
714.094	44542.54
714.438	44161.99
714.782	44196.56
715.125	43954.08
715.469	44136
715.812	43837.7
716.156	43650.14
716.499	43661.66
716.843	43741.89
717.186	43487.66
717.53	43597.71
717.873	43543.7
718.216	43452.85
718.559	43236.82
718.902	42970.38
719.246	43166.99
719.589	42926.09
719.932	42843.15
720.275	42791.86
720.617	42800.22
720.96	42724.51
721.303	42669.37
721.646	42678.41
721.989	42338.99
722.331	42462.6
722.674	42470.96
723.016	42304.41
723.359	42277.97
723.701	42222.6
724.044	41988.03
724.386	41864.87
724.729	41966.79
725.071	41720.02
725.413	41781.49
725.755	41749.17
726.097	41512.11
726.439	41332.23
726.782	41425.79
727.124	41601.15
727.465	41353.47
727.807	41480.25
728.149	41160.49
728.491	41166.36
728.833	41149.86
729.175	40925.01
729.516	40994.39
729.858	40909.64
730.199	40852.02
730.541	40822.42
730.882	40741.51
731.224	40751.46
731.565	40517.56
731.906	40604.79
732.248	40485.02
732.589	40256.78
732.93	40162.55
733.271	40355.99
733.612	40221.53
733.953	40229.66
734.294	40094.75
734.635	40069.21
734.976	40013.62
735.317	39840.29
735.658	39856.34
735.999	39831.93
736.339	39682.33
736.68	39823.35
737.021	39478.27
737.361	39420.87
737.702	39558.72
738.042	39387.88
738.383	39126.87
738.723	39285.28
739.063	39066.53
739.404	39130.71
739.744	39127.54
740.084	38901.79
740.424	38926.42
740.764	38788.57
741.104	38957.38
741.444	38717.16
741.784	38633.77
742.124	38706.54
742.464	38701.12
742.804	38459.31
743.143	38502.25
743.483	38404.17
743.823	38135.93
744.162	38178.64
744.502	38295.02
744.841	38171.19
745.181	38155.37
745.52	37980.68
745.86	38101.58
746.199	37887.58
746.538	37862.72
746.877	37973.68
747.216	37845.09
747.556	37730.07
747.895	37615.95
748.234	37510.19
748.573	37554.03
748.911	37456.4
749.25	37479.23
749.589	37195.62
749.928	37278.55
750.267	37277.88
750.605	37127.37
750.944	37127.82
751.283	36948.17
751.621	36908.17
