Data from White_reflection_standard_FLMS001491_078.txt Node
Date: Tue Feb 07 10:32:10 GMT 2017
User: dcchb
Spectrometer: FLMS00149
Trigger mode: 0
Integration Time (sec): 2.000000E-2
Scans to average: 10
Electric dark correction enabled: true
Nonlinearity correction enabled: false
Boxcar width: 0
XAxis mode: Wavelengths
Number of Pixels in Spectrum: 2048
>>>>>Begin Spectral Data<<<<<
341.393	-19.91
341.776	-19.91
342.16	-19.91
342.543	-40.25
342.927	-81.38
343.31	-64.21
343.693	-47.94
344.077	-66.69
344.46	-51.33
344.843	-52.23
345.226	-66.24
345.61	-34.15
345.993	-30.54
346.376	9.91
346.759	16.69
347.142	17.82
347.525	44.04
347.908	63.92
348.291	71.83
348.674	73.64
349.057	115.45
349.44	114.77
349.823	141.66
350.206	165.39
350.588	248.78
350.971	270.7
351.354	249.68
351.737	273.86
352.119	293.3
352.502	316.12
352.884	298.04
353.267	334.2
353.65	335.33
354.032	341.66
354.414	352.96
354.797	364.93
355.179	355.44
355.562	375.56
355.944	359.51
356.326	372.62
356.709	378.49
357.091	361.32
357.473	390.47
357.855	404.48
358.238	392.05
358.62	385.27
359.002	393.86
359.384	392.5
359.766	423.69
360.148	404.25
360.53	388.66
360.912	406.29
361.294	375.33
361.676	410.58
362.057	410.13
362.439	391.6
362.821	408.32
363.203	395.67
363.584	401.54
363.966	401.32
364.348	414.88
364.729	421.66
365.111	393.86
365.493	411.71
365.874	411.03
366.256	394.76
366.637	409
367.019	418.72
367.4	407.87
367.781	407.19
368.163	411.26
368.544	412.16
368.925	421.43
369.306	425.5
369.688	430.24
370.069	415.1
370.45	432.73
370.831	424.82
371.212	422.56
371.593	447.87
371.974	430.69
372.355	444.03
372.736	440.41
373.117	456.23
373.498	458.94
373.879	431.6
374.26	445.84
374.641	432.95
375.021	454.2
375.402	460.07
375.783	470.47
376.163	499.85
376.544	474.31
376.925	469.79
377.305	485.61
377.686	493.74
378.066	480.41
378.447	489
378.827	491.26
379.208	501.2
379.588	500.07
379.968	525.83
380.349	524.25
380.729	520.41
381.109	532.16
381.489	560.18
381.87	531.03
382.25	551.14
382.63	558.15
383.01	556.12
383.39	554.99
383.77	574.65
384.15	564.48
384.53	562.67
384.91	579.17
385.29	590.01
385.67	600.86
386.049	597.47
386.429	604.02
386.809	629.33
387.189	622.1
387.568	621.88
387.948	642.44
388.328	663.23
388.707	638.15
389.087	667.07
389.466	652.16
389.846	668.65
390.225	662.33
390.605	665.26
390.984	679.95
391.363	703.91
391.743	716.56
392.122	712.5
392.501	709.33
392.881	721.76
393.26	740.74
393.639	753.62
394.018	767.18
394.397	766.28
394.776	781.87
395.155	774.19
395.534	800.18
395.913	795.66
396.292	823
396.671	807.63
397.05	818.48
397.429	843.11
397.808	829.1
398.186	828.65
398.565	848.54
398.944	855.99
399.323	862.77
399.701	885.82
400.08	867.52
400.458	889.89
400.837	925.15
401.215	919.95
401.594	929.44
401.972	926.05
402.351	927.18
402.729	963.34
403.107	972.83
403.486	1000.85
403.864	984.35
404.242	976.9
404.62	995.2
404.999	1008.08
405.377	1030.68
405.755	1031.13
406.133	1075.88
406.511	1070.45
406.889	1065.25
407.267	1085.82
407.645	1123.33
408.023	1118.81
408.401	1149.55
408.779	1159.26
409.156	1196.78
409.534	1186.38
409.912	1216.89
410.29	1222.54
410.667	1257.79
411.045	1295.76
411.422	1277.45
411.8	1274.51
412.178	1323.1
412.555	1339.15
412.933	1344.34
413.31	1375.98
413.687	1395.64
414.065	1402.19
414.442	1443.1
414.819	1440.39
415.197	1467.28
415.574	1485.58
415.951	1490.1
416.328	1529.2
416.705	1508.18
417.082	1516.99
417.46	1588.4
417.837	1555.41
418.214	1579.82
418.591	1601.74
418.967	1645.58
419.344	1615.52
419.721	1660.27
420.098	1688.97
420.475	1695.52
420.852	1698.68
421.228	1735.29
421.605	1749.98
421.982	1748.17
422.358	1771.68
422.735	1788.63
423.111	1843.99
423.488	1824.56
423.864	1869.75
424.241	1843.99
424.617	1898.68
424.994	1910.88
425.37	1951.78
425.746	1945.23
426.123	1989.3
426.499	1993.59
426.875	2029.07
427.251	2053.03
427.627	2091.67
428.003	2132.12
428.379	2158.11
428.756	2180.71
429.132	2167.15
429.507	2216.18
429.883	2268.16
430.259	2299.35
430.635	2286.69
431.011	2316.07
431.387	2407.14
431.763	2441.49
432.138	2440.36
432.514	2528.72
432.89	2478.1
433.265	2567.59
433.641	2584.99
434.016	2640.81
434.392	2690.3
434.767	2715.61
435.143	2728.26
435.518	2719
435.894	2766.9
436.269	2825.21
436.644	2883.29
437.02	2920.57
437.395	2895.49
437.77	2962.83
438.145	3001.7
438.52	3023.4
438.895	3040.8
439.271	3083.28
439.646	3160.79
440.021	3182.49
440.395	3171.41
440.77	3152.43
441.145	3187.68
441.52	3261.58
441.895	3241.69
442.27	3310.62
442.645	3309.49
443.019	3377.51
443.394	3346.55
443.769	3417.51
444.143	3411.63
444.518	3459.09
444.892	3454.57
445.267	3490.95
445.641	3522.37
446.016	3531.63
446.39	3582.93
446.764	3614.79
447.139	3593.32
447.513	3682.36
447.887	3676.71
448.262	3695.02
448.636	3695.69
449.01	3761
449.384	3837.38
449.758	3854.11
450.132	3904.28
450.506	3899.98
450.88	3938.85
451.254	3919.64
451.628	3987.89
452.002	4055.91
452.376	4084.61
452.75	4162.12
453.123	4167.09
453.497	4263.14
453.871	4269.24
454.244	4396.92
454.618	4432.62
454.992	4465.17
455.365	4488.22
455.739	4560.3
456.112	4641.21
456.486	4676.91
456.859	4705.61
457.232	4783.8
457.606	4788.55
457.979	4857.02
458.352	4969.33
458.725	5029.22
459.099	5075.77
459.472	5155.99
459.845	5276.9
460.218	5273.51
460.591	5315.54
460.964	5358.25
461.337	5455.2
461.71	5620.61
462.083	5688.86
462.456	5617.23
462.829	5706.94
463.201	5812.47
463.574	5836.2
463.947	5866.26
464.32	6065.57
464.692	6049.3
465.065	6121.62
465.438	6260.82
465.81	6298.11
466.183	6375.4
466.555	6506.24
466.928	6612.45
467.3	6577.43
467.672	6675.5
468.045	6867.14
468.417	6864.2
468.789	6928.15
469.161	7065.55
469.534	7127.47
469.906	7334.02
470.278	7343.73
470.65	7491.98
471.022	7574.01
471.394	7758.64
471.766	7846.32
472.138	7931.29
472.51	8133.54
472.882	8212.86
473.253	8317.49
473.625	8454.89
473.997	8587.09
474.369	8665.28
474.74	8792.96
475.112	8932.84
475.484	9076.34
475.855	9245.6
476.227	9325.6
476.598	9619.38
476.97	9639.04
477.341	9859.15
477.713	10022.08
478.084	10103.21
478.455	10420.26
478.827	10440.15
479.198	10849.86
479.569	10773.93
479.94	11252.56
480.311	11223.41
480.682	11501.82
481.053	11705.43
481.424	11973.67
481.795	12011.41
482.166	12208.01
482.537	12338.86
482.908	12653.2
483.279	12755.34
483.65	12977.03
484.021	13333.18
484.391	13395.78
484.762	13577.69
485.133	13702.89
485.503	13824.47
485.874	14158.24
486.244	14353.04
486.615	14661.06
486.985	14827.15
487.356	15054.49
487.726	15148.73
488.097	15494.48
488.467	15482.73
488.837	15905.32
489.207	16116.61
489.578	16255.36
489.948	16379.88
490.318	16681.12
490.688	16787.78
491.058	16988.9
491.428	17256.47
491.798	17427.76
492.168	17825.27
492.538	17857.58
492.908	18125.14
493.278	18273.39
493.648	18246.5
494.017	18559.71
494.387	18735.52
494.757	19001.51
495.126	19143.42
495.496	19219.81
495.866	19275.4
496.235	19605.56
496.605	19755.61
496.974	19889.62
497.344	20113.57
497.713	20138.88
498.082	20349.72
498.452	20585.19
498.821	20675.59
499.19	20770.27
499.559	20959.87
499.928	21037.61
500.298	21292.29
500.667	21454.32
501.036	21527.99
501.405	21749.68
501.774	21831.04
502.143	21950.81
502.512	22022.67
502.88	22296.56
503.249	22312.83
503.618	22556.44
503.987	22627.63
504.356	22839.37
504.724	22970.44
505.093	23095.41
505.462	23164.11
505.83	23391.45
506.199	23460.6
506.567	23847.71
506.936	23915.5
507.304	24198.88
507.672	24294.93
508.041	24324.76
508.409	24629.38
508.777	24799.77
509.145	25018.97
509.514	25095.36
509.882	25341.45
510.25	25351.4
510.618	25575.34
510.986	25648.11
511.354	25851.04
511.722	26271.37
512.09	26390.01
512.458	26418.71
512.826	26728.76
513.193	26789.32
513.561	26972.14
513.929	27243.78
514.297	27470.44
514.664	27656.87
515.032	27761.73
515.4	27910.42
515.767	28140.47
516.135	28379.11
516.502	28189.74
516.869	28542.5
517.237	28886.44
517.604	28778.42
517.972	29198.07
518.339	29391.06
518.706	29592.41
519.073	29664.5
519.44	29880.99
519.808	30344.94
520.175	30250.25
520.542	30789.67
520.909	30847.97
521.276	30946.28
521.643	31337.68
522.009	31496.77
522.376	31687.73
522.743	31854.5
523.11	32221.05
523.477	32592.34
523.843	32689.73
524.21	33036.39
524.577	33291.3
524.943	33412.2
525.31	33695.13
525.676	33982.13
526.043	34147.55
526.409	34211.73
526.776	34689.23
527.142	34856.46
527.508	34983.46
527.874	35269.1
528.241	35595.42
528.607	35584.35
528.973	35998.57
529.339	36029.76
529.705	36282.63
530.071	36632.91
530.437	36833.58
530.803	37018.43
531.169	37189.28
531.535	37340.23
531.901	37440.8
532.267	37570.51
532.632	37866.77
532.998	37816.15
533.364	38227.89
533.73	38337.27
534.095	38631.72
534.461	38803.02
534.826	38791.49
535.192	39225.83
535.557	39367.3
535.923	39379.73
536.288	39505.83
536.653	39798.47
537.019	39639.61
537.384	39924.35
537.749	39941.07
538.114	40148.75
538.479	40269.87
538.845	40716.19
539.21	40529.08
539.575	40778.11
539.94	40925.68
540.305	41123.64
540.67	41136.97
541.034	41215.84
541.399	41317.53
541.764	41542.83
542.129	41661.02
542.494	41764.98
542.858	42036.83
543.223	42034.8
543.587	42279.76
543.952	42350.27
544.316	42444.28
544.681	42538.51
545.045	42744.61
545.41	43029.8
545.774	43031.83
546.138	43163.81
546.503	43286.29
546.867	43346.63
547.231	43587.75
547.595	43782.55
547.959	43895.09
548.324	43953.39
548.688	44109.55
549.052	44170.11
549.416	44354.51
549.779	44559.25
550.143	44629.31
550.507	44858
550.871	44889.64
551.235	44923.08
551.599	45354.71
551.962	45357.65
552.326	45611.43
552.689	45827.24
553.053	45674.93
553.417	45622.05
553.78	46250.28
554.143	46121.47
554.507	46364.18
554.87	46531.4
555.234	46962.8
555.597	46763.49
555.96	46794.45
556.323	47166.19
556.686	47182.69
557.05	47530.7
557.413	47617.48
557.776	47643.01
558.139	48016.79
558.502	48033.06
558.865	48061.53
559.228	48476.89
559.59	48517.11
559.953	48666.94
560.316	48956.88
560.679	49051.11
561.041	49247.94
561.404	49372.01
561.767	49625.79
562.129	49627.59
562.492	50016.28
562.854	49835.05
563.217	49986.68
563.579	50172.89
563.941	50425.76
564.304	50581.24
564.666	50743.27
565.028	50816.71
565.39	51015.35
565.753	51191.62
566.115	51245.86
566.477	51486.75
566.839	51482.01
567.201	51771.27
567.563	51683.58
567.925	52048.55
568.287	52009.9
568.648	52018.27
569.01	52322.89
569.372	52468.87
569.734	52279.5
570.095	52587.97
570.457	52708.87
570.819	52832.93
571.18	52788.41
571.542	52955.64
571.903	52955.87
572.265	53151.79
572.626	53270.89
572.987	53349.08
573.349	53364.22
573.71	53579.13
574.071	53513.82
574.432	53594.04
574.794	53861.38
575.155	53877.65
575.516	53760.59
575.877	53948.61
576.238	54000.81
576.599	54070.19
576.96	54160.36
577.32	54148.38
577.681	54189.73
578.042	54367.13
578.403	54262.05
578.763	54381.59
579.124	54520.35
579.485	54484.41
579.845	54548.14
580.206	54469.05
580.566	54647.8
580.927	54544.53
581.287	54705.43
581.648	54518.76
582.008	54690.74
582.368	54650.06
582.728	54698.42
583.089	54765.54
583.449	54741.81
583.809	54714.92
584.169	54830.85
584.529	54713.56
584.889	55018.41
585.249	54684.86
585.609	54701.13
585.969	54890.05
586.329	54770.28
586.688	54813.67
587.048	54705.88
587.408	54751.53
587.768	54845.76
588.127	54679.44
588.487	54730.96
588.846	54916.49
589.206	54775.93
589.565	54805.08
589.925	54881.01
590.284	54843.5
590.643	54931.63
591.003	54844.41
591.362	54982.03
591.721	54939.32
592.08	54927.57
592.44	54965.08
592.799	54998.07
593.158	54957.17
593.517	54956.49
593.876	55011.86
594.235	54974.35
594.593	55034.46
594.952	55113.78
595.311	54970.05
595.67	54985.19
596.029	55180.22
596.387	55201.01
596.746	55188.35
597.104	55110.16
597.463	55124.85
597.822	55240.33
598.18	55095.25
598.538	55062.48
598.897	55269.93
599.255	55023.84
599.613	55460.21
599.972	55197.16
600.33	55303.6
600.688	55232.42
601.046	55315.35
601.404	55437.61
601.762	55323.04
602.12	55456.59
602.478	55463.6
602.836	55499.76
603.194	55315.81
603.552	55476.93
603.91	55303.38
604.268	55522.58
604.625	55430.6
604.983	55522.13
605.341	55460.89
605.698	55614.33
606.056	55687.1
606.413	55582.24
606.771	55755.57
607.128	55796.47
607.485	55629.7
607.843	55683.48
608.2	55814.1
608.557	55907.2
608.914	55829.69
609.272	55966.18
609.629	55942.23
609.986	55960.76
610.343	55917.82
610.7	56143.13
611.057	56038.5
611.414	56025.84
611.771	56066.97
612.127	56110.81
612.484	56174.09
612.841	56219.06
613.198	56188.55
613.554	56225.16
613.911	56395.33
614.267	56219.28
614.624	56244.59
614.98	56325.27
615.337	56368.66
615.693	56293.41
616.05	56320.3
616.406	56471.26
616.762	56391.03
617.118	56270.81
617.475	56413.63
617.831	56484.81
618.187	56461.76
618.543	56503.57
618.899	56640.74
619.255	56627.18
619.611	56540.63
619.967	56633.51
620.323	56643.91
620.678	56510.8
621.034	56498.83
621.39	56452.72
621.746	56472.61
622.101	56802.09
622.457	56461.31
622.812	56598.26
623.168	56623.34
623.523	56660.18
623.879	56741.08
624.234	56548.54
624.589	56617.24
624.945	56633.74
625.3	56673.06
625.655	56672.61
626.01	56654.53
626.365	56666.05
626.72	56602.78
627.075	56600.97
627.43	56602.78
627.785	56522.33
628.14	56609.56
628.495	56657.92
628.85	56558.94
629.205	56464.48
629.559	56619.27
629.914	56439.62
630.269	56508.32
630.623	56438.26
630.978	56330.47
631.332	56413.86
631.687	56507.86
632.041	56351.71
632.396	56413.86
632.75	56222
633.104	56350.35
633.459	56181.32
633.813	56202.34
634.167	56228.32
634.521	56211.6
634.875	56140.64
635.229	56116.91
635.583	55919.41
635.937	56031.04
636.291	55980.87
636.645	55959.18
636.999	55873.3
637.352	55982.45
637.706	55702.46
638.06	55921.67
638.413	55854.1
638.767	55698.17
639.121	55787.88
639.474	55709.69
639.828	55675.34
640.181	55643.71
640.534	55624.05
640.888	55552.41
641.241	55459.08
641.594	55498.4
641.947	55542.47
642.301	55407.33
642.654	55436.93
643.007	55422.47
643.36	55365.97
643.713	55273.77
644.066	55437.16
644.419	55156.49
644.771	55046.21
645.124	54691.64
645.477	54621.81
645.83	54506.56
646.182	54344.31
646.535	54327.36
646.888	54363.29
647.24	54199.9
647.593	54410.97
647.945	54342.95
648.298	54162.84
648.65	54105.67
649.002	53989.29
649.355	54111.09
649.707	54055.5
650.059	54213.46
650.411	54449.61
650.763	54499.1
651.115	54838.53
651.467	54621.81
651.819	54613
652.171	54525.77
652.523	54436.28
652.875	54501.36
653.227	54374.59
653.578	54554.92
653.93	54447.13
654.282	54240.13
654.633	54224.08
654.985	54316.51
655.337	54314.93
655.688	54234.48
656.039	54331.65
656.391	54186.8
656.742	54254.59
657.094	54201.71
657.445	54220.92
657.796	54136.85
658.147	54085.33
658.498	54076.06
658.849	54000.36
659.2	54040.58
659.551	54022.51
659.902	54070.41
660.253	53966.24
660.604	54051.43
660.955	53914.26
661.306	53935.05
661.656	53847.6
662.007	53877.2
662.358	53898.22
662.708	53795.17
663.059	53834.71
663.409	53660.48
663.76	53885.79
664.11	53824.77
664.461	53882.62
664.811	53847.82
665.161	53750.2
665.511	53656.19
665.862	53789.52
666.212	53816.64
666.562	53697.99
666.912	53702.06
667.262	53634.04
667.612	53631.56
667.962	53708.16
668.312	53656.87
668.662	53702.74
669.011	53557.43
669.361	53458.91
669.711	53417.78
670.06	53436.98
670.41	53441.73
670.76	53401.05
671.109	53498.68
671.459	53371
671.808	53358.12
672.157	53442.86
672.507	53142.98
672.856	53218.01
673.205	53221.17
673.554	53329.19
673.904	53137.56
674.253	53279.25
674.602	53229.53
674.951	52803.1
675.3	52591.13
675.649	53089.42
675.998	53022.53
676.346	53093.04
676.695	53100.27
677.044	52921.52
677.393	52964.68
677.741	53028.86
678.09	52879.94
678.438	52872.25
678.787	52844.01
679.135	52879.26
679.484	52708.64
679.832	52774.4
680.181	52574.18
680.529	52728.08
680.877	52518.59
681.225	52580.74
681.573	52664.8
681.922	52420.97
682.27	52368.09
682.618	52429.78
682.966	52244.7
683.314	52398.59
683.661	52246.96
684.009	52126.28
684.357	51997.25
684.705	51922
685.053	52004.03
685.4	51972.39
685.748	51864.82
686.095	51781.89
686.443	51648.78
686.79	51568.11
687.138	51524.04
687.485	51502.35
687.832	51375.8
688.18	51463.03
688.527	51250.6
688.874	51272.97
689.221	51201.79
689.568	51092.41
689.915	50945.75
690.262	50904.4
690.609	50895.81
690.956	50737.39
691.303	50722.48
691.65	50550.51
691.997	50512.09
692.344	50276.62
692.69	50274.13
693.037	50296.05
693.383	50073.01
693.73	50021.93
694.077	49820.13
694.423	49884.54
694.769	49785.1
695.116	49588.72
695.462	49639.57
695.808	49440.93
696.155	49464.89
696.501	49202.97
696.847	49186.48
697.193	48948.29
697.539	49170.66
697.885	48858.8
698.231	48636.88
698.577	48702.87
698.923	48658.81
699.269	48449.32
699.614	48205.48
699.96	48299.49
700.306	48278.25
700.651	47976.11
700.997	47862.89
701.342	47847.75
701.688	47778.6
702.033	47666.52
702.379	47669.23
702.724	47523.24
703.069	47379.52
703.415	47113.08
703.76	47137.26
704.105	47064.04
704.45	47066.76
704.795	46732.75
705.14	46661.57
705.485	46657.28
705.83	46362.59
706.175	46466.55
706.52	46321.69
706.865	46136.16
707.209	46162.15
707.554	46093.22
707.899	46169.38
708.243	45767.58
708.588	45794.02
708.932	45404.65
709.277	45482.17
709.621	45570.98
709.966	45312.23
710.31	45342.06
710.654	44853.03
710.998	45109.97
711.342	45161.72
711.687	44957.89
712.031	44659.81
712.375	44611.68
712.719	44709.53
713.063	44521.29
713.407	44545.24
713.75	44452.36
714.094	44401.74
714.438	44291.24
714.782	44244.01
715.125	44068.64
715.469	44048.76
715.812	43878.59
716.156	43581.65
716.499	43644.02
716.843	43780.29
717.186	43414.65
717.53	43597.24
717.873	43562.22
718.216	43349.57
718.559	43199.97
718.902	42888.34
719.246	43056.01
719.589	42853.99
719.932	42867.09
720.275	42899.41
720.617	42702.35
720.96	42719.75
721.303	42661.45
721.646	42664.39
721.989	42416.94
722.331	42479.76
722.674	42470.72
723.016	42370.61
723.359	42148.24
723.701	42141.46
724.044	41983.27
724.386	41767.24
724.729	41964.29
725.071	41858.08
725.413	41809.72
725.755	41756.16
726.097	41532.44
726.439	41579.9
726.782	41435.49
727.124	41532.21
727.465	41340.35
727.807	41313.01
728.149	41113.69
728.491	41045.67
728.833	41184.65
729.175	40996.41
729.516	40812.46
729.858	40951.21
730.199	40911.66
730.541	40753.48
730.882	40595.74
731.224	40744.44
731.565	40564.78
731.906	40459.02
732.248	40510.09
732.589	40241.17
732.93	40118.69
733.271	40162.76
733.612	40227.84
733.953	40276.2
734.294	39997.79
734.635	39931.8
734.976	40030.56
735.317	39758.02
735.658	39678.93
735.999	39697.01
736.339	39549.67
736.68	39544.92
737.021	39645.93
737.361	39371.37
737.702	39611.36
738.042	39335.21
738.383	39265.61
738.723	39444.36
739.063	39186.06
739.404	39222.22
739.744	39140.86
740.084	38946.74
740.424	38982.45
740.764	38834.88
741.104	38939.29
741.444	38751.27
741.784	38669.69
742.124	38727.99
742.464	38734.55
742.804	38545.62
743.143	38526.64
743.483	38377.27
743.823	38300.43
744.162	38267.21
744.502	38201
744.841	38112.64
745.181	38092.53
745.52	38056.15
745.86	38054.11
746.199	37880.33
746.538	37916.26
746.877	37984.51
747.216	37892.08
747.556	37497.52
747.895	37694.57
748.234	37622.49
748.573	37406.22
748.911	37393.56
749.25	37436.95
749.589	37193.34
749.928	37316.96
750.267	37320.35
750.605	36958.32
750.944	37006.23
751.283	36885.1
751.621	37050.3
751.96	36627.26
752.298	36737.31
