Data from white_poster_card_FLMS001491_00016.txt Node
Date: Wed Feb 08 11:51:09 GMT 2017
User: dcchb
Spectrometer: FLMS00149
Trigger mode: 0
Integration Time (sec): 2.000000E-2
Scans to average: 10
Electric dark correction enabled: true
Nonlinearity correction enabled: false
Boxcar width: 0
XAxis mode: Wavelengths
Number of Pixels in Spectrum: 2048
>>>>>Begin Spectral Data<<<<<
341.393	-7.95
341.776	-7.95
342.16	-7.95
342.543	-49.31
342.927	-49.53
343.31	-86.14
343.693	-70.1
344.077	-56.09
344.46	-45.01
344.843	-53.83
345.226	-31.91
345.61	-21.51
345.993	-30.1
346.376	0.41
346.759	1.99
347.142	17.36
347.525	41.99
347.908	49.45
348.291	87.64
348.674	84.7
349.057	111.14
349.44	110.46
349.823	150.24
350.206	183.91
350.588	177.35
350.971	209.44
351.354	238.6
351.737	246.5
352.119	271.14
352.502	253.28
352.884	264.81
353.267	258.93
353.65	290.8
354.032	289.22
354.414	321.08
354.797	344.58
355.179	310.46
355.562	310.91
355.944	313.17
356.326	318.59
356.709	347.75
357.091	326.5
357.473	328.31
357.855	330.12
358.238	346.16
358.62	334.86
359.002	354.75
359.384	347.07
359.766	341.64
360.148	344.81
360.53	341.87
360.912	339.16
361.294	332.83
361.676	327.18
362.057	334.41
362.439	333.51
362.821	339.61
363.203	329.44
363.584	331.7
363.966	317.92
364.348	331.02
364.729	317.24
365.111	321.08
365.493	315.2
365.874	326.95
366.256	319.5
366.637	304.81
367.019	330.57
367.4	330.12
367.781	289.67
368.163	319.05
368.544	339.38
368.925	318.82
369.306	319.72
369.688	326.95
370.069	319.72
370.45	302.1
370.831	307.52
371.212	309.33
371.593	311.36
371.974	328.54
372.355	340.29
372.736	343.23
373.117	325.37
373.498	314.07
373.879	353.85
374.26	321.98
374.641	345.94
375.021	322.66
375.402	326.73
375.783	319.72
376.163	312.04
376.544	323.79
376.925	335.99
377.305	320.63
377.686	337.8
378.066	377.57
378.447	346.62
378.827	342.55
379.208	334.86
379.588	340.74
379.968	361.76
380.349	321.08
380.729	346.84
381.109	349.1
381.489	329.89
381.87	348.42
382.25	358.14
382.63	362.21
383.01	343.23
383.39	356.56
383.77	346.39
384.15	346.62
384.53	361.3
384.91	365.82
385.29	358.37
385.67	377.8
386.049	357.01
386.429	341.19
386.809	354.07
387.189	358.59
387.568	363.11
387.948	356.11
388.328	361.76
388.707	373.96
389.087	373.96
389.466	376.9
389.846	371.7
390.225	355.88
390.605	369.21
390.984	385.26
391.363	375.77
391.743	382.09
392.122	403.11
392.501	391.13
392.881	409.21
393.26	396.78
393.639	401.75
394.018	388.42
394.397	398.82
394.776	415.77
395.155	409.21
395.534	409.66
395.913	391.13
396.292	439.95
396.671	416.67
397.05	455.54
397.429	432.26
397.808	428.19
398.186	418.93
398.565	429.32
398.944	433.39
399.323	424.35
399.701	439.72
400.08	432.26
400.458	441.75
400.837	460.06
401.215	472.71
401.594	463.22
401.972	460.28
402.351	445.14
402.729	449.89
403.107	465.03
403.486	466.39
403.864	461.87
404.242	482.43
404.62	482.66
404.999	482.88
405.377	482.43
405.755	489.89
406.133	505.48
406.511	508.42
406.889	509.1
407.267	524.46
407.645	531.47
408.023	530.11
408.401	550.23
408.779	544.8
409.156	564.46
409.534	560.17
409.912	576.89
410.29	596.78
410.667	607.4
411.045	604.01
411.422	608.98
411.8	641.75
412.178	617.57
412.555	671.8
412.933	634.97
413.31	670.9
413.687	693.72
414.065	681.07
414.442	697.34
414.819	726.49
415.197	710.22
415.574	742.54
415.951	759.26
416.328	764.46
416.705	772.37
417.082	775.76
417.46	816.21
417.837	840.16
418.214	832.48
418.591	844.91
418.967	866.15
419.344	881.29
419.721	866.38
420.098	916.54
420.475	891.23
420.852	924.68
421.228	964.45
421.605	952.25
421.982	947.5
422.358	987.05
422.735	1010.33
423.111	1002.64
423.488	1036.99
423.864	1040.83
424.241	1055.52
424.617	1071.57
424.994	1072.47
425.37	1088.52
425.746	1102.98
426.123	1125.35
426.499	1105.69
426.875	1139.14
427.251	1168.06
427.627	1175.97
428.003	1192.92
428.379	1231.79
428.756	1248.29
429.132	1256.87
429.507	1299.81
429.883	1271.79
430.259	1306.36
430.635	1301.62
431.011	1353.37
431.387	1383.88
431.763	1394.5
432.138	1412.58
432.514	1429.07
432.89	1413.48
433.265	1469.75
433.641	1447.6
434.016	1491.22
434.392	1514.04
434.767	1527.15
435.143	1541.16
435.518	1554.94
435.894	1625.9
436.269	1636.07
436.644	1594.04
437.02	1658.67
437.395	1657.99
437.77	1691.44
438.145	1689.86
438.52	1735.73
438.895	1769.85
439.271	1747.48
439.646	1771.44
440.021	1764.66
440.395	1774.83
440.77	1789.29
441.145	1818.21
441.52	1816.18
441.895	1869.74
442.27	1855.73
442.645	1845.78
443.019	1895.95
443.394	1886.69
443.769	1917.42
444.143	1892.11
444.518	1894.6
444.892	1919.23
445.267	1985.67
445.641	1951.32
446.016	1973.47
446.39	1992.67
446.764	1999
447.139	1993.8
447.513	2015.05
447.887	2013.92
448.262	2043.07
448.636	2031.32
449.01	2043.52
449.384	2086.46
449.758	2123.07
450.132	2125.55
450.506	2147.25
450.88	2139.34
451.254	2192.44
451.628	2212.55
452.002	2213.46
452.376	2212.55
452.75	2248.71
453.123	2254.81
453.497	2297.3
453.871	2323.74
454.244	2338.43
454.618	2407.8
454.992	2409.16
455.365	2405.77
455.739	2465.66
456.112	2488.93
456.486	2530.06
456.859	2528.7
457.232	2592.66
457.606	2566.22
457.979	2596.5
458.352	2645.54
458.725	2666.78
459.099	2688.25
459.472	2740.22
459.845	2785.65
460.218	2821.58
460.591	2804.63
460.964	2842.37
461.337	2891.86
461.71	2913.1
462.083	2973.89
462.456	2983.38
462.829	2989.03
463.201	3048.01
463.574	3020.9
463.947	3099.54
464.32	3163.04
464.692	3205.75
465.065	3186.09
465.438	3240.32
465.81	3286.65
466.183	3356.71
466.555	3392.41
466.928	3414.33
467.3	3389.7
467.672	3484.84
468.045	3512.63
468.417	3524.38
468.789	3625.85
469.161	3633.99
469.534	3680.09
469.906	3723.25
470.278	3801.44
470.65	3862.23
471.022	3925.28
471.394	3929.8
471.766	3959.18
472.138	4008.21
472.51	4130.7
472.882	4173.41
473.253	4242.33
473.625	4263.8
473.997	4352.39
474.369	4354.87
474.74	4426.28
475.112	4556
475.484	4608.2
475.855	4650
476.227	4678.93
476.598	4825.59
476.97	4850.9
477.341	4952.82
477.713	5008.87
478.084	5084.34
478.455	5221.74
478.827	5272.14
479.198	5386.48
479.569	5358.91
479.94	5516.87
480.311	5542.64
480.682	5688.62
481.053	5783.31
481.424	5920.25
481.795	5974.72
482.166	6059.01
482.537	6117.76
482.908	6235.95
483.279	6287.93
483.65	6484.08
484.021	6587.81
484.391	6596.39
484.762	6708.03
485.133	6680.69
485.503	6846.33
485.874	6974.92
486.244	6984.86
486.615	7220.56
486.985	7219.43
487.356	7394.79
487.726	7408.35
488.097	7627.55
488.467	7641.56
488.837	7794.78
489.207	7844.5
489.578	8032.97
489.948	8047.2
490.318	8186.41
490.688	8230.7
491.058	8326.52
491.428	8527.87
491.798	8575.78
492.168	8696.45
492.538	8734.42
492.908	8860.52
493.278	8956.33
493.648	9037.91
494.017	9075.65
494.387	9174.41
494.757	9226.38
495.126	9341.18
495.496	9394.06
495.866	9518.58
496.235	9596.99
496.605	9705.92
496.974	9778.68
497.344	9839.25
497.713	9898.91
498.082	10007.15
498.452	10124.66
498.821	10110.65
499.19	10222.06
499.559	10244.43
499.928	10382.28
500.298	10422.96
500.667	10502.28
501.036	10511.32
501.405	10626.12
501.774	10698.21
502.143	10815.49
502.512	10804.87
502.88	10951.99
503.249	10930.07
503.618	11059.55
503.987	11079.67
504.356	11215.03
504.724	11258.87
505.093	11316.95
505.462	11337.51
505.83	11461.8
506.199	11568.69
506.567	11703.38
506.936	11723.72
507.304	11899.98
507.672	11931.4
508.041	11995.57
508.409	12112.41
508.777	12154.89
509.145	12248.9
509.514	12339.29
509.882	12391.27
510.25	12435.79
510.618	12549.91
510.986	12565.28
511.354	12725.72
511.722	12865.83
512.09	12953.97
512.458	13046.17
512.826	13197.8
513.193	13186.05
513.561	13273.73
513.929	13423.33
514.297	13490.22
514.664	13564.12
515.032	13717.79
515.4	13816.09
515.767	13880.5
516.135	13957.33
516.502	13802.08
516.869	14078.91
517.237	14247.94
517.604	14213.82
517.972	14392.35
518.339	14479.35
518.706	14495.4
519.073	14661.72
519.44	14748.72
519.808	14884.09
520.175	14967.7
520.542	15141.71
520.909	15181.71
521.276	15268.03
521.643	15504.41
522.009	15582.37
522.376	15648.81
522.743	15707.79
523.11	15878.18
523.477	16154.11
523.843	16199.31
524.21	16302.35
524.577	16377.83
524.943	16585.28
525.31	16693.3
525.676	16682
526.043	16836.35
526.409	17026.4
526.776	17120.86
527.142	17196.79
527.508	17284.93
527.874	17473.4
528.241	17590.91
528.607	17677.46
528.973	17791.35
529.339	17901.63
529.705	18085.13
530.071	18224.79
530.437	18269.99
530.803	18432.47
531.169	18540.71
531.535	18529.19
531.901	18662.29
532.267	18712.01
532.632	18817.54
532.998	18910.65
533.364	18996.07
533.73	19190.41
534.095	19176.18
534.461	19422.27
534.826	19366.68
535.192	19479.45
535.557	19554.25
535.923	19646.9
536.288	19709.72
536.653	19846.89
537.019	19865.88
537.384	19864.52
537.749	20070.84
538.114	20006.66
538.479	20031.07
538.845	20237.84
539.21	20190.61
539.575	20321.01
539.94	20333.66
540.305	20492.07
540.67	20527.78
541.034	20669.92
541.399	20757.15
541.764	20793.54
542.129	20913.53
542.494	20994.21
542.858	20984.72
543.223	21156.01
543.587	21164.15
543.952	21232.39
544.316	21274.65
544.681	21343.35
545.045	21468.55
545.41	21559.84
545.774	21553.06
546.138	21653.85
546.503	21717.13
546.867	21745.15
547.231	21924.35
547.595	21997.35
547.959	22082.09
548.324	22139.94
548.688	22118.92
549.052	22266.94
549.416	22226.04
549.779	22466.26
550.143	22494.73
550.507	22639.14
550.871	22704.45
551.235	22744.44
551.599	22948.96
551.962	22947.6
552.326	23012.46
552.689	23139.46
553.053	22987.6
553.417	23112.12
553.78	23505.78
554.143	23299.23
554.507	23557.3
554.87	23575.38
555.234	23887.47
555.597	23762.5
555.96	23884.75
556.323	23956.84
556.686	24045.88
557.05	24215.37
557.413	24296.95
557.776	24346.21
558.139	24536.26
558.502	24589.59
558.865	24761.79
559.228	24787.33
559.59	24869.13
559.953	24989.13
560.316	25255.34
560.679	25246.98
561.041	25411.49
561.404	25546.63
561.767	25666.4
562.129	25694.88
562.492	25847.41
562.854	25931.93
563.217	25976.9
563.579	26048.99
563.941	26238.14
564.304	26284.69
564.666	26544.8
565.028	26528.3
565.39	26671.57
565.753	26751.12
566.115	26900.49
566.477	27076.08
566.839	27063.43
567.201	27309.3
567.563	27387.03
567.925	27592.45
568.287	27553.36
568.648	27549.52
569.01	27805.1
569.372	27906.34
569.734	28018.66
570.095	28152.89
570.457	28239.89
570.819	28205.09
571.18	28291.19
571.542	28326.44
571.903	28386.78
572.265	28594.91
572.626	28637.4
572.987	28660.45
573.349	28830.84
573.71	28919.65
574.071	28991.51
574.432	29137.72
574.794	29265.18
575.155	29301.11
575.516	29168.91
575.877	29278.06
576.238	29460.43
576.599	29550.59
576.96	29466.98
577.32	29481.67
577.681	29679.18
578.042	29884.6
578.403	29710.81
578.763	29834.88
579.124	29839.17
579.485	29913.52
579.845	29987.87
580.206	29982.9
580.566	29990.58
580.927	30077.58
581.287	30007.3
581.648	29913.07
582.008	30193.29
582.368	30170.92
582.728	30228.09
583.089	30128.43
583.449	30187.64
583.809	30264.25
584.169	30311.25
584.529	30222.21
584.889	30390.12
585.249	30224.25
585.609	30233.96
585.969	30381.08
586.329	30274.87
586.688	30343.34
587.048	30397.58
587.408	30289.1
587.768	30340.63
588.127	30403.68
588.487	30173.4
588.846	30439.16
589.206	30264.47
589.565	30384.02
589.925	30414.07
590.284	30328.65
590.643	30462.43
591.003	30435.54
591.362	30597.12
591.721	30446.16
592.08	30408.42
592.44	30585.14
592.799	30436.45
593.158	30460.4
593.517	30486.39
593.876	30626.05
594.235	30554.63
594.593	30536.56
594.952	30623.11
595.311	30459.95
595.67	30529.78
596.029	30665.14
596.387	30826.72
596.746	30874.17
597.104	30642.32
597.463	30720.05
597.822	30743.78
598.18	30706.49
598.538	30708.08
598.897	30891.57
599.255	30699.72
599.613	31112.81
599.972	30915.3
600.33	30972.93
600.688	30858.13
601.046	30966.38
601.404	31060.61
601.762	31075.07
602.12	31048.86
602.478	31117.33
602.836	31163.21
603.194	30908.3
603.552	31090.21
603.91	30969.09
604.268	31137.9
604.625	31054.96
604.983	31146.48
605.341	31088.41
605.698	31269.42
606.056	31336.08
606.413	31214.73
606.771	31369.98
607.128	31326.14
607.485	31341.73
607.843	31403.65
608.2	31531.56
608.557	31527.49
608.914	31509.64
609.272	31643.42
609.629	31663.76
609.986	31804.09
610.343	31463.76
610.7	31878.44
611.057	31713.47
611.414	31860.36
611.771	31740.82
612.127	31853.58
612.484	31799.35
612.841	32019.68
613.198	31837.09
613.554	31921.15
613.911	32049.51
614.267	32093.35
614.624	32010.19
614.98	32179
615.337	32207.47
615.693	32127.25
616.05	32153.91
616.406	32354.81
616.762	32171.99
617.118	32101.94
617.475	32195.04
617.831	32359.56
618.187	32376.28
618.543	32357.98
618.899	32494.24
619.255	32433.23
619.611	32323.4
619.967	32471.87
620.323	32525.2
620.678	32426.68
621.034	32398.88
621.39	32491.53
621.746	32405.43
622.101	32859.21
622.457	32466
622.812	32478.43
623.168	32556.62
623.523	32651.3
623.879	32636.61
624.234	32451.08
624.589	32615.15
624.945	32578.08
625.3	32538.99
625.655	32520.23
626.01	32583.51
626.365	32582.83
626.72	32592.55
627.075	32608.82
627.43	32415.6
627.785	32458.99
628.14	32539.89
628.495	32534.92
628.85	32493.79
629.205	32324.76
629.559	32470.06
629.914	32349.16
630.269	32419.67
630.623	32336.06
630.978	32187.81
631.332	32353.46
631.687	32361.14
632.041	32236.17
632.396	32269.84
632.75	32131.32
633.104	32199.11
633.459	32031.66
633.813	32151.88
634.167	32142.84
634.521	31956.63
634.875	32083.63
635.229	32052.45
635.583	31699.24
635.937	31880.93
636.291	31762.29
636.645	31927.25
636.999	31722.06
637.352	31883.19
637.706	31653.36
638.06	31748.73
638.413	31566.81
638.767	31515.51
639.121	31602.52
639.474	31380.15
639.828	31379.02
640.181	31559.35
640.534	31499.47
640.888	31322.07
641.241	31249.76
641.594	31372.01
641.947	31428.06
642.301	31252.02
642.654	31338.34
643.007	31173.38
643.36	31172.25
643.713	31071.01
644.066	31089.31
644.419	30858.13
644.771	30738.81
645.124	30465.82
645.477	30316
645.83	30133.85
646.182	30182.67
646.535	29918.27
646.888	29891.83
647.24	29822
647.593	30010.47
647.945	29880.53
648.298	29698.16
648.65	29669.69
649.002	29620.87
649.355	29766.86
649.707	29736.8
650.059	29797.14
650.411	30116
650.763	30145.83
651.115	30515.99
651.467	30427.86
651.819	30369.33
652.171	30170.46
652.523	30192.16
652.875	30299.5
653.227	30041.43
653.578	30368.65
653.93	30139.05
654.282	30124.82
654.633	30013.41
654.985	30176.34
655.337	29977.02
655.688	29902
656.039	30022.22
656.391	29762.34
656.742	29870.13
657.094	29808.89
657.445	29987.19
657.796	29803.47
658.147	29670.36
658.498	29801.66
658.849	29776.12
659.2	29779.06
659.551	29756.24
659.902	29887.31
660.253	29785.62
660.604	29842.56
660.955	29702.91
661.306	29697.03
661.656	29619.07
662.007	29634.66
662.358	29625.85
662.708	29589.91
663.059	29506.07
663.409	29365.74
663.76	29601.89
664.11	29441.44
664.461	29549.24
664.811	29506.98
665.161	29426.3
665.511	29377.49
665.862	29454.78
666.212	29434.44
666.562	29496.36
666.912	29254.1
667.262	29307.89
667.612	29414.33
667.962	29294.78
668.312	29306.76
668.662	29359.64
669.011	29308.11
669.361	29225.18
669.711	29288.23
670.06	29309.24
670.41	29146.54
670.76	29133.88
671.109	29171.39
671.459	29065.18
671.808	29117.38
672.157	29145.86
672.507	28864.28
672.856	28976.14
673.205	29077.61
673.554	29153.77
673.904	28975.01
674.253	29038.74
674.602	28990.83
674.951	28478.3
675.3	28473.56
675.649	28901.8
675.998	28789.94
676.346	28638.75
676.695	28914.23
677.044	28715.36
677.393	28644.18
677.741	28866.32
678.09	28734.57
678.438	28744.29
678.787	28703.84
679.135	28702.93
679.484	28676.94
679.832	28617.28
680.181	28466.33
680.529	28493.45
680.877	28481.47
681.225	28385.88
681.573	28572.09
681.922	28481.02
682.27	28234.02
682.618	28286.22
682.966	28216.39
683.314	28241.93
683.661	28203.74
684.009	28048.71
684.357	27975.04
684.705	28008.71
685.053	27903.86
685.4	27996.06
685.748	27692.11
686.095	27670.87
686.443	27656.86
686.79	27555.39
687.138	27789.51
687.485	27517.2
687.832	27456.64
688.18	27595.16
688.527	27429.97
688.874	27364.21
689.221	27296.87
689.568	27148.17
689.915	27045.12
690.262	27124.89
690.609	26997.89
690.956	26863.66
691.303	26902.08
691.65	26754.51
691.997	26775.98
692.344	26723.1
692.69	26503.89
693.037	26580.73
693.383	26348.87
693.73	26490.79
694.077	26200.62
694.423	26169.89
694.769	26214.64
695.116	26139.38
695.462	25972.83
695.808	25909.78
696.155	26007.41
696.501	25811.48
696.847	25807.19
697.193	25636.57
697.539	25699.17
697.885	25513.64
698.231	25385.73
698.577	25513.19
698.923	25468.21
699.269	25293.98
699.614	25198.84
699.96	25085.4
700.306	25228.45
700.651	24986.87
700.997	24936.25
701.342	24999.07
701.688	24857.61
702.033	24798.85
702.379	24808.8
702.724	24719.99
703.069	24787.55
703.415	24537.39
703.76	24427.34
704.105	24510.95
704.45	24316.15
704.795	24257.62
705.14	24239.55
705.485	24171.75
705.83	24120
706.175	24166.78
706.52	24042.49
706.865	23947.35
707.209	23884.75
707.554	23851.99
707.899	23748.49
708.243	23831.2
708.588	23700.13
708.932	23575.61
709.277	23590.3
709.621	23644.99
709.966	23423.97
710.31	23381.72
710.654	23195.73
710.998	23223.53
711.342	23268.27
711.687	23195.73
712.031	23089.75
712.375	23068.96
712.719	23070.31
713.063	22783.31
713.407	22936.98
713.75	22812.92
714.094	22827.38
714.438	22645.69
714.782	22693.6
715.125	22629.65
715.469	22679.14
715.812	22624.22
716.156	22479.37
716.499	22529.76
716.843	22326.15
717.186	22292.25
717.53	22409.99
717.873	22394.17
718.216	22349.65
718.559	22262.65
718.902	22054.07
719.246	22115.53
719.589	22034.63
719.932	21951.92
720.275	21998.25
720.617	21938.82
720.96	21880.96
721.303	21879.83
721.646	21766.84
721.989	21775.88
722.331	21803.23
722.674	21727.52
723.016	21701.08
723.359	21713.51
723.701	21681.42
724.044	21502.9
724.386	21440.52
724.729	21527.08
725.071	21470.58
725.413	21384.03
725.755	21337.25
726.097	21396.01
726.439	21252.05
726.782	21184.03
727.124	21282.79
727.465	21254.54
727.807	21088.89
728.149	21101.32
728.491	21056.58
728.833	21122.11
729.175	20992.17
729.516	20923.48
729.858	20905.85
730.199	20874.89
730.541	20882.8
730.882	20801.9
731.224	20869.92
731.565	20798.28
731.906	20706.31
732.248	20719.19
732.589	20570.04
732.93	20543.15
733.271	20605.07
733.612	20550.38
733.953	20602.81
734.294	20407.56
734.635	20358.97
734.976	20581.34
735.317	20433.09
735.658	20372.08
735.999	20238.97
736.339	20250.5
736.68	20372.08
737.021	20179.54
737.361	20067.45
737.702	20269.48
738.042	20123.72
738.383	20111.52
738.723	20059.54
739.063	20002.6
739.404	20127.56
739.744	20033.56
740.084	19942.94
740.424	19914.91
740.764	19930.06
741.104	19919.66
741.444	19768.48
741.784	19802.37
742.124	19775.48
742.464	19797.63
742.804	19770.96
743.143	19788.82
743.483	19650.29
743.823	19507.24
744.162	19605.32
744.502	19643.96
744.841	19489.61
745.181	19623.4
745.52	19489.39
745.86	19510.63
746.199	19503.85
746.538	19359
746.877	19375.04
747.216	19333.46
747.556	19373.46
747.895	19271.54
748.234	19192.22
748.573	19204.65
748.911	19117.2
749.25	19063.19
749.589	19041.72
749.928	19022.06
750.267	19029.29
750.605	18933.47
750.944	18893.02
751.283	18873.81
751.621	18890.31
751.96	18755.17
752.298	18737.54
752.636	18707.71
752.975	18639.47
753.313	18610.32
753.651	18730.99
753.989	18564.22
754.327	18548.62
754.666	18535.06
