Data from white_wall_FLMS001491_057.txt Node
Date: Tue Feb 07 11:04:58 GMT 2017
User: dcchb
Spectrometer: FLMS00149
Trigger mode: 0
Integration Time (sec): 2.000000E-2
Scans to average: 10
Electric dark correction enabled: true
Nonlinearity correction enabled: false
Boxcar width: 0
XAxis mode: Wavelengths
Number of Pixels in Spectrum: 2048
>>>>>Begin Spectral Data<<<<<
341.393	-4.53
341.776	-4.53
342.16	-4.53
342.543	-60.58
342.927	-79.33
343.31	-59.67
343.693	-64.42
344.077	-64.65
344.46	-61.48
344.843	-65.55
345.226	-47.24
345.61	-15.83
345.993	-16.28
346.376	-15.61
346.759	9.7
347.142	29.36
347.525	45.63
347.908	49.48
348.291	63.71
348.674	105.75
349.057	107.1
349.44	121.79
349.823	159.53
350.206	149.13
350.588	192.52
350.971	209.47
351.354	216.48
351.737	240.21
352.119	242.24
352.502	250.37
352.884	284.05
353.267	293.76
353.65	289.7
354.032	294.44
354.414	316.14
354.797	318.4
355.179	322.24
355.562	317.49
355.944	339.86
356.326	321.56
356.709	329.24
357.091	340.54
357.473	348.9
357.855	339.41
358.238	349.13
358.62	345.06
359.002	345.29
359.384	338.51
359.766	325.18
360.148	337.15
360.53	342.58
360.912	318.4
361.294	332.41
361.676	334.21
362.057	335.12
362.439	333.31
362.821	329.47
363.203	327.21
363.584	323.59
363.966	336.47
364.348	316.81
364.729	324.95
365.111	323.82
365.493	340.77
365.874	293.76
366.256	331.28
366.637	315.23
367.019	333.08
367.4	330.6
367.781	313.2
368.163	327.89
368.544	287.66
368.925	327.43
369.306	307.1
369.688	313.65
370.069	319.53
370.45	312.97
370.831	314.33
371.212	302.35
371.593	318.62
371.974	327.21
372.355	305.51
372.736	319.75
373.117	304.84
373.498	311.16
373.879	324.27
374.26	318.4
374.641	312.75
375.021	320.88
375.402	324.27
375.783	333.99
376.163	331.73
376.544	324.05
376.925	313.42
377.305	349.81
377.686	318.85
378.066	340.77
378.447	330.37
378.827	331.95
379.208	332.18
379.588	338.73
379.968	350.26
380.349	368.34
380.729	362.24
381.109	335.34
381.489	338.51
381.87	342.58
382.25	319.3
382.63	365.85
383.01	339.41
383.39	344.38
383.77	345.51
384.15	372.63
384.53	363.14
384.91	377.83
385.29	371.95
385.67	351.39
386.049	358.85
386.429	360.65
386.809	362.69
387.189	383.48
387.568	374.44
387.948	387.77
388.328	373.76
388.707	389.35
389.087	419.18
389.466	394.78
389.846	386.19
390.225	409.47
390.605	401.33
390.984	388.68
391.363	410.6
391.743	396.81
392.122	429.13
392.501	424.38
392.881	426.64
393.26	406.3
393.639	432.97
394.018	453.08
394.397	434.55
394.776	425.06
395.155	439.97
395.534	456.92
395.913	446.98
396.292	465.06
396.671	470.03
397.05	485.17
397.429	474.55
397.808	480.43
398.186	496.47
398.565	489.92
398.944	531.5
399.323	501.67
399.701	514.77
400.08	515.9
400.458	521.55
400.837	564.94
401.215	539.86
401.594	562.68
401.972	586.86
402.351	569.91
402.729	527.88
403.107	563.59
403.486	562.91
403.864	606.98
404.242	614.66
404.62	590.25
404.999	630.25
405.377	624.6
405.755	630.7
406.133	658.73
406.511	658.27
406.889	691.72
407.267	683.58
407.645	686.07
408.023	708.44
408.401	718.61
408.779	697.59
409.156	732.4
409.534	740.98
409.912	758.16
410.29	778.27
410.667	773.3
411.045	803.81
411.422	783.24
411.8	805.39
412.178	834.99
412.555	843.13
412.933	857.36
413.31	851.49
413.687	828.21
414.065	890.81
414.442	872.51
414.819	907.98
415.197	920.87
415.574	917.25
415.951	927.87
416.328	929.9
416.705	944.59
417.082	950.47
417.46	971.03
417.837	983.46
418.214	971.03
418.591	1021.88
418.967	1022.78
419.344	1025.72
419.721	1036.12
420.098	1050.58
420.475	1035.21
420.852	1065.27
421.228	1070.01
421.605	1086.06
421.982	1096.23
422.358	1077.7
422.735	1104.14
423.111	1128.09
423.488	1152.5
423.864	1150.46
424.241	1156.34
424.617	1164.93
424.994	1190.92
425.37	1212.38
425.746	1204.25
426.123	1200.63
426.499	1233.4
426.875	1256.9
427.251	1275.66
427.627	1286.96
428.003	1285.83
428.379	1308.43
428.756	1327.63
429.132	1334.64
429.507	1387.75
429.883	1371.25
430.259	1397.92
430.635	1409.44
431.011	1412.15
431.387	1464.35
431.763	1487.4
432.138	1472.04
432.514	1477.46
432.89	1526.27
433.265	1571.02
433.641	1553.17
434.016	1605.14
434.392	1585.93
434.767	1604.01
435.143	1636.55
435.518	1651.24
435.894	1662.77
436.269	1679.26
436.644	1708.42
437.02	1700.05
437.395	1757
437.77	1756.32
438.145	1780.73
438.52	1818.47
438.895	1809.88
439.271	1807.4
439.646	1883.1
440.021	1878.81
440.395	1891.91
440.77	1864.12
441.145	1900.73
441.52	1920.16
441.895	1945.7
442.27	1951.57
442.645	1974.85
443.019	2018.01
443.394	1999.93
443.769	1993.61
444.143	2011.46
444.518	2060.5
444.892	2023.89
445.267	2079.03
445.641	2086.94
446.016	2134.39
446.39	2124.22
446.764	2111.34
447.139	2125.13
447.513	2189.53
447.887	2174.62
448.262	2160.83
448.636	2207.16
449.01	2210.32
449.384	2227.27
449.758	2267.5
450.132	2250.77
450.506	2290.55
450.88	2282.64
451.254	2320.15
451.628	2347.27
452.002	2387.72
452.376	2421.17
452.75	2428.62
453.123	2429.07
453.497	2479.02
453.871	2493.48
454.244	2568.05
454.618	2563.31
454.992	2585
455.365	2605.57
455.739	2641.72
456.112	2701.61
456.486	2722.4
456.859	2739.12
457.232	2809.63
457.606	2779.8
457.979	2807.14
458.352	2935.05
458.725	2927.59
459.099	2985.22
459.472	3003.3
459.845	3030.87
460.218	3048.04
460.591	3089.17
460.964	3116.06
461.337	3215.72
461.71	3236.74
462.083	3260.92
462.456	3315.15
462.829	3263.63
463.201	3319.22
463.574	3389.5
463.947	3447.58
464.32	3507.01
464.692	3535.26
465.065	3589.95
465.438	3603.28
465.81	3651.64
466.183	3678.53
466.555	3778.87
466.928	3805.31
467.3	3811.64
467.672	3885.31
468.045	3968.24
468.417	4017.73
468.789	4054.79
469.161	4041.46
469.534	4119.88
469.906	4223.15
470.278	4261.57
470.65	4311.96
471.022	4365.52
471.394	4487.33
471.766	4537.72
472.138	4562.35
472.51	4679.64
472.882	4699.98
473.253	4773.42
473.625	4896.81
473.997	4985.62
474.369	4950.59
474.74	5071.49
475.112	5189.23
475.484	5235.1
475.855	5314.65
476.227	5339.05
476.598	5535.43
476.97	5574.3
477.341	5681.87
477.713	5768.2
478.084	5789.21
478.455	5940.39
478.827	6004.57
479.198	6242.31
479.569	6274.17
479.94	6365.47
480.311	6419.7
480.682	6562.98
481.053	6762.52
481.424	6840.71
481.795	6920.03
482.166	6998.9
482.537	7152.57
482.908	7295.16
483.279	7361.15
483.65	7462.39
484.021	7678.65
484.391	7722.72
484.762	7759.78
485.133	7873.23
485.503	7991.64
485.874	8169.94
486.244	8316.15
486.615	8432.53
486.985	8539.65
487.356	8643.37
487.726	8722.02
488.097	8947.55
488.467	8935.34
488.837	9149.35
489.207	9337.14
489.578	9438.38
489.948	9491.49
490.318	9676.79
490.688	9701.65
491.058	9905.04
491.428	9962.21
491.798	10091.47
492.168	10328.3
492.538	10394.51
492.908	10473.16
493.278	10614.85
493.648	10620.95
494.017	10857.55
494.387	10898.91
494.757	10946.14
495.126	11093.25
495.496	11229.3
495.866	11304.1
496.235	11320.82
496.605	11578.66
496.974	11570.76
497.344	11689.4
497.713	11708.38
498.082	11831.77
498.452	12020.01
498.821	12108.59
499.19	12111.53
499.559	12253.67
499.928	12238.76
500.298	12457.96
500.667	12546.55
501.036	12614.34
501.405	12681.46
501.774	12740.67
502.143	12956.48
502.512	12940.66
502.88	13056.37
503.249	13182.92
503.618	13233.76
503.987	13317.83
504.356	13438.28
504.724	13553.75
505.093	13521.21
505.462	13592.4
505.83	13737.25
506.199	13938.6
506.567	14110.8
506.936	14077.81
507.304	14257.46
507.672	14391.7
508.041	14372.26
508.409	14492.26
508.777	14643.89
509.145	14803.89
509.514	14772.93
509.882	14951.01
510.25	15058.35
510.618	15035.97
510.986	15204.56
511.354	15286.59
511.722	15396.19
512.09	15661.95
512.458	15646.35
512.826	15763.87
513.193	15852.45
513.561	15954.14
513.929	16136.74
514.297	16246.34
514.664	16392.1
515.032	16373.79
515.4	16654.92
515.767	16685.65
516.135	16758.42
516.502	16736.72
516.869	17062.36
517.237	17091.29
517.604	17189.36
517.972	17419.64
518.339	17492.63
518.706	17540.99
519.073	17645.85
519.44	17810.82
519.808	18002.9
520.175	17969.91
520.542	18209.9
520.909	18316.34
521.276	18328.09
521.643	18574.64
522.009	18709.32
522.376	18870.9
522.743	18931.24
523.11	19086.04
523.477	19332.13
523.843	19438.12
524.21	19556.76
524.577	19690.09
524.943	19811.44
525.31	19951.1
525.676	20074.94
526.043	20285.55
526.409	20341.37
526.776	20616.62
527.142	20639.9
527.508	20710.18
527.874	20967.34
528.241	21191.97
528.607	21154.01
528.973	21383.38
529.339	21390.61
529.705	21611.85
530.071	21777.94
530.437	21697.27
530.803	22075.11
531.169	22098.84
531.535	22171.15
531.901	22244.37
532.267	22346.97
532.632	22528.89
532.998	22651.82
533.364	22738.37
533.73	22884.36
534.095	23007.06
534.461	23107.63
534.826	23226.04
535.192	23302.2
535.557	23600.5
535.923	23445.92
536.288	23616.99
536.653	23719.81
537.019	23673.49
537.384	23810.89
537.749	23890.66
538.114	24090.88
538.479	24144.44
538.845	24206.58
539.21	24208.84
539.575	24348.27
539.94	24444.99
540.305	24519.34
540.67	24492.9
541.034	24759.56
541.399	24900.8
541.764	24958.43
542.129	24987.13
542.494	25046.33
542.858	25238.42
543.223	25180.57
543.587	25477.73
543.952	25295.14
544.316	25477.28
544.681	25720.21
545.045	25754.79
545.41	25880.21
545.774	25950.26
546.138	26072.52
546.503	26268
546.867	26084.5
547.231	26316.36
547.595	26485.39
547.959	26582.34
548.324	26596.12
548.688	26754.76
549.052	26818.49
549.416	26889
549.779	26950.46
550.143	26993.17
550.507	27293.51
550.871	27343
551.235	27436.78
551.599	27664.8
551.962	27671.12
552.326	27841.97
552.689	28006.93
553.053	27927.16
553.417	28077.89
553.78	28587.03
554.143	28306.81
554.507	28503.42
554.87	28567.14
555.234	28951.99
555.597	28762.39
555.96	28974.59
556.323	28949.06
556.686	29230.63
557.05	29420.23
557.413	29499.1
557.776	29589.94
558.139	29668.81
558.502	29774.34
558.865	29909.26
559.228	30211.17
559.59	30309.7
559.953	30298.62
560.316	30626.53
560.679	30792.62
561.041	30868.78
561.404	31003.69
561.767	31196.45
562.129	31191.71
562.492	31409.78
562.854	31471.47
563.217	31516.45
563.579	31791.01
563.941	31907.85
564.304	31981.07
564.666	32234.84
565.028	32264.22
565.39	32399.81
565.753	32553.93
566.115	32735.17
566.477	32840.03
566.839	32889.52
567.201	33268.04
567.563	33204.99
567.925	33428.26
568.287	33483.63
568.648	33565.66
569.01	33825.99
569.372	34037.51
569.734	33985.08
570.095	34120.67
570.457	34279.76
570.819	34426.65
571.18	34349.82
571.542	34555.46
571.903	34627.78
572.265	34748.68
572.626	34866.19
572.987	34769.24
573.349	35064.37
573.71	35178.04
574.071	35200.64
574.432	35260.3
574.794	35544.36
575.155	35592.5
575.516	35380.3
575.877	35546.4
576.238	35696.9
576.599	35750.23
576.96	35739.39
577.32	35909.55
577.681	36033.16
578.042	36077
578.403	36042.2
578.763	36185.93
579.124	36197.23
579.485	36327.84
579.845	36407.84
580.206	36337.56
580.566	36342.99
580.927	36401.51
581.287	36471.8
581.648	36322.42
582.008	36624.56
582.368	36483.09
582.728	36602.41
583.089	36522.64
583.449	36638.57
583.809	36731.22
584.169	36687.61
584.529	36594.73
584.889	36885.12
585.249	36681.96
585.609	36560.15
585.969	36874.27
586.329	36729.87
586.688	36858.45
587.048	36664.56
587.408	36725.57
587.768	36762.64
588.127	36633.15
588.487	36627.72
588.846	36980.48
589.206	36635.18
589.565	36714.05
589.925	37040.82
590.284	36782.97
590.643	36860.94
591.003	36973.03
591.362	37101.16
591.721	36928.05
592.08	36846.7
592.44	37129.63
592.799	37025
593.158	36878.56
593.517	36968.96
593.876	37221.38
594.235	36954.27
594.593	36880.6
594.952	37142.29
595.311	36879.92
595.67	37040.14
596.029	37162.85
596.387	37257.76
596.746	37288.27
597.104	37159.69
597.463	37117.88
597.822	37304.77
598.18	37207.82
598.538	37139.57
598.897	37441.94
599.255	37219.57
599.613	37710.18
599.972	37380.25
600.33	37455.05
600.688	37347.7
601.046	37292.56
601.404	37523.07
601.762	37603.06
602.12	37708.82
602.478	37687.13
602.836	37656.17
603.194	37424.99
603.552	37641.26
603.91	37555.16
604.268	37723.06
604.625	37704.08
604.983	37852.32
605.341	37570.52
605.698	37915.83
606.056	37897.29
606.413	37985.2
606.771	37948.82
607.128	38072.88
607.485	38029.27
607.843	37957.41
608.2	38123.5
608.557	38278.53
608.914	37988.82
609.272	38262.48
609.629	38327.34
609.986	38447.11
610.343	38312.42
610.7	38541.8
611.057	38425.87
611.414	38516.94
611.771	38545.87
612.127	38542.7
612.484	38584.96
612.841	38643.49
613.198	38634.45
613.554	38618.63
613.911	38715.8
614.267	38822.02
614.624	38805.97
614.98	38717.16
615.337	38998.73
615.693	38972.29
616.05	38816.82
616.406	39070.6
616.762	38884.84
617.118	38924.16
617.475	39029.24
617.831	39037.83
618.187	39061.11
618.543	39127.09
618.899	39294.09
619.255	39224.72
619.611	39155.34
619.967	39370.7
620.323	39431.27
620.678	39276.47
621.034	39113.76
621.39	39245.51
621.746	39235.34
622.101	39639.4
622.457	39255.9
622.812	39491.15
623.168	39586.06
623.523	39607.31
623.879	39543.35
624.234	39334.32
624.589	39506.74
624.945	39426.75
625.3	39581.77
625.655	39516.69
626.01	39526.4
626.365	39564.14
626.72	39412.51
627.075	39440.08
627.43	39437.14
627.785	39417.71
628.14	39452.73
628.495	39561.66
628.85	39438.5
629.205	39418.38
629.559	39734.31
629.914	39378.61
630.269	39543.58
630.623	39199.63
630.978	39166.64
631.332	39391.49
631.687	39450.25
632.041	39167.54
632.396	39395.11
632.75	39135.91
633.104	39258.61
633.459	39034.67
633.813	39048
634.167	39044.16
634.521	39142.01
634.875	39167.09
635.229	39086.19
635.583	38847.78
635.937	38829.47
636.291	38932.3
636.645	38790.15
636.999	38731.85
637.352	38721
637.706	38654.79
638.06	38725.97
638.413	38598.97
638.767	38477.84
639.121	38655.24
639.474	38410.28
639.828	38386.55
640.181	38384.74
640.534	38427.45
640.888	38370.05
641.241	38262.03
641.594	38158.53
641.947	38282.37
642.301	38224.97
642.654	38175.71
643.007	38288.92
643.36	38048.93
643.713	38037.18
644.066	38168.93
644.419	37913.11
644.771	37579.79
645.124	37390.64
645.477	37210.76
645.83	37051.44
646.182	37006.7
646.535	36921.5
646.888	36897.55
647.24	36723.09
647.593	36866.59
647.945	36791.79
648.298	36524
648.65	36531.45
649.002	36396.32
649.355	36651.45
649.707	36555.18
650.059	36616.2
650.411	37120.14
650.763	37091.44
651.115	37486.01
651.467	37312.9
651.819	37170.99
652.171	37212.11
652.523	37135.05
652.875	37139.57
653.227	36945.23
653.578	37161.27
653.93	37131.66
654.282	36967.83
654.633	36791.33
654.985	36963.99
655.337	36780.49
655.688	36975.96
656.039	37099.12
656.391	36706.37
656.742	36736.87
657.094	36680.38
657.445	36963.53
657.796	36794.5
658.147	36678.57
658.498	36767.83
658.849	36788.62
659.2	36660.26
659.551	36568.74
659.902	36698.91
660.253	36537.78
660.604	36560.83
660.955	36417.11
661.306	36624.33
661.656	36466.37
662.007	36578.23
662.358	36581.62
662.708	36446.71
663.059	36412.59
663.409	36168.07
663.76	36505.01
664.11	36269.54
664.461	36400.16
664.811	36449.65
665.161	36429.54
665.511	36266.6
665.862	36326.94
666.212	36303.44
666.562	36312.93
666.912	36268.41
667.262	36298.69
667.612	36231.35
667.962	36313.38
668.312	36132.82
668.662	36296.43
669.011	36311.35
669.361	36094.18
669.711	36155.87
670.06	36046.5
670.41	36032.03
670.76	35871.59
671.109	36150.67
671.459	36093.27
671.808	35965.59
672.157	35935.76
672.507	35729.67
672.856	35805.82
673.205	35821.42
673.554	35797.46
673.904	35747.97
674.253	36003.11
674.602	35744.13
674.951	35391.6
675.3	35154.77
675.649	35678.14
675.998	35603.34
676.346	35522.89
676.695	35651.03
677.044	35369.45
677.393	35597.02
677.741	35592.5
678.09	35365.84
678.438	35244.03
678.787	35466.17
679.135	35360.86
679.484	35046.07
679.832	35243.35
680.181	34981.21
680.529	35127.2
680.877	34936.24
681.225	34988.67
681.573	35135.11
681.922	34751.39
682.27	34837.71
682.618	34815.34
682.966	34717.04
683.314	34773.08
683.661	34649.92
684.009	34498.51
684.357	34394.34
684.705	34447.89
685.053	34528.57
685.4	34408.57
685.748	34181.91
686.095	34228.92
686.443	33948.47
686.79	33961.35
687.138	34041.35
687.485	33972.2
687.832	33834.35
688.18	33863.95
688.527	33631.64
688.874	33676.84
689.221	33559.78
689.568	33562.27
689.915	33512.55
690.262	33460.8
690.609	33314.59
690.956	33019.46
691.303	33138.78
691.65	32955.05
691.997	33077.76
692.344	32827.37
692.69	32707.83
693.037	32747.6
693.383	32473.26
693.73	32717.09
694.077	32439.58
694.423	32483.88
694.769	32285.01
695.116	32243.21
695.462	32242.98
695.808	31958.47
696.155	32098.12
696.501	31756.44
696.847	31942.42
697.193	31757.79
697.539	31742.43
697.885	31546.05
698.231	31452.04
698.577	31513.96
698.923	31424.24
699.269	31367.3
699.614	31022.22
699.96	31046.63
700.306	30934.54
700.651	31006.63
700.997	30791.49
701.342	30840.3
701.688	30677.6
702.033	30694.77
702.379	30653.87
702.724	30517.15
703.069	30437.83
703.415	30175.46
703.76	30262.47
704.105	30198.97
704.45	30111.74
704.795	30046.88
705.14	29942.02
705.485	29936.15
705.83	29744.74
706.175	29729.83
706.52	29646.66
706.865	29597.4
707.209	29521.7
707.554	29376.39
707.899	29456.39
708.243	29360.12
708.588	29096.62
708.932	28972.78
709.277	29058.88
709.621	29100.46
709.966	28909.06
710.31	28949.96
710.654	28675.84
710.998	28764.88
711.342	28744.99
711.687	28662.28
712.031	28590.65
712.375	28472.68
712.719	28530.76
713.063	28408.28
713.407	28549.29
713.75	28314.27
714.094	28373.48
714.438	28256.19
714.782	28293.48
715.125	27928.52
715.469	28061.85
715.812	27934.17
716.156	27786.6
716.499	27799.71
716.843	27888.97
717.186	27713.61
717.53	27834.06
717.873	27828.63
718.216	27702.31
718.559	27620.28
718.902	27462.31
719.246	27434.07
719.589	27310
719.932	27231.81
720.275	27261.87
720.617	27252.6
720.96	27294.18
721.303	27321.08
721.646	27284.92
721.989	27033.85
722.331	27158.37
722.674	27077.69
723.016	27088.31
723.359	27034.08
723.701	26976.23
724.044	26829.79
724.386	26723.58
724.729	26778.94
725.071	26751.15
725.413	26830.01
725.755	26577.59
726.097	26493.07
726.439	26441.32
726.782	26334.21
727.124	26493.75
727.465	26376.47
727.807	26281.55
728.149	26275.68
728.491	26219.18
728.833	26243.59
729.175	26175.12
729.516	26158.17
729.858	26000.43
730.199	26040.88
730.541	25905.29
730.882	25976.93
731.224	25947.78
731.565	25816.93
731.906	25889.25
732.248	25809.48
732.589	25618.07
732.93	25644.51
733.271	25607
733.612	25736.03
733.953	25585.53
734.294	25637.28
734.635	25541.46
734.976	25550.05
735.317	25441.58
735.658	25376.95
735.999	25334.23
736.339	25280.9
736.68	25476.38
737.021	25176.05
737.361	25064.86
737.702	25356.38
738.042	25142.83
738.383	25155.26
738.723	25191.41
739.063	25078.2
739.404	25143.96
739.744	25023.73
740.084	24915.26
740.424	24906.45
740.764	24923.4
741.104	24974.92
741.444	24744.19
741.784	24856.06
742.124	24803.85
742.464	24701.71
742.804	24715.95
743.143	24682.5
743.483	24571.09
743.823	24493.35
744.162	24486.35
744.502	24536.06
744.841	24404.09
745.181	24424.65
745.52	24377.2
745.86	24335.39
746.199	24223.76
746.538	24307.82
746.877	24297.88
747.216	24235.51
747.556	24129.07
747.895	24198.22
748.234	24077.32
748.573	24003.2
748.911	24046.59
749.25	24005.46
749.589	23841.17
749.928	23944.44
750.267	23892.92
750.605	23809.08
750.944	23679.59
751.283	23538.8
751.621	23674.17
751.96	23461.97
752.298	23509.42
752.636	23598.46
752.975	23342.2
753.313	23373.61
753.651	23398.69
753.989	23247.28
754.327	23295.42
