Data from whiteboard_FLMS001491_00065.txt Node
Date: Wed Feb 08 11:27:29 GMT 2017
User: dcchb
Spectrometer: FLMS00149
Trigger mode: 0
Integration Time (sec): 2.000000E-2
Scans to average: 10
Electric dark correction enabled: true
Nonlinearity correction enabled: false
Boxcar width: 0
XAxis mode: Wavelengths
Number of Pixels in Spectrum: 2048
>>>>>Begin Spectral Data<<<<<
341.393	-26.26
341.776	-26.26
342.16	-26.26
342.543	-57.89
342.927	-77.33
343.31	-75.52
343.693	-74.16
344.077	-60.15
344.46	-66.93
344.843	-46.37
345.226	-27.84
345.61	-27.61
345.993	-32.13
346.376	-2.75
346.759	17.13
347.142	38.83
347.525	44.25
347.908	57.81
348.291	77.47
348.674	58.71
349.057	119.28
349.44	103.01
349.823	142.78
350.206	164.93
350.588	207.41
350.971	238.82
351.354	270.23
351.737	263
352.119	283.11
352.502	284.02
352.884	307.07
353.267	295.54
353.65	310.01
354.032	315.2
354.414	323.56
354.797	337.58
355.179	317.01
355.562	361.76
355.944	353.17
356.326	351.81
356.709	373.28
357.091	383.9
357.473	354.07
357.855	389.55
358.238	377.12
358.62	365.82
359.002	377.57
359.384	378.25
359.766	369.89
360.148	378.03
360.53	382.09
360.912	356.56
361.294	376.9
361.676	384.13
362.057	383.22
362.439	390.23
362.821	367.18
363.203	353.62
363.584	389.78
363.966	351.13
364.348	376.44
364.729	377.12
365.111	356.11
365.493	395.2
365.874	369.89
366.256	347.75
366.637	349.1
367.019	375.31
367.4	360.63
367.781	334.86
368.163	367.18
368.544	368.54
368.925	368.76
369.306	363.34
369.688	374.19
370.069	388.2
370.45	386.61
370.831	365.6
371.212	385.94
371.593	376.44
371.974	377.12
372.355	390
372.736	357.46
373.117	396.56
373.498	373.96
373.879	408.08
374.26	376.22
374.641	376.9
375.021	367.63
375.402	384.35
375.783	385.03
376.163	404.92
376.544	404.69
376.925	417.12
377.305	412.83
377.686	409.89
378.066	404.47
378.447	410.57
378.827	404.47
379.208	426.39
379.588	413.73
379.968	403.11
380.349	414.86
380.729	429.1
381.109	448.08
381.489	434.07
381.87	434.75
382.25	446.73
382.63	457.57
383.01	473.62
383.39	435.2
383.77	463
384.15	472.04
384.53	461.41
384.91	469.32
385.29	481.98
385.67	484.01
386.049	481.3
386.429	492.83
386.809	509.55
387.189	500.06
387.568	495.76
387.948	502.32
388.328	517.68
388.707	500.74
389.087	534.41
389.466	551.81
389.846	540.51
390.225	535.54
390.605	550.68
390.984	557.01
391.363	533.95
391.743	569.89
392.122	567.4
392.501	598.36
392.881	575.99
393.26	577.8
393.639	594.07
394.018	609.89
394.397	636.78
394.776	642.43
395.155	653.95
395.534	620.05
395.913	650.79
396.292	664.12
396.671	655.53
397.05	684.91
397.429	715.65
397.808	690.56
398.186	698.92
398.565	718.58
398.944	727.62
399.323	732.59
399.701	757
400.08	741.63
400.458	775.76
400.837	792.71
401.215	784.57
401.594	791.58
401.972	832.48
402.351	834.96
402.729	851.01
403.107	868.86
403.486	882.19
403.864	884.23
404.242	894.4
404.62	925.58
404.999	931.91
405.377	961.29
405.755	968.75
406.133	999.25
406.511	1008.97
406.889	1020.5
407.267	1040.16
407.645	1063.88
408.023	1080.38
408.401	1078.12
408.779	1122.19
409.156	1153.6
409.534	1182.98
409.912	1171.23
410.29	1232.24
410.667	1232.47
411.045	1251
411.422	1283.09
411.8	1293.93
412.178	1340.49
412.555	1360.83
412.933	1391.79
413.31	1388.85
413.687	1437.89
414.065	1450.77
414.442	1477.66
414.819	1493.7
415.197	1545.23
415.574	1570.99
415.951	1577.77
416.328	1596.3
416.705	1621.38
417.082	1620.03
417.46	1681.04
417.837	1695.96
418.214	1709.74
418.591	1725.34
418.967	1721.49
419.344	1737.77
419.721	1764.88
420.098	1772.34
420.475	1815.73
420.852	1882.17
421.228	1882.85
421.605	1893.92
421.982	1903.18
422.358	1941.15
422.735	1979.11
423.111	1959.68
423.488	2004.65
423.864	2017.98
424.241	2050.3
424.617	2094.14
424.994	2114.25
425.37	2112.9
425.746	2128.26
426.123	2194.48
426.499	2175.72
426.875	2262.72
427.251	2276.51
427.627	2334.59
428.003	2339.33
428.379	2389.5
428.756	2415.71
429.132	2506.56
429.507	2495.71
429.883	2514.92
430.259	2596.5
430.635	2598.53
431.011	2630.85
431.387	2708.36
431.763	2760.56
432.138	2754.01
432.514	2803.5
432.89	2787
433.265	2860.67
433.641	2892.54
434.016	2947.22
434.392	2993.78
434.767	3056.37
435.143	3055.7
435.518	3124.4
435.894	3142.93
436.269	3185.41
436.644	3228.12
437.02	3248.69
437.395	3312.64
437.77	3366.87
438.145	3368.46
438.52	3441.45
438.895	3490.04
439.271	3504.05
439.646	3595.8
440.021	3637.83
440.395	3609.81
440.77	3593.99
441.145	3689.8
441.52	3757.82
441.895	3735.23
442.27	3793.3
442.645	3809.12
443.019	3863.36
443.394	3837.37
443.769	3904.26
444.143	3869.69
444.518	3967.08
444.892	3970.02
445.267	3999.17
445.641	4026.97
446.016	4039.85
446.39	4080.98
446.764	4131.15
447.139	4142.22
447.513	4152.39
447.887	4260.18
448.262	4295.66
448.636	4269.45
449.01	4385.61
449.384	4372.95
449.758	4365.49
450.132	4506.05
450.506	4485.49
450.88	4511.48
451.254	4530.01
451.628	4632.15
452.002	4659.72
452.376	4742.66
452.75	4778.36
453.123	4832.82
453.497	4941.3
453.871	4953.05
454.244	5057.45
454.618	5087.96
454.992	5154.62
455.365	5173.61
455.739	5306.71
456.112	5423.09
456.486	5440.72
456.859	5459.93
457.232	5604.33
457.606	5599.58
457.979	5685.68
458.352	5772.46
458.725	5873.48
459.099	5872.57
459.472	6030.76
459.845	6079.8
460.218	6114.83
460.591	6200.02
460.964	6210.87
461.337	6355.72
461.71	6487.92
462.083	6594.13
462.456	6578.09
462.829	6632.55
463.201	6763.85
463.574	6835.26
463.947	6937.4
464.32	7012.43
464.692	7126.78
465.065	7216.27
465.438	7338.3
465.81	7450.16
466.183	7551.85
466.555	7741.45
466.928	7767.66
467.3	7728.57
467.672	7939.64
468.045	8073.42
468.417	8140.53
468.789	8197.26
469.161	8404.93
469.534	8517.47
469.906	8689.67
470.278	8718.15
470.65	8874.53
471.022	9044.01
471.394	9169.89
471.766	9224.35
472.138	9357.9
472.51	9549.31
472.882	9741.4
473.253	9830.43
473.625	9956.98
473.997	10175.51
474.369	10241.95
474.74	10288.27
475.112	10570.08
475.484	10685.1
475.855	10940.69
476.227	11033.34
476.598	11383.16
476.97	11449.83
477.341	11636.71
477.713	11894.11
478.084	11944.5
478.455	12370.03
478.827	12414.77
479.198	12821.54
479.569	12843.01
479.94	13214.3
480.311	13411.13
480.682	13683.67
481.053	14030.1
481.424	14168.62
481.795	14308.06
482.166	14584.43
482.537	14854.26
482.908	15159.56
483.279	15309.61
483.65	15538.08
484.021	15802.93
484.391	16105.52
484.762	16168.57
485.133	16345.29
485.503	16539.86
485.874	16919.74
486.244	17140.75
486.615	17509.55
486.985	17751.13
487.356	17974.17
487.726	18164.45
488.097	18529.87
488.467	18662.52
488.837	18950.65
489.207	19270.19
489.578	19388.6
489.948	19708.37
490.318	19974.12
490.688	20075.14
491.058	20368.01
491.428	20697.27
491.798	20853.87
492.168	21220.64
492.538	21290.47
492.908	21532.72
493.278	21907.86
493.648	21955.76
494.017	22352.14
494.387	22500.38
494.757	22656.09
495.126	22924.55
495.496	23052.68
495.866	23159.35
496.235	23389.85
496.605	23758.65
496.974	23789.61
497.344	24119.78
497.713	24168.81
498.082	24406.55
498.452	24609.93
498.821	24786.88
499.19	24876.59
499.559	25083.37
499.928	25341.89
500.298	25467.76
500.667	25715.44
501.036	25850.35
501.405	26158.82
501.774	26120.17
502.143	26384.57
502.512	26608.3
502.88	26757.22
503.249	26796.99
503.618	27048.51
503.987	27321.73
504.356	27258.9
504.724	27545.22
505.093	27546.8
505.462	27837.64
505.83	27997.87
506.199	28336.61
506.567	28647.79
506.936	28659.09
507.304	29024.96
507.672	29077.61
508.041	29221.56
508.409	29563.7
508.777	29772.73
509.145	30089.34
509.514	30043.69
509.882	30418.14
510.25	30419.27
510.618	30603.45
510.986	30617.91
511.354	30950.1
511.722	31165.92
512.09	31667.6
512.458	31638.67
512.826	31918.44
513.193	32007.93
513.561	32071.43
513.929	32440.69
514.297	32684.3
514.664	32947.79
515.032	32913.67
515.4	33293.32
515.767	33465.07
516.135	33817.37
516.502	33579.41
516.869	34167.42
517.237	34347.76
517.604	34411.93
517.972	34782.09
518.339	35146.38
518.706	35269.09
519.073	35453.26
519.44	35738.23
519.808	36106.13
520.175	35983.64
520.542	36551.31
520.909	36766.67
521.276	36896.84
521.643	37350.84
522.009	37658.63
522.376	37865.63
522.743	37993.76
523.11	38557.14
523.477	38787.64
523.843	38977.92
524.21	39396.89
524.577	39763.66
524.943	39839.59
525.31	40129.07
525.676	40468.72
526.043	40635.05
526.409	40903.51
526.776	41339.44
527.142	41435.48
527.508	41622.82
527.874	41884.73
528.241	42185.06
528.607	42363.36
528.973	42582.34
529.339	42652.4
529.705	43122.21
530.071	43319.04
530.437	43383.22
530.803	43720.39
531.169	43876.54
531.535	43905.92
531.901	44081.96
532.267	44266.14
532.632	44559.24
532.998	44796.97
533.364	45017.31
533.73	45043.97
534.095	45355.38
534.461	45464.52
534.826	45770.05
535.192	45809.15
535.557	46183.15
535.923	46192.19
536.288	46392.41
536.653	46420.88
537.019	46451.62
537.384	46745.62
537.749	46984.71
538.114	47046.63
538.479	47181.32
538.845	47358.26
539.21	47366.4
539.575	47697.69
539.94	47779.27
540.305	48092.03
540.67	48140.16
541.034	48187.39
541.399	48408.4
541.764	48536.99
542.129	48653.59
542.494	48767.94
542.858	49025.56
543.223	49168.61
543.587	49310.07
543.952	49394.59
544.316	49532.21
544.681	49491.76
545.045	49679.78
545.41	49929.94
545.774	50036.16
546.138	50002.26
546.503	50176.04
546.867	50125.65
547.231	50475.47
547.595	50574.45
547.959	50679.76
548.324	50791.39
548.688	50703.94
549.052	50873.42
549.416	51007.2
549.779	51041.55
550.143	51161.1
550.507	51346.86
550.871	51399.96
551.235	51327.87
551.599	51584.14
551.962	51670.92
552.326	51721.08
552.689	51836.11
553.053	51745.26
553.417	51890.34
553.78	52328.53
554.143	52156.33
554.507	52333.04
554.87	52484.68
555.234	52731
555.597	52523.77
555.96	52649.19
556.323	52877.89
556.686	52846.93
557.05	53129.41
557.413	53197.65
557.776	53139.58
558.139	53392
558.502	53470.19
558.865	53593.8
559.228	53712.67
559.59	53817.98
559.953	53974.13
560.316	54182.26
560.679	54287.8
561.041	54502.48
561.404	54556.26
561.767	54749.25
562.129	54662.48
562.492	54980.66
562.854	54980.21
563.217	55097.27
563.579	55298.16
563.941	55488.89
564.304	55610.47
564.666	55781.32
565.028	55824.93
565.39	55961.88
565.753	56095.66
566.115	56162.32
566.477	56280.74
566.839	56301.08
567.201	56594.18
567.563	56534.06
567.925	56786.26
568.287	56805.47
568.648	56870.33
569.01	57007.05
569.372	57186.7
569.734	57016.54
570.095	57307.15
570.457	57285.91
570.819	57336.98
571.18	57382.18
571.542	57432.12
571.903	57473.7
572.265	57569.97
572.626	57690.42
572.987	57683.86
573.349	57821.26
573.71	57821.26
574.071	57912.56
574.432	57958.21
574.794	58091.09
575.155	57985.33
575.516	57975.38
575.877	58124.98
576.238	58071.2
576.599	58156.85
576.96	58178.77
577.32	58195.04
577.681	58329.72
578.042	58345.32
578.403	58304.41
578.763	58320.91
579.124	58383.28
579.485	58406.11
579.845	58455.82
580.206	58430.06
580.566	58459.89
580.927	58524.29
581.287	58554.58
581.648	58455.37
582.008	58602.94
582.368	58537.85
582.728	58672.54
583.089	58602.48
583.449	58712.31
583.809	58720
584.169	58750.73
584.529	58729.26
584.889	58966.77
585.249	58824.85
585.609	58805.64
585.969	59020.78
586.329	58926.54
586.688	59042.02
587.048	59040.89
587.408	59004.28
587.768	59086.31
588.127	59112.53
588.487	59074.79
588.846	59300.55
589.206	59091.74
589.565	59218.06
589.925	59255.57
590.284	59182.81
590.643	59258.06
591.003	59372.63
591.362	59361.33
591.721	59334.22
592.08	59361.79
592.44	59423.48
592.799	59425.06
593.158	59362.69
593.517	59358.62
593.876	59428.45
594.235	59316.14
594.593	59303.94
594.952	59375.12
595.311	59251.96
595.67	59390.71
596.029	59392.75
596.387	59351.39
596.746	59417.83
597.104	59321.11
597.463	59243.37
597.822	59333.54
598.18	59239.08
598.538	59171.28
598.897	59306.19
599.255	59065.75
599.613	59394.55
599.972	59201.79
600.33	59230.94
600.688	59132.19
601.046	59159.31
601.404	59286.08
601.762	59178.51
602.12	59303.94
602.478	59164.28
602.836	59217.16
603.194	59105.97
603.552	59213.54
603.91	59122.7
604.268	59174.22
604.625	59144.39
604.983	59272.52
605.341	59257.38
605.698	59223.26
606.056	59344.39
606.413	59253.99
606.771	59442.46
607.128	59470.94
607.485	59290.83
607.843	59472.97
608.2	59611.95
608.557	59673.42
608.914	59639.29
609.272	59730.59
609.629	59796.35
609.986	59905.5
610.343	59843.81
610.7	59995.67
611.057	59991.83
611.414	59994.54
611.771	60005.84
612.127	60103.91
612.484	60093.07
612.841	60272.72
613.198	60197.47
613.554	60220.75
613.911	60397.24
614.267	60399.27
614.624	60349.78
614.98	60500.74
615.337	60625.26
615.693	60462.1
616.05	60481.31
616.406	60668.64
616.762	60564.92
617.118	60585.48
617.475	60568.08
617.831	60635.43
618.187	60622.09
618.543	60682.43
618.899	60832.93
619.255	60707.06
619.611	60636.56
619.967	60689.66
620.323	60715.88
620.678	60611.25
621.034	60536.9
621.39	60580.06
621.746	60531.25
622.101	60750.9
622.457	60507.29
622.812	60524.24
623.168	60546.84
623.523	60506.84
623.879	60562.66
624.234	60376
624.589	60429.1
624.945	60467.07
625.3	60376.22
625.655	60319.05
626.01	60315.89
626.365	60310.91
626.72	60246.74
627.075	60225.04
627.43	60193.18
627.785	60147.3
628.14	60154.76
628.495	60211.48
628.85	60097.13
629.205	60121.31
629.559	60198.83
629.914	60145.27
630.269	60095.33
630.623	59985.27
630.978	59960.87
631.332	60031.6
631.687	60083.12
632.041	59960.19
632.396	59995.89
632.75	59851.04
633.104	60034.54
633.459	59878.16
633.813	59860.53
634.167	59870.93
634.521	59806.97
634.875	59920.87
635.229	59878.16
635.583	59803.81
635.937	59865.5
636.291	59822.57
636.645	59863.02
636.999	59800.65
637.352	59914.09
637.706	59810.36
638.06	59933.75
638.413	59841.55
638.767	59768.56
639.121	59856.24
639.474	59693.3
639.828	59770.14
640.181	59848.1
640.534	59841.55
640.888	59722.68
641.241	59679.29
641.594	59764.49
641.947	59827.76
642.301	59753.87
642.654	59694.21
643.007	59723.81
643.36	59668.67
643.713	59605.17
644.066	59704.83
644.419	59647.88
644.771	59458.73
645.124	59275.69
645.477	59170.38
645.83	58992.76
646.182	58846.32
646.535	58755.02
646.888	58771.75
647.24	58563.62
647.593	58734.23
647.945	58687.91
648.298	58538.76
648.65	58443.84
649.002	58373.11
649.355	58473
649.707	58378.08
650.059	58486.78
650.411	58728.81
650.763	58661.69
651.115	58850.39
651.467	58811.74
651.819	58717.74
652.171	58690.62
652.523	58611.98
652.875	58639.77
653.227	58386.67
653.578	58605.65
653.93	58500.79
654.282	58402.72
654.633	58277.07
654.985	58374.92
655.337	58271.65
655.688	58442.26
656.039	58357.97
656.391	58153.91
656.742	58133.12
657.094	58147.13
657.445	58256.05
657.796	58097.41
658.147	58092.22
658.498	58038.66
658.849	58087.47
659.2	58103.29
659.551	57892.9
659.902	57993.46
660.253	57931.77
660.604	57979
660.955	57916.63
661.306	58010.86
661.656	58001.14
662.007	58057.64
662.358	58049.28
662.708	58017.87
663.059	57982.84
663.409	57862.84
663.76	58050.86
664.11	57988.49
664.461	58032.56
664.811	58070.75
665.161	58009.51
665.511	57939.45
665.862	58007.02
666.212	58092.67
666.562	58094.02
666.912	58031.88
667.262	58044.08
667.612	58026.68
667.962	58042.27
668.312	58030.97
668.662	58173.12
669.011	58055.15
669.361	58053.35
669.711	57981.48
670.06	57972.9
670.41	57975.16
670.76	57892.22
671.109	57991.2
671.459	57940.81
671.808	57924.31
672.157	57920.69
672.507	57758.66
672.856	57798.21
673.205	57801.15
673.554	57878.44
673.904	57737.87
674.253	57891.09
674.602	57728.38
674.951	57388.73
675.3	57374.04
675.649	57655.62
675.998	57657.42
676.346	57572.46
676.695	57669.4
677.044	57541.95
677.393	57579.23
677.741	57569.74
678.09	57460.82
678.438	57387.38
678.787	57423.08
679.135	57398.45
679.484	57165.23
679.832	57247.49
680.181	57035.52
680.529	57122.75
680.877	57038.46
681.225	57019.25
681.573	57118
681.922	56865.13
682.27	56776.54
682.618	56784.45
682.966	56558.24
683.314	56635.98
683.661	56548.08
684.009	56384.24
684.357	56335.2
684.705	56371.36
685.053	56317.8
685.4	56302.66
685.748	56176.56
686.095	56180.18
686.443	56055.43
686.79	55971.14
687.138	56021.99
687.485	55994.87
687.832	55906.51
688.18	55901.54
688.527	55818.15
688.874	55798.49
689.221	55773.86
689.568	55619.29
689.915	55465.39
690.262	55553.98
690.609	55476.24
690.956	55385.39
691.303	55368.22
691.65	55278.28
691.997	55189.47
692.344	55100.66
692.69	54991.28
693.037	55062.69
693.383	54704.28
693.73	54910.15
694.077	54833.09
694.423	54859.53
694.769	54720.1
695.116	54664.06
695.462	54671.74
695.808	54619.09
696.155	54657.28
696.501	54408.24
696.847	54388.13
697.193	54225.65
697.539	54390.62
697.885	54219.55
698.231	54043.28
698.577	54062.94
698.923	54048.03
699.269	53921.93
699.614	53754.02
699.96	53671.54
700.306	53730.3
700.651	53586.35
700.997	53436.52
701.342	53383.86
701.688	53422.51
702.033	53289.4
702.379	53268.61
702.724	53152.23
703.069	53232.91
703.415	52913.37
703.76	52892.35
704.105	52828.63
704.45	52800.15
704.795	52693.94
705.14	52522.19
705.485	52448.97
705.83	52237.23
706.175	52307.96
706.52	52224.12
706.865	52025.26
707.209	51981.42
707.554	51935.99
707.899	51986.61
708.243	51813.06
708.588	51714.08
708.932	51421.88
709.277	51408.32
709.621	51502.78
709.966	51224.6
710.31	51255.79
710.654	50867.09
710.998	50842.69
711.342	50894.21
711.687	50719.98
712.031	50398.18
712.375	50373.55
712.719	50358.63
713.063	50301.69
713.407	50401.34
713.75	50060.34
714.094	50179.43
714.438	50003.84
714.782	49953.9
715.125	49825.99
715.469	49873.9
715.812	49729.27
716.156	49473.23
716.499	49481.59
716.843	49449.5
717.186	49184.65
717.53	49293.12
717.873	49280.02
718.216	49180.59
718.559	49124.77
718.902	48661.05
719.246	48859.69
719.589	48726.36
719.932	48499.25
720.275	48593.93
720.617	48495.86
720.96	48588.96
721.303	48459.02
721.646	48518
721.989	48298.35
722.331	48389.65
722.674	48237.56
723.016	48184.45
723.359	48149.43
723.701	48153.27
724.044	47873.73
724.386	47808.64
724.729	47882.09
725.071	47729.55
725.413	47748.98
725.755	47546.5
726.097	47549.89
726.439	47463.12
726.782	47540.63
727.124	47585.6
727.465	47370.69
727.807	47421.76
728.149	47248.66
728.491	47149
728.833	47218.15
729.175	47146.06
729.516	47106.74
729.858	47190.13
730.199	47165.27
730.541	46978.84
730.882	46968.21
731.224	47010.25
731.565	46911.72
731.906	46893.87
732.248	46908.33
732.589	46650.26
732.93	46590.6
733.271	46581.33
733.612	46782
733.953	46631.95
734.294	46444.61
734.635	46403.03
734.976	46565.06
735.317	46368.23
735.658	46240.1
735.999	46168.24
736.339	46120.33
736.68	46163.04
737.021	45916.94
737.361	45843.5
737.702	46031.74
738.042	45833.1
738.383	45728.7
738.723	45763.5
739.063	45603.73
739.404	45477.18
739.744	45365.09
740.084	45191.09
740.424	45156.51
740.764	45023.41
741.104	45178.88
741.444	44820.47
741.784	44777.54
742.124	44704.32
742.464	44629.07
742.804	44542.74
743.143	44349.98
743.483	44479.47
743.823	44116.76
744.162	44197.67
744.502	44019.82
744.841	43912.02
745.181	43887.62
745.52	43671.58
745.86	43629.77
746.199	43498.93
746.538	43346.16
746.877	43440.62
747.216	43332.6
747.556	43161.99
747.895	43181.65
748.234	42875.44
748.573	42868.66
748.911	42630.7
749.25	42537.37
749.589	42474.55
749.928	42491.5
750.267	42414.21
750.605	42230.49
750.944	42287.43
751.283	41970.38
751.621	42105.74
751.96	41823.26
752.298	41759.09
752.636	41784.4
