Data from white_poster_card_FLMS001491_00061.txt Node
Date: Wed Feb 08 11:51:50 GMT 2017
User: dcchb
Spectrometer: FLMS00149
Trigger mode: 0
Integration Time (sec): 2.000000E-2
Scans to average: 10
Electric dark correction enabled: true
Nonlinearity correction enabled: false
Boxcar width: 0
XAxis mode: Wavelengths
Number of Pixels in Spectrum: 2048
>>>>>Begin Spectral Data<<<<<
341.393	-11.02
341.776	-11.02
342.16	-11.02
342.543	-69.32
342.927	-82.43
343.31	-77.68
343.693	-68.87
344.077	-69.55
344.46	-58.47
344.843	-61.64
345.226	-23.9
345.61	-33.39
345.993	-35.42
346.376	-7.17
346.759	-10.79
347.142	29.66
347.525	43.67
347.908	72.14
348.291	98.81
348.674	89.77
349.057	112.82
349.44	114.86
349.823	137.45
350.206	141.75
350.588	176.78
350.971	221.29
351.354	232.82
351.737	242.08
352.119	250.22
352.502	269.43
352.884	279.82
353.267	281.86
353.65	297.68
354.032	301.97
354.414	286.83
354.797	313.49
355.179	306.72
355.562	307.62
355.944	338.13
356.326	319.14
356.709	319.82
357.091	344.68
357.473	354.17
357.855	344
358.238	316.43
358.62	339.71
359.002	323.44
359.384	326.38
359.766	331.35
360.148	334.96
360.53	327.51
360.912	301.74
361.294	334.96
361.676	321.18
362.057	333.61
362.439	328.41
362.821	313.49
363.203	335.19
363.584	324.12
363.966	346.49
364.348	318.24
364.729	318.24
365.111	320.73
365.493	317.34
365.874	322.76
366.256	323.66
366.637	301.97
367.019	325.7
367.4	301.97
367.781	287.73
368.163	296.09
368.544	316.43
368.925	316.88
369.306	335.87
369.688	324.34
370.069	305.81
370.45	326.38
370.831	319.6
371.212	296.32
371.593	320.05
371.974	326.83
372.355	320.27
372.736	320.05
373.117	325.25
373.498	299.48
373.879	332.03
374.26	305.81
374.641	298.35
375.021	330.67
375.402	317.34
375.783	316.66
376.163	339.93
376.544	348.97
376.925	355.98
377.305	332.25
377.686	320.27
378.066	337.67
378.447	331.35
378.827	337.45
379.208	349.43
379.588	319.82
379.968	347.84
380.349	362.31
380.729	359.14
381.109	346.94
381.489	339.93
381.87	352.82
382.25	364.34
382.63	337
383.01	335.87
383.39	353.72
383.77	370.22
384.15	345.36
384.53	335.41
384.91	347.84
385.29	361.85
385.67	354.62
386.049	377.9
386.429	354.85
386.809	367.73
387.189	355.53
387.568	355.08
387.948	359.37
388.328	360.05
388.707	383.78
389.087	363.66
389.466	384.91
389.846	382.42
390.225	374.51
390.605	388.29
390.984	362.08
391.363	401.4
391.743	394.62
392.122	397.33
392.501	389.42
392.881	409.09
393.26	401.4
393.639	401.4
394.018	411.35
394.397	405.92
394.776	401.85
395.155	403.89
395.534	415.86
395.913	410.44
396.292	427.16
396.671	412.48
397.05	417.22
397.429	433.04
397.808	446.37
398.186	428.29
398.565	435.98
398.944	437.56
399.323	437.79
399.701	455.64
400.08	448.18
400.458	435.07
400.837	452.47
401.215	482.98
401.594	449.99
401.972	439.82
402.351	471.23
402.729	445.47
403.107	478.46
403.486	452.02
403.864	465.81
404.242	479.37
404.62	479.14
404.999	521.17
405.377	507.39
405.755	503.32
406.133	507.84
406.511	522.53
406.889	533.38
407.267	548.74
407.645	539.03
408.023	565.47
408.401	551.45
408.779	564.79
409.156	582.87
409.534	574.28
409.912	577.44
410.29	591.91
410.667	614.96
411.045	628.97
411.422	603.88
411.8	649.53
412.178	649.76
412.555	675.52
412.933	685.01
413.31	680.26
413.687	702.18
414.065	722.3
414.442	741.73
414.819	747.61
415.197	753.93
415.574	791.45
415.951	789.64
416.328	811.11
416.705	814.72
417.082	807.94
417.46	837.55
417.837	843.88
418.214	867.15
418.591	878.45
418.967	900.15
419.344	913.25
419.721	932.91
420.098	973.59
420.475	941.73
420.852	968.17
421.228	981.27
421.605	1023.76
421.982	1008.17
422.358	1020.14
422.735	1049.75
423.111	1077.54
423.488	1081.84
423.864	1089.07
424.241	1108.05
424.617	1131.33
424.994	1127.26
425.37	1139.46
425.746	1167.03
426.123	1143.53
426.499	1160.48
426.875	1229.4
427.251	1227.14
427.627	1246.35
428.003	1270.53
428.379	1292.23
428.756	1287.03
429.132	1303.3
429.507	1334.94
429.883	1331.09
430.259	1400.25
430.635	1390.98
431.011	1409.74
431.387	1437.31
431.763	1469.4
432.138	1476.4
432.514	1512.79
432.89	1519.11
433.265	1565.67
433.641	1573.8
434.016	1553.24
434.392	1598.88
434.767	1636.62
435.143	1612.9
435.518	1674.81
435.894	1702.84
436.269	1720.92
436.644	1718.2
437.02	1733.12
437.395	1755.04
437.77	1808.37
438.145	1792.1
438.52	1820.12
438.895	1835.26
439.271	1787.35
439.646	1915.26
440.021	1881.59
440.395	1920.01
440.77	1876.39
441.145	1925.2
441.52	1951.19
441.895	1933.79
442.27	1936.28
442.645	1967.01
443.019	2009.72
443.394	1962.26
443.769	2004.3
444.143	1985.99
444.518	2065.31
444.892	2043.17
445.267	2063.51
445.641	2080.45
446.016	2100.34
446.39	2135.59
446.764	2133.11
447.139	2120.68
447.513	2144.63
447.887	2187.57
448.262	2155.48
448.636	2144.18
449.01	2204.52
449.384	2195.7
449.758	2218.53
450.132	2291.75
450.506	2266.21
450.88	2278.64
451.254	2301.24
451.628	2325.42
452.002	2360.22
452.376	2359.77
452.75	2381.69
453.123	2394.8
453.497	2453.78
453.871	2449.26
454.244	2501.69
454.618	2519.76
454.992	2584.85
455.365	2521.35
455.739	2618.52
456.112	2637.73
456.486	2644.28
456.859	2706.2
457.232	2747.55
457.606	2737.39
457.979	2773.77
458.352	2787.55
458.725	2849.02
459.099	2825.52
459.472	2949.81
459.845	2965.63
460.218	2955.46
460.591	2949.13
460.964	2965.4
461.337	3091.95
461.71	3106.64
462.083	3175.11
462.456	3208.11
462.829	3222.8
463.201	3241.33
463.574	3278.16
463.947	3289.01
464.32	3365.17
464.692	3356.13
465.065	3412.17
465.438	3477.25
465.81	3476.35
466.183	3583.69
466.555	3613.07
466.928	3656.23
467.3	3649.68
467.672	3722.22
468.045	3789.11
468.417	3826.4
468.789	3824.14
469.161	3913.63
469.534	3966.28
469.906	3992.27
470.278	4074.75
470.65	4081.08
471.022	4171.47
471.394	4212.83
471.766	4235.65
472.138	4361.52
472.51	4362.65
472.882	4466.83
473.253	4521.07
473.625	4609.43
473.997	4650.56
474.369	4693.72
474.74	4761.51
475.112	4805.13
475.484	4895.07
475.855	5011.9
476.227	5071.34
476.598	5188.39
476.97	5216.19
477.341	5334.61
477.713	5416.41
478.084	5473.13
478.455	5589.51
478.827	5641.72
479.198	5811.43
479.569	5796.51
479.94	5952.22
480.311	5955.15
480.682	6102.04
481.053	6238.54
481.424	6331.42
481.795	6408.25
482.166	6491.19
482.537	6560.56
482.908	6723.04
483.279	6805.98
483.65	6877.62
484.021	7026.54
484.391	7075.8
484.762	7195.57
485.133	7257.94
485.503	7328.23
485.874	7437.15
486.244	7571.83
486.615	7756.46
486.985	7869.23
487.356	7983.12
487.726	8025.83
488.097	8208.43
488.467	8229.67
488.837	8328.2
489.207	8509.21
489.578	8610.9
489.948	8711.69
490.318	8861.97
490.688	8851.12
491.058	8991.91
491.428	9091.34
491.798	9157.78
492.168	9408.17
492.538	9419.7
492.908	9538.34
493.278	9690.42
493.648	9671.67
494.017	9810.87
494.387	9942.39
494.757	9950.53
495.126	10137.87
495.496	10120.24
495.866	10220.58
496.235	10323.85
496.605	10487.01
496.974	10418.09
497.344	10545.32
497.713	10644.75
498.082	10787.12
498.452	10955.7
498.821	10877.96
499.19	11005.64
499.559	11047
499.928	11238.63
500.298	11204.51
500.667	11268.91
501.036	11342.36
501.405	11487.66
501.774	11475.91
502.143	11587.32
502.512	11656.7
502.88	11792.51
503.249	11816.69
503.618	11908.44
503.987	11936.01
504.356	11994.77
504.724	12156.12
505.093	12187.98
505.462	12270.69
505.83	12429.33
506.199	12463.01
506.567	12662.55
506.936	12675.66
507.304	12720.17
507.672	12815.31
508.041	12973.5
508.409	13014.18
508.777	13197.68
509.145	13200.61
509.514	13248.07
509.882	13410.55
510.25	13465.24
510.618	13524.9
510.986	13593.82
511.354	13652.13
511.722	13807.83
512.09	13920.59
512.458	14050.53
512.826	14094.83
513.193	14247.37
513.561	14224.77
513.929	14398.77
514.297	14456.63
514.664	14660.69
515.032	14746.56
515.4	14819.78
515.767	14918.31
516.135	14982.49
516.502	14924.86
516.869	15169.15
517.237	15271.07
517.604	15295.47
517.972	15401.01
518.339	15643.04
518.706	15617.72
519.073	15713.09
519.44	15837.38
519.808	16087.09
520.175	16041.89
520.542	16249.57
520.909	16325.73
521.276	16439.17
521.643	16542.9
522.009	16698.83
522.376	16826.96
522.743	16966.84
523.11	17115.99
523.477	17322.54
523.843	17377.9
524.21	17650.44
524.577	17675.52
524.943	17819.93
525.31	17921.39
525.676	18029.19
526.043	18242.06
526.409	18307.15
526.776	18510.98
527.142	18525.67
527.508	18654.26
527.874	18776.06
528.241	18980.8
528.607	18964.76
528.973	19203.39
529.339	19302.37
529.705	19495.82
530.071	19558.86
530.437	19678.86
530.803	19693.32
531.169	19874.56
531.535	19757.73
531.901	20065.97
532.267	20123.82
532.632	20279.98
532.998	20395.68
533.364	20550.93
533.73	20585.28
534.095	20855.78
534.461	20748.44
534.826	20987.3
535.192	20998.83
535.557	21152.72
535.923	21121.31
536.288	21326.73
536.653	21271.59
537.019	21405.6
537.384	21477.46
537.749	21648.07
538.114	21690.79
538.479	21760.61
538.845	21875.87
539.21	21836.32
539.575	21962.87
539.94	22015.3
540.305	22196.99
540.67	22141.85
541.034	22211.45
541.399	22335.51
541.764	22412.12
542.129	22487.83
542.494	22551.1
542.858	22728.95
543.223	22665.68
543.587	22834.71
543.952	22907.02
544.316	22900.25
544.681	22971.88
545.045	23139.11
545.41	23303.85
545.774	23253
546.138	23333.45
546.503	23380.23
546.867	23376.39
547.231	23672.43
547.595	23744.97
547.959	23876.04
548.324	23863.16
548.688	23896.15
549.052	24018.63
549.416	23981.8
549.779	24170.49
550.143	24245.75
550.507	24490.49
550.871	24425.4
551.235	24454.55
551.599	24677.83
551.962	24662.68
552.326	24859.29
552.689	24936.8
553.053	24889.35
553.417	24929.34
553.78	25269.67
554.143	25206.4
554.507	25352.38
554.87	25528.65
555.234	25750.57
555.597	25620.4
555.96	25776.1
556.323	25854.52
556.686	25797.34
557.05	26124.12
557.413	26064.91
557.776	26395.97
558.139	26460.83
558.502	26512.35
558.865	26592.13
559.228	26727.72
559.59	26887.49
559.953	26933.36
560.316	27153.69
560.679	27220.81
561.041	27381.48
561.404	27540.8
561.767	27715.94
562.129	27662.61
562.492	27943.95
562.854	27910.51
563.217	27864.41
563.579	28033.44
563.941	28298.52
564.304	28370.16
564.666	28380.78
565.028	28592.98
565.39	28712.97
565.753	28843.14
566.115	28895.34
566.477	29069.8
566.839	29087.43
567.201	29222.34
567.563	29445.84
567.925	29581.43
568.287	29516.12
568.648	29775.54
569.01	29865.03
569.372	30059.38
569.734	30046.72
570.095	30193.39
570.457	30204.23
570.819	30232.93
571.18	30360.84
571.542	30629.99
571.903	30727.38
572.265	30840.15
572.626	30858.91
572.987	30798.34
573.349	31079.47
573.71	31161.95
574.071	31280.82
574.432	31267.93
574.794	31568.94
575.155	31502.05
575.516	31336.86
575.877	31703.4
576.238	31501.83
576.599	31871.76
576.96	31759.22
577.32	31957.41
577.681	31956.05
578.042	32099.55
578.403	31969.39
578.763	32143.17
579.124	32203.96
579.485	32233.56
579.845	32344.74
580.206	32271.3
580.566	32340.45
580.927	32416.15
581.287	32513.55
581.648	32424.06
582.008	32611.18
582.368	32476.26
582.728	32530.73
583.089	32584.06
583.449	32508.58
583.809	32664.51
584.169	32660.89
584.529	32518.07
584.889	32797.84
585.249	32612.76
585.609	32599.43
585.969	32606.43
586.329	32670.84
586.688	32721.23
587.048	32749.7
587.408	32724.17
587.768	32735.24
588.127	32667.45
588.487	32670.38
588.846	32905.18
589.206	32772.75
589.565	32732.98
589.925	32858.4
590.284	32669.48
590.643	32826.09
591.003	32772.75
591.362	32897.72
591.721	32812.98
592.08	32881.23
592.44	32887.55
592.799	33033.09
593.158	32808.69
593.517	32817.95
593.876	32929.36
594.235	32990.38
594.593	33008.45
594.952	32948.12
595.311	32864.96
595.67	32959.42
596.029	33133.42
596.387	33159.18
596.746	33171.84
597.104	33074.22
597.463	33082.12
597.822	33167.55
598.18	33119.64
598.538	33077.83
598.897	33300.42
599.255	32973.43
599.613	33678.04
599.972	33275.79
600.33	33423.36
600.688	33259.52
601.046	33379.52
601.404	33570.93
601.762	33448.22
602.12	33506.75
602.478	33607.31
602.836	33593.3
603.194	33398.05
603.552	33502.45
603.91	33462.45
604.268	33616.12
604.625	33402.79
604.983	33607.53
605.341	33530.02
605.698	33622.68
606.056	33817.47
606.413	33674.65
606.771	33871.03
607.128	33862.67
607.485	33650.92
607.843	33749.68
608.2	33903.8
608.557	34172.04
608.914	33862.67
609.272	34086.39
609.629	34198.48
609.986	34254.07
610.343	34146.05
610.7	34334.29
611.057	34216.56
611.414	34153.06
611.771	34242.32
612.127	34384.69
612.484	34412.71
612.841	34615.42
613.198	34414.07
613.554	34443.9
613.911	34627.39
614.267	34579.71
614.624	34548.3
614.98	34662.87
615.337	34820.84
615.693	34682.99
616.05	34457.23
616.406	34841.85
616.762	34790.33
617.118	34687.73
617.475	34796.43
617.831	34836.43
618.187	34937.22
618.543	34853.38
618.899	35076.87
619.255	34995.29
619.611	34939.25
619.967	35017.21
620.323	35125.01
620.678	35000.72
621.034	34966.59
621.39	34953.49
621.746	34900.83
622.101	35299.47
622.457	35003.2
622.812	34995.75
623.168	35227.6
623.523	35203.42
623.879	35200.26
624.234	34920.72
624.589	35153.93
624.945	35142.41
625.3	35244.33
625.655	35071.45
626.01	35166.82
626.365	35020.38
626.72	35079.59
627.075	35003.43
627.43	35028.97
627.785	34926.37
628.14	35066.03
628.495	35098.12
628.85	34972.02
629.205	34965.92
629.559	35046.59
629.914	35064.45
630.269	35007.27
630.623	34792.14
630.978	34807.95
631.332	34988.74
631.687	34919.82
632.041	34826.03
632.396	34786.49
632.75	34646.15
633.104	34672.82
633.459	34491.35
633.813	34489.32
634.167	34470.56
634.521	34510.56
634.875	34567.28
635.229	34456.33
635.583	34377.23
635.937	34264.92
636.291	34350.57
636.645	34453.61
636.999	34205.26
637.352	34415.2
637.706	34108.54
638.06	34303.79
638.413	34113.74
638.767	34103.57
639.121	34025.15
639.474	33823.8
639.828	33894.08
640.181	33936.79
640.534	33761.43
640.888	33746.29
641.241	33658.15
641.594	33768.43
641.947	33701.32
642.301	33559.85
642.654	33647.53
643.007	33664.71
643.36	33587.65
643.713	33507.2
644.066	33584.48
644.419	33343.13
644.771	33149.24
645.124	32864.96
645.477	32858.4
645.83	32634.45
646.182	32477.62
646.535	32405.31
646.888	32385.19
647.24	32209.38
647.593	32404.63
647.945	32329.15
648.298	32214.12
648.65	32095.26
649.002	31993.79
649.355	32073.34
649.707	32056.16
650.059	32203.05
650.411	32552.42
650.763	32594.68
651.115	32961.45
651.467	32831.28
651.819	32777.95
652.171	32671.51
652.523	32714.45
652.875	32524.63
653.227	32449.82
653.578	32779.08
653.93	32564.4
654.282	32407.79
654.633	32316.49
654.985	32330.05
655.337	32320.56
655.688	32427.9
656.039	32446.21
656.391	32281.24
656.742	32234.01
657.094	32314.69
657.445	32417.28
657.796	32269.72
658.147	32075.37
658.498	32118.53
658.849	32097.07
659.2	32100.68
659.551	32131.64
659.902	32113.56
660.253	32123.51
660.604	32097.74
660.955	31991.53
661.306	32091.19
661.656	31984.53
662.007	32018.88
662.358	32011.87
662.708	31936.39
663.059	31872.44
663.409	31721.71
663.76	31972.78
664.11	31897.3
664.461	31933.91
664.811	31862.5
665.161	31827.69
665.511	31709.28
665.862	31834.25
666.212	31886.9
666.562	31964.19
666.912	31751.31
667.262	31810.52
667.612	31853.68
667.962	31709.05
668.312	31681.71
668.662	31695.27
669.011	31822.5
669.361	31720.8
669.711	31708.6
670.06	31494.37
670.41	31484.88
670.76	31540.7
671.109	31615.27
671.459	31527.82
671.808	31474.26
672.157	31485.78
672.507	31088.73
672.856	31297.09
673.205	31413.24
673.554	31462.28
673.904	31166.47
674.253	31513.13
674.602	31214.6
674.951	30771.9
675.3	30790.66
675.649	31145.9
675.998	31171.44
676.346	31084.44
676.695	31298.44
677.044	31015.29
677.393	31073.59
677.741	31166.47
678.09	31025.46
678.438	30950.2
678.787	31073.14
679.135	30975.74
679.484	30812.58
679.832	30905.91
680.181	30779.36
680.529	30864.56
680.877	30782.98
681.225	30652.81
681.573	30923.76
681.922	30621.4
682.27	30576.65
682.618	30527.84
682.966	30459.37
683.314	30466.83
683.661	30563.55
684.009	30228.64
684.357	30264.12
684.705	30234.74
685.053	30178.02
685.4	30107.97
685.748	29987.06
686.095	29989.55
686.443	29899.84
686.79	29805.15
687.138	29953.62
687.485	29784.81
687.832	29732.16
688.18	29742.33
688.527	29477.47
688.874	29551.6
689.221	29442.22
689.568	29260.3
689.915	29184.83
690.262	29255.56
690.609	29221.44
690.956	29062.57
691.303	29091.95
691.65	28933.53
691.997	29040.2
692.344	28709.36
692.69	28780.99
693.037	28738.74
693.383	28471.85
693.73	28658.51
694.077	28442.7
694.423	28418.29
694.769	28297.17
695.116	28310.27
695.462	28228.47
695.808	28107.79
696.155	28064.18
696.501	27988.47
696.847	28003.16
697.193	27841.13
697.539	27828.93
697.885	27567.02
698.231	27729.27
698.577	27665.77
698.923	27566.56
699.269	27400.69
699.614	27220.58
699.96	27239.57
700.306	27207.02
700.651	27049.51
700.997	27083.19
701.342	26944.21
701.688	26891.78
702.033	26862.18
702.379	26809.3
702.724	26694.27
703.069	26758
703.415	26444.78
703.76	26498.34
704.105	26439.36
704.45	26456.76
704.795	26220.84
705.14	26184.45
705.485	26130.67
705.83	26038.24
706.175	26056.09
706.52	25914.63
706.865	25854.97
707.209	25832.37
707.554	25723.67
707.899	25817.23
708.243	25624.24
708.588	25617.24
708.932	25438.03
709.277	25331.14
709.621	25391.25
709.966	25341.76
710.31	25316.68
710.654	25045.27
710.998	25119.85
711.342	25118.04
711.687	25226.74
712.031	24975.67
712.375	24883.7
712.719	24904.94
713.063	24883.47
713.407	24967.76
713.75	24753.53
714.094	24676.24
714.438	24567.55
714.782	24745.39
715.125	24523.25
715.469	24469.92
715.812	24450.04
716.156	24433.31
716.499	24255.92
716.843	24326.65
717.186	24155.58
717.53	24286.2
717.873	24226.54
718.216	24187.44
718.559	24068.35
718.902	23947.9
719.246	24057.28
719.589	23789.94
719.932	23752.2
720.275	23817.96
720.617	23717.17
720.96	23712.65
721.303	23653.9
721.646	23591.3
721.989	23545.65
722.331	23608.7
722.674	23515.82
723.016	23493.9
723.359	23534.35
723.701	23502.04
724.044	23451.64
724.386	23159
724.729	23334.58
725.071	23207.81
725.413	23163.74
725.755	23178.2
726.097	23054.14
726.439	22973.46
726.782	22982.73
727.124	23087.59
727.465	22956.97
727.807	22903.41
728.149	22817.31
728.491	22678.33
728.833	22897.76
729.175	22641.72
729.516	22678.78
729.858	22691.21
730.199	22644.66
730.541	22611.89
730.882	22559.01
731.224	22622.29
731.565	22420.71
731.906	22433.82
732.248	22432.91
732.589	22360.6
732.93	22328.96
733.271	22288.06
733.612	22347.72
733.953	22380.26
734.294	22215.07
734.635	22155.63
734.976	22151.79
735.317	21977.78
735.658	22102.3
735.999	22046.93
736.339	22058.23
736.68	22101.17
737.021	21942.3
737.361	21812.59
737.702	21905.47
738.042	21839.71
738.383	21772.14
738.723	21908.18
739.063	21765.59
739.404	21805.81
739.744	21639.04
740.084	21709.09
740.424	21653.5
740.764	21588.19
741.104	21638.81
741.444	21486.5
741.784	21364.92
742.124	21406.73
742.464	21393.39
742.804	21356.56
743.143	21295.54
743.483	21347.52
743.823	21253.51
744.162	21239.72
744.502	21243.34
744.841	21115.89
745.181	21134.64
745.52	21094.42
745.86	21039.96
746.199	20995.44
746.538	21082.21
746.877	20929.68
747.216	21008.77
747.556	20900.52
747.895	20954.31
748.234	20821.2
748.573	20682.9
748.911	20805.39
749.25	20748.21
749.589	20614.66
749.928	20661.43
750.267	20611.04
750.605	20601.77
750.944	20552.74
751.283	20436.81
751.621	20522.91
751.96	20386.41
752.298	20480.42
752.636	20352.52
752.975	20245.85
753.313	20237.49
753.651	20213.08
753.989	20151.17
