Data from White_reflection_standard_FLMS001491_040.txt Node
Date: Tue Feb 07 10:32:03 GMT 2017
User: dcchb
Spectrometer: FLMS00149
Trigger mode: 0
Integration Time (sec): 2.000000E-2
Scans to average: 10
Electric dark correction enabled: true
Nonlinearity correction enabled: false
Boxcar width: 0
XAxis mode: Wavelengths
Number of Pixels in Spectrum: 2048
>>>>>Begin Spectral Data<<<<<
341.393	-18.67
341.776	-18.67
342.16	-18.67
342.543	-51.21
342.927	-54.83
343.31	-73.59
343.693	-66.81
344.077	-75.62
344.46	-60.25
344.843	-51.67
345.226	-19.58
345.61	-9.86
345.993	-29.52
346.376	6.19
346.759	7.32
347.142	20.65
347.525	34.66
347.908	42.34
348.291	86.86
348.674	83.7
349.057	105.17
349.44	113.08
349.823	147.65
350.206	186.52
350.588	230.14
350.971	290.02
351.354	258.16
351.737	271.72
352.119	299.29
352.502	317.14
352.884	342.22
353.267	312.84
353.65	356.01
354.032	344.03
354.414	348.32
354.797	360.98
355.179	396.23
355.562	363.69
355.944	384.93
356.326	385.16
356.709	399.17
357.091	394.2
357.473	405.27
357.855	421.99
358.238	409.11
358.62	414.76
359.002	417.02
359.384	419.73
359.766	399.62
360.148	401.2
360.53	415.89
360.912	392.39
361.294	388.55
361.676	400.3
362.057	401.66
362.439	406.63
362.821	396.01
363.203	393.07
363.584	406.4
363.966	413.86
364.348	417.93
364.729	417.25
365.111	395.55
365.493	432.16
365.874	438.94
366.256	434.42
366.637	430.13
367.019	418.38
367.4	410.24
367.781	393.75
368.163	408.21
368.544	415.22
368.925	412.73
369.306	434.65
369.688	412.5
370.069	428.55
370.45	419.96
370.831	452.73
371.212	455.21
371.593	426.06
371.974	444.37
372.355	456.12
372.736	443.69
373.117	443.69
373.498	438.49
373.879	463.8
374.26	478.04
374.641	443.24
375.021	436.68
375.402	460.64
375.783	493.63
376.163	524.36
376.544	521.2
376.925	498.83
377.305	495.66
377.686	491.37
378.066	485.72
378.447	512.39
378.827	497.25
379.208	535.89
379.588	524.14
379.968	493.18
380.349	499.96
380.729	518.72
381.109	515.1
381.489	541.99
381.87	541.77
382.25	544.25
382.63	547.19
383.01	561.43
383.39	556.68
383.77	567.75
384.15	567.3
384.53	565.72
384.91	558.49
385.29	607.53
385.67	599.39
386.049	617.7
386.429	624.02
386.809	606.4
387.189	643.91
387.568	614.98
387.948	659.73
388.328	645.27
388.707	666.73
389.087	674.19
389.466	670.8
389.846	673.74
390.225	690.91
390.605	687.52
390.984	687.07
391.363	706.96
391.743	723.68
392.122	722.78
392.501	720.29
392.881	734.3
393.26	740.86
393.639	756
394.018	751.7
394.397	767.75
394.776	790.12
395.155	771.14
395.534	791.7
395.913	795.32
396.292	800.74
396.671	823.34
397.05	853.4
397.429	844.58
397.808	858.82
398.186	865.6
398.565	847.75
398.944	879.84
399.323	901.76
399.701	881.42
400.08	901.08
400.458	905.15
400.837	924.35
401.215	931.59
401.594	928.65
401.972	959.83
402.351	974.97
402.729	954.64
403.107	962.32
403.486	998.25
403.864	992.38
404.242	991.25
404.62	1043.67
404.999	1034.86
405.377	1034.18
405.755	1041.64
406.133	1061.3
406.511	1087.29
406.889	1095.42
407.267	1106.95
407.645	1114.86
408.023	1161.18
408.401	1154.63
408.779	1167.96
409.156	1191.69
409.534	1220.84
409.912	1233.27
410.29	1236.21
410.667	1248.19
411.045	1283.67
411.422	1304.46
411.8	1307.17
412.178	1328.86
412.555	1354.85
412.933	1339.26
413.31	1363.89
413.687	1395.08
414.065	1407.51
414.442	1411.57
414.819	1465.81
415.197	1470.1
415.574	1468.29
415.951	1492.7
416.328	1490.67
416.705	1517.33
417.082	1497.45
417.46	1536.32
417.837	1578.8
418.214	1579.7
418.591	1604.56
418.967	1619.03
419.344	1652.02
419.721	1643.66
420.098	1645.24
420.475	1701.06
420.852	1678.23
421.228	1736.31
421.605	1723.88
421.982	1771.56
422.358	1787.38
422.735	1815.63
423.111	1819.7
423.488	1856.76
423.864	1856.31
424.241	1898.34
424.617	1892.01
424.994	1910.09
425.37	1963.87
425.746	1973.59
426.123	1975.4
426.499	2026.02
426.875	2063.53
427.251	2098.33
427.627	2114.61
428.003	2130.65
428.379	2167.03
428.756	2178.56
429.132	2221.5
429.507	2232.34
429.883	2284.77
430.259	2305.11
430.635	2322.06
431.011	2347.37
431.387	2437.53
431.763	2453.35
432.138	2438.21
432.514	2506.91
432.89	2506.01
433.265	2588.72
433.641	2573.8
434.016	2621.03
434.392	2635.5
434.767	2679.79
435.143	2758.2
435.518	2750.52
435.894	2811.54
436.269	2844.76
436.644	2886.11
437.02	2902.16
437.395	2908.71
437.77	2978.54
438.145	3006.79
438.52	3051.08
438.895	3044.07
439.271	3024.64
439.646	3170.85
440.021	3195.48
440.395	3163.62
440.77	3163.39
441.145	3200.9
441.52	3291.07
441.895	3230.96
442.27	3301.69
442.645	3294.01
443.019	3369.49
443.394	3359.54
443.769	3454.91
444.143	3406.55
444.518	3470.28
444.892	3484.06
445.267	3486.09
445.641	3515.92
446.016	3533.55
446.39	3602.25
446.764	3606.09
447.139	3590.27
447.513	3701.23
447.887	3657.62
448.262	3710.04
448.636	3728.8
449.01	3780.32
449.384	3814
449.758	3823.04
450.132	3908.68
450.506	3917.95
450.88	3941.68
451.254	3956.59
451.628	4043.59
452.002	4061.67
452.376	4075.23
452.75	4149.81
453.123	4173.99
453.497	4244.27
453.871	4221.22
454.244	4413.53
454.618	4404.26
454.992	4447.88
455.365	4429.35
455.739	4603.58
456.112	4623.92
456.486	4671.37
456.859	4729.23
457.232	4823.91
457.606	4816
457.979	4889
458.352	5020.29
458.725	5047.86
459.099	5068.43
459.472	5170.8
459.845	5233.17
460.218	5273.17
460.591	5321.98
460.964	5405.82
461.337	5484.23
461.71	5592.48
462.083	5628.19
462.456	5669.31
462.829	5728.97
463.201	5811.01
463.574	5850.1
463.947	5951.79
464.32	6083.09
464.692	6065.91
465.065	6123.09
465.438	6243.99
465.81	6334.61
466.183	6349.75
466.555	6551.32
466.928	6530.31
467.3	6635.62
467.672	6700.7
468.045	6860.24
468.417	6871.09
468.789	6889.4
469.161	7028.83
469.534	7136.85
469.906	7325.54
470.278	7351.08
470.65	7462.94
471.022	7646.21
471.394	7797.85
471.766	7814.34
472.138	7909.26
472.51	8102.24
472.882	8207.33
473.253	8262.69
473.625	8433.54
473.997	8652.96
474.369	8660.65
474.74	8829.91
475.112	8911.71
475.484	9082.78
475.855	9266.73
476.227	9382.21
476.598	9623.11
476.97	9703.33
477.341	9883.44
477.713	9973.38
478.084	10080.05
478.455	10459.24
478.827	10477.1
479.198	10820.14
479.569	10835.05
479.94	11155.05
480.311	11219.45
480.682	11496.28
481.053	11715.48
481.424	11934.01
481.795	12059.2
482.166	12239.99
482.537	12384.39
482.908	12709.58
483.279	12783.93
483.65	13056.69
484.021	13272.96
484.391	13307.98
484.762	13530.58
485.133	13694.87
485.503	13882.88
485.874	14207.39
486.244	14384.34
486.615	14695.52
486.985	14776.65
487.356	15118.33
487.726	15221.83
488.097	15503.18
488.467	15518.77
488.837	15958.76
489.207	16110.62
489.578	16279.66
489.948	16485.08
490.318	16668.12
490.688	16927.1
491.058	17024.04
491.428	17270.14
491.798	17449.57
492.168	17861.76
492.538	17821.54
492.908	18058.37
493.278	18309.21
493.648	18355.53
494.017	18598.47
494.387	18746.26
494.757	18993.26
495.126	19210.43
495.496	19161.84
495.866	19408.39
496.235	19564.77
496.605	19687.48
496.974	19904.65
497.344	20067.58
497.713	20203.4
498.082	20327.23
498.452	20557.74
498.821	20662.59
499.19	20828.01
499.559	21138.29
499.928	21108
500.298	21310.71
500.667	21495.79
501.036	21492.63
501.405	21779.63
501.774	21697.59
502.143	22059.39
502.512	22144.81
502.88	22312.04
503.249	22319.72
503.618	22570.34
503.987	22679.71
504.356	22861.18
504.724	23094.39
505.093	23131.91
505.462	23218.91
505.83	23387.94
506.199	23577.09
506.567	23899.12
506.936	23817.99
507.304	24105.44
507.672	24179.34
508.041	24488.93
508.409	24580
508.777	24874.68
509.145	25036.49
509.514	25058.41
509.882	25260.44
510.25	25414.78
510.618	25569.36
510.986	25545.18
511.354	25903.36
511.722	26054.99
512.09	26440.07
512.458	26427.19
512.826	26675.09
513.193	26875.76
513.561	26874.86
513.929	27041.63
514.297	27489.76
514.664	27641.62
515.032	27688.4
515.4	27975.17
515.767	28179.46
516.135	28308.04
516.502	28216.97
516.869	28742.38
517.237	28741.02
517.604	28830.06
517.972	29165.42
518.339	29222.14
518.706	29470.5
519.073	29633.43
519.44	30046.07
519.808	30251.49
520.175	30275.67
520.542	30684.25
520.909	30826.62
521.276	30981.64
521.643	31364.68
522.009	31550.22
522.376	31731.68
522.743	31843.77
523.11	32264.77
523.477	32571.66
523.843	32569.4
524.21	33083.73
524.577	33230.17
524.943	33478.53
525.31	33574.12
525.676	33871.28
526.043	34152.63
526.409	34420.42
526.776	34612.28
527.142	34850.24
527.508	34939.51
527.874	35259.04
528.241	35570.9
528.607	35578.13
528.973	36046.14
529.339	36083.88
529.705	36404.1
530.071	36783.98
530.437	36820.36
530.803	37081.37
531.169	37324.53
531.535	37214.93
531.901	37408.82
532.267	37560
532.632	37857.39
532.998	37951.18
533.364	38243.82
533.73	38222.36
534.095	38632.74
534.461	38819.85
534.826	38928.33
535.192	38887.2
535.557	39447.18
535.923	39335.77
536.288	39573.28
536.653	39763.78
537.019	39659.15
537.384	39824.35
537.749	40052.82
538.114	40357.44
538.479	40364.67
538.845	40545.46
539.21	40414.62
539.575	40688.96
539.94	40752.01
540.305	41195.16
540.67	41038.1
541.034	41320.35
541.399	41427.02
541.764	41705.2
542.129	41751.53
542.494	41819.1
542.858	42038.98
543.223	42107.68
543.587	42326.43
543.952	42377.28
544.316	42430.38
544.681	42483.49
545.045	42769.13
545.41	42902.91
545.774	43007.32
546.138	43199.17
546.503	43180.42
546.867	43304.03
547.231	43778.82
547.595	43646.85
547.959	43873.96
548.324	43876.67
548.688	44047.74
549.052	44319.37
549.416	44316.43
549.779	44521.17
550.143	44504
550.507	44935.85
550.871	44978.79
551.235	45001.16
551.599	45223.75
551.962	45427.14
552.326	45512.79
552.689	45867.81
553.053	45654.25
553.417	45746.68
553.78	46311.86
554.143	46126.33
554.507	46367.91
554.87	46467.56
555.234	46923.6
555.597	46757.95
555.96	46925.63
556.323	47153.65
556.686	47171.05
557.05	47456.01
557.413	47542.11
557.776	47717.7
558.139	47973.06
558.502	47999.73
558.865	48081.53
559.228	48403.56
559.59	48605.59
559.953	48625.92
560.316	49061.62
560.679	48972.58
561.041	49276.53
561.404	49417.54
561.767	49557.65
562.129	49592.91
562.492	49911.09
562.854	49955.38
563.217	49978.66
563.579	50184.3
563.941	50452.54
564.304	50531.41
564.666	50780.44
565.028	50839.43
565.39	51008.01
565.753	51121
566.115	51288.91
566.477	51475.34
566.839	51594.43
567.201	51678.27
567.563	51756.01
567.925	51945.84
568.287	52039.62
568.648	52097.47
569.01	52314.19
569.372	52397.8
569.734	52375.66
570.095	52638.02
570.457	52686.38
570.819	52850.45
571.18	52794.63
571.542	52940.16
571.903	53095.86
572.265	53189.42
572.626	53274.84
572.987	53269.87
573.349	53367.72
573.71	53473.93
574.071	53572.46
574.432	53701.05
574.794	53864.88
575.155	53838.67
575.516	53823.98
575.877	53957.08
576.238	53949.85
576.599	54109.85
576.96	54136.74
577.32	54166.8
577.681	54272.1
578.042	54293.35
578.403	54260.8
578.763	54332.67
579.124	54411.76
579.485	54496.73
579.845	54595.03
580.206	54489.5
580.566	54537.41
580.927	54644.3
581.287	54728.59
581.648	54579.44
582.008	54689.27
582.368	54684.75
582.728	54740.57
583.089	54713.9
583.449	54744.18
583.809	54707.57
584.169	54771.3
584.529	54721.36
584.889	54958.19
585.249	54754.58
585.609	54713.45
585.969	54851.07
586.329	54739.21
586.688	54837.74
587.048	54852.65
587.408	54751.87
587.768	54770.17
588.127	54749.15
588.487	54698.99
588.846	54994.57
589.206	54746.44
589.565	54829.6
589.925	54902.6
590.284	54821.92
590.643	54890.39
591.003	54942.82
591.362	55006.55
591.721	54962.48
592.08	54936.72
592.44	54976.27
592.799	55022.82
593.158	54924.52
593.517	54994.34
593.876	55003.61
594.235	55028.92
594.593	55030.28
594.952	55014.23
595.311	54993.67
595.67	55045.42
596.029	55142.36
596.387	55170.84
596.746	55203.15
597.104	55130.16
597.463	55067.34
597.822	55223.49
598.18	55062.82
598.538	55040.9
598.897	55308.69
599.255	55063.95
599.613	55447.67
599.972	55219.42
600.33	55351.17
600.688	55198.63
601.046	55352.08
601.404	55405.86
601.762	55345.07
602.12	55516.59
602.478	55465.74
602.836	55527.21
603.194	55377.39
603.552	55432.3
603.91	55373.09
604.268	55508.91
604.625	55456.03
604.983	55576.25
605.341	55449.7
605.698	55661.22
606.056	55692.86
606.413	55619.41
606.771	55777.15
607.128	55772.63
607.485	55602.92
607.843	55604.05
608.2	55795.68
608.557	55909.8
608.914	55818.28
609.272	55902.12
609.629	55971.72
609.986	56041.32
610.343	55910.03
610.7	56067.54
611.057	56072.96
611.414	56049.91
611.771	56030.02
612.127	56158.83
612.484	56220.08
612.841	56189.79
613.198	56175.1
613.554	56172.85
613.911	56245.61
614.267	56331.26
614.624	56280.64
614.98	56234.99
615.337	56414.42
615.693	56414.19
616.05	56340.52
616.406	56399.28
616.762	56397.02
617.118	56401.77
617.475	56437.24
617.831	56458.71
618.187	56470.92
618.543	56532.61
618.899	56613.06
619.255	56676.56
619.611	56519.05
619.967	56587.75
620.323	56592.95
620.678	56572.61
621.034	56531.25
621.39	56456.45
621.746	56474.08
622.101	56767.41
622.457	56551.37
622.812	56569.44
623.168	56693.06
623.523	56623.23
623.879	56773.28
624.234	56540.07
624.589	56651.48
624.945	56654.41
625.3	56677.24
625.655	56653.51
626.01	56642.44
626.365	56644.25
626.72	56621.42
627.075	56570.57
627.43	56590.91
627.785	56494.19
628.14	56628.88
628.495	56558.6
628.85	56538.03
629.205	56438.6
629.559	56587.75
629.914	56472.72
630.269	56465.72
630.623	56422.78
630.978	56397.25
631.332	56468.88
631.687	56501.42
632.041	56329.9
632.396	56395.89
632.75	56330.58
633.104	56389.56
633.459	56162.22
633.813	56161.77
634.167	56231.6
634.521	56135.33
634.875	56185.95
635.229	56103.69
635.583	55976.92
635.937	55995.22
636.291	55957.03
636.645	55914.32
636.999	55879.97
637.352	55924.04
637.706	55735.12
638.06	55968.1
638.413	55856.92
638.767	55733.53
639.121	55832.52
639.474	55617.83
639.828	55644.95
640.181	55647.89
640.534	55668.9
640.888	55567.66
641.241	55487.67
641.594	55486.99
641.947	55574.22
642.301	55429.14
642.654	55455.35
643.007	55453.77
643.36	55361.79
643.713	55277.95
644.066	55387.1
644.419	55152.98
644.771	54974.23
645.124	54714.8
645.477	54641.81
645.83	54597.29
646.182	54377.86
646.535	54304.19
646.888	54367.69
647.24	54242.5
647.593	54359.56
647.945	54256.74
648.298	54153.01
648.65	54065.33
649.002	53919.12
649.355	54080.02
649.707	53992.79
650.059	54212.44
650.411	54481.14
650.763	54518.88
651.115	54829.6
651.467	54610.17
651.819	54609.27
652.171	54565.66
652.523	54482.04
652.875	54508.93
653.227	54310.75
653.578	54571.53
653.93	54507.13
654.282	54339.22
654.633	54302.16
654.985	54286.57
655.337	54383.29
655.688	54295.61
656.039	54370.41
656.391	54003.86
656.742	54109.17
657.094	54155.5
657.445	54295.15
657.796	54096.06
658.147	54044.31
658.498	54055.39
658.849	54068.72
659.2	53992.79
659.551	53948.27
659.902	54148.49
660.253	53909.18
660.604	54056.29
660.955	53908.95
661.306	54006.57
661.656	53959.12
662.007	53919.34
662.358	53886.35
662.708	53860.14
663.059	53885.22
663.409	53639.8
663.76	53892.9
664.11	53828.73
664.461	53818.33
664.811	53781.27
665.161	53807.94
665.511	53670.76
665.862	53646.81
666.212	53737.88
666.562	53774.49
666.912	53677.54
667.262	53663.98
667.612	53600.48
667.962	53566.81
668.312	53643.19
668.662	53701.95
669.011	53565.68
669.361	53609.3
669.711	53494.05
670.06	53499.92
670.41	53293.37
670.76	53361.39
671.109	53426.93
671.459	53380.38
671.808	53400.49
672.157	53373.37
672.507	53146.03
672.856	53212.02
673.205	53194.17
673.554	53388.51
673.904	53245.46
674.253	53359.59
674.602	53252.7
674.951	52712.82
675.3	52685.93
675.649	53132.47
675.998	53018.58
676.346	53071.68
676.695	53165.24
677.044	52895.19
677.393	52988.75
677.741	52953.72
678.09	52976.54
678.438	52825.81
678.787	52936.55
679.135	52868.75
679.484	52598.93
679.832	52724.57
680.181	52636.89
680.529	52664.69
680.877	52559.61
681.225	52557.35
681.573	52722.54
681.922	52461.76
682.27	52436.67
682.618	52405.49
682.966	52279.84
683.314	52454.52
683.661	52226.06
684.009	52060.64
684.357	52000.53
684.705	51943.35
685.053	52050.69
685.4	51938.38
685.748	51730.02
686.095	51718.05
686.443	51620.2
686.79	51608.67
687.138	51577.26
687.485	51622.91
687.832	51451.16
688.18	51439.18
688.527	51273.54
688.874	51265.4
689.221	51137.05
689.568	51103.83
689.915	50867.67
690.262	50920.78
690.609	50880.1
690.956	50776.6
691.303	50759.65
691.65	50464.97
691.997	50531.64
692.344	50325.54
692.69	50199.22
693.037	50239.67
693.383	49986.34
693.73	50155.38
694.077	49910.86
694.423	49912.9
694.769	49790.87
695.116	49615.28
695.462	49510.65
695.808	49569.4
696.155	49583.64
696.501	49249.64
696.847	49294.16
697.193	49105.69
697.539	49035.86
697.885	48794.73
698.231	48691.46
698.577	48755.86
698.923	48609.43
699.269	48462.99
699.614	48252.6
699.96	48214.86
700.306	48192.94
700.651	47944.81
700.997	47973.96
701.342	47922.21
701.688	47725.84
702.033	47667.08
702.379	47687.87
702.724	47558.83
703.069	47496.01
703.415	47104.16
703.76	47070.71
704.105	47159.97
704.45	47039.98
704.795	46764.96
705.14	46564.96
705.485	46785.07
705.83	46492.87
706.175	46486.09
706.52	46442.03
706.865	46106.9
707.209	46061.7
707.554	45957.97
707.899	46222.6
708.243	45882.04
708.588	45760.01
708.932	45510.53
709.277	45480.02
709.621	45616.29
709.966	45235.51
710.31	45251.32
710.654	45027.6
710.998	45059.24
711.342	45024.66
711.687	44982.4
712.031	44770.21
712.375	44531.34
712.719	44654.73
713.063	44555.52
713.407	44654.96
713.75	44452.7
714.094	44392.36
714.438	44208.41
714.782	44234.18
715.125	43897.91
715.469	44089.55
715.812	43872.38
716.156	43602.33
716.499	43701.53
716.843	43706.51
717.186	43407.08
717.53	43454.31
717.873	43641.2
718.216	43426.29
718.559	43159.85
718.902	43030.37
719.246	43179.29
719.589	42919.63
719.932	42870.82
720.275	42819.52
720.617	42698.4
720.96	42682.35
721.303	42684.84
721.646	42556.48
721.989	42293.44
722.331	42579.76
722.674	42296.15
723.016	42352.19
723.359	42219.54
723.701	42175.47
724.044	42054.57
724.386	41837.4
724.729	42058.41
725.071	41931.86
725.413	41655.49
725.755	41733.68
726.097	41495.49
726.439	41437.64
726.782	41355.83
727.124	41529.84
727.465	41310.86
727.807	41296.85
728.149	41147.93
728.491	41036.52
728.833	41193.35
729.175	40972.79
729.516	40921.49
729.858	40838.33
730.199	40812.34
730.541	40645.57
730.882	40671.78
731.224	40697.55
731.565	40531.45
731.906	40533.26
732.248	40467.04
732.589	40330.32
732.93	40249.42
733.271	40308.18
733.612	40213.26
733.953	40206.26
734.294	40025.92
734.635	39980.73
734.976	40130.1
735.317	39792.94
735.658	39828.87
735.999	39698.7
736.339	39644.01
736.68	39647.86
737.021	39587.29
737.361	39461.65
737.702	39672.04
738.042	39442.66
738.383	39304.36
738.723	39375.55
739.063	39208.55
739.404	39245.15
739.744	39058.27
740.084	39071.37
740.424	38986.4
740.764	38789.12
741.104	38969.23
741.444	38632.74
741.784	38608.34
742.124	38739.41
742.464	38687.43
742.804	38529.24
743.143	38517.72
743.483	38368.34
743.823	38080.89
744.162	38174
744.502	38351.17
744.841	38083.15
745.181	38105.75
745.52	38053.55
745.86	37992.98
746.199	37945.08
746.538	37977.62
746.877	37883.16
747.216	37880.9
747.556	37760.45
747.895	37643.39
748.234	37518.19
748.573	37562.71
748.911	37411.53
749.25	37431.64
749.589	37274.13
749.928	37176.73
750.267	37359.33
750.605	37118.2
750.944	36983.75
751.283	36972.45
751.621	36912.11
751.96	36722.96
752.298	36612.68
