Data from White_paper_FLMS001491_022.txt Node
Date: Tue Feb 07 10:34:51 GMT 2017
User: dcchb
Spectrometer: FLMS00149
Trigger mode: 0
Integration Time (sec): 2.000000E-2
Scans to average: 10
Electric dark correction enabled: true
Nonlinearity correction enabled: false
Boxcar width: 0
XAxis mode: Wavelengths
Number of Pixels in Spectrum: 2048
>>>>>Begin Spectral Data<<<<<
341.393	-24.31
341.776	-24.31
342.16	-24.31
342.543	-44.19
342.927	-52.33
343.31	-90.29
343.693	-64.98
344.077	-74.93
344.46	-63.18
344.843	-68.37
345.226	-42.84
345.61	-21.37
345.993	-21.14
346.376	-1.03
346.759	-12.1
347.142	26.31
347.525	56.14
347.908	76.26
348.291	77.84
348.674	95.69
349.057	128.01
349.44	111.73
349.823	136.14
350.206	182.92
350.588	225.4
350.971	231.51
351.354	243.48
351.737	246.19
352.119	290.26
352.502	298.4
352.884	309.7
353.267	306.76
353.65	311.05
354.032	337.04
354.414	345.63
354.797	347.89
355.179	339.3
355.562	361.67
355.944	352.86
356.326	364.61
356.709	356.7
357.091	355.57
357.473	364.16
357.855	374.33
358.238	390.37
358.62	375.46
359.002	367.77
359.384	376.59
359.766	361.67
360.148	358.51
360.53	363.48
360.912	373.65
361.294	371.39
361.676	366.42
362.057	364.38
362.439	377.26
362.821	379.3
363.203	359.19
363.584	352.63
363.966	350.15
364.348	361.67
364.729	362.12
365.111	366.19
365.493	363.48
365.874	359.86
366.256	362.58
366.637	363.93
367.019	361.67
367.4	375.46
367.781	351.05
368.163	349.69
368.544	360.99
368.925	347.21
369.306	383.14
369.688	367.77
370.069	357.83
370.45	373.2
370.831	352.18
371.212	360.99
371.593	353.76
371.974	370.94
372.355	362.35
372.736	376.36
373.117	373.87
373.498	363.71
373.879	358.06
374.26	356.7
374.641	366.19
375.021	354.89
375.402	368
375.783	382.24
376.163	393.08
376.544	390.37
376.925	369.81
377.305	403.93
377.686	403.25
378.066	391.05
378.447	400.31
378.827	403.25
379.208	377.26
379.588	395.57
379.968	398.28
380.349	418.84
380.729	404.61
381.109	405.06
381.489	409.35
381.87	414.1
382.25	417.04
382.63	428.11
383.01	413.42
383.39	435.34
383.77	428.11
384.15	420.2
384.53	446.41
384.91	438.28
385.29	453.19
385.67	467.88
386.049	440.09
386.429	440.77
386.809	453.42
387.189	464.27
387.568	467.66
387.948	478.05
388.328	485.51
388.707	464.72
389.087	482.8
389.466	475.57
389.846	486.41
390.225	479.63
390.605	498.84
390.984	503.36
391.363	515.57
391.743	491.16
392.122	504.04
392.501	515.79
392.881	535.45
393.26	520.09
393.639	547.88
394.018	547.66
394.397	535.68
394.776	537.71
395.155	552.85
395.534	562.12
395.913	575.68
396.292	569.35
396.671	582.23
397.05	580.2
397.429	602.79
397.808	612.51
398.186	601.21
398.565	607.99
398.944	596.92
399.323	617.71
399.701	614.55
400.08	646.41
400.458	645.73
400.837	640.76
401.215	653.19
401.594	657.03
401.972	676.24
402.351	650.03
402.729	685.96
403.107	712.62
403.486	726.63
403.864	738.84
404.242	726.86
404.62	735.22
404.999	752.4
405.377	785.16
405.755	775.22
406.133	794.65
406.511	814.31
406.889	802.11
407.267	823.35
407.645	862.22
408.023	879.85
408.401	903.35
408.779	908.55
409.156	946.51
409.534	962.33
409.912	960.53
410.29	1008.66
410.667	1032.84
411.045	1059.51
411.422	1099.5
411.8	1073.74
412.178	1122.33
412.555	1180.86
412.933	1175.66
413.31	1241.65
413.687	1233.06
414.065	1275.32
414.442	1282.1
414.819	1317.35
415.197	1331.36
415.574	1386.96
415.951	1395.32
416.328	1397.58
416.705	1435.09
417.082	1475.99
417.46	1513.05
417.837	1532.49
418.214	1565.26
418.591	1590.79
418.967	1605.93
419.344	1639.83
419.721	1691.35
420.098	1666.27
420.475	1695.87
420.852	1780.39
421.228	1776.55
421.605	1789.43
421.982	1848.86
422.358	1824.46
422.735	1867.85
423.111	1877.34
423.488	1925.92
423.864	1927.73
424.241	1983.55
424.617	1993.04
424.994	2026.49
425.37	2022.42
425.746	2031.91
426.123	2087.5
426.499	2113.72
426.875	2134.73
427.251	2180.15
427.627	2200.27
428.003	2256.99
428.379	2267.38
428.756	2322.3
429.132	2349.87
429.507	2387.83
429.883	2400.04
430.259	2464.44
430.635	2477.77
431.011	2505.57
431.387	2561.84
431.763	2598.67
432.138	2624.89
432.514	2672.57
432.89	2723.42
433.265	2779.91
433.641	2773.36
434.016	2796.86
434.392	2856.97
434.767	2947.37
435.143	2915.5
435.518	2992.56
435.894	2968.83
436.269	3069.17
436.644	3099.68
437.02	3125.89
437.395	3133.35
437.77	3218.32
438.145	3274.59
438.52	3297.41
438.895	3316.17
439.271	3345.77
439.646	3412.21
440.021	3409.05
440.395	3433.68
440.77	3426.9
441.145	3483.85
441.52	3510.52
441.895	3536.28
442.27	3575.37
442.645	3534.24
443.019	3626.22
443.394	3641.36
443.769	3691.3
444.143	3657.18
444.518	3751.86
444.892	3730.17
445.267	3750.73
445.641	3823.28
446.016	3818.08
446.39	3849.49
446.764	3854.01
447.139	3843.84
447.513	3904.4
447.887	3926.78
448.262	3946.89
448.636	3969.49
449.01	4021.46
449.384	4089.71
449.758	4028.92
450.132	4136.04
450.506	4131.29
450.88	4138.52
451.254	4146.88
451.628	4221.91
452.002	4281.34
452.376	4296.26
452.75	4323.83
453.123	4353.88
453.497	4444.28
453.871	4466.87
454.244	4577.38
454.618	4582.35
454.992	4649.02
455.365	4670.71
455.739	4814.21
456.112	4813.53
456.486	4853.76
456.859	4902.57
457.232	5040.19
457.606	4957.71
457.979	5040.64
458.352	5123.81
458.725	5215.78
459.099	5266.18
459.472	5354.08
459.845	5429.79
460.218	5421.43
460.591	5474.53
460.964	5488.54
461.337	5653.06
461.71	5779.16
462.083	5819.83
462.456	5884.01
462.829	5862.32
463.201	5964.24
463.574	6016.89
463.947	6112.93
464.32	6257.56
464.692	6292.36
465.065	6287.62
465.438	6395.18
465.81	6483.09
466.183	6536.65
466.555	6683.76
466.928	6724.44
467.3	6706.82
467.672	6933.48
468.045	7009.41
468.417	7051.44
468.789	7147.71
469.161	7207.59
469.534	7372.33
469.906	7533.01
470.278	7533.91
470.65	7659.11
471.022	7820.46
471.394	7930.06
471.766	7986.78
472.138	8123.05
472.51	8271.52
472.882	8424.51
473.253	8416.37
473.625	8634.22
473.997	8768.23
474.369	8772.75
474.74	8951.95
475.112	9119.41
475.484	9258.39
475.855	9411.6
476.227	9486.18
476.598	9753.74
476.97	9777.02
477.341	10059.27
477.713	10136.33
478.084	10212.94
478.455	10552.14
478.827	10594.85
479.198	10927.72
479.569	10942.41
479.94	11160.48
480.311	11415.17
480.682	11472.11
481.053	11791.65
481.424	12035.94
481.795	12099.44
482.166	12300.11
482.537	12398.64
482.908	12730.16
483.279	12859.87
483.65	13101
484.021	13302.8
484.391	13451.27
484.762	13569.46
485.133	13664.15
485.503	13982.56
485.874	14230.46
486.244	14302.32
486.615	14573.05
486.985	14705.93
487.356	15044
487.726	15138.01
488.097	15464.33
488.467	15516.3
488.837	15771.89
489.207	15992.22
489.578	16141.82
489.948	16287.58
490.318	16589.49
490.688	16644.41
491.058	16932.31
491.428	17142.92
491.798	17277.38
492.168	17653.42
492.538	17741.33
492.908	17824.04
493.278	18166.17
493.648	18142.22
494.017	18304.93
494.387	18513.96
494.757	18776.33
495.126	18865.14
495.496	18778.81
495.866	19076.66
496.235	19274.17
496.605	19427.38
496.974	19629.64
497.344	19769.52
497.713	19816.98
498.082	19915.96
498.452	20202.28
498.821	20316.4
499.19	20334.25
499.559	20533.12
499.928	20670.06
500.298	20731.98
500.667	20944.63
501.036	20931.3
501.405	21213.33
501.774	21161.58
502.143	21390.72
502.512	21564.5
502.88	21762.24
503.249	21733.09
503.618	21867.09
503.987	22074.77
504.356	22222.79
504.724	22326.29
505.093	22479.28
505.462	22493.52
505.83	22673.85
506.199	22958.82
506.567	23171.24
506.936	23102.32
507.304	23513.38
507.672	23529.88
508.041	23596.09
508.409	23869.3
508.777	23986.13
509.145	24097.54
509.514	24133.7
509.882	24364.2
510.25	24446.24
510.618	24580.24
510.986	24702.73
511.354	24903.17
511.722	25154.01
512.09	25246.67
512.458	25296.83
512.826	25577.28
513.193	25739.99
513.561	25612.98
513.929	25982.24
514.297	26205.96
514.664	26359.41
515.032	26522.34
515.4	26822.44
515.767	26860.18
516.135	26963.68
516.502	26823.12
516.869	27414.75
517.237	27593.27
517.604	27368.42
517.972	27690.44
518.339	27871.68
518.706	27937.9
519.073	28112.81
519.44	28305.34
519.808	28690.19
520.175	28589.86
520.542	29017.64
520.909	29161.59
521.276	29246.11
521.643	29483.84
522.009	29759.77
522.376	29796.38
522.743	30113.88
523.11	30231.62
523.477	30633.42
523.843	30847.65
524.21	31122.67
524.577	31341.42
524.943	31418.93
525.31	31704.12
525.676	31950.67
526.043	31982.99
526.409	32093.27
526.776	32552.46
527.142	32653.03
527.508	32824.77
527.874	33041.26
528.241	33211.65
528.607	33367.36
528.973	33757.4
529.339	33715.37
529.705	34111.07
530.071	34218.18
530.437	34395.8
530.803	34642.8
531.169	34843.48
531.535	34821.78
531.901	35050.25
532.267	35142.9
532.632	35378.38
532.998	35495.66
533.364	35734.98
533.73	35765.03
534.095	36114.4
534.461	36204.8
534.826	36314.4
535.192	36488.4
535.557	36727.95
535.923	36819.7
536.288	36973.59
536.653	37031.67
537.019	37119.35
537.384	37306.46
537.749	37468.27
538.114	37536.51
538.479	37631.88
538.845	37850.63
539.21	37894.92
539.575	38079.78
539.94	38175.14
540.305	38402.48
540.67	38250.62
541.034	38437.28
541.399	38650.83
541.764	38786.2
542.129	38995.23
542.494	39013.08
542.858	39249.01
543.223	39433.86
543.587	39472.73
543.952	39484.26
544.316	39863.68
544.681	39723.8
545.045	39967.41
545.41	40074.3
545.774	40121.53
546.138	40288.76
546.503	40413.5
546.867	40420.73
547.231	41004.67
547.595	40835.18
547.959	41116.76
548.324	41091.9
548.688	41198.56
549.052	41333.25
549.416	41322.63
549.779	41586.8
550.143	41585.67
550.507	41875.38
550.871	42134.13
551.235	42158.76
551.599	42318.08
551.962	42361.7
552.326	42634.46
552.689	42709.26
553.053	42637.17
553.417	42742.48
553.78	43320.54
554.143	43100.89
554.507	43432.4
554.87	43347.21
555.234	43849.79
555.597	43633.75
555.96	43950.58
556.323	44063.57
556.686	44026.06
557.05	44388.54
557.413	44508.53
557.776	44455.43
558.139	44734.97
558.502	44906.04
558.865	45022.64
559.228	45171.34
559.59	45382.18
559.953	45459.47
560.316	45865.79
560.679	45778.1
561.041	46105.78
561.404	46277.75
561.767	46467.8
562.129	46415.6
562.492	46730.85
562.854	46717.06
563.217	46917.28
563.579	47173.32
563.941	47238.18
564.304	47277.5
564.666	47668.9
565.028	47733.08
565.39	47858.05
565.753	47997.93
566.115	48243.58
566.477	48367.41
566.839	48519.05
567.201	48682.43
567.563	48732.15
567.925	49005.59
568.287	49003.33
568.648	49048.3
569.01	49454.17
569.372	49576.87
569.734	49432.02
570.095	49704.78
570.457	49943.87
570.819	49903.65
571.18	50100.48
571.542	50208.5
571.903	50281.71
572.265	50530.75
572.626	50474.48
572.987	50525.78
573.349	50606
573.71	50857.52
574.071	50971.19
574.432	51031.98
574.794	51290.05
575.155	51298.19
575.516	51166.21
575.877	51429.03
576.238	51370.05
576.599	51592.64
576.96	51627.89
577.32	51705.86
577.681	51881.22
578.042	51907.66
578.403	51888
578.763	51971.84
579.124	52046.87
579.485	52176.13
579.845	52231.72
580.206	52175.9
580.566	52215.45
580.927	52291.61
581.287	52373.19
581.648	52372.73
582.008	52509.23
582.368	52464.03
582.728	52548.77
583.089	52440.08
583.449	52500.41
583.809	52685.95
584.169	52682.56
584.529	52561.65
584.889	52901.31
585.249	52596.68
585.609	52592.39
585.969	52791.93
586.329	52804.59
586.688	52770.46
587.048	52782.44
587.408	52794.42
587.768	52894.53
588.127	52840.97
588.487	52796
588.846	52997.8
589.206	52820.63
589.565	52908.54
589.925	53001.87
590.284	52994.86
590.643	53058.36
591.003	53075.77
591.362	53212.49
591.721	53063.79
592.08	53055.2
592.44	53171.36
592.799	53209.77
593.158	53163.9
593.517	53110.11
593.876	53336.1
594.235	53141.75
594.593	53247.51
594.952	53305.36
595.311	53146.05
595.67	53296.1
596.029	53463.33
596.387	53497.22
596.746	53579.93
597.104	53373.16
597.463	53412.03
597.822	53575.19
598.18	53417.23
598.538	53475.98
598.897	53580.38
599.255	53433.5
599.613	53702.19
599.972	53662.64
600.33	53738.8
600.688	53627.62
601.046	53661.74
601.404	53809.53
601.762	53683.43
602.12	53916.42
602.478	53871.22
602.836	53789.87
603.194	53814.96
603.552	53763.88
603.91	53795.97
604.268	53933.6
604.625	53819.7
604.983	53950.54
605.341	53827.61
605.698	53952.8
606.056	53979.47
606.413	54040.94
606.771	54033.25
607.128	54117.09
607.485	54067.15
607.843	54054.72
608.2	54237.99
608.557	54216.53
608.914	54203.87
609.272	54346.92
609.629	54338.33
609.986	54452.68
610.343	54354.6
610.7	54456.29
611.057	54389.86
611.414	54439.12
611.771	54471.21
612.127	54567.48
612.484	54588.72
612.841	54649.06
613.198	54524.09
613.554	54578.78
613.911	54670.75
614.267	54703.29
614.624	54675.27
614.98	54680.47
615.337	54812.22
615.693	54837.75
616.05	54727.02
616.406	54885.66
616.762	54776.06
617.118	54728.15
617.475	54863.06
617.831	54871.2
618.187	54894.02
618.543	54947.81
618.899	55070.74
619.255	54965.89
619.611	54934.25
619.967	55106.45
620.323	55077.07
620.678	55016.73
621.034	54920.69
621.39	55024.64
621.746	54964.08
622.101	55188.48
622.457	54980.57
622.812	55174.92
623.168	55148.48
623.523	55219.21
623.879	55261.47
624.234	54988.26
624.589	55130.63
624.945	55176.28
625.3	55193.22
625.655	55168.14
626.01	55166.56
626.365	55255.82
626.72	55157.74
627.075	55158.87
627.43	55121.36
627.785	55007.47
628.14	55133.56
628.495	55180.34
628.85	55201.36
629.205	55082.04
629.559	55280.23
629.914	55122.94
630.269	55004.98
630.623	55014.02
630.978	55001.36
631.332	55136.28
631.687	55136.5
632.041	55093.11
632.396	55151.19
632.75	54993.23
633.104	55034.81
633.459	54905.77
633.813	54978.31
634.167	54962.5
634.521	54906.68
634.875	54964.98
635.229	54938.54
635.583	54817.41
635.937	54845.21
636.291	54813.8
636.645	54832.1
636.999	54792.33
637.352	54869.16
637.706	54662.84
638.06	54796.17
638.413	54790.97
638.767	54678.44
639.121	54771.31
639.474	54613.8
639.828	54655.38
640.181	54611.09
640.534	54694.25
640.888	54587.59
641.241	54466.01
641.594	54541.49
641.947	54598.89
642.301	54511.21
642.654	54572.45
643.007	54589.4
643.36	54537.65
643.713	54445.67
644.066	54580.36
644.419	54418.78
644.771	54191.67
645.124	53916.65
645.477	53879.59
645.83	53705.58
646.182	53659.7
646.535	53584
646.888	53593.72
647.24	53506.04
647.593	53647.5
647.945	53565.47
648.298	53434.63
648.65	53418.81
649.002	53340.62
649.355	53461.74
649.707	53438.69
650.059	53563.89
650.411	53919.81
650.763	53978.79
651.115	54192.35
651.467	54092.01
651.819	54142.86
652.171	53939.47
652.523	54051.56
652.875	54074.38
653.227	53848.63
653.578	54106.02
653.93	54016.08
654.282	53916.42
654.633	53833.03
654.985	53834.16
655.337	53883.2
655.688	53871.9
656.039	53986.93
656.391	53818.8
656.742	53756.65
657.094	53770.44
657.445	53868.96
657.796	53781.74
658.147	53766.14
658.498	53733.38
658.849	53805.46
659.2	53774.96
659.551	53721.62
659.902	53769.31
660.253	53740.38
660.604	53781.06
660.955	53634.39
661.306	53773.83
661.656	53656.54
662.007	53689.53
662.358	53671.91
662.708	53649.99
663.059	53643.21
663.409	53441.86
663.76	53642.08
664.11	53643.66
664.461	53727.5
664.811	53676.88
665.161	53622.64
665.511	53541.06
665.862	53545.58
666.212	53661.06
666.562	53639.14
666.912	53513.04
667.262	53511.91
667.612	53544
667.962	53524.34
668.312	53417.23
668.662	53626.03
669.011	53459.48
669.361	53381.97
669.711	53417.45
670.06	53386.94
670.41	53301.07
670.76	53226.5
671.109	53299.04
671.459	53309.66
671.808	53131.36
672.157	53371.8
672.507	53051.36
672.856	53079.16
673.205	53103.11
673.554	53133.39
673.904	53100.17
674.253	53205.48
674.602	53092.04
674.951	52628.32
675.3	52515.55
675.649	52949.22
675.998	52983.79
676.346	53037.12
676.695	52968.88
677.044	52736.79
677.393	52875.32
677.741	52926.84
678.09	52798.26
678.438	52767.3
678.787	52746.96
679.135	52794.64
679.484	52505.16
679.832	52663.12
680.181	52414.77
680.529	52499.28
680.877	52504.71
681.225	52436.01
681.573	52532.28
681.922	52319.85
682.27	52231.72
682.618	52245.05
682.966	52187.43
683.314	52180.87
683.661	52174.77
684.009	51962.57
684.357	51852.52
684.705	51814.56
685.053	51826.08
685.4	51796.7
685.748	51598.29
686.095	51615.01
686.443	51554.45
686.79	51396.26
687.138	51355.58
687.485	51406.43
687.832	51267.23
688.18	51323.5
688.527	51066.1
688.874	51095.25
689.221	50912.66
689.568	50869.27
689.915	50755.37
690.262	50851.87
690.609	50606.68
690.956	50546.34
691.303	50499.34
691.65	50329.4
691.997	50321.71
692.344	50049.86
692.69	50104.09
693.037	50012.57
693.383	49882.86
693.73	49928.28
694.077	49760.15
694.423	49715.4
694.769	49598.79
695.116	49388.4
695.462	49364.9
695.808	49293.27
696.155	49360.16
696.501	49109.99
696.847	49086.27
697.193	48863.67
697.539	48924.46
697.885	48668.88
698.231	48577.35
698.577	48571.25
698.923	48473.85
699.269	48259.85
699.614	48088.33
699.96	48061.89
700.306	47983.7
700.651	47892.62
700.997	47810.59
701.342	47842
701.688	47741.89
702.033	47443.15
702.379	47522.92
702.724	47345.97
703.069	47445.86
703.415	47041.57
703.76	46961.8
704.105	47012.65
704.45	46893.33
704.795	46744.86
705.14	46568.14
705.485	46542.38
705.83	46361.14
706.175	46468.26
706.52	46433
706.865	46158.66
707.209	46160.02
707.554	46026.69
707.899	46117.3
708.243	45706.92
708.588	45756.64
708.932	45498.79
709.277	45551.22
709.621	45542.4
709.966	45129.76
710.31	45346.7
710.654	44956.2
710.998	44963.89
711.342	45207.05
711.687	45015.64
712.031	44720.73
712.375	44640.28
712.719	44837.11
713.063	44583.56
713.407	44808.41
713.75	44527.29
714.094	44397.12
714.438	44290.01
714.782	44293.17
715.125	44197.81
715.469	44193.97
715.812	43934.54
716.156	43737.03
716.499	43810.7
716.843	43702.23
717.186	43586.75
717.53	43784.03
717.873	43662.91
718.216	43512.18
718.559	43334.1
718.902	43195.8
719.246	43392.18
719.589	43120.77
719.932	42966.65
720.275	43017.72
720.617	42898.18
720.96	42835.58
721.303	42902.7
721.646	42798.75
721.989	42529.15
722.331	42829.71
722.674	42514.69
723.016	42496.38
723.359	42468.81
723.701	42508.13
724.044	42218.65
724.386	42108.82
724.729	42337.29
725.071	42300
725.413	42094.36
725.755	42037.86
726.097	41989.28
726.439	41714.48
726.782	41777.76
727.124	41980.92
727.465	41716.97
727.807	41749.28
728.149	41476.75
728.491	41428.61
728.833	41469.06
729.175	41253.7
729.516	41338.67
729.858	41249.41
730.199	41260.71
730.541	41149.98
730.882	41140.49
731.224	41178
731.565	40972.35
731.906	41089.87
732.248	40860.49
732.589	40819.36
732.93	40646.71
733.271	40632.93
733.612	40658.24
733.953	40716.99
734.294	40496.89
734.635	40475.19
734.976	40529.43
735.317	40328.08
735.658	40409.66
735.999	40267.97
736.339	40230
736.68	40356.78
737.021	40104.81
737.361	39958.82
737.702	40167.4
738.042	39972.61
738.383	39909.11
738.723	39880.18
739.063	39780.75
739.404	39780.75
739.744	39676.12
740.084	39549.57
740.424	39542.79
740.764	39498.95
741.104	39660.3
741.444	39444.71
741.784	39303.02
742.124	39443.58
742.464	39317.03
742.804	39291.04
743.143	39154.32
743.483	39248.11
743.823	38977.61
744.162	39066.19
744.502	38943.26
744.841	38874.56
745.181	39052.18
745.52	38826.42
745.86	38730.38
746.199	38960.66
746.538	38744.62
746.877	38816.25
747.216	38650.16
747.556	38622.59
747.895	38568.35
748.234	38257.17
748.573	38331.29
748.911	38291.52
749.25	38217.63
749.589	38148.02
749.928	38182.37
750.267	38198.64
750.605	38102.15
750.944	37949.61
751.283	37884.07
751.621	37878.88
751.96	37626.45
752.298	37752.33
752.636	37722.5
752.975	37467.81
