Data from whiteboard_FLMS001491_00040.txt Node
Date: Wed Feb 08 11:26:17 GMT 2017
User: dcchb
Spectrometer: FLMS00149
Trigger mode: 0
Integration Time (sec): 2.000000E-2
Scans to average: 10
Electric dark correction enabled: true
Nonlinearity correction enabled: false
Boxcar width: 0
XAxis mode: Wavelengths
Number of Pixels in Spectrum: 2048
>>>>>Begin Spectral Data<<<<<
341.393	3.14
341.776	3.14
342.16	3.14
342.543	-67.37
342.927	-84.09
343.31	-35.73
343.693	-70.53
344.077	-61.95
344.46	-71.44
344.843	-59.69
345.226	-62.63
345.61	-45.9
345.993	-3.19
346.376	2.91
346.759	11.72
347.142	30.71
347.525	25.28
347.908	73.19
348.291	76.35
348.674	89.23
349.057	101.66
349.44	129.46
349.823	134.43
350.206	169.91
350.588	242.23
350.971	227.76
351.354	265.95
351.737	290.81
352.119	299.62
352.502	303.24
352.884	321.77
353.267	320.87
353.65	334.65
354.032	332.39
354.414	345.73
354.797	355.67
355.179	350.02
355.562	363.8
355.944	361.32
356.326	399.96
356.709	384.59
357.091	354.99
357.473	384.59
357.855	389.79
358.238	398.15
358.62	369.23
359.002	367.19
359.384	400.19
359.766	392.96
360.148	368.1
360.53	370.58
360.912	398.83
361.294	388.89
361.676	367.87
362.057	397.02
362.439	402
362.821	382.33
363.203	377.59
363.584	373.3
363.966	395.89
364.348	371.26
364.729	394.76
365.111	371.49
365.493	375.1
365.874	410.81
366.256	386.18
366.637	378.49
367.019	379.17
367.4	362.9
367.781	385.72
368.163	365.84
368.544	374.65
368.925	386.63
369.306	391.83
369.688	372.39
370.069	394.09
370.45	376.91
370.831	381.43
371.212	378.27
371.593	398.15
371.974	364.03
372.355	382.79
372.736	388.66
373.117	378.04
373.498	393.18
373.879	367.65
374.26	399.28
374.641	378.04
375.021	402
375.402	396.8
375.783	426.85
376.163	409.45
376.544	429.11
376.925	425.72
377.305	412.16
377.686	430.92
378.066	433.41
378.447	429.11
378.827	424.37
379.208	453.75
379.588	428.44
379.968	466.4
380.349	437.7
380.729	454.2
381.109	456.91
381.489	457.81
381.87	455.55
382.25	468.89
382.63	471.37
383.01	480.19
383.39	481.77
383.77	483.35
384.15	461.43
384.53	481.09
384.91	479.28
385.29	489.68
385.67	500.75
386.049	512.5
386.429	502.11
386.809	524.03
387.189	528.09
387.568	529.22
387.948	518.15
388.328	545.04
388.707	549.34
389.087	545.04
389.466	578.94
389.846	574.65
390.225	547.3
390.605	563.8
390.984	577.58
391.363	575.55
391.743	586.85
392.122	599.05
392.501	621.65
392.881	604.48
393.26	628.2
393.639	652.38
394.018	648.77
394.397	628.88
394.776	668.65
395.155	671.37
395.534	654.64
395.913	679.73
396.292	675.21
396.671	708.43
397.05	692.16
397.429	693.51
397.808	721.31
398.186	738.48
398.565	724.47
398.944	755.43
399.323	781.19
399.701	779.84
400.08	777.8
400.458	816
400.837	819.84
401.215	806.73
401.594	809.22
401.972	846.96
402.351	846.05
402.729	872.04
403.107	883.11
403.486	893.96
403.864	924.69
404.242	909.55
404.62	952.94
404.999	942.77
405.377	941.64
405.755	971.02
406.133	997.23
406.511	1008.53
406.889	1002.66
407.267	1045.14
407.645	1039.27
408.023	1103.9
408.401	1086.72
408.779	1125.37
409.156	1178.02
409.534	1170.11
409.912	1220.73
410.29	1210.34
410.667	1216.21
411.045	1257.34
411.422	1298.02
411.8	1297.11
412.178	1329.43
412.555	1346.6
412.933	1347.05
413.31	1396.55
413.687	1427.73
414.065	1432.25
414.442	1455.53
414.819	1491.01
415.197	1494.62
415.574	1533.49
415.951	1560.16
416.328	1577.78
416.705	1607.61
417.082	1587.95
417.46	1613.49
417.837	1644
418.214	1642.41
418.591	1672.47
418.967	1689.42
419.344	1741.85
419.721	1756.76
420.098	1791.11
420.475	1790.89
420.852	1831.56
421.228	1849.64
421.605	1891.22
421.982	1883.54
422.358	1907.49
422.735	1956.3
423.111	1925.34
423.488	1949.3
423.864	2021.39
424.241	2024.33
424.617	2078.56
424.994	2109.29
425.37	2078.79
425.746	2098.45
426.123	2145.68
426.499	2178.22
426.875	2201.27
427.251	2263.64
427.627	2278.33
428.003	2317.88
428.379	2319.91
428.756	2386.12
429.132	2401.49
429.507	2435.39
429.883	2469.06
430.259	2530.07
430.635	2535.5
431.011	2565.78
431.387	2617.53
431.763	2665.89
432.138	2690.07
432.514	2724.42
432.89	2783.18
433.265	2816.85
433.641	2874.7
434.016	2911.53
434.392	2948.37
434.767	3008.25
435.143	2994.02
435.518	3006.45
435.894	3094.81
436.269	3127.12
436.644	3192.43
437.02	3207.8
437.395	3259.1
437.77	3288.7
438.145	3337.96
438.52	3362.82
438.895	3384.06
439.271	3425.87
439.646	3488.92
440.021	3504.74
440.395	3547
440.77	3522.82
441.145	3602.36
441.52	3651.63
441.895	3640.78
442.27	3698.41
442.645	3769.82
443.019	3749.7
443.394	3767.78
443.769	3827.89
444.143	3788.57
444.518	3889.81
444.892	3879.87
445.267	3936.59
445.641	3932.98
446.016	3984.05
446.39	4063.59
446.764	4071.5
447.139	4041.45
447.513	4116.7
447.887	4111.5
448.262	4175.23
448.636	4203.7
449.01	4243.93
449.384	4329.35
449.758	4318.28
450.132	4380.42
450.506	4441.66
450.88	4461.55
451.254	4435.11
451.628	4549.23
452.002	4561.89
452.376	4643.01
452.75	4690.92
453.123	4693.18
453.497	4759.85
453.871	4804.14
454.244	4926.62
454.618	4958.94
454.992	5101.98
455.365	5092.72
455.739	5230.79
456.112	5271.47
456.486	5321.87
456.859	5327.52
457.232	5490.45
457.606	5452.03
457.979	5563.44
458.352	5688.86
458.725	5799.37
459.099	5806.82
459.472	5889.08
459.845	5959.14
460.218	6021.06
460.591	6049.08
460.964	6114.39
461.337	6235.51
461.71	6379.24
462.083	6451.1
462.456	6475.96
462.829	6526.13
463.201	6680.47
463.574	6676.18
463.947	6819
464.32	6920.92
464.692	6988.26
465.065	7092.67
465.438	7217.18
465.81	7304.64
466.183	7406.33
466.555	7556.38
466.928	7627.57
467.3	7601.35
467.672	7781.46
468.045	8011.29
468.417	7980.33
468.789	8082.47
469.161	8169.47
469.534	8318.62
469.906	8504.83
470.278	8580.09
470.65	8691.27
471.022	8866.18
471.394	9011.03
471.766	9104.82
472.138	9144.59
472.51	9379.16
472.882	9513.62
473.253	9617.12
473.625	9837.68
473.997	10060.72
474.369	10050.33
474.74	10225.92
475.112	10401.73
475.484	10575.74
475.855	10784.77
476.227	10837.2
476.598	11275.83
476.97	11297.3
477.341	11528.26
477.713	11718.31
478.084	11817.29
478.455	12170.27
478.827	12232.19
479.198	12656.59
479.569	12716.25
479.94	13033.3
480.311	13128.21
480.682	13426.29
481.053	13727.75
481.424	13905.82
481.795	14148.07
482.166	14360.05
482.537	14702.18
482.908	14833.03
483.279	14996.87
483.65	15289.29
484.021	15686.56
484.391	15691.99
484.762	15853.57
485.133	16137.4
485.503	16369.71
485.874	16684.73
486.244	16857.61
486.615	17212.4
486.985	17426.86
487.356	17774.87
487.726	17810.58
488.097	18165.6
488.467	18346.83
488.837	18680.16
489.207	18915.86
489.578	19145.01
489.948	19449.86
490.318	19629.74
490.688	19839.9
491.058	20070.63
491.428	20344.75
491.798	20508.81
492.168	20945.64
492.538	21005.52
492.908	21268.34
493.278	21670.59
493.648	21755.11
494.017	22092.95
494.387	22287.07
494.757	22467.86
495.126	22747.4
495.496	22772.03
495.866	23072.13
496.235	23213.6
496.605	23507.38
496.974	23665.79
497.344	23851.55
497.713	24063.97
498.082	24242.05
498.452	24428.93
498.821	24530.63
499.19	24664.86
499.559	24827.34
499.928	25083.61
500.298	25206.09
500.667	25555.01
501.036	25487.44
501.405	25765.17
501.774	25828.67
502.143	26092.62
502.512	26214.42
502.88	26397.92
503.249	26525.83
503.618	26674.98
503.987	26811.02
504.356	27027.74
504.724	27225.92
505.093	27329.65
505.462	27466.14
505.83	27706.14
506.199	28013.25
506.567	28407.59
506.936	28291.88
507.304	28706.34
507.672	28793.56
508.041	28908.82
508.409	29150.62
508.777	29497.5
509.145	29763.03
509.514	29788.57
509.882	30025.17
510.25	30261.77
510.618	30523.01
510.986	30531.37
511.354	30859.95
511.722	31067.63
512.09	31400.73
512.458	31477.79
512.826	31832.81
513.193	31830.77
513.561	31993.71
513.929	32340.59
514.297	32644.76
514.664	32814.02
515.032	32817.19
515.4	33162.26
515.767	33247.91
516.135	33487.45
516.502	33320.23
516.869	33998.4
517.237	34162.69
517.604	33956.37
517.972	34491.49
518.339	34602.23
518.706	34944.59
519.073	35043.57
519.44	35187.97
519.808	35735.98
520.175	35648.53
520.542	36252.58
520.909	36275.63
521.276	36532.12
521.643	36925.33
522.009	37195.6
522.376	37387.01
522.743	37528.93
523.11	37924.17
523.477	38520.99
523.843	38647.54
524.21	39076.01
524.577	39436.9
524.943	39505.15
525.31	39741.3
525.676	40288.86
526.043	40540.37
526.409	40755.28
526.776	41158.44
527.142	41200.92
527.508	41544.19
527.874	41719.55
528.241	41995.93
528.607	42256.71
528.973	42650.15
529.339	42537.16
529.705	42933.31
530.071	43182.34
530.437	43450.81
530.803	43566.96
531.169	43923.34
531.535	43785.94
531.901	43856.45
532.267	44295.98
532.632	44520.61
532.998	44619.14
533.364	44846.25
533.73	44843.09
534.095	45148.39
534.461	45173.7
534.826	45250.31
535.192	45489.17
535.557	45820.01
535.923	45815.94
536.288	46147.46
536.653	46259.32
537.019	46219.77
537.384	46418.86
537.749	46673.55
538.114	46820.21
538.479	46870.83
538.845	47055.01
539.21	47144.72
539.575	47306.98
539.94	47462.9
540.305	47815.44
540.67	47799.17
541.034	47899.05
541.399	48228.53
541.764	48330.23
542.129	48639.14
542.494	48667.84
542.858	48996.2
543.223	48887.27
543.587	49144.89
543.952	49029.42
544.316	49293.36
544.681	49356.87
545.045	49597.99
545.41	49804.09
545.774	49762.05
546.138	49892.67
546.503	50023.52
546.867	50074.14
547.231	50321.36
547.595	50432.09
547.959	50451.3
548.324	50312.77
548.688	50467.8
549.052	50640.45
549.416	50724.51
549.779	50796.83
550.143	50860.78
550.507	51057.16
550.871	51077.72
551.235	51054.9
551.599	51279.3
551.962	51380.99
552.326	51416.7
552.689	51593.64
553.053	51505.06
553.417	51528.11
553.78	52028.66
554.143	51823.24
554.507	52002.45
554.87	52104.59
555.234	52337.35
555.597	52221.42
555.96	52420.97
556.323	52707.74
556.686	52682.88
557.05	52924.46
557.413	52995.19
557.776	53082.42
558.139	53342.07
558.502	53453.03
558.865	53499.36
559.228	53811.21
559.59	53871.78
559.953	53970.98
560.316	54296.17
560.679	54329.16
561.041	54500.01
561.404	54631.53
561.767	54889.15
562.129	54812.54
562.492	55152.65
562.854	55088.69
563.217	55207.33
563.579	55267.45
563.941	55483.26
564.304	55670.6
564.666	55771.61
565.028	55844.38
565.39	55911.27
565.753	56012.06
566.115	56089.8
566.477	56299.51
566.839	56301.09
567.201	56472.16
567.563	56519.84
567.925	56628.77
568.287	56641.19
568.648	56662.44
569.01	56758.03
569.372	56921.41
569.734	56776.78
570.095	57007.06
570.457	57074.18
570.819	57096.1
571.18	57030.11
571.542	57184.91
571.903	57249.54
572.265	57356.2
572.626	57373.6
572.987	57414.51
573.349	57481.62
573.71	57563.2
574.071	57585.35
574.432	57753.93
574.794	57900.14
575.155	57840.71
575.516	57793.93
575.877	57959.58
576.238	58012.91
576.599	58086.35
576.96	58127.26
577.32	58222.62
577.681	58290.42
578.042	58328.38
578.403	58371.77
578.763	58454.71
579.124	58552.1
579.485	58627.58
579.845	58680.69
580.206	58669.39
580.566	58774.7
580.927	58789.84
581.287	58944.18
581.648	58799.1
582.008	59014.92
582.368	58981.25
582.728	59050.4
583.089	59018.08
583.449	59069.38
583.809	59090.17
584.169	59049.72
584.529	59027.57
584.889	59228.24
585.249	59108.47
585.609	59072.54
585.969	59194.35
586.329	59118.87
586.688	59143.05
587.048	59124.74
587.408	59053.79
587.768	59094.46
588.127	59047.23
588.487	58987.57
588.846	59138.53
589.206	58913.22
589.565	58937.63
589.925	59138.3
590.284	58974.24
590.643	59046.1
591.003	59073.67
591.362	59103.5
591.721	58995.03
592.08	58964.75
592.44	59025.99
592.799	59090.17
593.158	59009.04
593.517	59054.46
593.876	59100.79
594.235	58998.19
594.593	59040.68
594.952	59075.93
595.311	59033.45
595.67	59087.01
596.029	59255.14
596.387	59259.66
596.746	59202.71
597.104	59200
597.463	59130.85
597.822	59283.16
598.18	59197.06
598.538	59157.29
598.897	59329.49
599.255	59174.46
599.613	59572.64
599.972	59354.34
600.33	59514.57
600.688	59402.03
601.046	59450.16
601.404	59601.12
601.762	59568.35
602.12	59689.25
602.478	59653.77
602.836	59697.84
603.194	59634.56
603.552	59666.88
603.91	59648.8
604.268	59717.5
604.625	59681.57
604.983	59803.6
605.341	59722.24
605.698	59842.01
606.056	59886.53
606.413	59857.61
606.771	59954.78
607.128	59940.09
607.485	59828
607.843	59885.4
608.2	60051.95
608.557	60062.8
608.914	59944.61
609.272	60052.4
609.629	60071.61
609.986	60165.17
610.343	60009.92
610.7	60188.9
611.057	60128.11
611.414	60120.42
611.771	60061.9
612.127	60186.19
612.484	60108
612.841	60167.66
613.198	60046.98
613.554	60067.09
613.911	60228.67
614.267	60197.03
614.624	60173.08
614.98	60211.04
615.337	60266.64
615.693	60232.74
616.05	60125.62
616.406	60318.61
616.762	60236.58
617.118	60270.48
617.475	60243.59
617.831	60295.79
618.187	60351.38
618.543	60283.81
618.899	60503.69
619.255	60469.57
619.611	60426.41
619.967	60550.92
620.323	60547.31
620.678	60489.68
621.034	60438.16
621.39	60526.52
621.746	60444.48
622.101	60715.21
622.457	60513.41
622.812	60551.15
623.168	60670.92
623.523	60641.99
623.879	60732.84
624.234	60592.73
624.589	60692.39
624.945	60806.73
625.3	60830.91
625.655	60829.56
626.01	60804.25
626.365	60829.56
626.72	60819.62
627.075	60800.41
627.43	60827.52
627.785	60736.68
628.14	60802.44
628.495	60866.62
628.85	60752.5
629.205	60711.14
629.559	60813.29
629.914	60671.82
630.269	60644.7
630.623	60625.27
630.978	60575.55
631.332	60649.45
631.687	60665.5
632.041	60511.38
632.396	60569.9
632.75	60474.99
633.104	60498.72
633.459	60330.81
633.813	60312.28
634.167	60325.17
634.521	60279.97
634.875	60331.27
635.229	60224.15
635.583	60067.32
635.937	60086.75
636.291	60038.39
636.645	60059.86
636.999	59940.09
637.352	59986.19
637.706	59787.55
638.06	60010.15
638.413	59856.93
638.767	59801.79
639.121	59773.09
639.474	59666.65
639.828	59639.08
640.181	59681.11
640.534	59625.3
640.888	59534.68
641.241	59466.88
641.594	59471.4
641.947	59548.69
642.301	59529.93
642.654	59539.65
643.007	59575.13
643.36	59493.32
643.713	59420.78
644.066	59472.76
644.419	59391.63
644.771	59295.81
645.124	59007.91
645.477	59010.17
645.83	58863.06
646.182	58815.6
646.535	58728.15
646.888	58809.95
647.24	58647.47
647.593	58802.04
647.945	58680.24
648.298	58623.74
648.65	58661.93
649.002	58566.57
649.355	58726.34
649.707	58710.74
650.059	58819.89
650.411	59177.17
650.763	59148.02
651.115	59366.55
651.467	59218.75
651.819	59240.67
652.171	59176.72
652.523	59167.46
652.875	59185.53
653.227	59046.1
653.578	59252.88
653.93	59173.78
654.282	59035.26
654.633	58989.83
654.985	59029.38
655.337	59033.67
655.688	58996.39
656.039	59147.57
656.391	58890.63
656.742	58825.77
657.094	58830.06
657.445	58929.95
657.796	58768.82
658.147	58787.35
658.498	58686.11
658.849	58747.58
659.2	58658.77
659.551	58550.3
659.902	58625.77
660.253	58529.28
660.604	58637.07
660.955	58379.45
661.306	58476.17
661.656	58403.41
662.007	58441.37
662.358	58356.4
662.708	58352.11
663.059	58294.71
663.409	58076.41
663.76	58292
664.11	58210.19
664.461	58240.02
664.811	58169.06
665.161	58132.68
665.511	58094.26
665.862	58084.55
666.212	58100.82
666.562	58050.87
666.912	58082.74
667.262	58012.23
667.612	58018.56
667.962	58055.17
668.312	57962.74
668.662	57994.38
669.011	57933.59
669.361	57936.53
669.711	57963.19
670.06	57948.28
670.41	57921.84
670.76	57897.43
671.109	57968.39
671.459	57912.12
671.808	57833.48
672.157	57928.84
672.507	57830.77
672.856	57819.24
673.205	57939.92
673.554	58012.91
673.904	57920.93
674.253	58049.97
674.602	57981.72
674.951	57560.04
675.3	57476.65
675.649	57980.82
675.998	57882.97
676.346	57934.95
676.695	58000.71
677.044	57867.83
677.393	57898.56
677.741	58068.73
678.09	57991.89
678.438	57922.74
678.787	57924.55
679.135	57930.88
679.484	57707.15
679.832	57876.19
680.181	57695.63
680.529	57788.96
680.877	57712.58
681.225	57679.36
681.573	57760.71
681.922	57553.49
682.27	57480.49
682.618	57464
682.966	57401.17
683.314	57490.89
683.661	57278.69
684.009	57170.9
684.357	57190.78
684.705	57076.66
685.053	57133.61
685.4	57062.2
685.748	56947.4
686.095	56948.3
686.443	56827.4
686.79	56774.98
687.138	56714.86
687.485	56647.07
687.832	56514.42
688.18	56588.31
688.527	56431.48
688.874	56338.38
689.221	56292.5
689.568	56107.87
689.915	56045.5
690.262	56117.59
690.609	55957.82
690.956	55866.53
691.303	55769.35
691.65	55653.88
691.997	55504.95
692.344	55432.19
692.69	55315.81
693.037	55341.57
693.383	55189.03
693.73	55229.25
694.077	54988.13
694.423	55047.34
694.769	54853.9
695.116	54801.69
695.462	54726.44
695.808	54679.21
696.155	54722.15
696.501	54535.71
696.847	54440.8
697.193	54372.78
697.539	54527.35
697.885	54204.2
698.231	54071.32
698.577	54086.23
698.923	54048.95
699.269	54027.7
699.614	53972.34
699.96	53923.98
700.306	53871.55
700.651	53739.35
700.997	53690.31
701.342	53604.66
701.688	53659.58
702.033	53432.47
702.379	53549.07
702.724	53460.49
703.069	53574.61
703.415	53248.06
703.76	53213.49
704.105	53218.46
704.45	53218.69
704.795	53004.23
705.14	53008.97
705.485	52982.31
705.83	52964
706.175	53010.1
706.52	52776.21
706.865	52811.01
707.209	52775.99
707.554	52617.57
707.899	52642.43
708.243	52493.28
708.588	52476.33
708.932	52250.58
709.277	52303
709.621	52298.48
709.966	52115.21
710.31	52252.38
710.654	51871.38
710.998	51968.77
711.342	51898.49
711.687	51824.6
712.031	51653.75
712.375	51604.49
712.719	51594.77
713.063	51498.73
713.407	51517.26
713.75	51376.47
714.094	51304.84
714.438	51125.63
714.782	51112.3
715.125	50946.88
715.469	51008.35
715.812	50768.13
716.156	50651.07
716.499	50588.92
716.843	50599.77
717.186	50391.19
717.53	50612.2
717.873	50498.08
718.216	50333.11
718.559	50190.29
718.902	49892.9
719.246	49951.43
719.589	49805.22
719.932	49731.77
720.275	49658.55
720.617	49628.05
720.96	49609.51
721.303	49379.46
721.646	49473.47
721.989	49032.13
722.331	49167.27
722.674	49024.22
723.016	49080.04
723.359	48938.12
723.701	48886.14
724.044	48673.04
724.386	48505.59
724.729	48609.32
725.071	48473.05
725.413	48426.27
725.755	48329.32
726.097	48253.84
726.439	48064.7
726.782	48048.2
727.124	48071.02
727.465	47819.51
727.807	47699.96
728.149	47730.24
728.491	47687.98
728.833	47708.32
729.175	47628.55
729.516	47469.23
729.858	47410.93
730.199	47368.67
730.541	47290.93
730.882	47263.36
731.224	47381.1
731.565	47045.74
731.906	47012.07
732.248	47183.59
732.589	46996.93
732.93	46897.5
733.271	46963.48
733.612	46987.66
733.953	46904.05
734.294	46862.02
734.635	46704.96
734.976	46886.2
735.317	46516.04
735.658	46575.47
735.999	46721
736.339	46552.19
736.68	46641.01
737.021	46441.69
737.361	46342.71
737.702	46484.17
738.042	46358.3
738.383	46319.43
738.723	46459.54
739.063	46119.21
739.404	46221.13
739.744	46101.36
740.084	46025.43
740.424	46067.69
740.764	46058.42
741.104	46122.37
741.444	45880.12
741.784	45778.88
742.124	45883.74
742.464	45815.49
742.804	45723.29
743.143	45683.97
743.483	45665.44
743.823	45441.94
744.162	45375.05
744.502	45561.71
744.841	45236.07
745.181	45416.18
745.52	45304.77
745.86	45272.68
746.199	45112.23
746.538	45088.05
746.877	45096.41
747.216	44973.03
747.556	44920.15
747.895	45028.62
748.234	44696.2
748.573	44613.26
748.911	44687.16
749.25	44491.23
749.589	44433.15
749.928	44410.1
750.267	44351.35
750.605	44129.43
750.944	44141.18
751.283	43909.55
751.621	43947.06
751.96	43792.49
752.298	43661.87
752.636	43792.27
752.975	43516.34
