Data from White_reflection_standard_FLMS001491_045.txt Node
Date: Tue Feb 07 10:32:04 GMT 2017
User: dcchb
Spectrometer: FLMS00149
Trigger mode: 0
Integration Time (sec): 2.000000E-2
Scans to average: 10
Electric dark correction enabled: true
Nonlinearity correction enabled: false
Boxcar width: 0
XAxis mode: Wavelengths
Number of Pixels in Spectrum: 2048
>>>>>Begin Spectral Data<<<<<
341.393	-21.26
341.776	-21.26
342.16	-21.26
342.543	-72.1
342.927	-78.88
343.31	-66.68
343.693	-68.49
344.077	-48.6
344.46	-63.06
344.843	-62.61
345.226	-39.11
345.61	-23.29
345.993	-16.28
346.376	-13.35
346.759	25.3
347.142	28.23
347.525	41.79
347.908	59.42
348.291	53.54
348.674	85.86
349.057	107.33
349.44	103.03
349.823	139.87
350.206	158.63
350.588	222.58
350.971	264.39
351.354	254.44
351.737	281.33
352.119	281.79
352.502	287.21
352.884	325.63
353.267	318.85
353.65	349.58
354.032	349.58
354.414	366.08
354.797	357.72
355.179	376.47
355.562	392.74
355.944	406.08
356.326	387.32
356.709	391.61
357.091	387.77
357.473	393.42
357.855	398.17
358.238	385.96
358.62	404.95
359.002	418.51
359.384	427.55
359.766	383.03
360.148	410.6
360.53	413.53
360.912	421.67
361.294	398.85
361.676	412.86
362.057	388.45
362.439	401.11
362.821	397.72
363.203	419.64
363.584	418.05
363.966	410.6
364.348	415.57
364.729	411.05
365.111	427.55
365.493	416.25
365.874	402.24
366.256	407.66
366.637	424.16
367.019	404.95
367.4	421.9
367.781	410.14
368.163	423.48
368.544	415.34
368.925	436.36
369.306	440.65
369.688	422.35
370.069	428.9
370.45	432.52
370.831	420.54
371.212	431.16
371.593	440.88
371.974	432.52
372.355	456.92
372.736	433.65
373.117	447.43
373.498	449.24
373.879	446.98
374.26	449.24
374.641	431.39
375.021	451.5
375.402	469.8
375.783	489.92
376.163	510.48
376.544	510.03
376.925	490.37
377.305	486.98
377.686	506.41
378.066	509.35
378.447	513.87
378.827	511.84
379.208	491.5
379.588	535.34
379.968	499.41
380.349	536.92
380.729	514.55
381.109	533.08
381.489	522.68
381.87	528.56
382.25	543.7
382.63	558.84
383.01	553.19
383.39	551.16
383.77	564.49
384.15	561.78
384.53	589.35
384.91	586.86
385.29	585.96
385.67	605.85
386.049	594.09
386.429	603.59
386.809	624.6
387.189	616.69
387.568	642.23
387.948	630.48
388.328	669.8
388.707	659.4
389.087	650.59
389.466	654.88
389.846	688.33
390.225	662.79
390.605	675.22
390.984	698.5
391.363	709.57
391.743	723.13
392.122	715.9
392.501	735.56
392.881	729.01
393.26	748.44
393.639	752.06
394.018	746.63
394.397	762.23
394.776	775.78
395.155	803.13
395.534	807.87
395.913	787.31
396.292	811.04
396.671	803.58
397.05	825.05
397.429	835.67
397.808	833.64
398.186	863.47
398.565	850.81
398.944	854.43
399.323	883.58
399.701	875.9
400.08	896.46
400.458	912.5
400.837	931.94
401.215	949.34
401.594	957.02
401.972	960.86
402.351	961.54
402.729	941.88
403.107	971.26
403.486	977.36
403.864	985.5
404.242	1029.56
404.62	1028.66
404.999	1034.08
405.377	1035.89
405.755	1078.38
406.133	1066.17
406.511	1084.48
406.889	1096.91
407.267	1120.63
407.645	1102.78
408.023	1166.06
408.401	1177.58
408.779	1173.51
409.156	1194.76
409.534	1198.82
409.912	1199.05
410.29	1241.31
410.667	1254.42
411.045	1276.79
411.422	1302.78
411.8	1289.22
412.178	1347.3
412.555	1317.24
412.933	1343.68
413.31	1395.66
413.687	1404.47
414.065	1401.3
414.442	1440.63
414.819	1443.56
415.197	1486.73
415.574	1510.45
415.951	1501.87
416.328	1499.38
416.705	1512.49
417.082	1537.57
417.46	1574.18
417.837	1577.12
418.214	1597.68
418.591	1649.89
418.967	1622.32
419.344	1647.63
419.721	1662.54
420.098	1651.69
420.475	1695.53
420.852	1715.42
421.228	1698.02
421.605	1760.62
421.982	1756.55
422.358	1805.14
422.735	1808.75
423.111	1807.85
423.488	1821.18
423.864	1828.64
424.241	1922.42
424.617	1880.84
424.994	1920.39
425.37	1940.95
425.746	1948.86
426.123	2002.87
426.499	2034.06
426.875	2055.07
427.251	2080.16
427.627	2117.44
428.003	2153.83
428.379	2199.93
428.756	2180.49
429.132	2162.41
429.507	2236.76
429.883	2297.1
430.259	2310.21
430.635	2314.28
431.011	2352.92
431.387	2427.94
431.763	2403.99
432.138	2472.92
432.514	2549.52
432.89	2502.29
433.265	2582.29
433.641	2606.25
434.016	2603.76
434.392	2702.74
434.767	2689.86
435.143	2748.61
435.518	2749.52
435.894	2745.68
436.269	2841.49
436.644	2913.58
437.02	2889.4
437.395	2897.76
437.77	2949.06
438.145	3047.82
438.52	3002.62
438.895	3056.63
439.271	3072
439.646	3128.49
440.021	3198.09
440.395	3202.61
440.77	3142.73
441.145	3214.36
441.52	3248.04
441.895	3272.67
442.27	3327.81
442.645	3331.88
443.019	3369.61
443.394	3378.43
443.769	3379.33
444.143	3380.69
444.518	3514.02
444.892	3454.58
445.267	3492.1
445.641	3513.11
446.016	3558.76
446.39	3592.21
446.764	3574.36
447.139	3638.99
447.513	3673.56
447.887	3683.05
448.262	3690.51
448.636	3750.62
449.01	3754.46
449.384	3803.95
449.758	3855.25
450.132	3911.3
450.506	3893.89
450.88	3944.74
451.254	3989.94
451.628	4002.37
452.002	4065.64
452.376	4083.95
452.75	4149.71
453.123	4169.37
453.497	4254.34
453.871	4320.1
454.244	4389.93
454.618	4432.41
454.992	4426.99
455.365	4489.81
455.739	4630.15
456.112	4609.13
456.486	4659.98
456.859	4777.26
457.232	4774.32
457.606	4798.73
457.979	4897.03
458.352	5003.92
458.725	5003.47
459.099	5073.52
459.472	5135.9
459.845	5255.67
460.218	5300.19
460.591	5299.06
460.964	5331.15
461.337	5480.52
461.71	5531.37
462.083	5612.72
462.456	5664.24
462.829	5728.42
463.201	5767.97
463.574	5819.27
463.947	5960.51
464.32	6080.05
464.692	6100.16
465.065	6142.2
465.438	6234.85
465.81	6267.62
466.183	6428.07
466.555	6546.93
466.928	6514.39
467.3	6579.25
467.672	6676.65
468.045	6861.05
468.417	6870.31
468.789	6961.84
469.161	7046.81
469.534	7164.32
469.906	7329.28
470.278	7366.8
470.65	7456.06
471.022	7592.78
471.394	7709.16
471.766	7784.87
472.138	7903.51
472.51	8036.84
472.882	8230.28
473.253	8292.42
473.625	8394.79
473.997	8614.45
474.369	8715.24
474.74	8715.69
475.112	8949.13
475.484	9093.53
475.855	9326.97
476.227	9316.13
476.598	9690.35
476.97	9613.97
477.341	9899.16
477.713	10048.99
478.084	10080.85
478.455	10418.92
478.827	10459.37
479.198	10866.37
479.569	10775.3
479.94	11149.98
480.311	11200.6
480.682	11499.57
481.053	11738.89
481.424	11931.42
481.795	12089.84
482.166	12195.6
482.537	12448.02
482.908	12651.18
483.279	12791.06
483.65	13024.95
484.021	13329.8
484.391	13461.1
484.762	13598.72
485.133	13715.11
485.503	13814.99
485.874	14229.22
486.244	14293.17
486.615	14684.12
486.985	14757.79
487.356	15083.66
487.726	15190.09
488.097	15503.08
488.467	15555.74
488.837	15925.89
489.207	16154.36
489.578	16394.81
489.948	16521.81
490.318	16666.21
490.688	16721.13
491.058	17043.38
491.428	17335.58
491.798	17394.33
492.168	17798.84
492.538	17914.54
492.908	18093.07
493.278	18252.61
493.648	18371.71
494.017	18607.63
494.387	18772.15
494.757	18877.91
495.126	19089.2
495.496	19201.06
495.866	19368.06
496.235	19588.4
496.605	19758.56
496.974	19879.46
497.344	20099.57
497.713	20262.5
498.082	20327.59
498.452	20632.66
498.821	20690.74
499.19	20836.27
499.559	21047.79
499.928	21147
500.298	21250.95
500.667	21498.86
501.036	21524.62
501.405	21698.17
501.774	21744.5
502.143	21953.31
502.512	22136.35
502.88	22277.59
503.249	22371.83
503.618	22593.97
503.987	22702.21
504.356	22771.36
504.724	22992.83
505.093	23079.15
505.462	23229.43
505.83	23351.01
506.199	23646.37
506.567	23805.46
506.936	23919.81
507.304	24146.24
507.672	24263.75
508.041	24487.03
508.409	24568.38
508.777	24764.76
509.145	24976.05
509.514	25008.14
509.882	25269.38
510.25	25274.8
510.618	25491.74
510.986	25700.1
511.354	26032.52
511.722	26130.82
512.09	26349.58
512.458	26436.13
512.826	26681.77
513.193	26918.37
513.561	26922.67
513.929	27192.04
514.297	27366.27
514.664	27647.62
515.032	27708.64
515.4	27990.89
515.767	28104.33
516.135	28362.4
516.502	28269.3
516.869	28715.62
517.237	28816.18
517.604	28817.53
517.972	29215.49
518.339	29485.99
518.706	29513.11
519.073	29703.84
519.44	29962.14
519.808	30336.14
520.175	30190.6
520.542	30803.02
520.909	30791.72
521.276	30960.98
521.643	31240.75
522.009	31545.6
522.376	31597.57
522.743	31909.88
523.11	32163.43
523.477	32570.2
523.843	32739.01
524.21	33012
524.577	33197.08
524.943	33325.66
525.31	33617.86
525.676	33894.01
526.043	34078.41
526.409	34143.49
526.776	34618.51
527.142	34808.56
527.508	35093.3
527.874	35378.72
528.241	35566.73
528.607	35518.6
528.973	35980.28
529.339	35896.44
529.705	36385.02
530.071	36652.36
530.437	36869.07
530.803	36987.49
531.169	37282.85
531.535	37298.21
531.901	37463.41
532.267	37586.79
532.632	37936.84
532.998	37946.33
533.364	38123.73
533.73	38329.15
534.095	38628.12
534.461	38776.14
534.826	38978.17
535.192	39159.18
535.557	39342.23
535.923	39421.1
536.288	39565.5
536.653	39772.27
537.019	39730.69
537.384	39938.82
537.749	40223.34
538.114	40170
538.479	40320.06
538.845	40606.6
539.21	40572.7
539.575	40737.45
539.94	40925.24
540.305	41180.37
540.67	41037.78
541.034	41403.64
541.399	41538.55
541.764	41555.28
542.129	41801.37
542.494	41841.15
542.858	41970.63
543.223	42082.72
543.587	42332.88
543.952	42245.88
544.316	42562.26
544.681	42569.26
545.045	42699.65
545.41	43006.99
545.774	43135.8
546.138	43142.13
546.503	43275.23
546.867	43303.48
547.231	43721.55
547.595	43632.28
547.959	43996.8
548.324	43959.06
548.688	43999.73
549.052	44166.06
549.416	44281.31
549.779	44472.71
550.143	44451.92
550.507	44848.07
550.871	44929.65
551.235	44886.04
551.599	45349.08
551.962	45321.05
552.326	45561.05
552.689	45777.54
553.053	45676.3
553.417	45827.71
553.78	46352.67
554.143	46115.16
554.507	46248.71
554.87	46456.39
555.234	46850.96
555.597	46755.14
555.96	46855.48
556.323	47063.16
556.686	47214.34
557.05	47487.1
557.413	47565.51
557.776	47701.78
558.139	47935.9
558.502	48022.45
558.865	48129.12
559.228	48471.93
559.59	48561.42
559.953	48554.87
560.316	49064.01
560.679	49080.96
561.041	49142.42
561.404	49388.74
561.767	49633.94
562.129	49603.43
562.492	49981.5
562.854	49906.47
563.217	49977.2
563.579	50115.73
563.941	50390.3
564.304	50459.22
564.666	50714.81
565.028	50798.65
565.39	50987.12
565.753	51118.19
566.115	51182.14
566.477	51442.48
566.839	51538.97
567.201	51690.6
567.563	51782.13
567.925	51949.13
568.287	51881.33
568.648	52049.24
569.01	52296.69
569.372	52412.17
569.734	52435.67
570.095	52634.76
570.457	52666.62
570.819	52753.18
571.18	52860.29
571.542	52928.54
571.903	52932.83
572.265	53227.51
572.626	53234.74
572.987	53349.09
573.349	53353.84
573.71	53534.4
574.071	53597.22
574.432	53664.11
574.794	53815.75
575.155	53766.93
575.516	53834.5
575.877	53957.89
576.238	53941.39
576.599	54105.46
576.96	54110.43
577.32	54080.82
577.681	54226.58
578.042	54360.82
578.403	54387.93
578.763	54262.97
579.124	54357.65
579.485	54499.34
579.845	54559.91
580.206	54518.33
580.566	54598.32
580.927	54592.67
581.287	54782.73
581.648	54561.94
582.008	54666.35
582.368	54648.94
582.728	54742.95
583.089	54670.19
583.449	54705.67
583.809	54761.94
584.169	54714.71
584.529	54715.38
584.889	54937.75
585.249	54755.61
585.609	54672.22
585.969	54941.14
586.329	54856.85
586.688	54833.35
587.048	54796.51
587.408	54814.36
587.768	54786.57
588.127	54813.46
588.487	54666.8
588.846	54948.6
589.206	54670.41
589.565	54811.2
589.925	54882.84
590.284	54826.34
590.643	54860.92
591.003	54965.32
591.362	54993.34
591.721	54896.85
592.08	54941.37
592.44	55062.49
592.799	54996.28
593.158	54983.85
593.517	54974.81
593.876	54964.42
594.235	54969.16
594.593	55016.84
594.952	55144.98
595.311	54949.73
595.67	55031.76
596.029	55214.81
596.387	55213.45
596.746	55182.26
597.104	55061.59
597.463	55172.32
597.822	55251.87
598.18	55130.97
598.538	55107.92
598.897	55196.73
599.255	55053
599.613	55449.83
599.972	55266.56
600.33	55345.2
600.688	55185.2
601.046	55386.78
601.404	55416.61
601.762	55344.07
602.12	55537.96
602.478	55469.49
602.836	55514.91
603.194	55388.59
603.552	55480.79
603.91	55354.91
604.268	55554.68
604.625	55413.9
604.983	55541.8
605.341	55482.59
605.698	55641.69
606.056	55662.25
606.413	55638.3
606.771	55696.83
607.128	55741.35
607.485	55647.34
607.843	55668.13
608.2	55742.7
608.557	55919.42
608.914	55792.19
609.272	55956.25
609.629	56010.72
609.986	56003.49
610.343	55929.14
610.7	56143.37
611.057	56006.2
611.414	56038.06
611.771	56112.18
612.127	56136.36
612.484	56128.45
612.841	56232.63
613.198	56119.19
613.554	56158.74
613.911	56275.12
614.267	56279.64
614.624	56268.11
614.98	56292.97
615.337	56460.2
615.693	56351.95
616.05	56322.8
616.406	56523.47
616.762	56402.57
617.118	56379.07
617.475	56355.79
617.831	56432.85
618.187	56440.76
618.543	56503.81
618.899	56595.33
619.255	56546.97
619.611	56496.35
619.967	56690.7
620.323	56669.91
620.678	56519.63
621.034	56547.43
621.39	56524.38
621.746	56499.97
622.101	56806.85
622.457	56599.85
622.812	56598.27
623.168	56697.7
623.523	56643.92
623.879	56749
624.234	56542
624.589	56620.64
624.945	56633.53
625.3	56678.95
625.655	56650.93
626.01	56602.34
626.365	56670.59
626.72	56572.06
627.075	56584.03
627.43	56605.96
627.785	56504.04
628.14	56687.99
628.495	56525.51
628.85	56536.58
629.205	56510.82
629.559	56647.54
629.914	56481.89
630.269	56551.49
630.623	56410.71
630.978	56423.81
631.332	56399.41
631.687	56502.46
632.041	56371.39
632.396	56431.5
632.75	56221.78
633.104	56288
633.459	56238.73
633.813	56208
634.167	56151.28
634.521	56167.55
634.875	56178.85
635.229	56106.76
635.583	55986.76
635.937	55914.67
636.291	55920.55
636.645	55912.87
636.999	55864.05
637.352	55944.05
637.706	55806.2
638.06	55839.65
638.413	55824.73
638.767	55732.76
639.121	55773.89
639.474	55685.08
639.828	55601.91
640.181	55675.58
640.534	55643.95
640.888	55605.3
641.241	55435.36
641.594	55506.77
641.947	55590.39
642.301	55483.72
642.654	55440.34
643.007	55372.54
643.36	55358.76
643.713	55318.76
644.066	55389.49
644.419	55150.63
644.771	54951.08
645.124	54787.92
645.477	54686.23
645.83	54405.56
646.182	54423.19
646.535	54354.71
646.888	54386.8
647.24	54176.41
647.593	54369.18
647.945	54215.96
648.298	54147.94
648.65	54124.21
649.002	54032.92
649.355	54091.22
649.707	54069.75
650.059	54077.89
650.411	54487.37
650.763	54512.68
651.115	54748.38
651.467	54688.04
651.819	54627.25
652.171	54574.37
652.523	54483.98
652.875	54498.21
653.227	54367.82
653.578	54531.66
653.93	54476.97
654.282	54308.61
654.633	54275.62
654.985	54328.27
655.337	54255.96
655.688	54252.8
656.039	54394.71
656.391	54073.82
656.742	54135.74
657.094	54123.76
657.445	54224.1
657.796	54168.96
658.147	54058.23
658.498	54106.36
658.849	54155.4
659.2	54048.51
659.551	54008.06
659.902	54067.49
660.253	54030.66
660.604	54026.14
660.955	53814.39
661.306	54043.31
661.656	53905.24
662.007	53887.61
662.358	53912.24
662.708	53831.56
663.059	53820.94
663.409	53671.79
663.76	53822.53
664.11	53790.89
664.461	53864.11
664.811	53775.3
665.161	53829.53
665.511	53641.97
665.862	53734.84
666.212	53816.88
666.562	53733.94
666.912	53694.39
667.262	53635.64
667.612	53691.23
667.962	53603.55
668.312	53553.15
668.662	53706.82
669.011	53610.55
669.361	53510.44
669.711	53529.65
670.06	53410.33
670.41	53433.38
670.76	53341.41
671.109	53531.01
671.459	53359.26
671.808	53264.12
672.157	53408.75
672.507	53241.98
672.856	53181.86
673.205	53226.61
673.554	53289.43
673.904	53205.59
674.253	53350.45
674.602	53300.28
674.951	52806.06
675.3	52564.03
675.649	53067.74
675.998	53110
676.346	53078.82
676.695	53168.76
677.044	52955.43
677.393	52965.6
677.741	53032.94
678.09	52960.85
678.438	52826.62
678.787	52893.28
679.135	52803.8
679.484	52724.25
679.832	52836.11
680.181	52584.82
680.529	52612.61
680.877	52596.79
681.225	52551.6
681.573	52719.05
681.922	52429.57
682.27	52299.85
682.618	52459.4
682.966	52317.03
683.314	52371.49
683.661	52254.88
684.009	52084.27
684.357	52030.71
684.705	51846.98
685.053	52006.75
685.4	51874.33
685.748	51778.74
686.095	51781.68
686.443	51619.19
686.79	51581
687.138	51628.01
687.485	51604.96
687.832	51431.85
688.18	51538.74
688.527	51386.21
688.874	51334.23
689.221	51235.25
689.568	51001.81
689.915	51003.62
690.262	50946.89
690.609	50796.16
690.956	50710.06
691.303	50677.98
691.65	50454.03
691.997	50547.58
692.344	50363.86
692.69	50277.99
693.037	50221.26
693.383	49936.53
693.73	50098.78
694.077	49933.14
694.423	49853.59
694.769	49789.64
695.116	49592.35
695.462	49583.54
695.808	49388.97
696.155	49526.14
696.501	49226.04
696.847	49253.38
697.193	48939.72
697.539	49161.18
697.885	48849.55
698.231	48672.83
698.577	48631.93
698.923	48568.43
699.269	48481.2
699.614	48332.27
699.96	48208.66
700.306	48349
700.651	47974.09
700.997	48025.84
701.342	47831.04
701.688	47827.88
702.033	47695.45
702.379	47562.35
702.724	47524.84
703.069	47686.42
703.415	47025.19
703.76	47279.65
704.105	47255.01
704.45	46990.61
704.795	46785.2
705.14	46645.54
705.485	46614.81
705.83	46514.47
706.175	46487.13
706.52	46172.11
706.865	46134.59
707.209	46174.82
707.554	46030.19
707.899	46072.45
708.243	45821.15
708.588	45864.54
708.932	45632.46
709.277	45463.65
709.621	45477.43
709.966	45359.7
710.31	45295.07
710.654	45024.11
710.998	45175.3
711.342	44957.9
711.687	44889.2
712.031	44770.33
712.375	44572.15
712.719	44581.41
713.063	44579.15
713.407	44600.62
713.75	44413.28
714.094	44343.23
714.438	44211.7
714.782	44188.43
715.125	43982.33
715.469	44170.58
715.812	43909.79
716.156	43625.51
716.499	43749.34
716.843	43685.39
717.186	43544.6
717.53	43559.52
717.873	43627.99
718.216	43440.43
718.559	43257.83
718.902	42938.29
719.246	43018.97
719.589	43035.46
719.932	42783.49
720.275	42755.7
720.617	42690.16
720.96	42685.64
721.303	42645.42
721.646	42617.85
721.989	42452.2
722.331	42552.09
722.674	42324.3
723.016	42195.26
723.359	42287.24
723.701	42246.11
724.044	41955.27
724.386	41733.58
724.729	42089.5
725.071	41865.78
725.413	41786.68
725.755	41737.65
726.097	41458.78
726.439	41376.75
726.782	41435.28
727.124	41523.64
727.465	41513.92
727.807	41373.36
728.149	41148.51
728.491	41024.44
728.833	41251.1
729.175	40924.79
729.516	40787.16
729.858	40909.19
730.199	40759.14
730.541	40760.5
730.882	40673.94
731.224	40747.16
731.565	40436.21
731.906	40468.75
732.248	40552.14
732.589	40303.78
732.93	40247.52
733.271	40134.52
733.612	40288.19
733.953	40139.72
734.294	40053.85
734.635	39941.99
734.976	39899.05
735.317	39781.31
735.658	39630.36
735.999	39682.33
736.339	39622.9
736.68	39798.94
737.021	39659.73
737.361	39434.43
737.702	39476.91
738.042	39277.82
738.383	39386.52
738.723	39368.44
739.063	39157.37
739.404	39130.03
739.744	39197.6
740.084	39013.42
740.424	39015.01
740.764	38812.75
741.104	39090.03
741.444	38876.25
741.784	38639.42
742.124	38700.21
742.464	38581.12
742.804	38494.57
743.143	38364.63
743.483	38450.05
743.823	38316.72
744.162	38179.55
744.502	38286.66
744.841	38069.72
745.181	38189.72
745.52	38095.93
745.86	38013.22
746.199	37911.98
746.538	37928.48
746.877	37855.71
747.216	37825.21
747.556	37778.43
747.895	37580.92
748.234	37521.26
748.573	37480.13
748.911	37392.67
749.25	37358.1
749.589	37181.83
749.928	37211.44
750.267	37226.13
750.605	37041.72
750.944	37017.09
751.283	36813.48
751.621	37017.77
751.96	36812.13
752.298	36811.22
