Data from white_steel_sheet_FLMS001491_040.txt Node
Date: Tue Feb 07 10:57:47 GMT 2017
User: dcchb
Spectrometer: FLMS00149
Trigger mode: 0
Integration Time (sec): 2.000000E-2
Scans to average: 10
Electric dark correction enabled: true
Nonlinearity correction enabled: false
Boxcar width: 0
XAxis mode: Wavelengths
Number of Pixels in Spectrum: 2048
>>>>>Begin Spectral Data<<<<<
341.393	-8.93
341.776	-8.93
342.16	-8.93
342.543	-53.22
342.927	-49.6
343.31	-63.84
343.693	-83.05
344.077	-72.65
344.46	-46.89
344.843	-49.38
345.226	-47.12
345.61	-23.16
345.993	-23.39
346.376	1.24
346.759	-12.09
347.142	16.16
347.525	26.33
347.908	70.85
348.291	76.27
348.674	111.3
349.057	119.43
349.44	121.47
349.823	140.22
350.206	168.92
350.588	183.16
350.971	220.22
351.354	238.75
351.737	238.52
352.119	244.17
352.502	268.58
352.884	280.56
353.267	282.37
353.65	264.74
354.032	290.5
354.414	321.69
354.797	325.53
355.179	309.48
355.562	328.01
355.944	297.73
356.326	343.83
356.709	345.41
357.091	350.84
357.473	362.82
357.855	352.65
358.238	358.52
358.62	347.45
359.002	329.37
359.384	334.57
359.766	350.61
360.148	369.59
360.53	338.64
360.912	353.1
361.294	331.4
361.676	326.66
362.057	319.43
362.439	328.69
362.821	322.82
363.203	324.4
363.584	336.83
363.966	321.46
364.348	305.87
364.729	330.05
365.111	318.52
365.493	316.26
365.874	313.78
366.256	325.08
366.637	331.4
367.019	331.4
367.4	329.37
367.781	309.26
368.163	302.03
368.544	327.79
368.925	323.27
369.306	324.4
369.688	322.59
370.069	321.23
370.45	323.49
370.831	300.22
371.212	321.23
371.593	305.64
371.974	322.36
372.355	322.36
372.736	351.29
373.117	346.77
373.498	331.18
373.879	309.26
374.26	322.36
374.641	330.27
375.021	327.11
375.402	336.83
375.783	322.14
376.163	330.05
376.544	348.58
376.925	350.61
377.305	332.31
377.686	330.27
378.066	347.9
378.447	352.87
378.827	347.67
379.208	347.45
379.588	352.65
379.968	337.51
380.349	346.32
380.729	351.52
381.109	358.97
381.489	330.5
381.87	371.85
382.25	356.71
382.63	382.93
383.01	379.76
383.39	381.8
383.77	349.03
384.15	352.65
384.53	383.15
384.91	376.15
385.29	376.15
385.67	363.49
386.049	388.13
386.429	374.34
386.809	382.25
387.189	377.73
387.568	406.43
387.948	394.9
388.328	409.37
388.707	399.42
389.087	418.86
389.466	383.61
389.846	387.45
390.225	411.4
390.605	419.54
390.984	429.48
391.363	413.89
391.743	417.5
392.122	426.32
392.501	434.45
392.881	419.99
393.26	448.01
393.639	449.82
394.018	465.86
394.397	474.45
394.776	446.2
395.155	462.7
395.534	467.9
395.913	467.9
396.292	471.51
396.671	489.14
397.05	487.11
397.429	506.77
397.808	495.47
398.186	490.27
398.565	513.77
398.944	488.46
399.323	517.61
399.701	525.97
400.08	521
400.458	530.72
400.837	549.48
401.215	555.35
401.594	566.88
401.972	565.97
402.351	570.72
402.729	599.19
403.107	615.69
403.486	593.09
403.864	608.23
404.242	608.01
404.62	619.08
404.999	619.31
405.377	635.35
405.755	679.87
406.133	665.41
406.511	667.67
406.889	672.86
407.267	682.81
407.645	715.8
408.023	700.21
408.401	744.95
408.779	740.43
409.156	744.5
409.534	766.65
409.912	750.83
410.29	788.11
410.667	792.41
411.045	813.88
411.422	813.2
411.8	820.2
412.178	846.64
412.555	873.76
412.933	851.84
413.31	867.66
413.687	870.37
414.065	891.16
414.442	904.95
414.819	897.94
415.197	909.24
415.574	945.85
415.951	972.52
416.328	967.09
416.705	964.38
417.082	956.7
417.46	1007.09
417.837	986.3
418.214	999.41
418.591	1026.3
418.967	1008
419.344	1024.04
419.721	1062.46
420.098	1044.83
420.475	1080.99
420.852	1050.03
421.228	1051.84
421.605	1101.78
421.982	1092.29
422.358	1130.93
422.735	1155.56
423.111	1156.69
423.488	1178.39
423.864	1171.83
424.241	1191.04
424.617	1219.06
424.994	1202.34
425.37	1228.1
425.746	1207.54
426.123	1225.17
426.499	1258.61
426.875	1277.59
427.251	1268.33
427.627	1305.62
428.003	1337.48
428.379	1372.05
428.756	1355.11
429.132	1390.13
429.507	1418.61
429.883	1392.17
430.259	1423.13
430.635	1441.43
431.011	1467.65
431.387	1502.67
431.763	1500.19
432.138	1503.8
432.514	1544.93
432.89	1567.53
433.265	1581.31
433.641	1588.77
434.016	1617.47
434.392	1651.82
434.767	1654.98
435.143	1662.89
435.518	1693.4
435.894	1717.58
436.269	1765.26
436.644	1739.95
437.02	1777.47
437.395	1767.52
437.77	1807.07
438.145	1813.4
438.52	1859.95
438.895	1896.33
439.271	1862.66
439.646	1902.44
440.021	1934.98
440.395	1981.08
440.77	1957.35
441.145	1980.17
441.52	2014.3
441.895	2028.53
442.27	2017.91
442.645	2024.01
443.019	2061.75
443.394	2074.41
443.769	2090.45
444.143	2091.58
444.518	2138.59
444.892	2102.66
445.267	2126.84
445.641	2138.36
446.016	2202.31
446.39	2209.55
446.764	2228.98
447.139	2236.21
447.513	2248.64
447.887	2262.2
448.262	2254.29
448.636	2273.05
449.01	2327.51
449.384	2311.01
449.758	2374.06
450.132	2371.8
450.506	2369.54
450.88	2434.17
451.254	2440.5
451.628	2448.86
452.002	2481.4
452.376	2523.89
452.75	2538.8
453.123	2550.1
453.497	2585.36
453.871	2598.69
454.244	2642.98
454.618	2669.87
454.992	2708.06
455.365	2692.02
455.739	2784.9
456.112	2825.58
456.486	2845.69
456.859	2894.05
457.232	2901.51
457.606	2891.11
457.979	2941.73
458.352	2956.87
458.725	3040.71
459.099	3028.28
459.472	3165.23
459.845	3135.17
460.218	3194.83
460.591	3188.5
460.964	3216.3
461.337	3294.49
461.71	3344.21
462.083	3362.96
462.456	3435.28
462.829	3406.13
463.201	3458.55
463.574	3465.56
463.947	3524.77
464.32	3580.13
464.692	3641.6
465.065	3672.11
465.438	3725.21
465.81	3764.76
466.183	3792.33
466.555	3922.5
466.928	3896.06
467.3	3935.15
467.672	4002.72
468.045	4041.59
468.417	4079.33
468.789	4091.08
469.161	4185.99
469.534	4295.82
469.906	4317.51
470.278	4327.46
470.65	4432.31
471.022	4492.65
471.394	4576.04
471.766	4571.74
472.138	4671.4
472.51	4758.41
472.882	4800.21
473.253	4868.23
473.625	4920.66
473.997	5035.23
474.369	5097.38
474.74	5169.92
475.112	5197.49
475.484	5285.4
475.855	5413.53
476.227	5483.81
476.598	5610.81
476.97	5666.18
477.341	5802.22
477.713	5862.11
478.084	5939.84
478.455	6077.69
478.827	6080.41
479.198	6304.35
479.569	6307.74
479.94	6472.49
480.311	6507.74
480.682	6696.21
481.053	6820.05
481.424	6885.13
481.795	7036.31
482.166	7110.43
482.537	7236.98
482.908	7348.85
483.279	7362.18
483.65	7528.05
484.021	7691.66
484.391	7852.79
484.762	7891.43
485.133	8001.71
485.503	8099.11
485.874	8247.58
486.244	8359.44
486.615	8525.76
486.985	8581.58
487.356	8752.65
487.726	8827
488.097	8988.13
488.467	9026.32
488.837	9195.58
489.207	9310.15
489.578	9461.11
489.948	9503.82
490.318	9627.66
490.688	9712.17
491.058	9874.43
491.428	9968.66
491.798	10130.02
492.168	10294.31
492.538	10329.56
492.908	10463.11
493.278	10575.2
493.648	10635.31
494.017	10830.56
494.387	10876.89
494.757	10971.58
495.126	11046.6
495.496	11074.62
495.866	11206.82
496.235	11336.54
496.605	11455.41
496.974	11523.2
497.344	11626.7
497.713	11719.13
498.082	11846.58
498.452	12059.68
498.821	12056.52
499.19	12072.56
499.559	12262.16
499.928	12345.78
500.298	12451.76
500.667	12584.41
501.036	12505.09
501.405	12694.69
501.774	12688.37
502.143	12837.74
502.512	12843.84
502.88	12974.24
503.249	13004.97
503.618	13170.16
503.987	13207.22
504.356	13300.33
504.724	13436.37
505.093	13501.23
505.462	13544.62
505.83	13573.32
506.199	13770.82
506.567	13978.05
506.936	13971.5
507.304	14130.81
507.672	14213.98
508.041	14282.68
508.409	14384.82
508.777	14543.01
509.145	14682.44
509.514	14663.46
509.882	14752.27
510.25	14801.98
510.618	15002.2
510.986	15002.88
511.354	15213.27
511.722	15390.89
512.09	15421.85
512.458	15539.82
512.826	15650.32
513.193	15734.61
513.561	15783.88
513.929	16016.87
514.297	16103.87
514.664	16186.81
515.032	16239.69
515.4	16390.87
515.767	16526.68
516.135	16638.09
516.502	16646.45
516.869	16887.8
517.237	17012.32
517.604	16940.91
517.972	17199.66
518.339	17332.31
518.706	17420.9
519.073	17520.33
519.44	17553.55
519.808	17855.01
520.175	17979.3
520.542	18159.86
520.909	18315.11
521.276	18307.43
521.643	18462.9
522.009	18640.07
522.376	18779.28
522.743	18948.09
523.11	19105.15
523.477	19211.36
523.843	19369.1
524.21	19614.29
524.577	19687.5
524.943	19807.05
525.31	20014.95
525.676	20073.94
526.043	20304.66
526.409	20390.54
526.776	20691.09
527.142	20706.24
527.508	20776.29
527.874	20990.52
528.241	21077.75
528.607	21143.29
528.973	21313.9
529.339	21450.85
529.705	21630.96
530.071	21824.62
530.437	21873.44
530.803	21999.76
531.169	22252.18
531.535	22117.05
531.901	22355.91
532.267	22496.47
532.632	22632.51
532.998	22686.97
533.364	22814.2
533.73	22863.69
534.095	23126.74
534.461	23252.38
534.826	23298.26
535.192	23321.31
535.557	23536.44
535.923	23602.88
536.288	23683.11
536.653	23851.69
537.019	23773.27
537.384	24020.5
537.749	24117.44
538.114	24169.42
538.479	24248.97
538.845	24292.36
539.21	24363.77
539.575	24521.05
539.94	24490.77
540.305	24818.22
540.67	24663.65
541.034	24945.22
541.399	24965.78
541.764	25068.61
542.129	25078.78
542.494	25270.18
542.858	25231.77
543.223	25361.03
543.587	25445.55
543.952	25410.07
544.316	25577.52
544.681	25716.27
545.045	25877.85
545.41	25879.43
545.774	26027.45
546.138	25979.32
546.503	26248.69
546.867	26275.58
547.231	26395.8
547.595	26450.04
547.959	26597.83
548.324	26581.79
548.688	26533.88
549.052	26789.24
549.416	26823.59
549.779	26890.71
550.143	26918.05
550.507	27203.24
550.871	27219.74
551.235	27170.7
551.599	27425.38
551.962	27480.29
552.326	27660.4
552.689	27732.72
553.053	27590.35
553.417	27810.91
553.78	28177.68
554.143	27859.04
554.507	28181.52
554.87	28223.55
555.234	28411.8
555.597	28419.93
555.96	28456.31
556.323	28684.78
556.686	28873.25
557.05	28763.88
557.413	29054.72
557.776	29127.71
558.139	29357.53
558.502	29389.62
558.865	29428.94
559.228	29625.1
559.59	29697.19
559.953	29733.79
560.316	30137.4
560.679	30123.16
561.041	30297.4
561.404	30432.31
561.767	30801.79
562.129	30518.86
562.492	30881.56
562.854	30784.61
563.217	30884.72
563.579	31169.24
563.941	31404.94
564.304	31373.75
564.666	31525.61
565.028	31639.28
565.39	31745.94
565.753	31931.48
566.115	32033.85
566.477	32140.74
566.839	32286.5
567.201	32401.07
567.563	32335.76
567.925	32717.22
568.287	32774.17
568.648	32876.76
569.01	32935.29
569.372	33125.8
569.734	33000.6
570.095	33283.76
570.457	33381.83
570.819	33498.89
571.18	33547.48
571.542	33724.2
571.903	33707.02
572.265	33788.6
572.626	33956.96
572.987	34244.41
573.349	34218.2
573.71	34211.64
574.071	34318.76
574.432	34292.32
574.794	34550.84
575.155	34485.31
575.516	34595.59
575.877	34650.05
576.238	34797.62
576.599	34802.36
576.96	34918.74
577.32	34878.74
577.681	34941.12
578.042	35071.28
578.403	34991.96
578.763	35133.43
579.124	35286.19
579.485	35240.54
579.845	35328.22
580.206	35297.49
580.566	35291.84
580.927	35414.78
581.287	35579.06
581.648	35335.91
582.008	35588.1
582.368	35436.02
582.728	35624.26
583.089	35413.19
583.449	35487.99
583.809	35684.82
584.169	35678.72
584.529	35560.99
584.889	35634.2
585.249	35526.64
585.609	35402.57
585.969	35692.06
586.329	35672.17
586.688	35575
587.048	35585.84
587.408	35603.24
587.768	35665.16
588.127	35591.95
588.487	35616.58
588.846	35780.64
589.206	35519.18
589.565	35530.25
589.925	35652.28
590.284	35543.36
590.643	35719.4
591.003	35757.82
591.362	35812.5
591.721	35736.57
592.08	35749.46
592.44	35716.46
592.799	35824.26
593.158	35688.44
593.517	35684.82
593.876	35770.02
594.235	35674.66
594.593	35678.5
594.952	35803.92
595.311	35626.07
595.67	35768.44
596.029	35989.45
596.387	35970.92
596.746	36065.83
597.104	35734.77
597.463	35791.26
597.822	35894.76
598.18	35716.46
598.538	35858.38
598.897	36116.45
599.255	35744.94
599.613	36252.72
599.972	35934.76
600.33	36100.18
600.688	35996.91
601.046	35913.29
601.404	36150.57
601.762	35958.04
602.12	36269.22
602.478	36111.25
602.836	36256.79
603.194	35999.39
603.552	36233.28
603.91	36063.12
604.268	36231.02
604.625	36047.53
604.983	36228.09
605.341	35959.62
605.698	36345.6
606.056	36376.33
606.413	36168.43
606.771	36428.76
607.128	36413.17
607.485	36401.19
607.843	36282.1
608.2	36365.71
608.557	36590.79
608.914	36400.74
609.272	36724.8
609.629	36705.14
609.986	36794.4
610.343	36518.02
610.7	36942.87
611.057	36777
611.414	36763.44
611.771	36794.4
612.127	36891.57
612.484	36818.58
612.841	36991.23
613.198	36829.2
613.554	36883.44
613.911	37107.84
614.267	37060.83
614.624	37098.8
614.98	37087.27
615.337	37407.49
615.693	37262.18
616.05	37212.24
616.406	37399.58
616.762	37181.73
617.118	37305.12
617.475	37280.49
617.831	37432.8
618.187	37428.06
618.543	37427.38
618.899	37560.48
619.255	37533.14
619.611	37529.3
619.967	37640.93
620.323	37723.87
620.678	37523.42
621.034	37500.14
621.39	37563.19
621.746	37509.18
622.101	37926.12
622.457	37533.82
622.812	37795.5
623.168	37853.58
623.523	37833.92
623.879	37868.27
624.234	37648.61
624.589	37741.95
624.945	37755.73
625.3	37772.45
625.655	37620.59
626.01	37805.67
626.365	37860.81
626.72	37826.24
627.075	37710.99
627.43	37602.06
627.785	37725.67
628.14	37727.03
628.495	37708.5
628.85	37754.83
629.205	37621.95
629.559	37955.95
629.914	37539.69
630.269	37708.05
630.623	37573.59
630.978	37561.84
631.332	37607.71
631.687	37672.34
632.041	37393.71
632.396	37521.16
632.75	37423.76
633.104	37487.04
633.459	37319.13
633.813	37227.83
634.167	37234.61
634.521	37101.06
634.875	37262.18
635.229	37284.33
635.583	36974.28
635.937	37091.34
636.291	37071.45
636.645	36997.78
636.999	36866.26
637.352	37047.05
637.706	36873.72
638.06	36807.05
638.413	36748.07
638.767	36622.88
639.121	36777.9
639.474	36456.33
639.828	36447.06
640.181	36603.22
640.534	36520.28
640.888	36383.56
641.241	36216.11
641.594	36378.14
641.947	36391.7
642.301	36279.61
642.654	36250.91
643.007	36202.1
643.36	36168.43
643.713	36044.81
644.066	36225.15
644.419	35968.43
644.771	35802.56
645.124	35415.68
645.477	35354.89
645.83	35168
646.182	35088.23
646.535	34831.74
646.888	34918.74
647.24	34814.79
647.593	34972.75
647.945	34751.97
648.298	34662.03
648.65	34553.55
649.002	34530.96
649.355	34874
649.707	34578.64
650.059	34694.57
650.411	35133.43
650.763	35199.87
651.115	35560.76
651.467	35464.04
651.819	35380.43
652.171	35370.26
652.523	35318.05
652.875	35218.62
653.227	35143.37
653.578	35363.25
653.93	35204.39
654.282	35105.86
654.633	35036.71
654.985	35005.75
655.337	35015.69
655.688	35144.5
656.039	35064.95
656.391	34810.72
656.742	34728.24
657.094	34863.83
657.445	35056.59
657.796	34838.97
658.147	34861.12
658.498	34825.64
658.849	34801.23
659.2	34610.95
659.551	34511.97
659.902	34690.05
660.253	34565.53
660.604	34501.35
660.955	34235.6
661.306	34578.19
661.656	34270.62
662.007	34324.63
662.358	34266.56
662.708	34266.1
663.059	34265.2
663.409	33948.37
663.76	34269.04
664.11	34266.56
664.461	34298.87
664.811	34091.42
665.161	34026.79
665.511	33935.04
665.862	33812.11
666.212	33872.22
666.562	33791.54
666.912	33656.86
667.262	33637.65
667.612	33592
667.962	33484.2
668.312	33371.21
668.662	33482.4
669.011	33295.96
669.361	33290.76
669.711	33135.06
670.06	33102.29
670.41	32927.16
670.76	32868.63
671.109	33035.18
671.459	32717.22
671.808	32713.83
672.157	32678.8
672.507	32606.71
672.856	32473.61
673.205	32512.7
673.554	32513.61
673.904	32358.58
674.253	32517.45
674.602	32312.26
674.951	31925.15
675.3	31704.36
675.649	32214.86
675.998	32145.48
676.346	32154.52
676.695	32327.62
677.044	32018.71
677.393	32150
677.741	32130.12
678.09	31999.05
678.438	31896.9
678.787	31981.42
679.135	32006.28
679.484	31737.81
679.832	31995.43
680.181	31682.22
680.529	31851.7
680.877	31820.52
681.225	31827.07
681.573	32093.05
681.922	31825.94
682.27	31809.67
682.618	31859.61
682.966	31765.15
683.314	31747.3
683.661	31771.26
684.009	31700.97
684.357	31590.02
684.705	31629.34
685.053	31738.49
685.4	31638.6
685.748	31568.77
686.095	31479.96
686.443	31455.56
686.79	31559.06
687.138	31517.93
687.485	31531.94
687.832	31539.62
688.18	31687.87
688.527	31480.87
688.874	31434.54
689.221	31485.39
689.568	31417.14
689.915	31449.91
690.262	31302.11
690.609	31314.77
690.956	31186.64
691.303	31254.21
691.65	31169.91
691.997	31317.71
692.344	31127.43
692.69	31025.74
693.037	31189.12
693.383	30906.87
693.73	31078.62
694.077	30905.06
694.423	31013.76
694.769	30918.62
695.116	30708.91
695.462	30773.09
695.808	30796.59
696.155	30728.34
696.501	30461.46
696.847	30627.56
697.193	30407.45
697.539	30503.72
697.885	30335.36
698.231	30228.7
698.577	30212.88
698.923	30222.14
699.269	30066.89
699.614	29945.54
699.96	29893.34
700.306	29900.8
700.651	29842.72
700.997	29656.28
701.342	29645.89
701.688	29693.12
702.033	29571.99
702.379	29596.62
702.724	29319.12
703.069	29521.82
703.415	29195.73
703.76	29260.36
704.105	29151.21
704.45	29099.46
704.795	28875.29
705.14	28979.92
705.485	28961.84
705.83	28865.12
706.175	28873.25
706.52	28579.47
706.865	28631.22
707.209	28558.23
707.554	28608.4
707.899	28625.12
708.243	28471.91
708.588	28256.32
708.932	28294.06
709.277	28127.28
709.621	28155.98
709.966	28112.37
710.31	28070.56
710.654	27825.82
710.998	27941.07
711.342	28008.42
711.687	27831.7
712.031	27671.7
712.375	27585.38
712.719	27659.95
713.063	27523.23
713.407	27681.42
713.75	27407.75
714.094	27423.57
714.438	27360.07
714.782	27426.74
715.125	27245.95
715.469	27259.74
715.812	26992.85
716.156	26986.97
716.499	26993.08
716.843	26979.97
717.186	26840.54
717.53	26991.49
717.873	26948.78
718.216	26879.63
718.559	26765.06
718.902	26589.47
719.246	26537.72
719.589	26604.61
719.932	26472.19
720.275	26432.41
720.617	26401.45
720.96	26452.98
721.303	26366.43
721.646	26388.35
721.989	26083.04
722.331	26196.49
722.674	26075.81
723.016	26194.68
723.359	26096.6
723.701	26142.7
724.044	25960.11
724.386	25830.17
724.729	25975.02
725.071	25754.69
725.413	25805.54
725.755	25875.82
726.097	25619.33
726.439	25647.8
726.782	25631.76
727.124	25792.88
727.465	25540.01
727.807	25533.9
728.149	25537.29
728.491	25374.14
728.833	25398.32
729.175	25309.73
729.516	25259.34
729.858	25177.76
730.199	25204.2
730.541	25175.5
730.882	25171.88
731.224	25273.12
731.565	25114.03
731.906	24992.22
732.248	24990.19
732.589	24855.28
732.93	24763.08
733.271	24835.84
733.612	24773.02
733.953	24848.73
734.294	24727.6
734.635	24711.33
734.976	24730.99
735.317	24559.24
735.658	24578.22
735.999	24619.13
736.339	24371.9
736.68	24542.07
737.021	24462.29
737.361	24347.95
737.702	24395.63
738.042	24227.05
738.383	24316.76
738.723	24299.36
739.063	24257.1
739.404	24214.84
739.744	24288.29
740.084	24055.75
740.424	24093.04
740.764	24052.59
741.104	24118.8
741.444	24014.17
741.784	23829.32
742.124	24005.58
742.464	23970.33
742.804	23934.17
743.143	23857.34
743.483	23796.32
743.823	23724.91
744.162	23650.56
744.502	23703.44
744.841	23574.63
745.181	23708.87
745.52	23616.44
745.86	23702.54
746.199	23479.72
746.538	23412.15
746.877	23486.28
747.216	23468.2
747.556	23386.39
747.895	23471.81
748.234	23242.21
748.573	23238.15
748.911	23216.45
749.25	23172.84
749.589	23007.19
749.928	23050.35
750.267	23140.75
750.605	22975.78
750.944	22938.27
751.283	22919.28
751.621	22913.18
751.96	22739.63
752.298	22721.55
752.636	22786.86
752.975	22554.77
753.313	22559.07
753.651	22661.66
753.989	22535.11
754.327	22477.49
