Data from white_steel_sheet_FLMS001491_030.txt Node
Date: Tue Feb 07 10:57:38 GMT 2017
User: dcchb
Spectrometer: FLMS00149
Trigger mode: 0
Integration Time (sec): 2.000000E-2
Scans to average: 10
Electric dark correction enabled: true
Nonlinearity correction enabled: false
Boxcar width: 0
XAxis mode: Wavelengths
Number of Pixels in Spectrum: 2048
>>>>>Begin Spectral Data<<<<<
341.393	-4.34
341.776	-4.34
342.16	-4.34
342.543	-66.48
342.927	-67.16
343.31	-60.83
343.693	-56.09
344.077	-63.32
344.46	-61.74
344.843	-54.05
345.226	-39.82
345.61	-22.87
345.993	-9.31
346.376	-7.27
346.759	-8.4
347.142	29.79
347.525	35.21
347.908	59.39
348.291	66.17
348.674	82.22
349.057	110.92
349.44	141.2
349.823	154.08
350.206	156.79
350.588	189.33
350.971	212.38
351.354	231.14
351.737	258.93
352.119	249.67
352.502	267.52
352.884	295.32
353.267	296.45
353.65	294.41
354.032	312.04
354.414	325.6
354.797	327.41
355.179	341.42
355.562	341.64
355.944	318.82
356.326	341.42
356.709	335.32
357.091	365.37
357.473	343.23
357.855	353.17
358.238	359.04
358.62	339.38
359.002	346.16
359.384	350.46
359.766	356.11
360.148	340.51
360.53	351.59
360.912	338.03
361.294	353.85
361.676	348.42
362.057	350.23
362.439	341.42
362.821	347.97
363.203	318.37
363.584	330.57
363.966	326.73
364.348	329.67
364.729	350.46
365.111	345.94
365.493	331.93
365.874	338.25
366.256	315.88
366.637	329.21
367.019	333.51
367.4	328.54
367.781	340.51
368.163	335.54
368.544	328.99
368.925	353.39
369.306	347.75
369.688	324.92
370.069	326.5
370.45	301.19
370.831	350.23
371.212	319.72
371.593	333.96
371.974	333.73
372.355	337.8
372.736	337.35
373.117	355.88
373.498	343.45
373.879	324.69
374.26	335.09
374.641	330.8
375.021	331.02
375.402	336.22
375.783	351.81
376.163	355.43
376.544	339.38
376.925	359.95
377.305	348.88
377.686	364.92
378.066	361.3
378.447	326.73
378.827	357.69
379.208	351.36
379.588	360.85
379.968	357.91
380.349	361.53
380.729	367.18
381.109	371.02
381.489	374.86
381.87	369.21
382.25	374.86
382.63	378.48
383.01	379.38
383.39	389.33
383.77	380.06
384.15	378.25
384.53	372.6
384.91	372.15
385.29	374.41
385.67	376.44
386.049	402.21
386.429	412.83
386.809	411.47
387.189	374.86
387.568	395.2
387.948	399.04
388.328	415.77
388.707	403.56
389.087	400.17
389.466	399.27
389.846	404.01
390.225	427.52
390.605	417.57
390.984	419.16
391.363	422.55
391.743	448.53
392.122	431.58
392.501	441.53
392.881	444.47
393.26	450.12
393.639	450.57
394.018	459.15
394.397	482.2
394.776	471.13
395.155	479.49
395.534	476.78
395.913	486.95
396.292	492.6
396.671	479.04
397.05	509.77
397.429	503.45
397.808	499.38
398.186	501.87
398.565	529.66
398.944	531.02
399.323	530.57
399.701	534.41
400.08	535.99
400.458	558.14
400.837	577.34
401.215	574.63
401.594	571.47
401.972	576.44
402.351	573.5
402.729	608.53
403.107	619.6
403.486	616.66
403.864	613.5
404.242	613.95
404.62	628.42
404.999	657.34
405.377	639.04
405.755	663.67
406.133	675.42
406.511	703.22
406.889	696.21
407.267	702.54
407.645	694.18
408.023	724.91
408.401	737.79
408.779	735.98
409.156	758.58
409.534	789.09
409.912	792.25
410.29	797
410.667	796.77
411.045	819.6
411.422	834.74
411.8	826.15
412.178	832.7
412.555	863.21
412.933	858.92
413.31	881.06
413.687	909.76
414.065	901.85
414.442	895.53
414.819	909.54
415.197	951.57
415.574	941.18
415.951	964.23
416.328	964.9
416.705	978.69
417.082	970.33
417.46	987.05
417.837	1004.68
418.214	1024.11
418.591	1033.83
418.967	1051.46
419.344	1058.01
419.721	1077.9
420.098	1036.09
420.475	1080.83
420.852	1093.04
421.228	1100.04
421.605	1110.21
421.982	1147.72
422.358	1159.93
422.735	1156.31
423.111	1133.49
423.488	1190.66
423.864	1158.57
424.241	1205.12
424.617	1221.17
424.994	1219.13
425.37	1228.85
425.746	1249.87
426.123	1256.87
426.499	1270.66
426.875	1264.56
427.251	1284.9
427.627	1353.82
428.003	1348.62
428.379	1349.3
428.756	1389.3
429.132	1427.72
429.507	1409.19
429.883	1425.23
430.259	1411.22
430.635	1468.39
431.011	1501.61
431.387	1492.35
431.763	1524.21
432.138	1521.05
432.514	1548.84
432.89	1572.35
433.265	1614.15
433.641	1608.5
434.016	1626.58
434.392	1662.74
434.767	1710.65
435.143	1682.17
435.518	1725.34
435.894	1720.36
436.269	1767.82
436.644	1784.32
437.02	1797.88
437.395	1839.68
437.77	1833.13
438.145	1891.43
438.52	1867.93
438.895	1916.07
439.271	1934.14
439.646	1942.51
440.021	1960.13
440.395	1968.04
440.77	1959.45
441.145	1979.11
441.52	2012.33
441.895	2036.74
442.27	2028.6
442.645	2071.77
443.019	2099.56
443.394	2130.3
443.769	2104.31
444.143	2093.46
444.518	2191.99
444.892	2169.84
445.267	2134.59
445.641	2183.63
446.016	2230.63
446.39	2220.69
446.764	2265.21
447.139	2272.89
447.513	2292.33
447.887	2307.02
448.262	2287.81
448.636	2298.88
449.01	2359.22
449.384	2363.06
449.758	2393.34
450.132	2406
450.506	2421.14
450.88	2434.7
451.254	2442.15
451.628	2511.76
452.002	2470.18
452.376	2516.05
452.75	2556.27
453.123	2547.46
453.497	2644.18
453.871	2611.41
454.244	2693.67
454.618	2686.44
454.992	2721.69
455.365	2748.36
455.739	2795.36
456.112	2846.44
456.486	2868.36
456.859	2922.37
457.232	2956.72
457.606	2927.79
457.979	2989.94
458.352	3029.48
458.725	3085.07
459.099	3136.15
459.472	3166.65
459.845	3179.99
460.218	3234.22
460.591	3255.47
460.964	3249.14
461.337	3304.05
461.71	3374.78
462.083	3429.7
462.456	3375.69
462.829	3464.73
463.201	3510.6
463.574	3499.75
463.947	3572.07
464.32	3636.7
464.692	3675.34
465.065	3740.2
465.438	3742.01
465.81	3829.01
466.183	3836.24
466.555	3923.7
466.928	3921.89
467.3	3931.15
467.672	4012.96
468.045	4132.05
468.417	4135.67
468.789	4152.16
469.161	4231.48
469.534	4339.73
469.906	4348.54
470.278	4398.49
470.65	4463.12
471.022	4510.8
471.394	4653.62
471.766	4645.71
472.138	4722.09
472.51	4755.31
472.882	4902.88
473.253	4956.89
473.625	5020.62
473.997	5129.09
474.369	5123.89
474.74	5174.74
475.112	5296.09
475.484	5332.02
475.855	5502.19
476.227	5496.08
476.598	5665.8
476.97	5736.08
477.341	5851.33
477.713	5932.91
478.084	5954.15
478.455	6165.22
478.827	6146.01
479.198	6350.75
479.569	6327.93
479.94	6495.38
480.311	6534.02
480.682	6750.29
481.053	6841.13
481.424	7014.91
481.795	7085.65
482.166	7161.8
482.537	7278.41
482.908	7361.35
483.279	7492.19
483.65	7617.38
484.021	7835.23
484.391	7936.47
484.762	7881.78
485.133	8025.51
485.503	8174.43
485.874	8356.12
486.244	8383.47
486.615	8537.13
486.985	8672.72
487.356	8805.6
487.726	8909.78
488.097	9055.31
488.467	9101.64
488.837	9330.33
489.207	9388.41
489.578	9453.04
489.948	9595.41
490.318	9728.52
490.688	9807.38
491.058	9977.32
491.428	10092.12
491.798	10267.48
492.168	10410.53
492.538	10356.52
492.908	10580.24
493.278	10718.09
493.648	10768.04
494.017	10900.01
494.387	10982.04
494.757	11137.29
495.126	11262.49
495.496	11282.6
495.866	11400.34
496.235	11474.01
496.605	11603.04
496.974	11690.95
497.344	11787.9
497.713	11759.2
498.082	11980.66
498.452	12083.26
498.821	12076.7
499.19	12163.93
499.559	12251.84
499.928	12458.16
500.298	12499.52
500.667	12606.86
501.036	12617.7
501.405	12743.58
501.774	12715.1
502.143	12894.53
502.512	12869.45
502.88	13080.07
503.249	13152.38
503.618	13281.19
503.987	13348.53
504.356	13438.93
504.724	13506.27
505.093	13621.07
505.462	13670.56
505.83	13803.44
506.199	13914.85
506.567	14035.29
506.936	14036.65
507.304	14273.03
507.672	14369.07
508.041	14437.32
508.409	14554.15
508.777	14663.53
509.145	14732.9
509.514	14796.63
509.882	14904.42
510.25	14953.24
510.618	15061.71
510.986	15115.04
511.354	15339.67
511.722	15501.7
512.09	15568.59
512.458	15584.86
512.826	15887.68
513.193	15792.76
513.561	15909.14
513.929	16068.24
514.297	16214.45
514.664	16373.54
515.032	16398.85
515.4	16564.49
515.767	16704.15
516.135	16781.44
516.502	16774.88
516.869	16988.44
517.237	17186.62
517.604	17023.24
517.972	17333.51
518.339	17436.79
518.706	17439.05
519.073	17663.9
519.44	17720.4
519.808	17968.3
520.175	17950.67
520.542	18211.46
520.909	18339.59
521.276	18368.51
521.643	18627.26
522.009	18742.06
522.376	18839.91
522.743	19082.39
523.11	19218.89
523.477	19340.47
523.843	19495.04
524.21	19711.53
524.577	19852.99
524.943	19969.83
525.31	19988.13
525.676	20313.55
526.043	20454.11
526.409	20553.54
526.776	20742.69
527.142	20860.65
527.508	20873.99
527.874	21220.87
528.241	21177.25
528.607	21356.68
528.973	21551.48
529.339	21537.47
529.705	21786.28
530.071	21972.26
530.437	22023.11
530.803	22162.31
531.169	22372.93
531.535	22299.03
531.901	22485.92
532.267	22494.06
532.632	22764.33
532.998	22910.09
533.364	22960.94
533.73	23038.67
534.095	23300.59
534.461	23306.24
534.826	23473.69
535.192	23649.96
535.557	23727.47
535.923	23714.81
536.288	23831.65
536.653	23978.31
537.019	23974.47
537.384	24085.43
537.749	24206.78
538.114	24339.88
538.479	24366.77
538.845	24454.23
539.21	24479.31
539.575	24624.85
539.94	24730.38
540.305	24833.88
540.67	24833.2
541.034	25031.16
541.399	25122.69
541.764	25254.66
542.129	25275.45
542.494	25473.86
542.858	25454.66
543.223	25424.15
543.587	25677.7
543.952	25719.06
544.316	25888.77
544.681	25885.6
545.045	26019.16
545.41	26190.46
545.774	26143.45
546.138	26169.67
546.503	26257.8
546.867	26350.9
547.231	26519.49
547.595	26440.62
547.959	26687.39
548.324	26721.06
548.688	26931.9
549.052	27030.66
549.416	27007.84
549.779	27087.61
550.143	27175.29
550.507	27285.34
550.871	27441.5
551.235	27401.05
551.599	27666.35
551.962	27643.3
552.326	27641.94
552.689	27901.82
553.053	27829.51
553.417	27883.07
553.78	28327.8
554.143	28056.4
554.507	28318.08
554.87	28544.52
555.234	28649.37
555.597	28660
555.96	28655.02
556.323	28824.74
556.686	28959.42
557.05	29055.01
557.413	29187.89
557.776	29281.45
558.139	29527.54
558.502	29499.97
558.865	29635.56
559.228	29836.46
559.59	29944.26
559.953	29923.24
560.316	30290.01
560.679	30337.92
561.041	30473.05
561.404	30638.7
561.767	30896.77
562.129	30798.02
562.492	31071.68
562.854	31190.55
563.217	31040.27
563.579	31229.87
563.941	31442.75
564.304	31496.76
564.666	31766.81
565.028	31804.09
565.39	31885.22
565.753	32127.47
566.115	32162.73
566.477	32379.22
566.839	32520.23
567.201	32569.95
567.563	32708.93
567.925	32940.11
568.287	32943.72
568.648	32958.41
569.01	33100.1
569.372	33310.27
569.734	33364.05
570.095	33465.97
570.457	33728.11
570.819	33765.62
571.18	33772.85
571.542	33851.5
571.903	33920.2
572.265	34143.01
572.626	34226.18
572.987	34241.77
573.349	34399.05
573.71	34442.22
574.071	34648.09
574.432	34574.19
574.794	34842.21
575.155	34790.23
575.516	34759.27
575.877	34997.68
576.238	35012.14
576.599	35157.68
576.96	35147.73
577.32	35166.26
577.681	35221.63
578.042	35338.24
578.403	35458.91
578.763	35309.31
579.124	35480.38
579.485	35538.23
579.845	35773.25
580.206	35446.94
580.566	35513.37
580.927	35645.57
581.287	35696.19
581.648	35643.09
582.008	35834.27
582.368	35791.56
582.728	35818.45
583.089	35697.1
583.449	35642.41
583.809	35834.72
584.169	35815.74
584.529	35719.24
584.889	36109.52
585.249	35843.76
585.609	35599.02
585.969	35864.78
586.329	35845.34
586.688	35974.83
587.048	35827.72
587.408	35766.25
587.768	35830.88
588.127	35899.35
588.487	35884.89
588.846	36013.47
589.206	35685.8
589.565	35815.74
589.925	36059.57
590.284	35882.63
590.643	35944.55
591.003	36121.95
591.362	36105.45
591.721	35881.73
592.08	35895.51
592.44	36128.95
592.799	36082.4
593.158	35998.33
593.517	35973.02
593.876	36026.13
594.235	35947.94
594.593	35926.7
594.952	36010.99
595.311	35902.06
595.67	36033.81
596.029	36212.34
596.387	36267.03
596.746	36263.64
597.104	36025.68
597.463	36084.21
597.822	36331.43
598.18	36094.83
598.538	36076.52
598.897	36258.67
599.255	35987.49
599.613	36385.22
599.972	36242.85
600.33	36338.66
600.688	36055.28
601.046	36300.02
601.404	36362.62
601.762	36357.42
602.12	36517.42
602.478	36505.66
602.836	36585.66
603.194	36294.6
603.552	36256.86
603.91	36225.45
604.268	36310.87
604.625	36345.67
604.983	36330.98
605.341	36137.76
605.698	36495.04
606.056	36556.51
606.413	36485.55
606.771	36558.32
607.128	36710.4
607.485	36574.14
607.843	36652.78
608.2	36824.07
608.557	36757.18
608.914	36463.63
609.272	36886.9
609.629	36958.99
609.986	36994.47
610.343	36835.15
610.7	37081.24
611.057	37018.42
611.414	36979.32
611.771	36994.01
612.127	37104.74
612.484	37074.69
612.841	37255.48
613.198	37118.3
613.554	37115.82
613.911	37305.87
614.267	37373.89
614.624	37306.77
614.98	37461.12
615.337	37692.75
615.693	37510.16
616.05	37629.7
616.406	37657.05
616.762	37530.72
617.118	37491.18
617.475	37707.89
617.831	37628.35
618.187	37743.6
618.543	37899.98
618.899	37941.78
619.255	37839.64
619.611	37815.69
619.967	38151.04
620.323	38012.29
620.678	37921.22
621.034	37939.07
621.39	37904.27
621.746	37768
622.101	38151.27
622.457	37949.24
622.812	38074.89
623.168	38043.25
623.523	38085.06
623.879	38019.07
624.234	37973.42
624.589	38012.52
624.945	38135
625.3	38074.89
625.655	38122.57
626.01	38047.77
626.365	38187.65
626.72	38088
627.075	37947.43
627.43	37946.08
627.785	37950.37
628.14	38062.46
628.495	38120.99
628.85	37947.21
629.205	37779.08
629.559	38004.61
629.914	37802.35
630.269	37816.36
630.623	37749.25
630.978	37691.4
631.332	37931.16
631.687	37954.67
632.041	37698.85
632.396	37763.03
632.75	37636.03
633.104	37686.65
633.459	37446.2
633.813	37510.61
634.167	37397.84
634.521	37482.81
634.875	37458.63
635.229	37485.07
635.583	37273.1
635.937	37234.23
636.291	37160.79
636.645	37220
636.999	37079.43
637.352	37133.44
637.706	36907.01
638.06	37160.11
638.413	37132.31
638.767	36720.35
639.121	36978.19
639.474	36602.84
639.828	36780.91
640.181	36684.87
640.534	36675.83
640.888	36473.8
641.241	36490.98
641.594	36505.21
641.947	36460.24
642.301	36422.28
642.654	36344.99
643.007	36354.48
643.36	36298.44
643.713	36162.62
644.066	36500.24
644.419	36183.41
644.771	35923.98
645.124	35567.38
645.477	35571.45
645.83	35244.23
646.182	35214.4
646.535	35030.67
646.888	35210.78
647.24	34939.15
647.593	35291.91
647.945	35170.78
648.298	35111.35
648.65	34968.08
649.002	34872.94
649.355	34827.06
649.707	34751.36
650.059	34992.26
650.411	35228.86
650.763	35441.51
651.115	35675.18
651.467	35649.64
651.819	35587.72
652.171	35535.75
652.523	35504.79
652.875	35437.44
653.227	35276.54
653.578	35510.66
653.93	35408.52
654.282	35242.42
654.633	35230.44
654.985	35359.71
655.337	35307.28
655.688	35359.48
656.039	35204.68
656.391	34864.13
656.742	35011.69
657.094	35091.24
657.445	35212.14
657.796	34957
658.147	34996.78
658.498	34973.28
658.849	35053.73
659.2	34867.52
659.551	34891.24
659.902	34945.93
660.253	34734.86
660.604	34923.33
660.955	34644.47
661.306	34740.97
661.656	34579.61
662.007	34668.88
662.358	34512.27
662.708	34570.12
663.059	34444.7
663.409	34260.3
663.76	34396.12
664.11	34406.74
664.461	34470.46
664.811	34345.5
665.161	34207.65
665.511	34161.55
665.862	34078.84
666.212	34144.6
666.562	34062.11
666.912	33860.99
667.262	33917.71
667.612	33770.37
667.962	33814.21
668.312	33550.94
668.662	33690.6
669.011	33548.91
669.361	33533.54
669.711	33473.65
670.06	33284.28
670.41	33193.44
670.76	33027.56
671.109	33156.6
671.459	33164.51
671.808	32941.69
672.157	32961.12
672.507	32790.73
672.856	32756.16
673.205	32631.87
673.554	32778.98
673.904	32622.38
674.253	32884.74
674.602	32590.97
674.951	32057.19
675.3	31945.33
675.649	32352.55
675.998	32310.52
676.346	32444.75
676.695	32484.3
677.044	32205.66
677.393	32343.29
677.741	32255.38
678.09	32090.87
678.438	31958.67
678.787	32144.2
679.135	32212.67
679.484	32033.24
679.832	32164.54
680.181	31890.42
680.529	31960.7
680.877	32022.62
681.225	32027.36
681.573	32221.26
681.922	31956.63
682.27	31996.63
682.618	32033.01
682.966	31846.8
683.314	32019.91
683.661	32062.39
684.009	31860.14
684.357	31861.72
684.705	31800.93
685.053	31934.94
685.4	31853.13
685.748	31764.77
686.095	31701.95
686.443	31698.33
686.79	31554.38
687.138	31824.43
687.485	31831.21
687.832	31737.65
688.18	31804.32
688.527	31738.56
688.874	31815.39
689.221	31655.17
689.568	31670.31
689.915	31580.37
690.262	31636.19
690.609	31440.71
690.956	31387.15
691.303	31497.66
691.65	31412.47
691.997	31351.22
692.344	31257.44
692.69	31374.95
693.037	31393.71
693.383	30948.97
693.73	31255.63
694.077	31065.81
694.423	31114.17
694.769	31042.08
695.116	30904.23
695.462	31018.35
695.808	30880.95
696.155	31018.13
696.501	30760.5
696.847	30727.06
697.193	30540.85
697.539	30697.23
697.885	30398.48
698.231	30330.69
698.577	30351.7
698.923	30375.2
699.269	30171.82
699.614	30049.79
699.96	30098.6
700.306	30106.96
700.651	29893.63
700.997	29769.12
701.342	29841.66
701.688	29838.72
702.033	29657.03
702.379	29691.38
702.724	29642.57
703.069	29636.47
703.415	29211.84
703.76	29289.81
704.105	29355.12
704.45	29243.48
704.795	29117.16
705.14	29020.44
705.485	28940.44
705.83	28927.33
706.175	28951.96
706.52	28834
706.865	28749.48
707.209	28724.4
707.554	28558.53
707.899	28721.91
708.243	28555.59
708.588	28425.2
708.932	28313.11
709.277	28286.67
709.621	28318.54
709.966	28178.2
710.31	28329.38
710.654	28026.34
710.998	27945.21
711.342	28087.35
711.687	27883.07
712.031	27823.18
712.375	27669.06
712.719	27727.59
713.063	27603.3
713.407	27722.84
713.75	27495.73
714.094	27665.67
714.438	27432
714.782	27432
715.125	27328.96
715.469	27302.06
715.812	27245.79
716.156	27092.35
716.499	27078.12
716.843	27000.6
717.186	26895.3
717.53	27023.43
717.873	27082.64
718.216	26910.44
718.559	26693.04
718.902	26707.5
719.246	26759.25
719.589	26644
719.932	26571.91
720.275	26462.31
720.617	26624.79
720.96	26440.17
721.303	26490.79
721.646	26445.59
721.989	26286.27
722.331	26409.43
722.674	26296.89
723.016	26233.84
723.359	26130.12
723.701	26125.82
724.044	26073.85
724.386	25881.31
724.729	26037.92
725.071	25894.19
725.413	25832.05
725.755	25862.78
726.097	25760.41
726.439	25578.72
726.782	25602.45
727.124	25858.71
727.465	25652.39
727.807	25620.3
728.149	25574.43
728.491	25441.1
728.833	25604.48
729.175	25380.99
729.516	25340.31
729.858	25332.4
730.199	25303.02
730.541	25246.98
730.882	25218.05
731.224	25216.92
731.565	25137.6
731.906	25031.62
732.248	25088.11
732.589	24926.76
732.93	24920.21
733.271	25033.42
733.612	24989.36
733.953	24796.14
734.294	24897.16
734.635	24710.27
734.976	24776.48
735.317	24670.04
735.658	24701
735.999	24627.11
736.339	24551.4
736.68	24535.58
737.021	24462.37
737.361	24418.52
737.702	24493.32
738.042	24405.19
738.383	24256.72
738.723	24395.7
739.063	24309.6
739.404	24271.86
739.744	24302.37
740.084	24220.79
740.424	24132.66
740.764	24248.13
741.104	24253.78
741.444	24025.99
741.784	24130.4
742.124	24117.29
742.464	23939.67
742.804	23889.95
743.143	23902.15
743.483	23962.27
743.823	23741.71
744.162	23891.08
744.502	23843.85
744.841	23744.19
745.181	23715.04
745.52	23661.26
745.86	23656.06
746.199	23463.97
746.538	23508.94
746.877	23516.63
747.216	23488.61
747.556	23537.42
747.895	23361.83
748.234	23364.54
748.573	23326.12
748.911	23275.05
749.25	23280.7
749.589	23143.53
749.928	23121.84
750.267	23174.26
750.605	23126.36
750.944	23043.19
751.283	22960.48
751.621	22919.13
751.96	22900.37
752.298	22850.88
752.636	22766.36
752.975	22762.52
753.313	22673.03
753.651	22676.42
753.989	22600.72
