Data from white_steel_sheet_FLMS001491_036.txt Node
Date: Tue Feb 07 10:57:46 GMT 2017
User: dcchb
Spectrometer: FLMS00149
Trigger mode: 0
Integration Time (sec): 2.000000E-2
Scans to average: 10
Electric dark correction enabled: true
Nonlinearity correction enabled: false
Boxcar width: 0
XAxis mode: Wavelengths
Number of Pixels in Spectrum: 2048
>>>>>Begin Spectral Data<<<<<
341.393	-12.17
341.776	-12.17
342.16	-12.17
342.543	-53.76
342.927	-42.91
343.31	-76.81
343.693	-70.93
344.077	-55.56
344.46	-70.7
344.843	-46.52
345.226	-37.71
345.61	-33.19
345.993	-6.53
346.376	-13.76
346.759	4.32
347.142	35.51
347.525	44.55
347.908	66.92
348.291	89.74
348.674	61.04
349.057	109.63
349.44	145.56
349.823	166.58
350.206	170.19
350.588	206.8
350.971	215.62
351.354	230.08
351.737	246.12
352.119	261.72
352.502	275.28
352.884	274.6
353.267	293.81
353.65	293.58
354.032	316.86
354.414	328.38
354.797	320.02
355.179	325.44
355.562	339
355.944	339
356.326	332.9
356.709	341.26
357.091	364.09
357.473	360.02
357.855	344.65
358.238	358.66
358.62	366.57
359.002	348.27
359.384	373.13
359.766	331.54
360.148	352.56
360.53	371.09
360.912	342.17
361.294	346.23
361.676	336.29
362.057	341.04
362.439	335.61
362.821	334.26
363.203	338.32
363.584	338.1
363.966	333.8
364.348	332.22
364.729	350.08
365.111	329.06
365.493	347.36
365.874	328.16
366.256	333.8
366.637	314.14
367.019	331.54
367.4	321.38
367.781	344.88
368.163	340.13
368.544	340.58
368.925	326.12
369.306	303.07
369.688	329.06
370.069	323.64
370.45	331.54
370.831	335.61
371.212	322.05
371.593	335.39
371.974	338.78
372.355	327.7
372.736	314.37
373.117	341.04
373.498	350.08
373.879	330.19
374.26	350.98
374.641	324.31
375.021	332.45
375.402	354.14
375.783	347.82
376.163	353.92
376.544	353.01
376.925	349.62
377.305	354.6
377.686	354.37
378.066	358.66
378.447	342.84
378.827	361.6
379.208	366.35
379.588	365.44
379.968	349.62
380.349	365.67
380.729	343.75
381.109	353.24
381.489	353.47
381.87	361.83
382.25	369.74
382.63	372
383.01	378.78
383.39	387.81
383.77	367.93
384.15	359.34
384.53	390.3
384.91	375.84
385.29	385.1
385.67	399.79
386.049	367.02
386.429	377.42
386.809	398.21
387.189	406.8
387.568	406.8
387.948	399.57
388.328	404.76
388.707	418.77
389.087	409.96
389.466	405.89
389.846	416.74
390.225	430.75
390.605	437.3
390.984	440.69
391.363	455.84
391.743	409.06
392.122	431.66
392.501	466.46
392.881	453.58
393.26	439.11
393.639	459.23
394.018	437.08
394.397	466.68
394.776	458.32
395.155	480.69
395.534	476.85
395.913	490.41
396.292	470.07
396.671	476.17
397.05	507.81
397.429	505.33
397.808	498.32
398.186	506.91
398.565	534.7
398.944	530.41
399.323	521.14
399.701	539.45
400.08	550.75
400.458	559.56
400.837	565.21
401.215	567.47
401.594	579.22
401.972	564.53
402.351	573.8
402.729	574.93
403.107	585.78
403.486	626.23
403.864	587.36
404.242	614.25
404.62	642.05
404.999	627.58
405.377	637.53
405.755	651.31
406.133	649.95
406.511	668.49
406.889	685.21
407.267	692.89
407.645	707.58
408.023	711.65
408.401	728.6
408.779	738.09
409.156	770.18
409.534	762.49
409.912	780.8
410.29	787.13
410.667	791.42
411.045	774.47
411.422	816.28
411.8	816.73
412.178	844.98
412.555	851.98
412.933	866.45
413.31	867.35
413.687	888.82
414.065	897.86
414.442	908.25
414.819	917.29
415.197	926.56
415.574	948.7
415.951	952.09
416.328	967.46
416.705	969.95
417.082	978.31
417.46	1006.78
417.837	1001.13
418.214	1009.95
418.591	1046.55
418.967	1044.52
419.344	1062.15
419.721	1065.08
420.098	1060.79
420.475	1066.67
420.852	1093.33
421.228	1081.58
421.605	1131.52
421.982	1087.68
422.358	1138.3
422.735	1143.28
423.111	1147.12
423.488	1153.22
423.864	1158.19
424.241	1173.78
424.617	1208.36
424.994	1199.54
425.37	1241.58
425.746	1239.77
426.123	1257.4
426.499	1262.37
426.875	1278.19
427.251	1307.56
427.627	1340.78
428.003	1331.52
428.379	1341.46
428.756	1364.06
429.132	1390.95
429.507	1395.25
429.883	1432.53
430.259	1452.42
430.635	1465.98
431.011	1456.26
431.387	1503.04
431.763	1501.01
432.138	1524.51
432.514	1529.48
432.89	1568.35
433.265	1592.08
433.641	1610.38
434.016	1658.97
434.392	1628.01
434.767	1695.8
435.143	1677.27
435.518	1689.93
435.894	1707.78
436.269	1769.02
436.644	1759.53
437.02	1775.57
437.395	1799.08
437.77	1807.89
438.145	1857.38
438.52	1853.99
438.895	1868.23
439.271	1910.71
439.646	1935.34
440.021	1945.06
440.395	1950.71
440.77	1959.07
441.145	1985.96
441.52	1997.94
441.895	2020.77
442.27	2020.99
442.645	2019.64
443.019	2071.84
443.394	2079.3
443.769	2086.75
444.143	2110.93
444.518	2119.75
444.892	2117.03
445.267	2134.21
445.641	2181.44
446.016	2183.02
446.39	2213.76
446.764	2224.38
447.139	2201.33
447.513	2263.47
447.887	2267.99
448.262	2282
448.636	2305.73
449.01	2340.53
449.384	2373.07
449.758	2352.73
450.132	2377.59
450.506	2406.52
450.88	2434.77
451.254	2433.86
451.628	2471.83
452.002	2460.3
452.376	2513.18
452.75	2528.1
453.123	2565.38
453.497	2608.1
453.871	2600.86
454.244	2654.87
454.618	2688.32
454.992	2711.82
455.365	2733.74
455.739	2805.38
456.112	2795.66
456.486	2834.53
456.859	2871.59
457.232	2920.4
457.606	2862.1
457.979	2941.42
458.352	3020.97
458.725	3054.41
459.099	3066.84
459.472	3111.58
459.845	3132.83
460.218	3183
460.591	3209.66
460.964	3233.16
461.337	3300.05
461.71	3363.56
462.083	3401.07
462.456	3403.33
462.829	3415.31
463.201	3511.12
463.574	3534.62
463.947	3546.6
464.32	3636.32
464.692	3647.84
465.065	3638.58
465.438	3750.44
465.81	3764.45
466.183	3793.6
466.555	3918.34
466.928	3951.79
467.3	3939.59
467.672	4008.74
468.045	4090.54
468.417	4082.63
468.789	4102.07
469.161	4177.09
469.534	4271.1
469.906	4361.27
470.278	4384.32
470.65	4397.88
471.022	4514.03
471.394	4578.21
471.766	4636.06
472.138	4665.89
472.51	4781.37
472.882	4847.13
473.253	4878.32
473.625	4954.25
473.997	5067.92
474.369	5096.39
474.74	5149.5
475.112	5254.81
475.484	5360.34
475.855	5411.41
476.227	5420.45
476.598	5650.73
476.97	5652.08
477.341	5783.15
477.713	5841.68
478.084	5915.58
478.455	6083.26
478.827	6112.64
479.198	6282.8
479.569	6306.3
479.94	6479.41
480.311	6506.98
480.682	6690.7
481.053	6807.98
481.424	6915.1
481.795	6988.09
482.166	7115.55
482.537	7177.92
482.908	7368.42
483.279	7406.61
483.65	7587.17
484.021	7734.29
484.391	7789.88
484.762	7894.28
485.133	7976.54
485.503	8083.66
485.874	8233.71
486.244	8331.56
486.615	8485.68
486.985	8570.88
487.356	8766.58
487.726	8756.63
488.097	8942.84
488.467	8999.11
488.837	9191.88
489.207	9339.44
489.578	9519.78
489.948	9494.47
490.318	9620.79
490.688	9733.78
491.058	9814.69
491.428	10039.09
491.798	10169.48
492.168	10318.63
492.538	10334.67
492.908	10467.78
493.278	10582.8
493.648	10597.72
494.017	10770.37
494.387	10848.78
494.757	10966.75
495.126	11109.79
495.496	11195.89
495.866	11264.14
496.235	11453.74
496.605	11452.61
496.974	11551.36
497.344	11651.47
497.713	11736.67
498.082	11881.98
498.452	11957.91
498.821	12038.36
499.19	12049.65
499.559	12230.44
499.928	12355.41
500.298	12439.02
500.667	12545.69
501.036	12567.38
501.405	12688.73
501.774	12706.59
502.143	12783.19
502.512	12860.93
502.88	12969.4
503.249	13079.01
503.618	13150.42
503.987	13201.04
504.356	13248.04
504.724	13423.86
505.093	13531.2
505.462	13517.64
505.83	13638.77
506.199	13793.34
506.567	13968.47
506.936	13987.23
507.304	14144.74
507.672	14259.54
508.041	14271.97
508.409	14373.21
508.777	14528.23
509.145	14645.52
509.514	14705.4
509.882	14761.67
510.25	14916.92
510.618	15027.43
510.986	15056.58
511.354	15215.22
511.722	15348.1
512.09	15503.12
512.458	15487.08
512.826	15632.16
513.193	15683.46
513.561	15864.24
513.929	15989.44
514.297	16115.31
514.664	16247.06
515.032	16339.03
515.4	16536.32
515.767	16502.65
516.135	16673.04
516.502	16608.18
516.869	16993.71
517.237	16984.67
517.604	17055.85
517.972	17218.78
518.339	17429.4
518.706	17416.29
519.073	17536.06
519.44	17658.32
519.808	17799.56
520.175	17864.87
520.542	18132.66
520.909	18303.05
521.276	18287.01
521.643	18546.66
522.009	18759.53
522.376	18811.96
522.743	18933.32
523.11	19090.83
523.477	19255.79
523.843	19376.02
524.21	19631.15
524.577	19716.57
524.943	19864.14
525.31	20001.08
525.676	20217.58
526.043	20325.82
526.409	20297.35
526.776	20614.4
527.142	20649.43
527.508	20822.31
527.874	20928.74
528.241	21186.14
528.607	21215.52
528.973	21383.87
529.339	21414.61
529.705	21653.7
530.071	21812.34
530.437	21907.47
530.803	22128.94
531.169	22171.2
531.535	22167.13
531.901	22292.1
532.267	22574.58
532.632	22601.24
532.998	22671.52
533.364	22751.29
533.73	22908.58
534.095	23092.53
534.461	23252.98
534.826	23331.39
535.192	23386.08
535.557	23644.83
535.923	23610.03
536.288	23680.99
536.653	23734.09
537.019	23833.98
537.384	24081.88
537.749	24093.18
538.114	24198.26
538.479	24202.56
538.845	24372.49
539.21	24402.1
539.575	24562.77
539.94	24586.5
540.305	24599.38
540.67	24805.48
541.034	24908.98
541.399	24958.92
541.764	24978.35
542.129	25131.34
542.494	25227.84
542.858	25440.04
543.223	25414.73
543.587	25543.31
543.952	25533.14
544.316	25620.82
544.681	25662.4
545.045	25802.51
545.41	25985.33
545.774	26109.4
546.138	26005.67
546.503	26240.24
546.867	26257.87
547.231	26440.46
547.595	26448.6
547.959	26515.72
548.324	26562.27
548.688	26575.6
549.052	26677.07
549.416	26958.64
549.779	26833.45
550.143	26954.8
550.507	27182.14
550.871	27308.01
551.235	27159.09
551.599	27400.89
551.962	27399.08
552.326	27572.64
552.689	27717.49
553.053	27632.75
553.417	27870.26
553.78	28077.03
554.143	28093.98
554.507	28274.99
554.87	28195.22
555.234	28640.18
555.597	28369.45
555.96	28616.9
556.323	28723.11
556.686	28737.35
557.05	28889.21
557.413	28994.07
557.776	29106.38
558.139	29316.55
558.502	29391.57
558.865	29491.68
559.228	29654.39
559.59	29775.52
559.953	29882.41
560.316	30147.94
560.679	30182.06
561.041	30279.91
561.404	30388.16
561.767	30664.76
562.129	30619.56
562.492	30898.88
562.854	30859.1
563.217	30951.76
563.579	31143.16
563.941	31270.62
564.304	31442.59
564.666	31563.04
565.028	31672.64
565.39	31737.27
565.753	31937.04
566.115	32111.5
566.477	32059.98
566.839	32225.85
567.201	32425.16
567.563	32460.87
567.925	32642.11
568.287	32667.64
568.648	32758.71
569.01	32951.25
569.372	32991.03
569.734	33005.26
570.095	33181.3
570.457	33388.53
570.819	33464.91
571.18	33558.92
571.542	33629.2
571.903	33761.17
572.265	33830.1
572.626	33991.9
572.987	33909.42
573.349	34103.09
573.71	34283.65
574.071	34204.78
574.432	34492.23
574.794	34736.29
575.155	34650.87
575.516	34450.65
575.877	34698.32
576.238	34816.97
576.599	34817.64
576.96	34940.58
577.32	34984.19
577.681	35094.92
578.042	35161.59
578.403	35006.79
578.763	35211.31
579.124	35157.75
579.485	35273.9
579.845	35328.14
580.206	35275.94
580.566	35309.61
580.927	35348.25
581.287	35567.45
581.648	35373.34
582.008	35588.02
582.368	35495.59
582.728	35500.79
583.089	35551.18
583.449	35574.69
583.809	35485.2
584.169	35591.18
584.529	35569.26
584.889	35681.8
585.249	35431.86
585.609	35471.41
585.969	35750.5
586.329	35619.88
586.688	35621.46
587.048	35630.5
587.408	35537.17
587.768	35569.04
588.127	35591.63
588.487	35510.96
588.846	35776.94
589.206	35487
589.565	35498.3
589.925	35806.77
590.284	35625.31
590.643	35792.99
591.003	35780.1
591.362	35767.68
591.721	35581.24
592.08	35730.84
592.44	35670.95
592.799	35700.78
593.158	35733.1
593.517	35717.73
593.876	35850.84
594.235	35633.44
594.593	35727
594.952	35816.71
595.311	35598.64
595.67	35745.08
596.029	36003.15
596.387	35850.84
596.746	35929.03
597.104	35870.05
597.463	35743.72
597.822	36017.16
598.18	35872.08
598.538	35839.99
598.897	35867.56
599.255	35729.26
599.613	36272.29
599.972	36010.38
600.33	36004.96
600.688	35861.91
601.046	36049.7
601.404	36209.02
601.762	36094.9
602.12	36332.86
602.478	36277.72
602.836	36086.09
603.194	35988.69
603.552	36061
603.91	35906.65
604.268	36179.42
604.625	35974.68
604.983	36204.5
605.341	36033.43
605.698	36252.18
606.056	36235.23
606.413	36122.02
606.771	36474.55
607.128	36499.86
607.485	36305.29
607.843	36264.39
608.2	36447.88
608.557	36515.68
608.914	36453.31
609.272	36592.29
609.629	36557.49
609.986	36796.57
610.343	36663.02
610.7	36680.87
611.057	36843.58
611.414	36762.23
611.771	36801.32
612.127	36907.08
612.484	36922
612.841	37000.19
613.198	36802.68
613.554	36874.99
613.911	37171.48
614.267	37159.28
614.624	37141.65
614.98	37093.52
615.337	37292.38
615.693	37331.02
616.05	36977.59
616.406	37419.84
616.762	37378.48
617.118	37353.4
617.475	37394.98
617.831	37390.01
618.187	37473.62
618.543	37430.46
618.899	37735.99
619.255	37486.73
619.611	37442.89
619.967	37549.1
620.323	37713.61
620.678	37533.05
621.034	37556.55
621.39	37514.07
621.746	37469.33
622.101	37877
622.457	37546.16
622.812	37782.31
623.168	37860.95
623.523	37815.98
623.879	37825.25
624.234	37651.92
624.589	37590.9
624.945	37844.68
625.3	37764.46
625.655	37772.37
626.01	37786.61
626.365	37873.61
626.72	37790.45
627.075	37770.79
627.43	37714.52
627.785	37623.22
628.14	37765.81
628.495	37832.93
628.85	37766.49
629.205	37597.91
629.559	37815.98
629.914	37561.07
630.269	37719.71
630.623	37373.28
630.978	37558.14
631.332	37608.53
631.687	37663.67
632.041	37519.72
632.396	37630.23
632.75	37447.18
633.104	37519.95
633.459	37300.06
633.813	37322.66
634.167	37273.85
634.521	37306.62
634.875	37377.12
635.229	37278.6
635.583	37038.6
635.937	37040.41
636.291	36999.73
636.645	37028.66
636.999	36961.09
637.352	37109.79
637.706	36877.48
638.06	36814.2
638.413	36646.97
638.767	36707.09
639.121	36667.99
639.474	36437.26
639.828	36512.51
640.181	36649.91
640.534	36506.64
640.888	36384.38
641.241	36287.66
641.594	36384.83
641.947	36272.29
642.301	36251.5
642.654	36315.68
643.007	36298.06
643.36	36214.22
643.713	36155.01
644.066	36212.41
644.419	35993.21
644.771	35678.41
645.124	35345.77
645.477	35362.04
645.83	35090.63
646.182	34974.93
646.535	34997.07
646.888	35005.44
647.24	34851.09
647.593	35042.5
647.945	34988.49
648.298	34653.35
648.65	34703.07
649.002	34465.79
649.355	34658.78
649.707	34648.61
650.059	34792.79
650.411	35197.29
650.763	35237.07
651.115	35555.48
651.467	35418.08
651.819	35422.6
652.171	35176.96
652.523	35270.74
652.875	35265.77
653.227	35123.85
653.578	35370.17
653.93	35203.4
654.282	35064.19
654.633	35074.13
654.985	35242.04
655.337	35089.95
655.688	35042.95
656.039	35012.21
656.391	34752.56
656.742	34812.9
657.094	35021.48
657.445	34917.3
657.796	34916.85
658.147	34886.57
658.498	34796.85
658.849	34863.97
659.2	34874.37
659.551	34574.71
659.902	34645.22
660.253	34466.01
660.604	34526.13
660.955	34641.15
661.306	34440.7
661.656	34369.75
662.007	34341.27
662.358	34341.27
662.708	34341.95
663.059	34171.33
663.409	34028.51
663.76	34235.74
664.11	34238.9
664.461	34235.06
664.811	33990.77
665.161	34092.01
665.511	33922.75
665.862	33839.82
666.212	33913.49
666.562	33927.27
666.912	33730.21
667.262	33673.04
667.612	33462.2
667.962	33652.25
668.312	33358.93
668.662	33499.71
669.011	33214.52
669.361	33242.54
669.711	33061.53
670.06	33055.88
670.41	32895.21
670.76	32920.29
671.109	32882.78
671.459	32779.28
671.808	32666.06
672.157	32877.81
672.507	32509.91
672.856	32520.76
673.205	32557.82
673.554	32564.6
673.904	32458.38
674.253	32438.5
674.602	32310.82
674.951	31810.27
675.3	31774.56
675.649	32289.57
675.998	32166.87
676.346	32151.95
676.695	32253.42
677.044	32094.33
677.393	32137.26
677.741	32035.8
678.09	31964.61
678.438	31924.39
678.787	31941.34
679.135	31936.14
679.484	31694.79
679.832	31888
680.181	31696.37
680.529	31799.19
680.877	31841
681.225	31701.79
681.573	32010.94
681.922	31814.78
682.27	31727.33
682.618	31713.09
682.966	31803.49
683.314	31769.14
683.661	31726.65
684.009	31657.05
684.357	31543.61
684.705	31562.81
685.053	31588.12
685.4	31654.11
685.748	31461.8
686.095	31570.72
686.443	31462.7
686.79	31518.3
687.138	31494.34
687.485	31671.96
687.832	31621.12
688.18	31742.02
688.527	31464.06
688.874	31541.8
689.221	31630.61
689.568	31531.85
689.915	31443.5
690.262	31323.05
690.609	31331.18
690.956	31268.13
691.303	31300.9
691.65	31081.24
691.997	31293.22
692.344	31089.61
692.69	31206.67
693.037	31140.23
693.383	30933.68
693.73	31153.33
694.077	30886.22
694.423	30937.07
694.769	30881.93
695.116	30848.03
695.462	30879.44
695.808	30703.85
696.155	30730.07
696.501	30448.72
696.847	30495.72
697.193	30386.12
697.539	30458.21
697.885	30308.61
698.231	30231.1
698.577	30251.44
698.923	30057.54
699.269	30063.87
699.614	29950.65
699.96	29965.57
700.306	30057.77
700.651	29689.42
700.997	29671.11
701.342	29667.04
701.688	29636.31
702.033	29563.77
702.379	29553.83
702.724	29414.17
703.069	29469.76
703.415	29133.73
703.76	29078.59
704.105	29171.24
704.45	29205.81
704.795	28937.57
705.14	28764.02
705.485	28784.36
705.83	28730.57
706.175	28762.89
706.52	28676.56
706.865	28603.12
707.209	28537.81
707.554	28583.91
707.899	28548.2
708.243	28414.2
708.588	28306.4
708.932	28100.76
709.277	28176.24
709.621	28230.92
709.966	28110.25
710.31	28162.23
710.654	27836.13
710.998	27946.19
711.342	28031.61
711.687	27887.88
712.031	27735.57
712.375	27611.05
712.719	27629.58
713.063	27628.45
713.407	27641.79
713.75	27332.87
714.094	27392.08
714.438	27335.35
714.782	27423.04
715.125	27155.47
715.469	27392.98
715.812	27128.13
716.156	26999.54
716.499	27023.95
716.843	27054.46
717.186	26840
717.53	27004.97
717.873	26902.82
718.216	26931.07
718.559	26756.84
718.902	26623.06
719.246	26678.87
719.589	26489.28
719.932	26342.16
720.275	26472.78
720.617	26500.12
720.96	26403.85
721.303	26310.07
721.646	26443.17
721.989	26125.89
722.331	26166.35
722.674	26122.96
723.016	26211.99
723.359	26176.29
723.701	26167.93
724.044	25851.33
724.386	25753.93
724.729	25862.4
725.071	25798.22
725.413	25793.02
725.755	25854.04
726.097	25796.86
726.439	25518.91
726.782	25517.1
727.124	25700.14
727.465	25651.11
727.807	25566.36
728.149	25475.97
728.491	25336.09
728.833	25499.92
729.175	25275.3
729.516	25388.29
729.858	25171.34
730.199	25344.22
730.541	25225.81
730.882	25143.32
731.224	25273.26
731.565	25064.68
731.906	25007.51
732.248	24992.37
732.589	24811.81
732.93	24901.75
733.271	24805.93
733.612	24951.24
733.953	24840.73
734.294	24684.8
734.635	24646.61
734.976	24748.08
735.317	24567.97
735.658	24535.88
735.999	24564.81
736.339	24576.11
736.68	24561.64
737.021	24418.14
737.361	24316.23
737.702	24387.41
738.042	24418.14
738.383	24331.14
738.723	24256.11
739.063	24243.23
739.404	24313.29
739.744	24302.44
740.084	24073.75
740.424	24118.26
740.764	24105.38
741.104	24037.59
741.444	23890.93
741.784	23951.49
742.124	24003.92
742.464	24078.94
742.804	23906.07
743.143	23896.35
743.483	23825.62
743.823	23694.77
744.162	23678.05
744.502	23725.73
744.841	23507.66
745.181	23765.51
745.52	23556.92
745.86	23615.68
746.199	23465.85
746.538	23477.38
746.877	23509.69
747.216	23427.43
747.556	23310.15
747.895	23387.21
748.234	23231.06
748.573	23258.63
748.911	23297.95
749.25	23272.41
749.589	23004.85
749.928	23096.82
750.267	23085.75
750.605	23001.01
750.944	22789.71
751.283	22767.57
751.621	22867.68
751.96	22827
752.298	22812.08
752.636	22760.79
752.975	22637.4
753.313	22540.45
753.651	22696.83
753.989	22558.53
