Data from white_steel_sheet_FLMS001491_081.txt Node
Date: Tue Feb 07 10:58:36 GMT 2017
User: dcchb
Spectrometer: FLMS00149
Trigger mode: 0
Integration Time (sec): 2.000000E-2
Scans to average: 10
Electric dark correction enabled: true
Nonlinearity correction enabled: false
Boxcar width: 0
XAxis mode: Wavelengths
Number of Pixels in Spectrum: 2048
>>>>>Begin Spectral Data<<<<<
341.393	-2.25
341.776	-2.25
342.16	-2.25
342.543	-59.87
342.927	-71.85
343.31	-85.18
343.693	-77.5
344.077	-68.46
344.46	-56.93
344.843	-51.74
345.226	-41.57
345.61	-32.08
345.993	-6.77
346.376	3.86
346.759	23.97
347.142	27.36
347.525	48.37
347.908	70.52
348.291	63.74
348.674	70.97
349.057	111.42
349.44	134.02
349.823	154.36
350.206	173.79
350.588	204.75
350.971	220.12
351.354	256.96
351.737	232.78
352.119	267.8
352.502	271.65
352.884	282.49
353.267	314.81
353.65	307.35
354.032	319.33
354.414	315.49
354.797	318.65
355.179	316.62
355.562	323.17
355.944	337.18
356.326	342.83
356.709	332.21
357.091	358.65
357.473	354.36
357.855	348.48
358.238	338.54
358.62	340.12
359.002	368.82
359.384	333.56
359.766	350.51
360.148	341.47
360.53	339.44
360.912	339.44
361.294	345.54
361.676	350.06
362.057	346.9
362.439	331.76
362.821	360.23
363.203	318.42
363.584	348.71
363.966	357.29
364.348	355.49
364.729	355.03
365.111	328.37
365.493	328.59
365.874	323.62
366.256	352.32
366.637	345.77
367.019	350.74
367.4	335.6
367.781	346.9
368.163	340.57
368.544	325.88
368.925	364.98
369.306	309.16
369.688	332.43
370.069	318.65
370.45	350.29
370.831	327.24
371.212	345.32
371.593	342.83
371.974	334.92
372.355	348.03
372.736	333.79
373.117	355.03
373.498	317.07
373.879	354.36
374.26	343.51
374.641	325.66
375.021	348.71
375.402	321.59
375.783	357.29
376.163	351.64
376.544	362.94
376.925	364.3
377.305	371.76
377.686	346.22
378.066	348.03
378.447	369.72
378.827	369.04
379.208	377.41
379.588	348.25
379.968	361.13
380.349	369.5
380.729	388.03
381.109	369.95
381.489	371.08
381.87	356.61
382.25	375.15
382.63	376.05
383.01	404.75
383.39	371.08
383.77	390.96
384.15	387.12
384.53	402.72
384.91	389.16
385.29	389.16
385.67	383.73
386.049	404.3
386.429	413.79
386.809	401.36
387.189	390.96
387.568	383.51
387.948	406.78
388.328	420.79
388.707	404.52
389.087	440
389.466	428.93
389.846	433
390.225	428.03
390.605	441.13
390.984	425.54
391.363	442.49
391.743	458.99
392.122	440.91
392.501	452.21
392.881	448.59
393.26	470.28
393.639	468.7
394.018	482.94
394.397	482.71
394.776	480
395.155	482.04
395.534	506.67
395.913	499.21
396.292	514.12
396.671	520.45
397.05	512.09
397.429	545.08
397.808	525.88
398.186	529.49
398.565	558.64
398.944	546.21
399.323	542.37
399.701	562.94
400.08	567.68
400.458	574.24
400.837	582.15
401.215	592.77
401.594	592.31
401.972	614.24
402.351	619.43
402.729	629.15
403.107	631.18
403.486	647
403.864	640.68
404.242	644.97
404.62	651.52
404.999	656.27
405.377	688.36
405.755	689.26
406.133	690.39
406.511	721.8
406.889	715.25
407.267	761.8
407.645	760.22
408.023	765.64
408.401	767.45
408.779	786.43
409.156	785.08
409.534	788.69
409.912	818.75
410.29	839.09
410.667	839.09
411.045	861.01
411.422	838.41
411.8	893.32
412.178	896.26
412.555	895.36
412.933	913.66
413.31	933.77
413.687	972.87
414.065	974.9
414.442	942.81
414.819	977.39
415.197	988.46
415.574	1024.39
415.951	1056.03
416.328	1028.24
416.705	1017.84
417.082	1063.71
417.46	1074.56
417.837	1070.04
418.214	1079.31
418.591	1087.44
418.967	1117.27
419.344	1119.53
419.721	1119.08
420.098	1146.88
420.475	1147.78
420.852	1143.71
421.228	1166.31
421.605	1184.39
421.982	1203.6
422.358	1213.54
422.735	1199.3
423.111	1204.28
423.488	1249.47
423.864	1246.54
424.241	1272.98
424.617	1270.72
424.994	1290.38
425.37	1322.69
425.746	1308
426.123	1325.18
426.499	1333.31
426.875	1342.35
427.251	1383.03
427.627	1409.02
428.003	1439.3
428.379	1445.85
428.756	1462.57
429.132	1502.35
429.507	1486.75
429.883	1516.13
430.259	1539.41
430.635	1556.58
431.011	1564.94
431.387	1586.87
431.763	1623.47
432.138	1636.58
432.514	1627.32
432.89	1656.24
433.265	1691.95
433.641	1741.21
434.016	1756.8
434.392	1781.89
434.767	1794.32
435.143	1823.47
435.518	1833.86
435.894	1839.06
436.269	1891.49
436.644	1888.55
437.02	1925.84
437.395	1926.29
437.77	1959.74
438.145	1996.35
438.52	1981.2
438.895	2013.07
439.271	2024.59
439.646	2083.8
440.021	2087.87
440.395	2085.83
440.77	2083.12
441.145	2128.77
441.52	2174.87
441.895	2165.61
442.27	2192.5
442.645	2179.62
443.019	2232.27
443.394	2233.18
443.769	2264.59
444.143	2224.36
444.518	2297.81
444.892	2308.43
445.267	2308.43
445.641	2308.88
446.016	2345.26
446.39	2388.88
446.764	2366.51
447.139	2381.19
447.513	2412.15
447.887	2441.31
448.262	2422.1
448.636	2439.27
449.01	2485.82
449.384	2549.1
449.758	2534.86
450.132	2571.7
450.506	2599.04
450.88	2619.61
451.254	2621.41
451.628	2628.87
452.002	2703.45
452.376	2721.75
452.75	2743.67
453.123	2782.99
453.497	2806.04
453.871	2808.53
454.244	2873.16
454.618	2898.69
454.992	2956.77
455.365	2924.23
455.739	3036.32
456.112	3028.18
456.486	3067.96
456.859	3083.1
457.232	3164.22
457.606	3151.8
457.979	3191.34
458.352	3263.88
458.725	3297.55
459.099	3289.87
459.472	3371
459.845	3450.54
460.218	3428.17
460.591	3492.13
460.964	3504.33
461.337	3535.97
461.71	3638.79
462.083	3660.48
462.456	3675.4
462.829	3729.86
463.201	3753.81
463.574	3761.05
463.947	3835.39
464.32	3907.48
464.692	3929.63
465.065	3943.41
465.438	4032.68
465.81	4104.31
466.183	4157.64
466.555	4181.6
466.928	4254.37
467.3	4216.17
467.672	4328.26
468.045	4424.3
468.417	4417.3
468.789	4445.77
469.161	4510.86
469.534	4574.81
469.906	4728.03
470.278	4738.42
470.65	4789.94
471.022	4916.95
471.394	4945.87
471.766	5031.29
472.138	5078.75
472.51	5133.21
472.882	5190.61
473.253	5320.33
473.625	5353.77
473.997	5524.84
474.369	5573.88
474.74	5598.06
475.112	5723.48
475.484	5737.26
475.855	5864.27
476.227	5880.76
476.598	6116.69
476.97	6104.94
477.341	6271.04
477.713	6376.8
478.084	6333.86
478.455	6617.24
478.827	6612.04
479.198	6836.22
479.569	6846.16
479.94	7008.87
480.311	7095.19
480.682	7244.12
481.053	7386.49
481.424	7552.81
481.795	7647.04
482.166	7778.34
482.537	7844.1
482.908	7997.54
483.279	8082.06
483.65	8280.02
484.021	8391.43
484.391	8436.63
484.762	8575.61
485.133	8627.13
485.503	8778.54
485.874	8951.19
486.244	9065.99
486.615	9235.25
486.985	9335.81
487.356	9561.34
487.726	9584.39
488.097	9768.57
488.467	9804.28
488.837	10064.83
489.207	10173.31
489.578	10290.37
489.948	10384.83
490.318	10519.74
490.688	10590.02
491.058	10735.1
491.428	10915.21
491.798	10922.66
492.168	11259.83
492.538	11256.67
492.908	11328.3
493.278	11548.19
493.648	11634.96
494.017	11750.44
494.387	11877.89
494.757	11887.61
495.126	12114.27
495.496	12126.47
495.866	12311.55
496.235	12363.08
496.605	12548.84
496.974	12604.2
497.344	12756.29
497.713	12820.47
498.082	12900.69
498.452	13097.97
498.821	13105.88
499.19	13099.1
499.559	13243.73
499.928	13451.19
500.298	13531.64
500.667	13601.92
501.036	13611.86
501.405	13855.24
501.774	13859.31
502.143	13976.37
502.512	14038.97
502.88	14163.48
503.249	14168.91
503.618	14334.78
503.987	14403.48
504.356	14468.33
504.724	14612.96
505.093	14702.9
505.462	14692.74
505.83	14906.51
506.199	15057.02
506.567	15179.95
506.936	15166.17
507.304	15433.96
507.672	15379.5
508.041	15540.17
508.409	15681.64
508.777	15918.24
509.145	15966.6
509.514	15960.5
509.882	16048.86
510.25	16168.18
510.618	16392.8
510.986	16340.15
511.354	16539.92
511.722	16720.93
512.09	16825.56
512.458	16832.11
512.826	17084.31
513.193	17202.73
513.561	17218.09
513.929	17463.51
514.297	17504.64
514.664	17688.36
515.032	17785.31
515.4	17879.54
515.767	17942.14
516.135	18161.34
516.502	18035.92
516.869	18482.01
517.237	18436.59
517.604	18491.51
517.972	18730.6
518.339	18912.74
518.706	18909.8
519.073	19100.08
519.44	19209.45
519.808	19389.11
520.175	19405.83
520.542	19706.16
520.909	19890.79
521.276	19854.41
521.643	20133.5
522.009	20271.8
522.376	20363.55
522.743	20583.43
523.11	20758.11
523.477	20992.91
523.843	21100.48
524.21	21253.92
524.577	21461.82
524.943	21591.31
525.31	21625.43
525.676	21894.35
526.043	22043.95
526.409	22255.7
526.776	22401.23
527.142	22488.46
527.508	22556.26
527.874	22873.54
528.241	22883.48
528.607	23036.02
528.973	23309.91
529.339	23266.3
529.705	23568.21
530.071	23680.52
530.437	23821.31
530.803	23992.6
531.169	24144.24
531.535	24056.33
531.901	24297.91
532.267	24320.5
532.632	24582.42
532.998	24677.56
533.364	24827.61
533.73	24814.95
534.095	25075.96
534.461	25084.1
534.826	25383.75
535.192	25309.18
535.557	25745.55
535.923	25623.07
536.288	25725.21
536.653	25901.25
537.019	25873.23
537.384	25943.06
537.749	26069.39
538.114	26230.06
538.479	26341.24
538.845	26385.08
539.21	26495.81
539.575	26496.27
539.94	26722.02
540.305	26934.22
540.67	26688.8
541.034	27006.54
541.399	27037.27
541.764	27199.3
542.129	27271.16
542.494	27241.33
542.858	27472.74
543.223	27392.97
543.587	27709.57
543.952	27688.33
544.316	27942.78
544.681	27792.73
545.045	28088.32
545.41	28165.38
545.774	28221.42
546.138	28352.26
546.503	28400.4
546.867	28383.45
547.231	28617.34
547.595	28662.54
547.959	28741.86
548.324	28824.79
548.688	28878.12
549.052	29152.69
549.416	29188.17
549.779	29094.84
550.143	29216.42
550.507	29388.62
550.871	29636.97
551.235	29700.02
551.599	29811.89
551.962	29809.17
552.326	29904.76
552.689	30165.77
553.053	30004.87
553.417	30095.95
553.78	30466.11
554.143	30469.5
554.507	30556.27
554.87	30749.49
555.234	30991.74
555.597	30859.99
555.96	31085.52
556.323	31165.07
556.686	31254.11
557.05	31405.06
557.413	31565.06
557.776	31650.71
558.139	31832.62
558.502	31909.68
558.865	32012.28
559.228	32273.74
559.59	32282.1
559.953	32412.95
560.316	32743.79
560.679	32706.72
561.041	32897.45
561.404	33127.05
561.767	33395.75
562.129	33099.48
562.492	33658.34
562.854	33544.67
563.217	33534.95
563.579	33644.55
563.941	33983.75
564.304	34088.16
564.666	34216.29
565.028	34218.55
565.39	34427.81
565.753	34657.18
566.115	34694.47
566.477	34940.11
566.839	34971.07
567.201	35177.62
567.563	35259.43
567.925	35434.11
568.287	35476.82
568.648	35675.91
569.01	35822.58
569.372	35895.34
569.734	35781.67
570.095	36072.96
570.457	36223.69
570.819	36373.3
571.18	36327.19
571.542	36617.81
571.903	36631.82
572.265	36704.36
572.626	36848.54
572.987	36848.31
573.349	36903.9
573.71	37151.13
574.071	37140.51
574.432	37312.93
574.794	37685.8
575.155	37547.28
575.516	37360.84
575.877	37690.77
576.238	37742.52
576.599	37787.5
576.96	37738.23
577.32	37825.69
577.681	38101.39
578.042	38098.22
578.403	38056.87
578.763	38041.27
579.124	38119.69
579.485	38248.73
579.845	38359.01
580.206	38174.83
580.566	38220.03
580.927	38275.84
581.287	38505.67
581.648	38501.6
582.008	38557.64
582.368	38467.93
582.728	38514.48
583.089	38513.13
583.449	38543.86
583.809	38438.1
584.169	38693.01
584.529	38579.11
584.889	38918.54
585.249	38655.04
585.609	38475.84
585.969	38704.53
586.329	38630.41
586.688	38713.8
587.048	38647.59
587.408	38697.3
587.768	38660.47
588.127	38614.82
588.487	38654.36
588.846	38834.47
589.206	38524.42
589.565	38664.53
589.925	38683.74
590.284	38604.2
590.643	38650.75
591.003	38648.49
591.362	38898.65
591.721	38750.86
592.08	38724.19
592.44	38741.37
592.799	38907.24
593.158	38721.48
593.517	38751.54
593.876	38775.04
594.235	38721.26
594.593	38768.71
594.952	38828.6
595.311	38820.46
595.67	38787.02
596.029	38984.75
596.387	39059.1
596.746	39019.78
597.104	38978.65
597.463	38918.31
597.822	39029.5
598.18	38775.94
598.538	38751.99
598.897	38904.08
599.255	38663.4
599.613	39280.34
599.972	39084.64
600.33	39250.73
600.688	38947.46
601.046	39033.79
601.404	39161.92
601.762	39087.8
602.12	39246.44
602.478	39122.38
602.836	39275.82
603.194	38973.9
603.552	39156.05
603.91	39077.4
604.268	39177.06
604.625	39007.12
604.983	39291.64
605.341	39051.64
605.698	39192.66
606.056	39257.29
606.413	39449.6
606.771	39429.03
607.128	39415.25
607.485	39287.79
607.843	39323.27
608.2	39416.38
608.557	39595.36
608.914	39413.67
609.272	39528.92
609.629	39765.3
609.986	39790.61
610.343	39710.61
610.7	40065.63
611.057	39981.11
611.414	39815.01
611.771	39904.73
612.127	39906.76
612.484	39931.17
612.841	40226.53
613.198	39984.05
613.554	40178.84
613.911	40367.99
614.267	40236.24
614.624	40186.3
614.98	40270.14
615.337	40391.95
615.693	40330.48
616.05	40468.1
616.406	40619.51
616.762	40523.02
617.118	40427.65
617.475	40379.29
617.831	40578.61
618.187	40542.45
618.543	40750.13
618.899	40849.11
619.255	40743.58
619.611	40738.15
619.967	40826.06
620.323	40898.15
620.678	40775.67
621.034	40585.39
621.39	40737.7
621.746	40631.49
622.101	41124.58
622.457	40977.47
622.812	40932.72
623.168	40959.39
623.523	41027.41
623.879	41189.21
624.234	40700.41
624.589	40915.32
624.945	40954.42
625.3	41046.17
625.655	40955.1
626.01	40990.8
626.365	41035.32
626.72	41067.41
627.075	40874.65
627.43	40977.92
627.785	40752.16
628.14	40865.15
628.495	41004.36
628.85	40931.82
629.205	40693.86
629.559	41006.17
629.914	40749
630.269	40800.75
630.623	40717.59
630.978	40607.76
631.332	40898.37
631.687	40881.2
632.041	40555.56
632.396	40675.33
632.75	40572.51
633.104	40457.93
633.459	40349.91
633.813	40267.88
634.167	40393.75
634.521	40301.78
634.875	40412.28
635.229	40228.79
635.583	40083.48
635.937	40012.75
636.291	40003.48
636.645	40068.11
636.999	39905.63
637.352	40045.29
637.706	39794.22
638.06	39962.81
638.413	39745.86
638.767	39754
639.121	39806.65
639.474	39500.22
639.828	39513.1
640.181	39511.74
640.534	39511.52
640.888	39494.79
641.241	39244.86
641.594	39492.99
641.947	39530.05
642.301	39350.39
642.654	39264.52
643.007	39220.9
643.36	39194.24
643.713	39265.2
644.066	39298.87
644.419	39055.48
644.771	38838.09
645.124	38338.89
645.477	38431.77
645.83	38050.09
646.182	37941.16
646.535	37769.19
646.888	38107.49
647.24	37684
647.593	37963.99
647.945	37893.26
648.298	37676.09
648.65	37540.27
649.002	37581.4
649.355	37713.6
649.707	37658.91
650.059	37782.07
650.411	38104.77
650.763	38097.77
651.115	38457.76
651.467	38342.06
651.819	38445.56
652.171	38256.41
652.523	38218.9
652.875	38186.81
653.227	38060.26
653.578	38362.4
653.93	38098.67
654.282	37959.47
654.633	37944.55
654.985	37916.98
655.337	37983.42
655.688	37880.83
656.039	38076.75
656.391	37551.12
656.742	37635.41
657.094	37750.66
657.445	37905.01
657.796	37768.29
658.147	37670.89
658.498	37614.17
658.849	37629.53
659.2	37698.68
659.551	37562.42
659.902	37508.63
660.253	37458.01
660.604	37554.73
660.955	37327.17
661.306	37504.11
661.656	37315.87
662.007	37291.01
662.358	37258.7
662.708	37221.86
663.059	37127.4
663.409	36960.62
663.76	37204.46
664.11	37044.46
664.461	37060.96
664.811	37009.66
665.161	36860.74
665.511	36689.9
665.862	36663.91
666.212	36725.38
666.562	36708.43
666.912	36423.92
667.262	36413.97
667.612	36318.16
667.962	36355.67
668.312	36202.68
668.662	36287.42
669.011	36149.8
669.361	35954.32
669.711	35986.19
670.06	35787.77
670.41	35801.78
670.76	35796.36
671.109	35773.08
671.459	35669.13
671.808	35409.25
672.157	35564.05
672.507	35370.16
672.856	35295.36
673.205	35183.5
673.554	35453.32
673.904	35243.38
674.253	35255.81
674.602	35153.67
674.951	34615.83
675.3	34493.57
675.649	34982.82
675.998	34834.8
676.346	34796.16
676.695	35162.93
677.044	34673.45
677.393	34804.07
677.741	34830.51
678.09	34765.65
678.438	34662.83
678.787	34751.19
679.135	34756.16
679.484	34473.68
679.832	34657.63
680.181	34492.67
680.529	34568.82
680.877	34435.04
681.225	34513.68
681.573	34735.15
681.922	34479.33
682.27	34392.1
682.618	34534.25
682.966	34417.64
683.314	34540.35
683.661	34439.33
684.009	34294.71
684.357	34300.58
684.705	34287.25
685.053	34349.39
685.4	34309.17
685.748	34275.05
686.095	34127.48
686.443	34219.68
686.79	34210.41
687.138	34409.96
687.485	34289.06
687.832	34252.45
688.18	34304.2
688.527	34002.74
688.874	34281.6
689.221	34149.4
689.568	34185.56
689.915	34005.67
690.262	34074.15
690.609	34001.83
690.956	33910.31
691.303	34000.7
691.65	33936.52
691.997	33913.7
692.344	33552.13
692.69	33741.27
693.037	33830.76
693.383	33577.66
693.73	33712.8
694.077	33467.83
694.423	33537.44
694.769	33394.16
695.116	33412.92
695.462	33400.04
695.808	33436.2
696.155	33502.41
696.501	33069.88
696.847	33232.59
697.193	32955.53
697.539	33093.38
697.885	32790.11
698.231	32706.05
698.577	32694.52
698.923	32621.08
699.269	32596.67
699.614	32322.78
699.96	32316
700.306	32389.9
700.651	32352.61
700.997	32264.48
701.342	32070.81
701.688	32157.59
702.033	31957.37
702.379	31999.85
702.724	31907.42
703.069	32012.51
703.415	31549.69
703.76	31673.53
704.105	31574.33
704.45	31526.87
704.795	31351.73
705.14	31260.89
705.485	31230.15
705.83	31071.06
706.175	31197.84
706.52	31097.28
706.865	31034.9
707.209	30907.68
707.554	30868.58
707.899	30960.1
708.243	30638.53
708.588	30723.5
708.932	30514.69
709.277	30620.68
709.621	30485.09
709.966	30350.63
710.31	30476.05
710.654	30202.38
710.998	30144.53
711.342	30270.4
711.687	30055.72
712.031	29964.42
712.375	29869.29
712.719	29870.87
713.063	30046.23
713.407	29965.55
713.75	29806.69
714.094	29666.35
714.438	29710.65
714.782	29620.25
715.125	29459.35
715.469	29573.93
715.812	29345.68
716.156	29298.45
716.499	29340.71
716.843	29368.28
717.186	29114.73
717.53	29202.18
717.873	29182.3
718.216	29021.62
718.559	28974.39
718.902	28705.02
719.246	28782.08
719.589	28753.16
719.932	28634.29
720.275	28634.97
720.617	28582.09
720.96	28530.56
721.303	28507.06
721.646	28517.68
721.989	28348.42
722.331	28462.54
722.674	28380.96
723.016	28275.88
723.359	28192.72
723.701	28234.98
724.044	28172.61
724.386	28013.51
724.729	27961.76
725.071	28057.58
725.413	27998.83
725.755	27818.27
726.097	27849
726.439	27635.67
726.782	27741.43
727.124	27829.79
727.465	27554.54
727.807	27581.21
728.149	27662.11
728.491	27555.9
728.833	27562.91
729.175	27488.56
729.516	27412.85
729.858	27306.87
730.199	27396.81
730.541	27342.57
730.882	27197.27
731.224	27246.08
731.565	27058.29
731.906	27114.33
732.248	27088.12
732.589	27065.97
732.93	26917.27
733.271	26891.96
733.612	26800.21
733.953	26895.13
734.294	26759.76
734.635	26619.88
734.976	26850.83
735.317	26584.17
735.658	26602.48
735.999	26701.01
736.339	26564.29
736.68	26568.13
737.021	26590.95
737.361	26449.49
737.702	26494.01
738.042	26391.18
738.383	26411.07
738.723	26473.44
739.063	26165.43
739.404	26253.79
739.744	26219.89
740.084	26039.33
740.424	26181.7
740.764	26183.51
741.104	26082.72
741.444	25899.67
741.784	25888.15
742.124	25907.36
742.464	25838.2
742.804	25851.09
743.143	25791.88
743.483	25736.29
743.823	25590.98
744.162	25666.01
744.502	25678.89
744.841	25553.92
745.181	25674.59
745.52	25543.07
745.86	25548.49
746.199	25475.95
746.538	25500.36
746.877	25449.51
747.216	25344.21
747.556	25250.65
747.895	25276.19
748.234	25212.01
748.573	25124.1
748.911	25095.63
749.25	25122.52
749.589	25102.86
749.928	24907.16
750.267	24936.08
750.605	24873.03
750.944	24870.32
751.283	24836.88
751.621	24740.61
751.96	24632.81
752.298	24709.19
752.636	24565.02
752.975	24518.69
753.313	24398.24
753.651	24457.68
753.989	24361.86
