Data from White_reflection_standard_FLMS001491_042.txt Node
Date: Tue Feb 07 10:32:03 GMT 2017
User: dcchb
Spectrometer: FLMS00149
Trigger mode: 0
Integration Time (sec): 2.000000E-2
Scans to average: 10
Electric dark correction enabled: true
Nonlinearity correction enabled: false
Boxcar width: 0
XAxis mode: Wavelengths
Number of Pixels in Spectrum: 2048
>>>>>Begin Spectral Data<<<<<
341.393	7.42
341.776	7.42
342.16	7.42
342.543	-73.49
342.927	-44.33
343.31	-72.58
343.693	-71.23
344.077	-41.85
344.46	-50.44
344.843	-57.22
345.226	-53.6
345.61	-6.6
345.993	-5.01
346.376	-15.86
346.759	-12.92
347.142	17.81
347.525	50.58
347.908	57.81
348.291	60.07
348.674	81.31
349.057	119.73
349.44	114.3
349.823	145.26
350.206	172.83
350.588	233.85
350.971	244.92
351.354	260.06
351.737	274.98
352.119	279.27
352.502	308.42
352.884	307.75
353.267	322.21
353.65	354.3
354.032	348.88
354.414	336.45
354.797	329.67
355.179	359.27
355.562	392.04
355.944	390.91
356.326	376.67
356.709	394.75
357.091	395.88
357.473	375.99
357.855	390.91
358.238	399.72
358.62	395.2
359.002	398.82
359.384	397.01
359.766	404.47
360.148	393.62
360.53	403.11
360.912	409.44
361.294	410.57
361.676	417.57
362.057	416.9
362.439	433.39
362.821	402.88
363.203	416.44
363.584	407.63
363.966	376.44
364.348	403.79
364.729	408.76
365.111	394.07
365.493	421.19
365.874	404.69
366.256	411.02
366.637	411.02
367.019	412.38
367.4	419.16
367.781	404.01
368.163	429.1
368.544	402.43
368.925	426.84
369.306	418.03
369.688	420.96
370.069	436.1
370.45	393.39
370.831	437.69
371.212	439.04
371.593	431.58
371.974	442.88
372.355	439.49
372.736	456.89
373.117	446.73
373.498	451.47
373.879	439.95
374.26	435.2
374.641	433.62
375.021	430.45
375.402	462.77
375.783	486.72
376.163	507.74
376.544	513.39
376.925	472.71
377.305	494.18
377.686	500.06
378.066	518.36
378.447	507.29
378.827	492.83
379.208	491.24
379.588	537.12
379.968	508.64
380.349	530.79
380.729	529.21
381.109	535.08
381.489	519.04
381.87	530.34
382.25	534.86
382.63	543.9
383.01	558.81
383.39	559.04
383.77	588.42
384.15	552.49
384.53	587.51
384.91	575.76
385.29	596.55
385.67	587.96
386.049	622.54
386.429	611.47
386.809	598.81
387.189	620.51
387.568	625.03
387.948	638.58
388.328	649.43
388.707	659.6
389.087	659.6
389.466	674.97
389.846	680.62
390.225	695.31
390.605	689.43
390.984	692.82
391.363	694.63
391.743	689.88
392.122	698.47
392.501	724.46
392.881	720.39
393.26	752.48
393.639	743.21
394.018	755.64
394.397	783.44
394.776	780.5
395.155	773.27
395.534	775.76
395.913	786.38
396.292	789.54
396.671	821.63
397.05	824.12
397.429	829.09
397.808	836.32
398.186	862.99
398.565	853.72
398.944	874.06
399.323	866.38
399.701	904.11
400.08	898.92
400.458	898.24
400.837	928.75
401.215	920.39
401.594	922.19
401.972	928.97
402.351	929.65
402.729	957.45
403.107	974.17
403.486	964
403.864	972.14
404.242	979.82
404.62	1004.23
404.999	1030.66
405.377	1023.89
405.755	1043.32
406.133	1059.59
406.511	1037.67
406.889	1102.53
407.267	1101.17
407.645	1123.77
408.023	1165.35
408.401	1138.46
408.779	1158.12
409.156	1211.9
409.534	1172.58
409.912	1210.32
410.29	1227.72
410.667	1267.95
411.045	1280.83
411.422	1301.17
411.8	1289.87
412.178	1305.46
412.555	1341.17
412.933	1363.09
413.31	1384.55
413.687	1407.15
414.065	1393.14
414.442	1431.33
414.819	1463.2
415.197	1462.52
415.574	1474.27
415.951	1501.61
416.328	1511.33
416.705	1530.99
417.082	1534.38
417.46	1556.07
417.837	1584.32
418.214	1598.33
418.591	1600.82
418.967	1609.86
419.344	1641.04
419.721	1661.61
420.098	1691.44
420.475	1704.09
420.852	1692.34
421.228	1716.97
421.605	1734.6
421.982	1741.83
422.358	1788.61
422.735	1813.47
423.111	1834.94
423.488	1812.11
423.864	1866.12
424.241	1899.57
424.617	1923.97
424.994	1896.18
425.37	1921.94
425.746	1944.31
426.123	2019.34
426.499	1991.09
426.875	2025.67
427.251	2089.62
427.627	2095.04
428.003	2100.92
428.379	2111.77
428.756	2153.35
429.132	2217.75
429.507	2217.07
429.883	2275.83
430.259	2278.99
430.635	2354.92
431.011	2321.93
431.387	2411.19
431.763	2442.83
432.138	2437.18
432.514	2488.03
432.89	2537.07
433.265	2575.03
433.641	2598.08
434.016	2647.12
434.392	2669.94
434.767	2751.07
435.143	2752.88
435.518	2713.33
435.894	2762.37
436.269	2857.06
436.644	2869.49
437.02	2903.84
437.395	2885.53
437.77	2965.3
438.145	3000.1
438.52	2985.42
438.895	3025.41
439.271	3075.13
439.646	3145.41
440.021	3140.44
440.395	3149.25
440.77	3176.37
441.145	3210.04
441.52	3281.23
441.895	3243.04
442.27	3295.46
442.645	3330.04
443.019	3392.64
443.394	3412.3
443.769	3367.55
444.143	3419.53
444.518	3466.76
444.892	3446.87
445.267	3519.41
445.641	3556.47
446.016	3540.66
446.39	3601.22
446.764	3581.78
447.139	3614.33
447.513	3670.82
447.887	3684.83
448.262	3696.36
448.636	3733.64
449.01	3775.45
449.384	3814.55
449.758	3844.83
450.132	3877.14
450.506	3937.03
450.88	3937.48
451.254	3951.49
451.628	4024.94
452.002	4106.52
452.376	4069.23
452.75	4164.14
453.123	4135.22
453.497	4217.7
453.871	4269.9
454.244	4363.91
454.618	4382.22
454.992	4471.25
455.365	4525.94
455.739	4582.44
456.112	4633.96
456.486	4663.56
456.859	4652.94
457.232	4797.8
457.606	4826.27
457.979	4839.15
458.352	4964.8
458.725	5042.08
459.099	5082.76
459.472	5169.77
459.845	5256.99
460.218	5318.69
460.591	5320.27
460.964	5330.44
461.337	5460.83
461.71	5540.83
462.083	5610.66
462.456	5646.36
462.829	5696.53
463.201	5800.26
463.574	5775.85
463.947	5895.85
464.32	6050.42
464.692	6076.86
465.065	6222.17
465.438	6200.7
465.81	6324.76
466.183	6394.82
466.555	6526.57
466.928	6613.34
467.3	6625.77
467.672	6712.32
468.045	6921.58
468.417	6924.07
468.789	6948.48
469.161	7008.36
469.534	7182.82
469.906	7291.07
470.278	7357.96
470.65	7470.27
471.022	7655.12
471.394	7762.24
471.766	7827.32
472.138	7938.28
472.51	8120.65
472.882	8168.33
473.253	8285.39
473.625	8444.71
473.997	8606.51
474.369	8663.23
474.74	8808.31
475.112	8962.66
475.484	9160.39
475.855	9152.26
476.227	9368.3
476.598	9572.59
476.97	9662.75
477.341	9921.5
477.713	10035.63
478.084	10022.74
478.455	10424.32
478.827	10503.18
479.198	10777.3
479.569	10801.26
479.94	11113.34
480.311	11275.37
480.682	11427
481.053	11789.7
481.424	11988.79
481.795	12067.89
482.166	12301.33
482.537	12384.72
482.908	12660.19
483.279	12806.4
483.65	13009.79
484.021	13294.52
484.391	13490
484.762	13551.24
485.133	13701.07
485.503	13920.5
485.874	14195.97
486.244	14309.41
486.615	14597.31
486.985	14825.1
487.356	15062.84
487.726	15193.68
488.097	15445.88
488.467	15561.13
488.837	15829.82
489.207	16073.89
489.578	16378.06
489.948	16464.61
490.318	16748.44
490.688	16766.97
491.058	17019.85
491.428	17310.91
491.798	17460.29
492.168	17798.59
492.538	17815.76
492.908	17970.56
493.278	18222.98
493.648	18288.97
494.017	18617.55
494.387	18801.72
494.757	18875.62
495.126	19119.91
495.496	19247.81
495.866	19298.21
496.235	19539.56
496.605	19770.51
496.974	19825.65
497.344	20036.27
497.713	20201.69
498.082	20304.28
498.452	20659.08
498.821	20649.58
499.19	20786.98
499.559	20981.78
499.928	21148.33
500.298	21287.53
500.667	21447.53
501.036	21483.69
501.405	21727.75
501.774	21712.83
502.143	21958.02
502.512	22114.4
502.88	22237.11
503.249	22413.15
503.618	22591.91
503.987	22661.06
504.356	22751.68
504.724	22923.42
505.093	23132
505.462	23171.33
505.83	23370.64
506.199	23543.29
506.567	23871.87
506.936	23810.86
507.304	24113.67
507.672	24284.52
508.041	24385.08
508.409	24558.63
508.777	24776.93
509.145	25015.35
509.514	25079.07
509.882	25353.42
510.25	25235.23
510.618	25593.18
510.986	25647.64
511.354	25985.26
511.722	26234.07
512.09	26426.83
512.458	26369.43
512.826	26681.06
513.193	26825.47
513.561	26924.67
513.929	27078.34
514.297	27443.3
514.664	27560.36
515.032	27740.7
515.4	27836.97
515.767	28095.94
516.135	28244.86
516.502	28175.26
516.869	28740.22
517.237	28772.31
517.604	28776.83
517.972	29246.42
518.339	29391.5
518.706	29548.79
519.073	29646.18
519.44	29948.32
519.808	30237.81
520.175	30201.2
520.542	30670.34
520.909	30873.27
521.276	30944.23
521.643	31226.03
522.009	31412.01
522.376	31675.96
522.743	31900.81
523.11	32189.17
523.477	32540.12
523.843	32704.63
524.21	33005.87
524.577	33315.92
524.943	33417.16
525.31	33568.79
525.676	33932.17
526.043	34173.97
526.409	34182.11
526.776	34654.41
527.142	34853.5
527.508	34954.07
527.874	35317.22
528.241	35468.86
528.607	35648.96
528.973	36001.27
529.339	36099.35
529.705	36349.51
530.071	36662.5
530.437	36810.29
530.803	37042.6
531.169	37375.92
531.535	37271.75
531.901	37364.62
532.267	37593.55
532.632	37864.95
532.998	38000.54
533.364	38209.35
533.73	38366.63
534.095	38551.94
534.461	38640.3
534.826	38893.85
535.192	39118.7
535.557	39330.9
535.923	39341.07
536.288	39591.01
536.653	39844.11
537.019	39734.73
537.384	39887.72
537.749	40060.37
538.114	40161.16
538.479	40265.57
538.845	40431.66
539.21	40427.6
539.575	40784.87
539.94	40841.14
540.305	41164.3
540.67	41138.54
541.034	41286.1
541.399	41397.97
541.764	41634.57
542.129	41749.82
542.494	41850.38
542.858	42110.26
543.223	42031.85
543.587	42363.14
543.952	42317.26
544.316	42483.81
544.681	42400.88
545.045	42738.27
545.41	43067.53
545.774	43094.19
546.138	43153.4
546.503	43270.68
546.867	43302.1
547.231	43752.25
547.595	43803.1
547.959	43924.68
548.324	43827.51
548.688	44085.8
549.052	44245.35
549.416	44354.95
549.779	44502.06
550.143	44558.33
550.507	44947.48
550.871	44889.4
551.235	44806.46
551.599	45292.55
551.962	45361.93
552.326	45337.52
552.689	45660.45
553.053	45648.7
553.417	45741.81
553.78	46417.27
554.143	46149.03
554.507	46308.12
554.87	46443.48
555.234	46918.05
555.597	46761.67
555.96	46999.17
556.323	47106.29
556.686	47160.98
557.05	47405.94
557.413	47609.1
557.776	47705.82
558.139	47961.41
558.502	47967.06
558.865	48070.11
559.228	48421.28
559.59	48480.26
559.953	48647.49
560.316	49083.41
560.679	49138.55
561.041	49403.18
561.404	49409.96
561.767	49597.52
562.129	49459.45
562.492	49927.23
562.854	49913.67
563.217	49967.68
563.579	50054.01
563.941	50464.39
564.304	50534
564.666	50765.4
565.028	50825.74
565.39	50909.58
565.753	51103.02
566.115	51179.18
566.477	51394.76
566.839	51592.27
567.201	51606.96
567.563	51651.25
567.925	51907.52
568.287	52065.93
568.648	52123.11
569.01	52213.27
569.372	52500.5
569.734	52349.09
570.095	52585.47
570.457	52691.68
570.819	52842.18
571.18	52805.57
571.542	52956.98
571.903	53096.64
572.265	53156.53
572.626	53243.3
572.987	53277.88
573.349	53439
573.71	53451.21
574.071	53514.03
574.432	53543.18
574.794	53851.42
575.155	53826.11
575.516	53781.37
575.877	53863.17
576.238	53958.09
576.599	54109.72
576.96	54082.38
577.32	54155.6
577.681	54262.03
578.042	54267.68
578.403	54300.45
578.763	54277.85
579.124	54429.26
579.485	54510.16
579.845	54596.04
580.206	54548.35
580.566	54483.72
580.927	54543.61
581.287	54701.8
581.648	54596.94
582.008	54708.35
582.368	54688.92
582.728	54751.29
583.089	54610.73
583.449	54731.17
583.809	54754.22
584.169	54801.68
584.529	54673.55
584.889	54954.9
585.249	54764.62
585.609	54708.58
585.969	54943.15
586.329	54742.25
586.688	54783.6
587.048	54803.26
587.408	54734.79
587.768	54779.08
588.127	54738.18
588.487	54733.66
588.846	54987.44
589.206	54838.06
589.565	54786.09
589.925	54941.56
590.284	54789.7
590.643	54862.92
591.003	54896.59
591.362	54999.87
591.721	54963.26
592.08	54988.12
592.44	55087.55
592.799	54996.93
593.158	54923.71
593.517	54918.97
593.876	55026.31
594.235	54961
594.593	54965.29
594.952	55050.94
595.311	54978.63
595.67	55015.01
596.029	55159.64
596.387	55196.47
596.746	55235.57
597.104	55110.37
597.463	55115.34
597.822	55226.75
598.18	55071.5
598.538	55171.84
598.897	55221.78
599.255	55046.19
599.613	55380.2
599.972	55220.88
600.33	55313.76
600.688	55268.79
601.046	55424.26
601.404	55410.03
601.762	55357.15
602.12	55453.19
602.478	55433.3
602.836	55470.36
603.194	55356.24
603.552	55471.95
603.91	55347.88
604.268	55520.76
604.625	55414.09
604.983	55554.66
605.341	55510.59
605.698	55634.43
606.056	55672.62
606.413	55638.72
606.771	55777.47
607.128	55693.86
607.485	55688.44
607.843	55638.72
608.2	55742.22
608.557	55885.72
608.914	55786.51
609.272	55857.02
609.629	55967.98
609.986	56050.91
610.343	55969.79
610.7	56139.27
611.057	56072.83
611.414	56033.06
611.771	56126.39
612.127	56163.45
612.484	56071.7
612.841	56235.99
613.198	56088.2
613.554	56079.61
613.911	56225.37
614.267	56322.32
614.624	56222.43
614.98	56216.78
615.337	56438.7
615.693	56346.5
616.05	56290.45
616.406	56516.21
616.762	56295.43
617.118	56383.56
617.475	56431.92
617.831	56453.61
618.187	56449.77
618.543	56503.33
618.899	56598.47
619.255	56562.54
619.611	56563.67
619.967	56593.5
620.323	56685.25
620.678	56501.75
621.034	56509.43
621.39	56472.37
621.746	56517.12
622.101	56793.94
622.457	56553.95
622.812	56595.53
623.168	56642.31
623.523	56648.19
623.879	56694.96
624.234	56499.49
624.589	56586.04
624.945	56611.35
625.3	56691.12
625.655	56683.21
626.01	56583.55
626.365	56667.85
626.72	56560.5
627.075	56561.86
627.43	56596.66
627.785	56540.39
628.14	56642.76
628.495	56570.67
628.85	56577.45
629.205	56355.99
629.559	56622.65
629.914	56484.57
630.269	56490.45
630.623	56490.9
630.978	56363.9
631.332	56485.93
631.687	56478.92
632.041	56361.87
632.396	56430.34
632.75	56338.82
633.104	56265.14
633.459	56204.13
633.813	56240.96
634.167	56220.63
634.521	56209.33
634.875	56195.54
635.229	56104.92
635.583	56010.91
635.937	55985.38
636.291	55884.36
636.645	55937.02
636.999	55957.13
637.352	55993.06
637.706	55789
638.06	55913.74
638.413	55828.32
638.767	55758.94
639.121	55789.68
639.474	55610.02
639.828	55696.35
640.181	55671.71
640.534	55649.12
640.888	55563.24
641.241	55469.01
641.594	55518.72
641.947	55539.06
642.301	55439.63
642.654	55476.69
643.007	55416.35
643.36	55407.31
643.713	55327.32
644.066	55415.45
644.419	55196.92
644.771	55012.07
645.124	54746.77
645.477	54753.09
645.83	54571.63
646.182	54358.98
646.535	54313.78
646.888	54372.09
647.24	54179.32
647.593	54359.43
647.945	54302.26
648.298	54099.1
648.65	54068.37
649.002	53988.82
649.355	54061.59
649.707	54011.87
650.059	54182.94
650.411	54471.29
650.763	54488.69
651.115	54848.01
651.467	54677.62
651.819	54563.49
652.171	54580.44
652.523	54470.16
652.875	54477.85
653.227	54375.03
653.578	54498.64
653.93	54504.29
654.282	54328.02
654.633	54255.03
654.985	54303.39
655.337	54281.02
655.688	54213.9
656.039	54352.65
656.391	54065.88
656.742	54163.73
657.094	54163.51
657.445	54180.23
657.796	54148.36
658.147	54072.89
658.498	54131.87
658.849	54166.44
659.2	54064.3
659.551	53970.74
659.902	54081.7
660.253	53983.62
660.604	53994.24
660.955	53818.43
661.306	54083.96
661.656	53918.77
662.007	53896.85
662.358	53923.51
662.708	53891.2
663.059	53885.09
663.409	53653.24
663.76	53840.35
664.11	53874.25
664.461	53904.98
664.811	53820.69
665.161	53801.93
665.511	53640.58
665.862	53715.38
666.212	53751.31
666.562	53721.48
666.912	53666.34
667.262	53629.96
667.612	53575.72
667.962	53693.24
668.312	53554.26
668.662	53720.8
669.011	53646
669.361	53500.92
669.711	53457.31
670.06	53433.58
670.41	53316.97
670.76	53374.83
671.109	53515.84
671.459	53399.46
671.808	53332.79
672.157	53359.91
672.507	53214.6
672.856	53256.41
673.205	53215.28
673.554	53274.94
673.904	53157.43
674.253	53370.31
674.602	53178.9
674.951	52791.11
675.3	52572.81
675.649	53107.49
675.998	52956.08
676.346	52972.12
676.695	53069.07
677.044	52868.62
677.393	53008.28
677.741	53071.1
678.09	52931
678.438	52828.17
678.787	52921.96
679.135	52837.66
679.484	52647.61
679.832	52833.37
680.181	52589.31
680.529	52705.92
680.877	52580.72
681.225	52513.61
681.573	52738.01
681.922	52441.52
682.27	52350.45
682.618	52392.93
682.966	52307.51
683.314	52376.43
683.661	52275.19
684.009	52022.77
684.357	51997.69
684.705	51916.11
685.053	52019.38
685.4	51877.69
685.748	51752.27
686.095	51783.23
686.443	51582.33
686.79	51583.01
687.138	51531.94
687.485	51520.86
687.832	51437.02
688.18	51449.45
688.527	51221.21
688.874	51328.1
689.221	51201.32
689.568	51018.73
689.915	50977.6
690.262	50921.33
690.609	50825.06
690.956	50703.94
691.303	50626.2
691.65	50496.71
691.997	50472.75
692.344	50238.41
692.69	50207.68
693.037	50352.31
693.383	49967.23
693.73	50072.54
694.077	49922.03
694.423	49925.2
694.769	49784.86
695.116	49714.81
695.462	49673.23
695.808	49502.16
696.155	49606.79
696.501	49107.37
696.847	49246.12
697.193	48922.97
697.539	49248.61
697.885	48840.48
698.231	48750.54
698.577	48692.69
698.923	48720.94
699.269	48525.91
699.614	48170.22
699.96	48176.77
700.306	48166.6
700.651	48066.72
700.997	47911.01
701.342	47872.6
701.688	47732.04
702.033	47713.05
702.379	47667.18
702.724	47413.17
703.069	47588.99
703.415	47159.62
703.76	47224.93
704.105	47073.52
704.45	47033.98
704.795	46931.15
705.14	46636.7
705.485	46597.38
705.83	46461.33
706.175	46442.58
706.52	46260.66
706.865	46170.5
707.209	46119.42
707.554	45912.87
707.899	46052.08
708.243	45874.91
708.588	45851.41
708.932	45638.76
709.277	45538.87
709.621	45626.78
709.966	45187.7
710.31	45303.4
710.654	44984.76
710.998	45035.16
711.342	44997.87
711.687	44982.5
712.031	44743.19
712.375	44599.46
712.719	44648.05
713.063	44509.52
713.407	44709.52
713.75	44336.19
714.094	44239.7
714.438	44121.06
714.782	44329.19
715.125	44021.62
715.469	44116.31
715.812	43804
716.156	43588.87
716.499	43698.92
716.843	43619.38
717.186	43338.93
717.53	43507.06
717.873	43589.32
718.216	43385.71
718.559	43235.2
718.902	42908.66
719.246	43134.64
719.589	42982.78
719.932	42717.7
720.275	42831.83
720.617	42716.12
720.96	42656.69
721.303	42718.83
721.646	42512.74
721.989	42348.22
722.331	42494.43
722.674	42374.66
723.016	42267.55
723.359	42194.1
723.701	42330.37
724.044	41934.45
724.386	41786.2
724.729	41967.67
725.071	41933.54
725.413	41724.74
725.755	41718.86
726.097	41588.69
726.439	41292.88
726.782	41373.56
727.124	41470.73
727.465	41280.45
727.807	41308.25
728.149	41061.48
728.491	41263.51
728.833	41283.84
729.175	40892.44
729.516	40945.1
729.858	40889.96
730.199	40878.2
730.541	40778.32
730.882	40767.47
731.224	40754.14
731.565	40478.44
731.906	40408.16
732.248	40583.52
732.589	40293.59
732.93	40137.21
733.271	40304.21
733.612	40240.71
733.953	40125.68
734.294	40037.32
734.635	39925.69
734.976	40048.85
735.317	39755.07
735.658	39735.64
735.999	39715.3
736.339	39514.4
736.68	39765.24
737.021	39532.7
737.361	39431.01
737.702	39590.56
738.042	39396.89
738.383	39246.38
738.723	39347.85
739.063	39177.91
739.404	39102.66
739.744	39102.43
740.084	38933.62
740.424	38980.4
740.764	38920.52
741.104	38975.66
741.444	38764.36
741.784	38638.72
742.124	38755.55
742.464	38658.38
742.804	38452.51
743.143	38398.27
743.483	38312.17
743.823	38248.22
744.162	38093.65
744.502	38259.74
744.841	38053.87
745.181	38238.27
745.52	38010.48
745.86	38023.14
746.199	37981.78
746.538	37870.37
746.877	37867.89
747.216	37879.19
747.556	37768.23
747.895	37688.23
748.234	37498.86
748.573	37453.89
748.911	37414.57
749.25	37337.96
749.589	37358.52
749.928	37338.86
750.267	37288.02
750.605	37170.28
750.944	37051.64
751.283	36937.29
751.621	36949.49
751.96	36702.27
752.298	36782.27
752.636	36620.92
