Data from white_poster_card_FLMS001491_00089.txt Node
Date: Wed Feb 08 11:52:08 GMT 2017
User: dcchb
Spectrometer: FLMS00149
Trigger mode: 0
Integration Time (sec): 2.000000E-2
Scans to average: 10
Electric dark correction enabled: true
Nonlinearity correction enabled: false
Boxcar width: 0
XAxis mode: Wavelengths
Number of Pixels in Spectrum: 2048
>>>>>Begin Spectral Data<<<<<
341.393	-10.93
341.776	-10.93
342.16	-10.93
342.543	-47.54
342.927	-64.26
343.31	-69.01
343.693	-72.63
344.077	-65.62
344.46	-57.71
344.843	-45.28
345.226	-27.88
345.61	-40.08
345.993	-16.58
346.376	-6.19
346.759	14.83
347.142	13.25
347.525	43.08
347.908	65.45
348.291	72.91
348.674	89.63
349.057	101.83
349.44	136.18
349.823	142.74
350.206	167.37
350.588	206.24
350.971	225.9
351.354	227.25
351.737	243.98
352.119	268.16
352.502	267.48
352.884	293.24
353.267	293.01
353.65	275.84
354.032	296.4
354.414	314.26
354.797	316.29
355.179	345.44
355.562	332.56
355.944	342.05
356.326	334.82
356.709	336.18
357.091	338.89
357.473	349.51
357.855	373.24
358.238	353.13
358.62	350.19
359.002	368.72
359.384	361.04
359.766	363.97
360.148	362.62
360.53	344.99
360.912	350.64
361.294	340.25
361.676	335.27
362.057	341.83
362.439	339.34
362.821	330.75
363.203	309.29
363.584	316.97
363.966	340.92
364.348	321.71
364.729	330.08
365.111	336.63
365.493	321.71
365.874	326.46
366.256	309.06
366.637	307.48
367.019	334.6
367.4	330.75
367.781	309.74
368.163	327.82
368.544	322.39
368.925	335.05
369.306	316.52
369.688	321.49
370.069	317.42
370.45	316.52
370.831	344.76
371.212	309.06
371.593	316.74
371.974	312
372.355	319.23
372.736	312
373.117	328.04
373.498	312
373.879	337.99
374.26	344.76
374.641	319.45
375.021	320.13
375.402	324.88
375.783	339.79
376.163	342.96
376.544	335.73
376.925	340.02
377.305	346.57
377.686	352.9
378.066	327.14
378.447	337.99
378.827	349.28
379.208	338.21
379.588	335.5
379.968	336.4
380.349	353.13
380.729	359
381.109	343.64
381.489	345.44
381.87	351.09
382.25	352.22
382.63	349.28
383.01	349.51
383.39	374.82
383.77	353.8
384.15	375.05
384.53	358.1
384.91	375.05
385.29	366.23
385.67	375.5
386.049	392.67
386.429	364.88
386.809	375.5
387.189	372.79
387.568	371.66
387.948	349.06
388.328	362.17
388.707	375.95
389.087	403.52
389.466	394.03
389.846	381.83
390.225	387.02
390.605	389.06
390.984	396.51
391.363	381.6
391.743	407.14
392.122	393.58
392.501	405.1
392.881	403.97
393.26	408.49
393.639	425.44
394.018	421.83
394.397	409.4
394.776	413.92
395.155	400.81
395.534	431.54
395.913	405.78
396.292	425.89
396.671	389.74
397.05	418.66
397.429	453.46
397.808	440.36
398.186	437.42
398.565	415.05
398.944	433.8
399.323	451.65
399.701	453.24
400.08	453.69
400.458	455.72
400.837	442.39
401.215	451.43
401.594	459.11
401.972	451.88
402.351	458.43
402.729	460.47
403.107	475.16
403.486	453.01
403.864	464.99
404.242	490.3
404.62	482.84
404.999	508.6
405.377	506.34
405.755	485.78
406.133	515.61
406.511	506.34
406.889	529.17
407.267	523.97
407.645	520.81
408.023	546.57
408.401	530.52
408.779	557.64
409.156	552.67
409.534	563.52
409.912	560.13
410.29	578.43
410.667	588.15
411.045	601.48
411.422	628.83
411.8	628.15
412.178	635.38
412.555	657.75
412.933	680.12
413.31	654.14
413.687	702.04
414.065	687.13
414.442	711.99
414.819	725.32
415.197	742.04
415.574	766.67
415.951	772.32
416.328	789.27
416.705	791.98
417.082	813.23
417.46	823.17
417.837	845.09
418.214	842.6
418.591	866.79
418.967	871.08
419.344	892.77
419.721	881.93
420.098	903.17
420.475	940
420.852	964.86
421.228	969.83
421.605	967.8
421.982	955.82
422.358	1008.48
422.735	1032.66
423.111	1036.5
423.488	1031.98
423.864	1046.22
424.241	1074.69
424.617	1106.55
424.994	1105.87
425.37	1080.34
425.746	1104.52
426.123	1125.08
426.499	1127.12
426.875	1116.04
427.251	1202.82
427.627	1194.46
428.003	1260.22
428.379	1216.15
428.756	1236.72
429.132	1291.41
429.507	1277.85
429.883	1307.23
430.259	1330.95
430.635	1328.47
431.011	1331.63
431.387	1365.08
431.763	1409.14
432.138	1420.89
432.514	1431.52
432.89	1452.53
433.265	1480.1
433.641	1510.16
434.016	1521.91
434.392	1528.24
434.767	1550.83
435.143	1567.56
435.518	1560.55
435.894	1605.3
436.269	1641.91
436.644	1648.01
437.02	1677.39
437.395	1688.46
437.77	1700.44
438.145	1725.52
438.52	1709.47
438.895	1758.06
439.271	1745.41
439.646	1821.56
440.021	1797.16
440.395	1803.94
440.77	1790.6
441.145	1801.45
441.52	1849.81
441.895	1837.61
442.27	1879.87
442.645	1867.21
443.019	1880.09
443.394	1884.61
443.769	1914.67
444.143	1938.17
444.518	1977.94
444.892	1949.47
445.267	1955.8
445.641	1996.25
446.016	1986.76
446.39	2010.03
446.764	2022.69
447.139	2014.55
447.513	2084.83
447.887	2045.96
448.262	2066.53
448.636	2099.52
449.01	2103.14
449.384	2111.27
449.758	2138.39
450.132	2181.1
450.506	2191.27
450.88	2200.31
451.254	2170.71
451.628	2214.77
452.002	2242.12
452.376	2259.52
452.75	2283.02
453.123	2295.9
453.497	2324.83
453.871	2328.22
454.244	2403.69
454.618	2377.25
454.992	2435.33
455.365	2439.4
455.739	2520.3
456.112	2533.86
456.486	2540.41
456.859	2545.61
457.232	2615.67
457.606	2624.48
457.979	2651.6
458.352	2654.08
458.725	2700.86
459.099	2724.82
459.472	2784.02
459.845	2793.51
460.218	2815.43
460.591	2834.42
460.964	2829.22
461.337	2916.9
461.71	2922.55
462.083	2994.19
462.456	3007.07
462.829	3039.38
463.201	3054.3
463.574	3067.86
463.947	3120.06
464.32	3184.01
464.692	3193.73
465.065	3246.84
465.438	3261.3
465.81	3324.12
466.183	3319.38
466.555	3410
466.928	3428.98
467.3	3420.39
467.672	3481.18
468.045	3594.4
468.417	3570.22
468.789	3615.87
469.161	3648.63
469.534	3727.05
469.906	3782.87
470.278	3809.53
470.65	3840.94
471.022	3905.12
471.394	3959.13
471.766	4044.33
472.138	4096.3
472.51	4114.16
472.882	4185.79
473.253	4218.79
473.625	4306.24
473.997	4368.84
474.369	4433.47
474.74	4440.02
475.112	4542.17
475.484	4610.19
475.855	4691.54
476.227	4713.92
476.598	4794.14
476.97	4894.25
477.341	4995.49
477.713	5054.7
478.084	5007.47
478.455	5193.9
478.827	5233.22
479.198	5416.04
479.569	5390.96
479.94	5601.12
480.311	5590.73
480.682	5691.07
481.053	5842.47
481.424	5912.53
481.795	6002.02
482.166	6129.02
482.537	6162.92
482.908	6300.31
483.279	6394.55
483.65	6443.14
484.021	6538.27
484.391	6610.36
484.762	6694.88
485.133	6769.23
485.503	6909.56
485.874	6998.83
486.244	7114.08
486.615	7223.68
486.985	7328.99
487.356	7420.29
487.726	7446.5
488.097	7606.04
488.467	7692.14
488.837	7870.89
489.207	7909.31
489.578	7988.86
489.948	8059.36
490.318	8281.73
490.688	8263.2
491.058	8405.12
491.428	8496.19
491.798	8591.78
492.168	8709.52
492.538	8721.72
492.908	8875.16
493.278	9056.85
493.648	9041.03
494.017	9107.25
494.387	9228.15
494.757	9319.9
495.126	9412.32
495.496	9418.2
495.866	9548.59
496.235	9691.86
496.605	9676.72
496.974	9767.34
497.344	9829.26
497.713	9962.37
498.082	9989.71
498.452	10185.41
498.821	10231.51
499.19	10250.49
499.559	10303.6
499.928	10382.47
500.298	10527.32
500.667	10630.14
501.036	10539.75
501.405	10732.51
501.774	10684.61
502.143	10751.95
502.512	10844.38
502.88	10989.46
503.249	10988.1
503.618	11093.63
503.987	11109.23
504.356	11272.16
504.724	11293.18
505.093	11459.95
505.462	11427.86
505.83	11509.67
506.199	11624.92
506.567	11741.53
506.936	11747.18
507.304	11896.1
507.672	11932.48
508.041	12082.31
508.409	12083.44
508.777	12262.87
509.145	12311
509.514	12350.32
509.882	12496.99
510.25	12521.85
510.618	12625.8
510.986	12609.98
511.354	12779.92
511.722	12869.41
512.09	12921.16
512.458	13005
512.826	13139.23
513.193	13275.05
513.561	13280.7
513.929	13453.12
514.297	13534.02
514.664	13664.64
515.032	13640.91
515.4	13841.36
515.767	13795.03
516.135	13966.33
516.502	13918.87
516.869	14177.62
517.237	14300.56
517.604	14155.25
517.972	14451.96
518.339	14571.51
518.706	14626.2
519.073	14645.86
519.44	14774.22
519.808	14959.52
520.175	14943.93
520.542	15119.97
520.909	15265.05
521.276	15320.19
521.643	15420.53
522.009	15563.57
522.376	15665.94
522.743	15723.57
523.11	15893.51
523.477	16128.3
523.843	16195.42
524.21	16290.11
524.577	16438.13
524.943	16546.15
525.31	16547.05
525.676	16838.34
526.043	16988.85
526.409	17039.69
526.776	17213.93
527.142	17258.22
527.508	17448.72
527.874	17556.74
528.241	17637.64
528.607	17667.7
528.973	17938.88
529.339	17902.5
529.705	17987.24
530.071	18264.07
530.437	18342.48
530.803	18475.59
531.169	18605.53
531.535	18474.01
531.901	18640.33
532.267	18741.8
532.632	18884.16
532.998	19015.46
533.364	19066.31
533.73	19173.42
534.095	19239.86
534.461	19270.82
534.826	19424.04
535.192	19557.82
535.557	19739.51
535.923	19625.84
536.288	19754.2
536.653	19851.82
537.019	19750.13
537.384	19994.42
537.749	19956.45
538.114	20109.89
538.479	20139.27
538.845	20268.08
539.21	20235.09
539.575	20468.08
539.94	20462.88
540.305	20614.29
540.67	20618.81
541.034	20802.08
541.399	20876.65
541.764	20799.37
542.129	20911.23
542.494	20931.12
542.858	21112.35
543.223	21109.64
543.587	21346.25
543.952	21237.1
544.316	21407.94
544.681	21451.78
545.045	21628.27
545.41	21641.61
545.774	21621.27
546.138	21810.42
546.503	21787.14
546.867	21818.78
547.231	22066.68
547.595	21965.67
547.959	22163.85
548.324	22162.95
548.688	22265.32
549.052	22408.14
549.416	22364.75
549.779	22507.12
550.143	22558.64
550.507	22784.63
550.871	22750.73
551.235	22613.56
551.599	23024.17
551.962	23004.51
552.326	23108.91
552.689	23212.19
553.053	23256.93
553.417	23156.82
553.78	23501.67
554.143	23460.09
554.507	23612.85
554.87	23804.49
555.234	23888.55
555.597	23795
555.96	23941.66
556.323	24156.57
556.686	24012.84
557.05	24364.25
557.413	24432.04
557.776	24437.24
558.139	24532.15
558.502	24563.34
558.865	24723.33
559.228	24914.74
559.59	24919.49
559.953	25027.73
560.316	25313.6
560.679	25272.02
561.041	25474.27
561.404	25567.6
561.767	25707.94
562.129	25683.53
562.492	25845.11
562.854	25995.16
563.217	26062.51
563.579	26123.97
563.941	26328.94
564.304	26374.81
564.666	26542.04
565.028	26672.21
565.39	26721.25
565.753	26944.29
566.115	26982.93
566.477	27141.57
566.839	27261.12
567.201	27305.64
567.563	27456.37
567.925	27575.91
568.287	27655.01
568.648	27597.83
569.01	27747.89
569.372	27997.82
569.734	28033.3
570.095	28158.27
570.457	28196.24
570.819	28312.62
571.18	28227.65
571.542	28466.51
571.903	28460.41
572.265	28635.55
572.626	28672.16
572.987	28827.41
573.349	28864.47
573.71	29013.84
574.071	29010.45
574.432	29096.1
574.794	29359.14
575.155	29289.54
575.516	29325.47
575.877	29438.46
576.238	29440.05
576.599	29607.27
576.96	29660.38
577.32	29706.93
577.681	29723.2
578.042	29808.4
578.403	29737.89
578.763	29814.72
579.124	30005.23
579.485	29911.45
579.845	30213.36
580.206	30038.22
580.566	30010.88
580.927	30190.76
581.287	30236.63
581.648	30200.7
582.008	30219.69
582.368	30248.39
582.728	30372.45
583.089	30301.27
583.449	30301.27
583.809	30342.85
584.169	30470.07
584.529	30357.31
584.889	30531.54
585.249	30418.78
585.609	30223.53
585.969	30551.2
586.329	30409.74
586.688	30380.36
587.048	30537.19
587.408	30429.85
587.768	30520.69
588.127	30465.55
588.487	30406.8
588.846	30529.28
589.206	30390.08
589.565	30460.58
589.925	30470.98
590.284	30452.9
590.643	30555.04
591.003	30532.67
591.362	30690.63
591.721	30487.48
592.08	30556.17
592.44	30693.35
592.799	30686.34
593.158	30592.33
593.517	30575.83
593.876	30653.35
594.235	30561.37
594.593	30637.3
594.952	30682.5
595.311	30546.68
595.67	30624.42
596.029	30837.75
596.387	30809.05
596.746	30987.12
597.104	30627.36
597.463	30820.35
597.822	30900.8
598.18	30837.97
598.538	30803.17
598.897	30921.36
599.255	30698.77
599.613	31178.98
599.972	30943.73
600.33	31063.96
600.688	30830.29
601.046	30966.33
601.404	31257.85
601.762	31059.44
602.12	31175.37
602.478	31196.38
602.836	31273.9
603.194	31053.79
603.552	31150.51
603.91	31056.05
604.268	31253.56
604.625	31035.26
604.983	31341.69
605.341	31225.31
605.698	31300.34
606.056	31431.86
606.413	31370.39
606.771	31514.79
607.128	31607.22
607.485	31338.98
607.843	31374.23
608.2	31571.97
608.557	31672.08
608.914	31627.11
609.272	31666.88
609.629	31685.86
609.986	31927.89
610.343	31719.76
610.7	32035.01
611.057	31856.7
611.414	31830.26
611.771	31951.17
612.127	32023.03
612.484	32069.58
612.841	32162.23
613.198	31961.79
613.554	32041.33
613.911	32251.5
614.267	32132.86
614.624	32190.03
614.98	32362.91
615.337	32506.86
615.693	32249.01
616.05	32236.36
616.406	32447.88
616.762	32180.54
617.118	32283.81
617.475	32251.95
617.831	32407.88
618.187	32516.57
618.543	32429.57
618.899	32510.02
619.255	32479.74
619.611	32532.62
619.967	32585.27
620.323	32664.59
620.678	32547.76
621.034	32430.93
621.39	32349.12
621.746	32413.75
622.101	32741.43
622.457	32488.55
622.812	32580.98
623.168	32641.54
623.523	32804.7
623.879	32785.49
624.234	32644.71
624.589	32690.81
624.945	32734.42
625.3	32791.6
625.655	32672.05
626.01	32730.35
626.365	32794.99
626.72	32672.5
627.075	32574.2
627.43	32594.31
627.785	32570.13
628.14	32535.56
628.495	32673.63
628.85	32643.35
629.205	32485.39
629.559	32613.52
629.914	32538.27
630.269	32392.96
630.623	32378.72
630.978	32322.23
631.332	32549.34
631.687	32402.45
632.041	32406.29
632.396	32425.28
632.75	32286.07
633.104	32400.87
633.459	32110.03
633.813	32110.71
634.167	32316.13
634.521	32219.18
634.875	32270.03
635.229	32033.42
635.583	31983.93
635.937	31882.24
636.291	31922.47
636.645	31946.65
636.999	31863.03
637.352	31990.03
637.706	31811.28
638.06	31814.45
638.413	31646.77
638.767	31718.86
639.121	31707.56
639.474	31423.04
639.828	31531.74
640.181	31517.05
640.534	31597.5
640.888	31453.55
641.241	31414
641.594	31378.98
641.947	31426.21
642.301	31290.17
642.654	31205.2
643.007	31367
643.36	31329.03
643.713	31109.15
644.066	31341.69
644.419	31032.55
644.771	30892.89
645.124	30707.58
645.477	30491.09
645.83	30219.01
646.182	30172
646.535	30040.93
646.888	30086.13
647.24	30025.79
647.593	30206.13
647.945	29884.1
648.298	29901.95
648.65	29798.45
649.002	29621.28
649.355	29927.49
649.707	29878.68
650.059	30036.64
650.411	30320.25
650.763	30338.1
651.115	30522.5
651.467	30453.58
651.819	30620.58
652.171	30291.55
652.523	30355.05
652.875	30287.03
653.227	30122.97
653.578	30267.59
653.93	30274.83
654.282	30093.59
654.633	30093.59
654.985	30040.48
655.337	30126.81
655.688	30133.81
656.039	30132.91
656.391	29927.72
656.742	29949.18
657.094	30046.81
657.445	29955.51
657.796	30005.91
658.147	29977.88
658.498	29819.92
658.849	29913.7
659.2	29881.16
659.551	29757.78
659.902	29734.27
660.253	29895.63
660.604	29835.97
660.955	29577.44
661.306	29757.1
661.656	29766.82
662.007	29660.15
662.358	29704.44
662.708	29607.05
663.059	29532.92
663.409	29416.09
663.76	29637.33
664.11	29592.13
664.461	29758.45
664.811	29642.75
665.161	29510.33
665.511	29443.89
665.862	29474.62
666.212	29545.35
666.562	29583.77
666.912	29498.8
667.262	29564.56
667.612	29398.46
667.962	29398.01
668.312	29266.49
668.662	29433.27
669.011	29257.68
669.361	29246.6
669.711	29328.86
670.06	29344.91
670.41	29250.45
670.76	29236.89
671.109	29339.26
671.459	29219.03
671.808	29136.32
672.157	29240.95
672.507	28940.17
672.856	29080.73
673.205	29112.82
673.554	29188.3
673.904	29035.76
674.253	29340.39
674.602	29102.2
674.951	28653.85
675.3	28595.32
675.649	28977.68
675.998	28991.02
676.346	28859.72
676.695	29068.3
677.044	28881.42
677.393	28804.13
677.741	28858.82
678.09	28652.95
678.438	28700.4
678.787	28756.9
679.135	28752.38
679.484	28504.7
679.832	28655.66
680.181	28593.97
680.529	28678.48
680.877	28617.24
681.225	28507.64
681.573	28652.95
681.922	28495.66
682.27	28252.96
682.618	28381.99
682.966	28256.12
683.314	28304.48
683.661	28243.24
684.009	28083.7
684.357	28081.21
684.705	28062.68
685.053	27982.91
685.4	27994.89
685.748	27937.94
686.095	27706.98
686.443	27608
686.79	27685.97
687.138	27664.72
687.485	27783.14
687.832	27563.26
688.18	27570.04
688.527	27314.9
688.874	27376.37
689.221	27378.86
689.568	27260.67
689.915	27103.16
690.262	27346.31
690.609	27175.7
690.956	26987.23
691.303	27049.6
691.65	26931.86
691.997	26923.95
692.344	26761.02
692.69	26798.31
693.037	26652.32
693.383	26454.81
693.73	26555.38
694.077	26377.07
694.423	26372.33
694.769	26258.43
695.116	26219.11
695.462	26155.84
695.808	26088.49
696.155	26089.62
696.501	25892.79
696.847	25880.82
697.193	25756.07
697.539	25871.55
697.885	25625.91
698.231	25565.34
698.577	25717.43
698.923	25535.74
699.269	25316.09
699.614	25322.64
699.96	25275.86
700.306	25216.65
700.651	25178.01
700.997	25100.5
701.342	25019.6
701.688	24944.8
702.033	24840.62
702.379	24794.74
702.724	24728.08
703.069	24747.74
703.415	24497.8
703.76	24576.22
704.105	24500.51
704.45	24478.59
704.795	24263.68
705.14	24241.99
705.485	24191.82
705.83	24071.6
706.175	24237.92
706.52	24073.18
706.865	24064.14
707.209	23954.31
707.554	23858.27
707.899	23872.73
708.243	23750.25
708.588	23762.45
708.932	23514.33
709.277	23568.11
709.621	23538.28
709.966	23392.97
710.31	23416.47
710.654	23372.63
710.998	23314.1
711.342	23252.19
711.687	23240.43
712.031	23126.76
712.375	23015.58
712.719	23104.39
713.063	23037.28
713.407	23024.39
713.75	22910.95
714.094	22893.1
714.438	22741.69
714.782	22725.87
715.125	22664.4
715.469	22783.27
715.812	22602.94
716.156	22493.79
716.499	22508.7
716.843	22551.19
717.186	22341.47
717.53	22376.05
717.873	22416.27
718.216	22384.19
718.559	22165.43
718.902	22128.82
719.246	22264.41
719.589	22111.2
719.932	22004.53
720.275	22036.4
720.617	22034.14
720.96	22022.61
721.303	21931.09
721.646	21931.54
721.989	21843.18
722.331	21981.48
722.674	21832.56
723.016	21797.76
723.359	21730.87
723.701	21799.79
724.044	21604.09
724.386	21544.43
724.729	21688.38
725.071	21516.86
725.413	21406.13
725.755	21492.01
726.097	21287.04
726.439	21226.93
726.782	21263.54
727.124	21339.47
727.465	21219.7
727.807	21200.94
728.149	21205.01
728.491	21066.93
728.833	21104.9
729.175	21028.06
729.516	20915.52
729.858	20964.11
730.199	20957.56
730.541	21016.09
730.882	20904.9
731.224	20982.19
731.565	20763.89
731.906	20850.21
732.248	20842.08
732.589	20732.03
732.93	20646.15
733.271	20619.71
733.612	20680.28
733.953	20681.18
734.294	20462.88
734.635	20492.48
734.976	20576.1
735.317	20372.94
735.658	20475.99
735.999	20481.64
736.339	20375.65
736.68	20447.97
737.021	20364.58
737.361	20202.1
737.702	20340.62
738.042	20197.58
738.383	20174.3
738.723	20194.86
739.063	20165.26
739.404	20113.28
739.744	20065.83
740.084	19979.73
740.424	20009.56
740.764	19899.05
741.104	20012.72
741.444	19877.58
741.784	19893.63
742.124	19854.08
742.464	19858.6
742.804	19766.18
743.143	19677.36
743.483	19700.64
743.823	19659.06
744.162	19633.75
744.502	19646.86
744.841	19502.23
745.181	19688.66
745.52	19478.95
745.86	19563.47
746.199	19512.85
746.538	19414.32
746.877	19517.59
747.216	19444.6
747.556	19353.3
747.895	19270.59
748.234	19237.38
748.573	19116.25
748.911	19203.48
749.25	19112.18
749.589	19015.01
749.928	19009.58
750.267	19100.43
750.605	18986.08
750.944	18972.75
751.283	18850.95
751.621	18843.04
751.96	18792.19
752.298	18789.03
752.636	18778.4
752.975	18633.78
753.313	18639.65
753.651	18673.77
753.989	18523.72
754.327	18488.69
754.666	18464.97
