Data from white_poster_card_FLMS001491_00002.txt Node
Date: Wed Feb 08 11:50:56 GMT 2017
User: dcchb
Spectrometer: FLMS00149
Trigger mode: 0
Integration Time (sec): 2.000000E-2
Scans to average: 10
Electric dark correction enabled: true
Nonlinearity correction enabled: false
Boxcar width: 0
XAxis mode: Wavelengths
Number of Pixels in Spectrum: 2048
>>>>>Begin Spectral Data<<<<<
341.393	-0.71
341.776	-0.71
342.16	-0.71
342.543	-49.52
342.927	-53.81
343.31	-62.63
343.693	-58.11
344.077	-66.02
344.46	-67.82
344.843	-49.97
345.226	-38.67
345.61	-24.21
345.993	-17.88
346.376	-9.75
346.759	3.36
347.142	23.47
347.525	29.58
347.908	73.87
348.291	70.93
348.674	81.1
349.057	112.74
349.44	117.71
349.823	155.67
350.206	162.45
350.588	213.3
350.971	220.98
351.354	230.93
351.737	240.19
352.119	253.52
352.502	292.85
352.884	266.86
353.267	271.15
353.65	306.18
354.032	293.07
354.414	329.45
354.797	333.52
355.179	324.93
355.562	328.78
355.944	311.38
356.326	343.01
356.709	324.03
357.091	334.43
357.473	364.71
357.855	345.95
358.238	338.49
358.62	332.17
359.002	348.21
359.384	368.55
359.766	345.05
360.148	350.02
360.53	348.44
360.912	362.9
361.294	357.02
361.676	347.08
362.057	336.91
362.439	337.14
362.821	347.08
363.203	366.74
363.584	319.74
363.966	322.9
364.348	346.63
364.729	325.84
365.111	343.69
365.493	347.53
365.874	300.08
366.256	329.23
366.637	346.18
367.019	317.7
367.4	336.69
367.781	322
368.163	324.71
368.544	320.87
368.925	326.52
369.306	326.97
369.688	330.13
370.069	344.37
370.45	322.45
370.831	333.07
371.212	330.36
371.593	328.1
371.974	331.49
372.355	322
372.736	319.29
373.117	325.61
373.498	346.63
373.879	314.99
374.26	322.22
374.641	346.63
375.021	349.79
375.402	324.03
375.783	341.88
376.163	335.1
376.544	348.66
376.925	357.48
377.305	342.11
377.686	330.81
378.066	355.44
378.447	345.05
378.827	341.21
379.208	343.69
379.588	344.37
379.968	347.76
380.349	353.18
380.729	362.67
381.109	346.86
381.489	344.37
381.87	352.28
382.25	366.29
382.63	363.58
383.01	353.86
383.39	361.54
383.77	373.75
384.15	370.36
384.53	363.13
384.91	392.5
385.29	383.01
385.67	377.59
386.049	392.05
386.429	392.96
386.809	383.92
387.189	404.48
387.568	357.48
387.948	380.75
388.328	379.4
388.707	397.7
389.087	390.24
389.466	390.47
389.846	393.41
390.225	405.84
390.605	390.02
390.984	396.12
391.363	415.1
391.743	410.13
392.122	401.09
392.501	424.59
392.881	428.21
393.26	436.34
393.639	423.92
394.018	443.8
394.397	426.18
394.776	432.5
395.155	423.01
395.534	434.99
395.913	454.42
396.292	432.95
396.671	447.19
397.05	440.64
397.429	456
397.808	458.49
398.186	441.77
398.565	463.46
398.944	467.76
399.323	474.54
399.701	472.5
400.08	484.25
400.458	461.88
400.837	492.61
401.215	486.29
401.594	484.03
401.972	486.96
402.351	479.28
402.729	490.13
403.107	500.3
403.486	504.37
403.864	505.04
404.242	517.7
404.62	519.73
404.999	540.52
405.377	538.04
405.755	523.35
406.133	551.37
406.511	554.76
406.889	543.01
407.267	575.55
407.645	569.22
408.023	575.32
408.401	576
408.779	571.71
409.156	623.46
409.534	640.18
409.912	625.04
410.29	629.79
410.667	655.1
411.045	654.64
411.422	676.34
411.8	680.41
412.178	713.17
412.555	749.56
412.933	714.53
413.31	721.08
413.687	758.37
414.065	795.88
414.442	780.06
414.819	808.54
415.197	844.47
415.574	823.68
415.951	865.49
416.328	881.08
416.705	890.8
417.082	904.58
417.46	917.24
417.837	940.96
418.214	958.59
418.591	946.84
418.967	996.1
419.344	993.62
419.721	1016.89
420.098	1044.92
420.475	1019.38
420.852	1069.77
421.228	1065.03
421.605	1088.08
421.982	1102.09
422.358	1098.25
422.735	1135.54
423.111	1163.78
423.488	1152.26
423.864	1191.58
424.241	1227.96
424.617	1227.06
424.994	1232.71
425.37	1252.14
425.746	1284.91
426.123	1288.98
426.499	1288.75
426.875	1342.99
427.251	1344.57
427.627	1386.38
428.003	1394.74
428.379	1427.28
428.756	1416.43
429.132	1456.2
429.507	1450.56
429.883	1486.49
430.259	1540.95
430.635	1548.18
431.011	1559.25
431.387	1579.37
431.763	1616.43
432.138	1645.58
432.514	1632.02
432.89	1682.87
433.265	1693.49
433.641	1725.8
434.016	1733.26
434.392	1765.12
434.767	1820.04
435.143	1792.24
435.518	1836.31
435.894	1868.4
436.269	1869.08
436.644	1905.01
437.02	1928.73
437.395	1928.96
437.77	1968.51
438.145	1999.92
438.52	2003.31
438.895	2009.41
439.271	2057.77
439.646	2087.15
440.021	2074.95
440.395	2094.38
440.77	2074.27
441.145	2109.29
441.52	2159.46
441.895	2148.84
442.27	2188.61
442.645	2168.73
443.019	2232.46
443.394	2217.54
443.769	2247.37
444.143	2197.43
444.518	2265.67
444.892	2277.88
445.267	2274.49
445.641	2228.39
446.016	2300.7
446.39	2339.57
446.764	2344.54
447.139	2342.74
447.513	2362.85
447.887	2371.66
448.262	2391.77
448.636	2390.87
449.01	2432.68
449.384	2474.03
449.758	2454.6
450.132	2503.41
450.506	2498.66
450.88	2535.72
451.254	2546.8
451.628	2565.78
452.002	2579.34
452.376	2620.24
452.75	2644.65
453.123	2656.85
453.497	2695.27
453.871	2741.82
454.244	2790.18
454.618	2804.87
454.992	2826.11
455.365	2822.5
455.739	2909.5
456.112	2889.39
456.486	2928.93
456.859	2987.92
457.232	3034.47
457.606	3006.45
457.979	3053
458.352	3133.67
458.725	3134.13
459.099	3152.66
459.472	3234.24
459.845	3265.2
460.218	3292.77
460.591	3303.61
460.964	3314.01
461.337	3414.35
461.71	3456.15
462.083	3495.47
462.456	3569.14
462.829	3553.1
463.201	3530.05
463.574	3622.7
463.947	3651.63
464.32	3698.41
464.692	3743.38
465.065	3826.99
465.438	3838.51
465.81	3929.59
466.183	3937.04
466.555	4016.82
466.928	4050.26
467.3	4097.72
467.672	4143.82
468.045	4239.86
468.417	4242.57
468.789	4215.23
469.161	4322.57
469.534	4369.12
469.906	4456.13
470.278	4505.39
470.65	4546.97
471.022	4654.99
471.394	4690.7
471.766	4748.55
472.138	4838.71
472.51	4884.14
472.882	4941.76
473.253	4961.65
473.625	5078.26
473.997	5179.95
474.369	5168.42
474.74	5288.19
475.112	5368.87
475.484	5417.46
475.855	5536.55
476.227	5544.01
476.598	5794.4
476.97	5843.43
477.341	5887.27
477.713	5997.55
478.084	6054.95
478.455	6173.59
478.827	6227.38
479.198	6412.91
479.569	6439.58
479.94	6621.72
480.311	6678.44
480.682	6752.79
481.053	6986.68
481.424	7060.13
481.795	7126.79
482.166	7245.88
482.537	7393
482.908	7441.81
483.279	7557.29
483.65	7723.16
484.021	7905.98
484.391	7968.8
484.762	8034.56
485.133	8091.06
485.503	8157.27
485.874	8349.81
486.244	8510.93
486.615	8630.93
486.985	8693.75
487.356	8902.34
487.726	8908.44
488.097	9133.97
488.467	9164.7
488.837	9321.76
489.207	9466.62
489.578	9604.92
489.948	9677.23
490.318	9788.87
490.688	9796.55
491.058	10002.87
491.428	10117.22
491.798	10257.56
492.168	10409.64
492.538	10510.2
492.908	10622.97
493.278	10723.53
493.648	10787.94
494.017	10979.34
494.387	11068.61
494.757	11114.26
495.126	11248.94
495.496	11343.4
495.866	11471.76
496.235	11489.84
496.605	11560.12
496.974	11701.58
497.344	11765.99
497.713	11828.36
498.082	11997.62
498.452	12031.29
498.821	12209.37
499.19	12226.32
499.559	12326.2
499.928	12466.54
500.298	12518.96
500.667	12641.22
501.036	12672.41
501.405	12810.71
501.774	12782.69
502.143	12936.81
502.512	12993.75
502.88	13167.99
503.249	13131.15
503.618	13294.54
503.987	13291.83
504.356	13445.04
504.724	13574.08
505.093	13549.22
505.462	13692.72
505.83	13780.63
506.199	13870.79
506.567	14062.43
506.936	14079.6
507.304	14297
507.672	14310.78
508.041	14375.19
508.409	14530.89
508.777	14619.25
509.145	14790.32
509.514	14751.9
509.882	14889.07
510.25	14916.64
510.618	15070.76
510.986	15150.99
511.354	15219.91
511.722	15436.63
512.09	15591.43
512.458	15616.51
512.826	15749.39
513.193	15813.57
513.561	15936.28
513.929	16047.46
514.297	16249.71
514.664	16336.72
515.032	16314.8
515.4	16585.75
515.767	16548.01
516.135	16697.84
516.502	16663.26
516.869	16919.98
517.237	17065.96
517.604	17116.36
517.972	17253.76
518.339	17433.41
518.706	17408.1
519.073	17556.8
519.44	17632.95
519.808	17890.8
520.175	17947.3
520.542	18124.01
520.909	18390
521.276	18286.72
521.643	18485.59
522.009	18607.62
522.376	18752.47
522.743	18874.96
523.11	19093.48
523.477	19290.09
523.843	19341.16
524.21	19434.26
524.577	19680.13
524.943	19740.92
525.31	20010.52
525.676	20193.11
526.043	20279.89
526.409	20361.92
526.776	20664.97
527.142	20613.44
527.508	20767.11
527.874	20960.32
528.241	21037.16
528.607	21246.19
528.973	21455
529.339	21384.72
529.705	21697.03
530.071	21766.86
530.437	21892.05
530.803	22153.29
531.169	22182.44
531.535	22209.33
531.901	22279.84
532.267	22434.18
532.632	22622.65
532.998	22739.94
533.364	22788.07
533.73	22929.09
534.095	23079.82
534.461	23217.67
534.826	23340.83
535.192	23411.33
535.557	23576.08
535.923	23489.75
536.288	23581.95
536.653	23787.82
537.019	23704.89
537.384	23805.45
537.749	23998.66
538.114	24086.57
538.479	24257.64
538.845	24240.92
539.21	24291.99
539.575	24398.43
539.94	24478.88
540.305	24672.77
540.67	24682.94
541.034	24732.43
541.399	24935.81
541.764	24965.64
542.129	25090.39
542.494	25181.91
542.858	25228.23
543.223	25345.97
543.587	25371.06
543.952	25474.78
544.316	25550.26
544.681	25561.56
545.045	25784.6
545.41	25767.66
545.774	25887.43
546.138	25976.01
546.503	26084.03
546.867	26185.05
547.231	26287.42
547.595	26255.78
547.959	26492.61
548.324	26452.84
548.688	26625.49
549.052	26790.23
549.416	26697.12
549.779	26821.64
550.143	26849.89
550.507	27100.5
550.871	27215.08
551.235	27098.69
551.599	27550.66
551.962	27497.33
552.326	27572.13
552.689	27739.58
553.053	27686.7
553.417	27796.3
553.78	28090.08
554.143	28202.39
554.507	28213.02
554.87	28213.69
555.234	28500.92
555.597	28412.78
555.96	28571.65
556.323	28808.25
556.686	28702.95
557.05	28926.89
557.413	28962.15
557.776	29045.99
558.139	29310.84
558.502	29521.68
558.865	29476.94
559.228	29693.88
559.59	29847.77
559.953	29805.52
560.316	30247.99
560.679	30276.69
561.041	30281.21
561.404	30516.23
561.767	30756.45
562.129	30725.94
562.492	31009.33
562.854	30974.75
563.217	31019.5
563.579	31060.4
563.941	31440.05
564.304	31473.04
564.666	31723.88
565.028	31803.88
565.39	31842.98
565.753	32013.14
566.115	32225.34
566.477	32162.74
566.839	32426.92
567.201	32564.31
567.563	32662.39
567.925	32854.25
568.287	32853.35
568.648	32926.56
569.01	33208.82
569.372	33389.6
569.734	33314.12
570.095	33643.83
570.457	33758.63
570.819	33626.21
571.18	33731.74
571.542	33979.19
571.903	33988
572.265	34216.7
572.626	34216.02
572.987	34393.64
573.349	34471.16
573.71	34529.23
574.071	34651.94
574.432	34846.29
574.794	35048.77
575.155	35000.18
575.516	34851.71
575.877	35114.3
576.238	35206.5
576.599	35317.69
576.96	35217.35
577.32	35273.85
577.681	35553.16
578.042	35639.49
578.403	35592.93
578.763	35628.19
579.124	35654.85
579.485	35837.22
579.845	35935.52
580.206	35769.88
580.566	35826.37
580.927	35962.64
581.287	36016.2
581.648	35905.02
582.008	36137.55
582.368	35995.41
582.728	36226.14
583.089	36048.06
583.449	35988.18
583.809	36117.44
584.169	36226.59
584.529	36116.54
584.889	36399.47
585.249	36194.73
585.609	36151.79
585.969	36309.07
586.329	36234.05
586.688	36299.13
587.048	36232.24
587.408	36239.7
587.768	36283.31
588.127	36258.23
588.487	36220.94
588.846	36375.06
589.206	36114.28
589.565	36172.13
589.925	36523.31
590.284	36309.53
590.643	36391.56
591.003	36438.79
591.362	36552.23
591.721	36389.75
592.08	36399.47
592.44	36541.84
592.799	36459.13
593.158	36443.99
593.517	36490.31
593.876	36422.52
594.235	36312.24
594.593	36474.49
594.952	36518.79
595.311	36486.47
595.67	36491.67
596.029	36780.25
596.387	36648.73
596.746	36810.76
597.104	36626.58
597.463	36682.4
597.822	36717.2
598.18	36720.81
598.538	36620.7
598.897	36785.45
599.255	36571.67
599.613	37091.43
599.972	36802.17
600.33	36864.09
600.688	36752.68
601.046	37033.35
601.404	37170.97
601.762	36991.09
602.12	37251.65
602.478	37201.25
602.836	37217.07
603.194	37091.2
603.552	37105.44
603.91	37100.24
604.268	37251.42
604.625	37142.5
604.983	37377.07
605.341	37250.74
605.698	37365.77
606.056	37448.25
606.413	37395.82
606.771	37415.03
607.128	37496.84
607.485	37338.88
607.843	37507.23
608.2	37653.67
608.557	37830.62
608.914	37642.15
609.272	37820.9
609.629	37731.18
609.986	37903.61
610.343	37816.83
610.7	38066.77
611.057	37904.06
611.414	37871.97
611.771	37972.98
612.127	38021.8
612.484	38002.59
612.841	38098.63
613.198	38054.34
613.554	38037.84
613.911	38394.22
614.267	38368.68
614.624	38138.18
614.98	38288.91
615.337	38352.86
615.693	38416.59
616.05	38451.84
616.406	38654.32
616.762	38489.58
617.118	38544.95
617.475	38597.83
617.831	38470.6
618.187	38682.34
618.543	38651.84
618.899	38913.75
619.255	38773.19
619.611	38691.61
619.967	38819.06
620.323	38895.22
620.678	38760.99
621.034	38728.9
621.39	38713.53
621.746	38670.14
622.101	38972.73
622.457	38760.53
622.812	38803.02
623.168	38852.28
623.523	38949
623.879	39041.43
624.234	38720.76
624.589	38795.56
624.945	38888.89
625.3	38938.16
625.655	38873.98
626.01	38911.94
626.365	38994.43
626.72	38719.63
627.075	38826.07
627.43	38727.99
627.785	38741.33
628.14	38783.13
628.495	38840.76
628.85	38739.07
629.205	38598.28
629.559	38829.69
629.914	38667.66
630.269	38692.29
630.623	38469.02
630.978	38511.28
631.332	38698.16
631.687	38739.07
632.041	38531.39
632.396	38711.95
632.75	38373.88
633.104	38408.45
633.459	38236.48
633.813	38333.88
634.167	38275.35
634.521	38187.67
634.875	38212.75
635.229	38064.28
635.583	38010.72
635.937	37995.81
636.291	37971.63
636.645	37925.3
636.999	37799.66
637.352	38041.68
637.706	37699.77
638.06	37792.42
638.413	37718.3
638.767	37708.36
639.121	37572.77
639.474	37468.14
639.828	37612.32
640.181	37511.53
640.534	37658.64
640.888	37360.35
641.241	37315.6
641.594	37483.51
641.947	37477.63
642.301	37255.04
642.654	37238.77
643.007	37305.66
643.36	37252.1
643.713	37153.35
644.066	37248.26
644.419	36986.57
644.771	36634.94
645.124	36592
645.477	36291.45
645.83	36208.29
646.182	36176.42
646.535	35958.35
646.888	35952.92
647.24	35691.91
647.593	35914.28
647.945	35738.47
648.298	35637.23
648.65	35530.56
649.002	35539.15
649.355	35511.58
649.707	35516.1
650.059	35630.22
650.411	36066.14
650.763	36082.41
651.115	36369.41
651.467	36281.5
651.819	36273.37
652.171	36244.67
652.523	36088.97
652.875	36135.07
653.227	35923.55
653.578	36148.63
653.93	36045.35
654.282	35872.93
654.633	35832.7
654.985	35811.46
655.337	35819.82
655.688	35846.94
656.039	36043.32
656.391	35657.34
656.742	35733.27
657.094	35772.59
657.445	35682.65
657.796	35832.48
658.147	35619.83
658.498	35594.97
658.849	35519.26
659.2	35509.32
659.551	35320.4
659.902	35641.97
660.253	35620.28
660.604	35483.78
660.955	35409.44
661.306	35454.86
661.656	35241.31
662.007	35394.75
662.358	35430
662.708	35352.04
663.059	35374.18
663.409	35124.7
663.76	35409.21
664.11	35251.25
664.461	35399.94
664.811	35231.14
665.161	35298.93
665.511	35192.94
665.862	35284.47
666.212	35419.61
666.562	35286.28
666.912	35275.65
667.262	35207.86
667.612	35312.72
667.962	35204.24
668.312	35080.41
668.662	35348.87
669.011	35029.56
669.361	35140.97
669.711	34960.18
670.06	34978.49
670.41	34818.04
670.76	34943.01
671.109	35027.98
671.459	34844.03
671.808	34889
672.157	34956.34
672.507	34700.08
672.856	34747.76
673.205	34750.7
673.554	34872.73
673.904	34665.73
674.253	34833.18
674.602	34594.99
674.951	34195.46
675.3	33982.13
675.649	34622.79
675.998	34450.14
676.346	34481.78
676.695	34534.88
677.044	34398.16
677.393	34463.25
677.741	34380.99
678.09	34340.99
678.438	34278.84
678.787	34232.52
679.135	34310.71
679.484	34138.96
679.832	34238.39
680.181	34043.14
680.529	34015.12
680.877	34077.27
681.225	33845.41
681.573	34047.66
681.922	33908.01
682.27	33765.19
682.618	33810.38
682.966	33761.34
683.314	33794.11
683.661	33671.63
684.009	33518.86
684.357	33533.78
684.705	33310.28
685.053	33505.98
685.4	33398.64
685.748	33188.03
686.095	33370.85
686.443	33061.48
686.79	33161.59
687.138	33062.83
687.485	33094.69
687.832	32909.84
688.18	32936.05
688.527	32785.78
688.874	32619.45
689.221	32616.06
689.568	32527.25
689.915	32398.89
690.262	32501.72
690.609	32363.19
690.956	32330.87
691.303	32178.56
691.65	32089.75
691.997	31987.38
692.344	31830.32
692.69	31752.58
693.037	31886.59
693.383	31646.82
693.73	31675.52
694.077	31604.11
694.423	31487.28
694.769	31262.65
695.116	31268.53
695.462	31183.33
695.808	31180.39
696.155	31160.06
696.501	30931.81
696.847	31006.16
697.193	30652.27
697.539	30832.61
697.885	30542.45
698.231	30572.28
698.577	30555.78
698.923	30429.45
699.269	30331.83
699.614	30199.4
699.96	30090.25
700.306	30146.98
700.651	30036.7
700.997	29809.36
701.342	29773.88
701.688	29735.24
702.033	29641.68
702.379	29654.11
702.724	29542.02
703.069	29575.47
703.415	29175.25
703.76	29233.1
704.105	29244.17
704.45	29207.57
704.795	28893
705.14	28962.6
705.485	28910.85
705.83	28801.02
706.175	28821.59
706.52	28716.96
706.865	28582.27
707.209	28556.74
707.554	28589.73
707.899	28580.01
708.243	28439.45
708.588	28280.13
708.932	28149.97
709.277	28091.89
709.621	28078.78
709.966	27916.07
710.31	28035.62
710.654	27775.74
710.998	27883.76
711.342	27810.99
711.687	27629.98
712.031	27580.94
712.375	27468.4
712.719	27631.79
713.063	27479.25
713.407	27606.7
713.75	27371.46
714.094	27342.98
714.438	27232.7
714.782	27268.41
715.125	27247.84
715.469	27318.58
715.812	27025.02
716.156	26870.23
716.499	26964.01
716.843	26867.51
717.186	26640.4
717.53	26950.45
717.873	26820.74
718.216	26792.26
718.559	26689.21
718.902	26468.88
719.246	26653.51
719.589	26500.97
719.932	26239.28
720.275	26277.25
720.617	26201.77
720.96	26168.78
721.303	26325.16
721.646	26272.95
721.989	26027.99
722.331	26241.09
722.674	26153.63
723.016	26125.39
723.359	25872.96
723.701	25993.64
724.044	25792.51
724.386	25691.27
724.729	25776.7
725.071	25745.74
725.413	25638.39
725.755	25710.93
726.097	25581.22
726.439	25410.15
726.782	25428.46
727.124	25571.95
727.465	25333.09
727.807	25390.72
728.149	25310.94
728.491	25317.27
728.833	25215.58
729.175	25134
729.516	25096.04
729.858	25022.14
730.199	25066.88
730.541	25083.38
730.882	24930.62
731.224	25051.52
731.565	24800.9
731.906	24814.23
732.248	24775.82
732.589	24712.32
732.93	24653.33
733.271	24721.81
733.612	24638.42
733.953	24666.44
734.294	24536.28
734.635	24480.46
734.976	24608.36
735.317	24466.9
735.658	24353.46
735.999	24360.91
736.339	24345.77
736.68	24426.67
737.021	24315.49
737.361	24101.94
737.702	24320.91
738.042	24199.11
738.383	24056.06
738.723	24046.8
739.063	23999.34
739.404	23942.17
739.744	23977.65
740.084	23777.88
740.424	23851.1
740.764	23779.01
741.104	23910.08
741.444	23753.02
741.784	23647.03
742.124	23686.35
742.464	23677.77
742.804	23498.79
743.143	23547.38
743.483	23598.67
743.823	23412.24
744.162	23397.77
744.502	23505.12
744.841	23386.25
745.181	23414.5
745.52	23259.7
745.86	23318
746.199	23231.23
746.538	23162.3
746.877	23299.25
747.216	23148.74
747.556	22986.94
747.895	23002.08
748.234	22975.41
748.573	22885.92
748.911	22861.29
749.25	22829.2
749.589	22672.37
749.928	22824
750.267	22738.81
750.605	22582.2
750.944	22705.36
751.283	22491.36
751.621	22575.65
751.96	22432.38
752.298	22438.03
752.636	22378.14
752.975	22281.87
753.313	22109.22
753.651	22338.14
753.989	22197.58
754.327	22220.18
