Data from white_steel_sheet_FLMS001491_085.txt Node
Date: Tue Feb 07 10:58:37 GMT 2017
User: dcchb
Spectrometer: FLMS00149
Trigger mode: 0
Integration Time (sec): 2.000000E-2
Scans to average: 10
Electric dark correction enabled: true
Nonlinearity correction enabled: false
Boxcar width: 0
XAxis mode: Wavelengths
Number of Pixels in Spectrum: 2048
>>>>>Begin Spectral Data<<<<<
341.393	-28.66
341.776	-28.66
342.16	-28.66
342.543	-53.52
342.927	-74.31
343.31	-73.85
343.693	-66.85
344.077	-44.48
344.46	-64.14
344.843	-62.55
345.226	-30.47
345.61	-31.6
345.993	-24.14
346.376	-2.22
346.759	9.76
347.142	25.35
347.525	45.92
347.908	63.54
348.291	64
348.674	79.81
349.057	111.9
349.44	116.2
349.823	115.29
350.206	174.73
350.588	178.34
350.971	215.63
351.354	229.87
351.737	244.78
352.119	259.7
352.502	267.15
352.884	267.38
353.267	283.65
353.65	301.05
354.032	301.96
354.414	316.42
354.797	318
355.179	327.49
355.562	320.26
355.944	328.85
356.326	319.58
356.709	337.43
357.091	343.54
357.473	346.25
357.855	352.35
358.238	337.43
358.62	362.07
359.002	366.81
359.384	354.84
359.766	343.08
360.148	344.89
360.53	358.23
360.912	350.09
361.294	334.5
361.676	336.76
362.057	339.47
362.439	341.05
362.821	323.42
363.203	337.89
363.584	331.11
363.966	355.51
364.348	338.56
364.729	344.67
365.111	329.53
365.493	332.91
365.874	333.14
366.256	321.84
366.637	319.81
367.019	319.58
367.4	345.34
367.781	350.54
368.163	338.11
368.544	338.79
368.925	328.4
369.306	331.56
369.688	321.39
370.069	341.95
370.45	327.04
370.831	335.17
371.212	335.63
371.593	319.81
371.974	338.56
372.355	330.43
372.736	321.62
373.117	320.94
373.498	330.66
373.879	320.26
374.26	327.49
374.641	349.86
375.021	314.16
375.402	344.89
375.783	340.82
376.163	350.77
376.544	362.97
376.925	351.9
377.305	334.5
377.686	373.59
378.066	362.74
378.447	336.76
378.827	353.93
379.208	358.68
379.588	350.77
379.968	351.67
380.349	377.21
380.729	377.66
381.109	372.91
381.489	366.59
381.87	360.03
382.25	362.07
382.63	343.76
383.01	367.26
383.39	360.94
383.77	369.52
384.15	378.79
384.53	397.77
384.91	391.44
385.29	386.25
385.67	385.57
386.049	407.49
386.429	411.33
386.809	383.76
387.189	396.19
387.568	420.82
387.948	408.17
388.328	415.85
388.707	393.25
389.087	426.02
389.466	427.6
389.846	410.65
390.225	421.73
390.605	452.01
390.984	439.58
391.363	425.79
391.743	437.32
392.122	457.88
392.501	442.29
392.881	445.91
393.26	457.21
393.639	430.99
394.018	495.4
394.397	473.02
394.776	459.92
395.155	475.06
395.534	476.41
395.913	495.4
396.292	490.42
396.671	504.21
397.05	510.31
397.429	515.96
397.808	511.22
398.186	524.1
398.565	531.33
398.944	562.74
399.323	543.3
399.701	550.99
400.08	569.74
400.458	553.93
400.837	581.5
401.215	568.61
401.594	594.15
401.972	583.08
402.351	593.25
402.729	610.2
403.107	599.35
403.486	597.09
403.864	626.24
404.242	649.74
404.62	665.34
404.999	663.75
405.377	682.51
405.755	694.04
406.133	699.91
406.511	700.36
406.889	732.23
407.267	735.39
407.645	760.47
408.023	759.12
408.401	779.46
408.779	761.83
409.156	794.82
409.534	789.4
409.912	804.99
410.29	830.53
410.667	842.28
411.045	870.3
411.422	863.3
411.8	875.27
412.178	886.12
412.555	895.61
412.933	900.36
413.31	932
413.687	962.5
414.065	968.38
414.442	962.28
414.819	998.21
415.197	1003.18
415.574	1017.19
415.951	1003.41
416.328	1020.35
416.705	1024.42
417.082	1026.46
417.46	1054.93
417.837	1079.34
418.214	1084.99
418.591	1084.76
418.967	1097.87
419.344	1095.38
419.721	1101.26
420.098	1111.88
420.475	1130.86
420.852	1124.31
421.228	1137.41
421.605	1177.64
421.982	1210.86
422.358	1201.14
422.735	1198.65
423.111	1239.33
423.488	1237.52
423.864	1241.82
424.241	1256.28
424.617	1283.17
424.994	1291.76
425.37	1307.58
425.746	1313.23
426.123	1356.16
426.499	1328.6
426.875	1343.74
427.251	1389.84
427.627	1406.56
428.003	1422.6
428.379	1405.66
428.756	1435.26
429.132	1467.12
429.507	1528.36
429.883	1503.05
430.259	1527.46
430.635	1526.78
431.011	1549.61
431.387	1595.03
431.763	1658.98
432.138	1652.2
432.514	1665.76
432.89	1667.34
433.265	1733.1
433.641	1717.74
434.016	1731.3
434.392	1752.09
434.767	1807.23
435.143	1815.81
435.518	1804.97
435.894	1842.48
436.269	1870.05
436.644	1885.64
437.02	1902.14
437.395	1907.56
437.77	1953.66
438.145	1992.76
438.52	2018.75
438.895	2028.24
439.271	2031.63
439.646	2068.01
440.021	2082.02
440.395	2098.52
440.77	2090.61
441.145	2091.96
441.52	2158.18
441.895	2156.82
442.27	2190.49
442.645	2177.61
443.019	2229.14
443.394	2219.65
443.769	2238.18
444.143	2217.39
444.518	2272.07
444.892	2283.15
445.267	2310.49
445.641	2309.13
446.016	2341.9
446.39	2370.83
446.764	2348
447.139	2387.78
447.513	2398.17
447.887	2425.29
448.262	2430.71
448.636	2434.78
449.01	2510.26
449.384	2512.52
449.758	2522.46
450.132	2589.13
450.506	2564.95
450.88	2590.71
451.254	2635.45
451.628	2639.3
452.002	2698.28
452.376	2707.32
452.75	2716.36
453.123	2754.09
453.497	2819.86
453.871	2790.93
454.244	2865.96
454.618	2857.59
454.992	2920.64
455.365	2922.23
455.739	2989.12
456.112	3039.51
456.486	3074.76
456.859	3092.84
457.232	3152.95
457.606	3156.57
457.979	3180.98
458.352	3250.35
458.725	3282.22
459.099	3300.75
459.472	3370.12
459.845	3355.66
460.218	3412.83
460.591	3482.89
460.964	3460.52
461.337	3613.28
461.71	3606.28
462.083	3685.37
462.456	3672.04
462.829	3663
463.201	3738.7
463.574	3763.33
463.947	3792.94
464.32	3901.86
464.692	3955.42
465.065	3961.75
465.438	4012.59
465.81	4093.49
466.183	4132.82
466.555	4261.4
466.928	4214.62
467.3	4223.66
467.672	4324
468.045	4424.11
468.417	4424.78
468.789	4477.44
469.161	4519.25
469.534	4602.18
469.906	4654.38
470.278	4750.88
470.65	4803.08
471.022	4899.57
471.394	4923.3
471.766	4972.12
472.138	5055.95
472.51	5128.5
472.882	5245.1
473.253	5333.46
473.625	5334.59
473.997	5467.24
474.369	5516.51
474.74	5609.61
475.112	5697.52
475.484	5767.12
475.855	5878.98
476.227	5919.21
476.598	6112.42
476.97	6074.23
477.341	6257.73
477.713	6367.11
478.084	6371.17
478.455	6614.78
478.827	6659.98
479.198	6852.97
479.569	6874.66
479.94	7040.76
480.311	7067.88
480.682	7242.79
481.053	7433.07
481.424	7479.62
481.795	7588.09
482.166	7751.48
482.537	7810.46
482.908	8014.07
483.279	8091.81
483.65	8187.62
484.021	8318.47
484.391	8533.38
484.762	8558.01
485.133	8600.04
485.503	8827.38
485.874	8920.71
486.244	9038
486.615	9264.88
486.985	9296.52
487.356	9523.86
487.726	9497.19
488.097	9764.08
488.467	9831.42
488.837	10006.78
489.207	10103.28
489.578	10253.33
489.948	10341.92
490.318	10507.11
490.688	10572.42
491.058	10683.38
491.428	10914.56
491.798	10992.07
492.168	11199.97
492.538	11250.82
492.908	11399.29
493.278	11529.23
493.648	11604.93
494.017	11770.81
494.387	11918.83
494.757	11971.7
495.126	12101.19
495.496	12087.86
495.866	12216.22
496.235	12469.09
496.605	12470.9
496.974	12558.13
497.344	12705.02
497.713	12784.56
498.082	12889.42
498.452	13017.78
498.821	13107.49
499.19	13101.84
499.559	13304.78
499.928	13470.2
500.298	13469.97
500.667	13669.74
501.036	13611.89
501.405	13765.78
501.774	13851.2
502.143	13921.94
502.512	14092.33
502.88	14192.89
503.249	14241.93
503.618	14357.18
503.987	14457.06
504.356	14575.48
504.724	14600.11
505.093	14663.84
505.462	14769.82
505.83	14922.14
506.199	15021.57
506.567	15149.93
506.936	15136.14
507.304	15469.47
507.672	15461.33
508.041	15530.71
508.409	15646.41
508.777	15738.61
509.145	15925.27
509.514	15942.45
509.882	16129.11
510.25	16130.24
510.618	16327.52
510.986	16407.75
511.354	16524.81
511.722	16608.87
512.09	16929.54
512.458	16785.59
512.826	16988.3
513.193	17210.21
513.561	17189.65
513.929	17397.78
514.297	17490.88
514.664	17666.92
515.032	17745.79
515.4	17902.85
515.767	18011.32
516.135	18077.31
516.502	18095.61
516.869	18471.65
517.237	18583.06
517.604	18493.57
517.972	18726.33
518.339	18872.99
518.706	18969.49
519.073	18981.92
519.44	19123.61
519.808	19330.38
520.175	19447.44
520.542	19583.71
520.909	19806.3
521.276	19882.91
521.643	19985.51
522.009	20222.34
522.376	20393.18
522.743	20508.43
523.11	20715.88
523.477	20944.8
523.843	21061.18
524.21	21285.13
524.577	21459.59
524.943	21554.05
525.31	21644.67
525.676	21989.29
526.043	22100.93
526.409	22128.05
526.776	22474.48
527.142	22448.49
527.508	22687.13
527.874	22902.27
528.241	22911.08
528.607	23124.86
528.973	23259.54
529.339	23283.27
529.705	23504.51
530.071	23711.28
530.437	23760.77
530.803	23968.23
531.169	24134.55
531.535	24094.1
531.901	24255.68
532.267	24327.76
532.632	24616.8
532.998	24629.23
533.364	24775.66
533.73	24881.65
534.095	25158.7
534.461	25307.63
534.826	25398.02
535.192	25304.69
535.557	25606.6
535.923	25560.73
536.288	25681.4
536.653	25830.55
537.019	25894.28
537.384	26038.45
537.749	26089.75
538.114	26230.09
538.479	26266.24
538.845	26535.39
539.21	26452.45
539.575	26600.25
539.94	26621.72
540.305	26907.58
540.67	26820.81
541.034	26969.95
541.399	27113.91
541.764	27216.05
542.129	27211.3
542.494	27382.37
542.858	27379.44
543.223	27473.67
543.587	27684.96
543.952	27745.75
544.316	27862.59
544.681	27886.99
545.045	27936.48
545.41	28155.23
545.774	28246.31
546.138	28312.97
546.503	28444.94
546.867	28316.13
547.231	28762.68
547.595	28772.17
547.959	28732.85
548.324	28790.25
548.688	28975.1
549.052	29058.04
549.416	29062.56
549.779	29168.31
550.143	29229.1
550.507	29549.55
550.871	29619.83
551.235	29618.47
551.599	29854.4
551.962	29891.46
552.326	29930.78
552.689	30179.59
553.053	30005.13
553.417	30086.26
553.78	30570.54
554.143	30396.98
554.507	30545.68
554.87	30691.44
555.234	31012.11
555.597	30860.7
555.96	31018.44
556.323	31060.02
556.686	31232.22
557.05	31458.88
557.413	31523.51
557.776	31589.49
558.139	31753.56
558.502	31844.4
558.865	32019.54
559.228	32108.8
559.59	32312.19
559.953	32330.49
560.316	32694.78
560.679	32613.65
561.041	32865.39
561.404	32959.63
561.767	33209.11
562.129	33190.58
562.492	33643.68
562.854	33424.47
563.217	33643
563.579	33705.37
563.941	33952.37
564.304	34027.62
564.666	34186.71
565.028	34209.09
565.39	34503.77
565.753	34615.86
566.115	34743.54
566.477	34871.89
566.839	34986.47
567.201	35210.87
567.563	35350.07
567.925	35480.69
568.287	35466
568.648	35498.32
569.01	35637.3
569.372	35956.61
569.734	35889.49
570.095	36087
570.457	36228.47
570.819	36413.32
571.18	36378.29
571.542	36524.05
571.903	36583.04
572.265	36822.58
572.626	36779.19
572.987	37132.17
573.349	36987.32
573.71	37103.47
574.071	37272.51
574.432	37392.73
574.794	37485.16
575.155	37436.35
575.516	37386.63
575.877	37569
576.238	37658.49
576.599	37821.42
576.96	37893.51
577.32	37861.87
577.681	37856
578.042	38078.14
578.403	38051.25
578.763	38031.58
579.124	38092.37
579.485	38333.5
579.845	38383.44
580.206	38242.2
580.566	38298.02
580.927	38295.53
581.287	38687.16
581.648	38390.67
582.008	38490.56
582.368	38475.41
582.728	38546.15
583.089	38559.71
583.449	38469.77
583.809	38476.54
584.169	38567.84
584.529	38432.03
584.889	38819.81
585.249	38590.67
585.609	38494.17
585.969	38777.55
586.329	38635.86
586.688	38801.51
587.048	38723.32
587.408	38669.53
587.768	38505.92
588.127	38595.86
588.487	38519.93
588.846	38777.1
589.206	38541.63
589.565	38587.95
589.925	38718.8
590.284	38605.35
590.643	38634.51
591.003	38712.7
591.362	38809.64
591.721	38841.51
592.08	38703.21
592.44	38817.33
592.799	38811.45
593.158	38629.31
593.517	38702.98
593.876	38698.46
594.235	38643.55
594.593	38777.78
594.952	38809.42
595.311	38576.43
595.67	38821.62
596.029	39105.91
596.387	38995.63
596.746	39093.7
597.104	38768.29
597.463	38857.55
597.822	39107.71
598.18	38918.34
598.538	38779.59
598.897	38971
599.255	38747.5
599.613	39261.38
599.972	39079.24
600.33	39134.38
600.688	38910.88
601.046	39154.95
601.404	39166.47
601.762	39100.48
602.12	39248.05
602.478	39252.12
602.836	39261.16
603.194	39043.76
603.552	39041.73
603.91	39101.39
604.268	39164.89
604.625	39037.21
604.983	39224.77
605.341	39051.44
605.698	39184.55
606.056	39394.26
606.413	39269.74
606.771	39397.2
607.128	39387.48
607.485	39303.42
607.843	39291.89
608.2	39596.29
608.557	39699.56
608.914	39423.86
609.272	39810.97
609.629	39839.67
609.986	39795.15
610.343	39662.95
610.7	39810.75
611.057	39857.98
611.414	39790.86
611.771	40051.64
612.127	39983.17
612.484	40182.04
612.841	40164.41
613.198	40025.2
613.554	40060.01
613.911	40311.75
614.267	40171.19
614.624	40220.23
614.98	40296.38
615.337	40442.59
615.693	40379.09
616.05	40189.72
616.406	40511.29
616.762	40398.08
617.118	40272.43
617.475	40401.24
617.831	40586.77
618.187	40624.74
618.543	40505.19
618.899	40706.32
619.255	40856.37
619.611	40665.19
619.967	40926.88
620.323	40841.23
620.678	40808.23
621.034	40795.35
621.39	40771.85
621.746	40730.72
622.101	41150.6
622.457	40841.68
622.812	40933.2
623.168	41032.86
623.523	40945.63
623.879	41000.09
624.234	40905.63
624.589	41000.55
624.945	40978.85
625.3	40970.49
625.655	40862.02
626.01	40894.11
626.365	41036.25
626.72	40792.87
627.075	40928.01
627.43	40951.73
627.785	40795.81
628.14	40904.96
628.495	40864.73
628.85	40791.74
629.205	40836.26
629.559	41005.29
629.914	40745.19
630.269	40792.87
630.623	40577.05
630.978	40589.94
631.332	40846.88
631.687	40784.96
632.041	40669.03
632.396	40659.54
632.75	40433.78
633.104	40574.12
633.459	40324.18
633.813	40349.49
634.167	40340.45
634.521	40249.83
634.875	40299.1
635.229	40263.39
635.583	40065.2
635.937	40008.48
636.291	39918.77
636.645	39972.78
636.999	39895.49
637.352	39905.43
637.706	39817.3
638.06	40024.3
638.413	39794.93
638.767	39665.21
639.121	39821.59
639.474	39517.2
639.828	39510.42
640.181	39509.74
640.534	39519.46
640.888	39534.37
641.241	39332.34
641.594	39365.56
641.947	39492.34
642.301	39322.17
642.654	39417.09
643.007	39237.2
643.36	39079.92
643.713	39067.94
644.066	39350.65
644.419	39016.64
644.771	38767.38
645.124	38241.97
645.477	38273.39
645.83	38029.78
646.182	38012.38
646.535	37773.29
646.888	37978.03
647.24	37830.23
647.593	37961.76
647.945	37971.47
648.298	37733.29
648.65	37671.82
649.002	37602.44
649.355	37732.16
649.707	37520.41
650.059	37636.79
650.411	38051.02
650.763	38098.7
651.115	38585.24
651.467	38266.83
651.819	38266.15
652.171	38206.5
652.523	38222.77
652.875	38214.18
653.227	38107.29
653.578	38273.39
653.93	38115.65
654.282	37943.23
654.633	37951.81
654.985	37969.21
655.337	37862.55
655.688	37781.87
656.039	37853.74
656.391	37699.16
656.742	37795.88
657.094	37779.16
657.445	37866.62
657.796	37656.45
658.147	37745.26
658.498	37705.49
658.849	37677.47
659.2	37514.31
659.551	37567.64
659.902	37566.96
660.253	37443.35
660.604	37450.36
660.955	37194.77
661.306	37360.87
661.656	37299.85
662.007	37225.73
662.358	37142.34
662.708	37103.25
663.059	37034.32
663.409	36840.66
663.76	37055.57
664.11	37044.72
664.461	37180.53
664.811	37013.31
665.161	36813.31
665.511	36717.95
665.862	36693.31
666.212	36719.3
666.562	36693.54
666.912	36497.16
667.262	36361.57
667.612	36297.62
667.962	36375.58
668.312	36194.57
668.662	36376.71
669.011	36040.45
669.361	36037.06
669.711	35993.9
670.06	35862.38
670.41	35810.17
670.76	35631.87
671.109	35577.19
671.459	35673.45
671.808	35548.94
672.157	35439.11
672.507	35305.55
672.856	35297.19
673.205	35257.65
673.554	35446.34
673.904	35266.01
674.253	35327.48
674.602	35095.16
674.951	34590.55
675.3	34559.59
675.649	34842.06
675.998	34832.35
676.346	34916.19
676.695	35043.87
677.044	34789.41
677.393	34872.8
677.741	34894.04
678.09	34704.67
678.438	34577.21
678.787	34761.16
679.135	34771.33
679.484	34350.55
679.832	34651.11
680.181	34396.43
680.529	34575.86
680.877	34388.97
681.225	34481.62
681.573	34639.13
681.922	34401.62
682.27	34360.72
682.618	34491.11
682.966	34442.98
683.314	34414.5
683.661	34399.59
684.009	34179.93
684.357	34315.75
684.705	34253.6
685.053	34316.88
685.4	34339.7
685.748	34313.49
686.095	34356.2
686.443	34178.58
686.79	34173.83
687.138	34364.56
687.485	34272.36
687.832	34151.23
688.18	34394.84
688.527	34170.44
688.874	34174.29
689.221	34121.63
689.568	34128.86
689.915	34042.31
690.262	34099.26
690.609	33974.52
690.956	33944.91
691.303	33929.32
691.65	33727.97
691.997	33802.77
692.344	33769.55
692.69	33692.26
693.037	33858.59
693.383	33438.49
693.73	33619.05
694.077	33482.33
694.423	33624.92
694.769	33447.98
695.116	33429.45
695.462	33448.2
695.808	33206.4
696.155	33299.28
696.501	33137.7
696.847	33183.58
697.193	32838.95
697.539	33069.46
697.885	32889.35
698.231	32794.89
698.577	32667.88
698.923	32659.07
699.269	32492.07
699.614	32537.72
699.96	32348.8
700.306	32420.43
700.651	32211.4
700.997	32174.34
701.342	32072.87
701.688	32117.84
702.033	31862.03
702.379	31895.47
702.724	31931.86
703.069	31962.14
703.415	31518.54
703.76	31608.7
704.105	31674.24
704.45	31421.36
704.795	31361.25
705.14	31345.66
705.485	31275.15
705.83	31180.92
706.175	31173.69
706.52	31088.26
706.865	30953.35
707.209	30973.69
707.554	30746.58
707.899	30883.52
708.243	30678.56
708.588	30689.86
708.932	30540.71
709.277	30481.05
709.621	30504.55
709.966	30245.35
710.31	30441.95
710.654	30131
710.998	30262.3
711.342	30217.55
711.687	30198.57
712.031	29996.99
712.375	29963.77
712.719	29897.11
713.063	29829.54
713.407	29889.88
713.75	29604.91
714.094	29734.18
714.438	29476.56
714.782	29632.94
715.125	29493.05
715.469	29397.01
715.812	29352.94
716.156	29208.09
716.499	29204.92
716.843	29277.01
717.186	29054.19
717.53	29137.13
717.873	29201.31
718.216	28968.09
718.559	28938.26
718.902	28787.31
719.246	28676.58
719.589	28759.51
719.932	28674.77
720.275	28592.74
720.617	28627.76
720.96	28528.78
721.303	28553.19
721.646	28572.85
721.989	28393.65
722.331	28400.2
722.674	28296.47
723.016	28293.08
723.359	28266.64
723.701	28306.42
724.044	28129.92
724.386	28058.51
724.729	28103.03
725.071	28048.57
725.413	27887.44
725.755	27934.45
726.097	27785.07
726.439	27801.8
726.782	27753.44
727.124	27782.59
727.465	27570.84
727.807	27667.34
728.149	27559.32
728.491	27509.38
728.833	27584.63
729.175	27335.59
729.516	27434.35
729.858	27388.93
730.199	27444.97
730.541	27246.56
730.882	27153
731.224	27255.82
731.565	27122.04
731.906	26992.55
732.248	27098.54
732.589	26993.68
732.93	26867.36
733.271	26775.84
733.612	26953.01
733.953	26856.96
734.294	26773.8
734.635	26657.65
734.976	26761.37
735.317	26620.13
735.658	26609.06
735.999	26624.88
736.339	26478.89
736.68	26670.98
737.021	26423.75
737.361	26317.54
737.702	26522.73
738.042	26391.89
738.383	26414.72
738.723	26367.48
739.063	26215.62
739.404	26369.07
739.744	26158.45
740.084	26107.83
740.424	26065.8
740.764	26071.67
741.104	26170.2
741.444	25839.81
741.784	25782.19
742.124	25887.95
742.464	25903.77
742.804	25867.38
743.143	25787.61
743.483	25803.66
743.823	25572.48
744.162	25645.47
744.502	25591.23
744.841	25454.29
745.181	25519.37
745.52	25484.34
745.86	25542.87
746.199	25430.11
746.538	25386.95
746.877	25456.1
747.216	25356.89
747.556	25275.08
747.895	25281.19
748.234	25146.05
748.573	25142.43
748.911	25016.79
749.25	25051.81
749.589	24956.45
749.928	24863.8
750.267	24905.38
750.605	24867.19
750.944	24765.27
751.283	24774.31
751.621	24890.46
751.96	24670.58
752.298	24604.82
752.636	24600.53
752.975	24466.52
753.313	24401.21
753.651	24527.99
