Data from White_paper_FLMS001491_087.txt Node
Date: Tue Feb 07 10:35:41 GMT 2017
User: dcchb
Spectrometer: FLMS00149
Trigger mode: 0
Integration Time (sec): 2.000000E-2
Scans to average: 10
Electric dark correction enabled: true
Nonlinearity correction enabled: false
Boxcar width: 0
XAxis mode: Wavelengths
Number of Pixels in Spectrum: 2048
>>>>>Begin Spectral Data<<<<<
341.393	-14.87
341.776	-14.87
342.16	-14.87
342.543	-42.22
342.927	-47.41
343.31	-82.67
343.693	-77.24
344.077	-64.59
344.46	-54.19
344.843	-51.48
345.226	-53.52
345.61	-33.63
345.993	-20.3
346.376	20.15
346.759	18.57
347.142	11.79
347.525	49.76
347.908	42.08
348.291	71.23
348.674	108.29
349.057	115.75
349.44	134.5
349.823	137.89
350.206	194.84
350.588	229.41
350.971	243.65
351.354	247.95
351.737	274.39
352.119	296.53
352.502	305.8
352.884	313.03
353.267	324.33
353.65	338.11
354.032	351.22
354.414	342.86
354.797	334.27
355.179	334.04
355.562	379.47
355.944	357.55
356.326	355.51
356.709	371.11
357.091	379.24
357.473	386.7
357.855	393.48
358.238	380.15
358.62	396.64
359.002	372.24
359.384	389.86
359.766	373.37
360.148	358.9
360.53	367.72
360.912	355.06
361.294	385.12
361.676	386.92
362.057	385.12
362.439	376.53
362.821	376.76
363.203	379.24
363.584	350.09
363.966	354.16
364.348	352.12
364.729	382.41
365.111	361.61
365.493	364.1
365.874	354.16
366.256	376.53
366.637	369.52
367.019	367.72
367.4	374.04
367.781	370.65
368.163	353.48
368.544	366.59
368.925	375.85
369.306	388.73
369.688	350.09
370.069	371.11
370.45	363.42
370.831	358.68
371.212	380.15
371.593	397.09
371.974	366.59
372.355	365.91
372.736	369.07
373.117	389.64
373.498	399.58
373.879	383.76
374.26	366.59
374.641	367.72
375.021	391.67
375.402	388.51
375.783	388.73
376.163	388.73
376.544	411.33
376.925	393.25
377.305	376.08
377.686	383.08
378.066	392.8
378.447	400.03
378.827	409.75
379.208	403.42
379.588	420.6
379.968	395.51
380.349	411.78
380.729	411.78
381.109	425.12
381.489	420.6
381.87	438
382.25	438.9
382.63	416.08
383.01	428.96
383.39	431.22
383.77	448.84
384.15	424.44
384.53	429.86
384.91	438.45
385.29	440.03
385.67	467.6
386.049	454.27
386.429	454.49
386.809	472.57
387.189	463.98
387.568	481.84
387.948	476.87
388.328	485.91
388.707	457.43
389.087	487.71
389.466	480.03
389.846	480.48
390.225	490.65
390.605	498.56
390.984	504.66
391.363	504.21
391.743	530.42
392.122	498.11
392.501	510.09
392.881	540.37
393.26	522.29
393.639	555.06
394.018	563.19
394.397	555.73
394.776	558.45
395.155	567.03
395.534	564.1
395.913	581.72
396.292	581.27
396.671	607.94
397.05	596.86
397.429	606.35
397.808	604.55
398.186	600.48
398.565	595.73
398.944	604.55
399.323	620.59
399.701	635.28
400.08	622.85
400.458	626.92
400.837	652.91
401.215	649.29
401.594	667.6
401.972	689.29
402.351	673.92
402.729	729.29
403.107	702.4
403.486	691.55
403.864	734.03
404.242	722.74
404.62	754.37
404.999	762.73
405.377	792.34
405.755	774.26
406.133	805.9
406.511	819.68
406.889	812.68
407.267	873.47
407.645	876.4
408.023	876.4
408.401	906.69
408.779	946.68
409.156	946.68
409.534	949.17
409.912	1012.67
410.29	1025.1
410.667	1049.96
411.045	1053.57
411.422	1087.25
411.8	1114.82
412.178	1139.45
412.555	1188.94
412.933	1216.96
413.31	1235.26
413.687	1268.48
414.065	1276.62
414.442	1296.73
414.819	1348.71
415.197	1364.3
415.574	1390.74
415.951	1452.21
416.328	1475.94
416.705	1464.86
417.082	1485.2
417.46	1501.47
417.837	1569.94
418.214	1555.93
418.591	1596.84
418.967	1627.8
419.344	1635.71
419.721	1669.15
420.098	1691.3
420.475	1727.68
420.852	1764.74
421.228	1807.68
421.605	1839.32
421.982	1845.64
422.358	1841.12
422.735	1895.36
423.111	1925.42
423.488	1942.82
423.864	1989.82
424.241	1985.3
424.617	2025.98
424.994	2039.08
425.37	2068.91
425.746	2062.36
426.123	2117.95
426.499	2148.23
426.875	2167.89
427.251	2222.13
427.627	2267.55
428.003	2268.68
428.379	2262.58
428.756	2310.04
429.132	2414.44
429.507	2421.22
429.883	2425.97
430.259	2467.55
430.635	2515.46
431.011	2538.96
431.387	2587.54
431.763	2674.55
432.138	2637.04
432.514	2719.07
432.89	2733.76
433.265	2825.5
433.641	2813.75
434.016	2851.94
434.392	2928.33
434.767	2982.56
435.143	2976.24
435.518	3034.09
435.894	3075.44
436.269	3095.33
436.644	3117.25
437.02	3200.18
437.395	3183.24
437.77	3242.67
438.145	3237.02
438.52	3349.56
438.895	3359.5
439.271	3389.56
439.646	3461.19
440.021	3481.76
440.395	3522.44
440.77	3474.53
441.145	3518.37
441.52	3613.73
441.895	3545.26
442.27	3625.26
442.645	3645.6
443.019	3672.71
443.394	3676.56
443.769	3747.51
444.143	3692.6
444.518	3812.37
444.892	3740.28
445.267	3799.04
445.641	3861.18
446.016	3847.62
446.39	3890.56
446.764	3918.81
447.139	3899.15
447.513	3997.68
447.887	3967.17
448.262	3941.63
448.636	4028.19
449.01	4113.83
449.384	4111.35
449.758	4185.47
450.132	4203.77
450.506	4215.07
450.88	4217.33
451.254	4205.36
451.628	4321.74
452.002	4393.6
452.376	4383.88
452.75	4423.43
453.123	4425.01
453.497	4524.22
453.871	4590.43
454.244	4640.37
454.618	4653.03
454.992	4725.79
455.365	4778.45
455.739	4896.41
456.112	4885.11
456.486	4902.29
456.859	4960.36
457.232	5094.6
457.606	5074.26
457.979	5161.71
458.352	5250.3
458.725	5284.88
459.099	5336.4
459.472	5400.58
459.845	5531.42
460.218	5526.9
460.591	5594.7
460.964	5602.38
461.337	5746.33
461.71	5814.13
462.083	5941.58
462.456	5985.42
462.829	5994.24
463.201	6116.49
463.574	6103.84
463.947	6187.45
464.32	6329.82
464.692	6383.38
465.065	6446.88
465.438	6553.09
465.81	6617.27
466.183	6668.34
466.555	6891.16
466.928	6838.96
467.3	6882.57
467.672	6996.92
468.045	7180.42
468.417	7229.23
468.789	7280.3
469.161	7383.58
469.534	7485.04
469.906	7647.75
470.278	7704.25
470.65	7799.39
471.022	7957.35
471.394	8103.11
471.766	8171.35
472.138	8285.02
472.51	8418.13
472.882	8583.77
473.253	8676.65
473.625	8786.48
473.997	8958.45
474.369	9059.47
474.74	9117.77
475.112	9316.41
475.484	9439.12
475.855	9612.22
476.227	9706
476.598	10040.68
476.97	10037.52
477.341	10272.31
477.713	10412.65
478.084	10483.16
478.455	10798.85
478.827	10878.4
479.198	11180.54
479.569	11179.41
479.94	11416.92
480.311	11606.74
480.682	11886.96
481.053	12143.45
481.424	12281.75
481.795	12364.69
482.166	12604.23
482.537	12775.07
482.908	13029.53
483.279	13142.97
483.65	13396.98
484.021	13636.52
484.391	13805.56
484.762	13905.44
485.133	14061.37
485.503	14206
485.874	14562.15
486.244	14670.17
486.615	14898.41
486.985	15183.82
487.356	15392.86
487.726	15514.44
488.097	15844.15
488.467	15796.01
488.837	16244.59
489.207	16317.35
489.578	16607.06
489.948	16771.35
490.318	16962.31
490.688	17099.25
491.058	17366.59
491.428	17510.32
491.798	17796.41
492.168	18028.27
492.538	18092
492.908	18327.02
493.278	18614.92
493.648	18575.6
494.017	18811.53
494.387	18932.2
494.757	19125.64
495.126	19386.2
495.496	19410.83
495.866	19576.25
496.235	19765.62
496.605	19931.95
496.974	20028.89
497.344	20273.18
497.713	20251.71
498.082	20525.6
498.452	20804.24
498.821	20778.93
499.19	20830
499.559	21045.82
499.928	21184.12
500.298	21333.49
500.667	21567.16
501.036	21578.46
501.405	21706.82
501.774	21825.68
502.143	22013.25
502.512	22084.21
502.88	22306.57
503.249	22278.33
503.618	22507.25
503.987	22613.91
504.356	22775.49
504.724	22965.09
505.093	23180
505.462	23290.96
505.83	23319.66
506.199	23472.19
506.567	23770.94
506.936	23834.9
507.304	24117.83
507.672	24082.12
508.041	24273.75
508.409	24487.76
508.777	24586.06
509.145	24877.58
509.514	24846.17
509.882	25093.39
510.25	25163.45
510.618	25221.3
510.986	25482.54
511.354	25622.42
511.722	25904.22
512.09	26143.76
512.458	26123.42
512.826	26263.08
513.193	26486.58
513.561	26564.32
513.929	26749.17
514.297	27111.19
514.664	27122.27
515.032	27322.04
515.4	27512.09
515.767	27638.19
516.135	27776.26
516.502	27673.44
516.869	28232.29
517.237	28237.72
517.604	28187.55
517.972	28570.14
518.339	28798.38
518.706	28867.76
519.073	29090.58
519.44	29174.87
519.808	29424.58
520.175	29538.47
520.542	29894.4
520.909	29829.54
521.276	30061.17
521.643	30367.61
522.009	30600.37
522.376	30703.19
522.743	30949.74
523.11	31229.05
523.477	31519.89
523.843	31609.61
524.21	31978.64
524.577	32239.87
524.943	32336.82
525.31	32507.89
525.676	32656.36
526.043	33048.21
526.409	33223.58
526.776	33418.6
527.142	33650.23
527.508	33898.59
527.874	34108.3
528.241	34239.82
528.607	34204.57
528.973	34685.91
529.339	34546.48
529.705	34979.69
530.071	35245.22
530.437	35444.53
530.803	35573.12
531.169	35886.78
531.535	35717.75
531.901	36015.14
532.267	36114.35
532.632	36355.92
532.998	36560.66
533.364	36636.59
533.73	36803.14
534.095	37017.6
534.461	37183.7
534.826	37420.53
535.192	37551.37
535.557	37770.35
535.923	37757.92
536.288	38038.82
536.653	38149.77
537.019	38182.32
537.384	38364.23
537.749	38471.12
538.114	38629.54
538.479	38648.74
538.845	38876.53
539.21	38894.39
539.575	39063.42
539.94	39276.52
540.305	39410.98
540.67	39433.81
541.034	39557.65
541.399	39730.98
541.764	39815.04
542.129	40170.51
542.494	40212.32
542.858	40402.82
543.223	40343.16
543.587	40687.11
543.952	40586.09
544.316	40764.17
544.681	40638.97
545.045	40960.1
545.41	41238.96
545.774	41312.63
546.138	41408.67
546.503	41527.99
546.867	41664.26
547.231	41908.77
547.595	42018.82
547.959	42194.41
548.324	42188.54
548.688	42331.13
549.052	42463.78
549.416	42559.6
549.779	42638.92
550.143	42771.12
550.507	42999.82
550.871	43190.32
551.235	43059.93
551.599	43546.92
551.962	43687.93
552.326	43692.9
552.689	43941.03
553.053	43782.85
553.417	43951.43
553.78	44435.94
554.143	44226.22
554.507	44495.14
554.87	44612.43
555.234	44926.77
555.597	44785.53
555.96	44897.62
556.323	45119.08
556.686	45297.61
557.05	45497.83
557.413	45466.64
557.776	45642.91
558.139	45892.85
558.502	45968.78
558.865	46084.93
559.228	46385.49
559.59	46461.19
559.953	46628.65
560.316	47050.56
560.679	46831.13
561.041	47245.13
561.404	47394.28
561.767	47648.28
562.129	47437.21
562.492	47716.08
562.854	47902.06
563.217	47928.05
563.579	48123.97
563.941	48320.35
564.304	48542.04
564.666	48709.95
565.028	48781.81
565.39	48874.01
565.753	49179.54
566.115	49265.41
566.477	49390.16
566.839	49424.05
567.201	49743.14
567.563	49860.88
567.925	49992.63
568.287	50094.09
568.648	50062.45
569.01	50344.71
569.372	50519.39
569.734	50518.71
570.095	50740.63
570.457	50927.74
570.819	50966.84
571.18	51000.96
571.542	51191.01
571.903	51258.81
572.265	51353.72
572.626	51579.25
572.987	51529.76
573.349	51540.83
573.71	51807.27
574.071	51848.85
574.432	51997.09
574.794	52291.77
575.155	52233.02
575.516	52108.5
575.877	52332.45
576.238	52348.95
576.599	52546.68
576.96	52537.64
577.32	52575.61
577.681	52753.91
578.042	52744.64
578.403	52821.25
578.763	52773.8
579.124	53006.33
579.485	53033.22
579.845	53131.53
580.206	53088.82
580.566	53069.61
580.927	53173.79
581.287	53339.88
581.648	53195.03
582.008	53357.96
582.368	53309.83
582.728	53355.25
583.089	53425.76
583.449	53392.54
583.809	53550.05
584.169	53591.4
584.529	53544.85
584.889	53768.35
585.249	53564.74
585.609	53430.05
585.969	53682.47
586.329	53553.44
586.688	53582.59
587.048	53727.67
587.408	53631.85
587.768	53667.33
588.127	53671.4
588.487	53675.92
588.846	53886.08
589.206	53738.29
589.565	53703.94
589.925	53893.31
590.284	53766.76
590.643	53853.99
591.003	53944.61
591.362	54008.79
591.721	54000.2
592.08	53953.43
592.44	54012.41
592.799	54091.5
593.158	54007.89
593.517	54066.64
593.876	54099.18
594.235	54034.1
594.593	54057.38
594.952	54161.56
595.311	54119.75
595.67	54243.14
596.029	54253.98
596.387	54317.71
596.746	54376.24
597.104	54232.06
597.463	54209.01
597.822	54430.93
598.18	54256.02
598.538	54312.96
598.897	54452.4
599.255	54220.99
599.613	54584.82
599.972	54464.15
600.33	54495.56
600.688	54465.28
601.046	54557.7
601.404	54647.42
601.762	54640.64
602.12	54743.69
602.478	54709.11
602.836	54684.93
603.194	54477.25
603.552	54632.05
603.91	54610.58
604.268	54703.46
604.625	54672.5
604.983	54793.18
605.341	54720.86
605.698	54849.45
606.056	54910.91
606.413	54806.06
606.771	54912.04
607.128	54956.34
607.485	54877.7
607.843	54885.6
608.2	55069.33
608.557	55122.21
608.914	54971.93
609.272	55222.32
609.629	55110.23
609.986	55233.84
610.343	55058.93
610.7	55345.71
611.057	55262.32
611.414	55213.05
611.771	55323.79
612.127	55389.77
612.484	55380.73
612.841	55493.5
613.198	55329.66
613.554	55298.02
613.911	55511.35
614.267	55548.86
614.624	55394.74
614.98	55445.82
615.337	55645.58
615.693	55601.74
616.05	55529.2
616.406	55677.45
616.762	55620.05
617.118	55557.9
617.475	55674.06
617.831	55739.59
618.187	55651.46
618.543	55791.34
618.899	55851
619.255	55889.42
619.611	55740.5
619.967	55879.93
620.323	55925.58
620.678	55815.52
621.034	55681.52
621.39	55759.71
621.746	55740.95
622.101	55981.62
622.457	55795.41
622.812	55846.03
623.168	55924.67
623.523	55917.44
623.879	56027.95
624.234	55877.9
624.589	55896.88
624.945	55883.32
625.3	55976.42
625.655	55909.53
626.01	55880.83
626.365	55986.37
626.72	55962.41
627.075	55943.88
627.43	55953.37
627.785	55853.72
628.14	55948.63
628.495	56003.77
628.85	55917.44
629.205	55853.72
629.559	56040.83
629.914	55808.97
630.269	55843.77
630.623	55891.91
630.978	55912.02
631.332	55940.94
631.687	55997.67
632.041	55859.82
632.396	55908.18
632.75	55853.72
633.104	55832.92
633.459	55746.6
633.813	55789.76
634.167	55770.55
634.521	55787.73
634.875	55826.82
635.229	55718.13
635.583	55632.03
635.937	55638.81
636.291	55521.29
636.645	55658.92
636.999	55588.41
637.352	55602.42
637.706	55590.22
638.06	55603.78
638.413	55606.72
638.767	55488.53
639.121	55503.89
639.474	55344.35
639.828	55486.04
640.181	55492.37
640.534	55463.89
640.888	55364.01
641.241	55272.26
641.594	55321.53
641.947	55450.11
642.301	55359.72
642.654	55319.49
643.007	55289.66
643.36	55382.54
643.713	55281.53
644.066	55403.33
644.419	55203.56
644.771	55084.24
645.124	54711.37
645.477	54715.21
645.83	54557.48
646.182	54508.44
646.535	54473.41
646.888	54482.45
647.24	54338.05
647.593	54468.21
647.945	54414.88
648.298	54301.44
648.65	54260.08
649.002	54229.35
649.355	54293.98
649.707	54275.68
650.059	54413.07
650.411	54738.49
650.763	54749.11
651.115	55040.86
651.467	54957.47
651.819	54957.69
652.171	54907.3
652.523	54850.13
652.875	54879.73
653.227	54775.1
653.578	54917.47
653.93	54872.05
654.282	54693.97
654.633	54671.83
654.985	54739.17
655.337	54709.11
655.688	54732.16
656.039	54746.4
656.391	54549.12
656.742	54738.04
657.094	54642.67
657.445	54691.49
657.796	54633.63
658.147	54567.65
658.498	54579.85
658.849	54734.2
659.2	54660.75
659.551	54507.54
659.902	54585.73
660.253	54541.89
660.604	54612.39
660.955	54460.98
661.306	54666.4
661.656	54492.85
662.007	54458.72
662.358	54479.51
662.708	54502.79
663.059	54492.17
663.409	54346.18
663.76	54531.26
664.11	54456.69
664.461	54515.45
664.811	54433.87
665.161	54447.2
665.511	54386.18
665.862	54404.71
666.212	54423.7
666.562	54432.06
666.912	54407.88
667.262	54295.34
667.612	54263.93
667.962	54311.61
668.312	54284.94
668.662	54351.38
669.011	54338.5
669.361	54285.17
669.711	54264.6
670.06	54221.44
670.41	54199.07
670.76	54144.38
671.109	54183.7
671.459	54123.14
671.808	54170.82
672.157	54184.83
672.507	53962.92
672.856	53928.79
673.205	54006.53
673.554	54109.81
673.904	53928.34
674.253	54086.76
674.602	53931.51
674.951	53534.68
675.3	53416.72
675.649	53816.25
675.998	53787.33
676.346	53850.38
676.695	53905.52
677.044	53686.31
677.393	53763.83
677.741	53761.57
678.09	53669.59
678.438	53552.76
678.787	53582.81
679.135	53643.15
679.484	53465.3
679.832	53572.42
680.181	53338.3
680.529	53444.06
680.877	53383.5
681.225	53277.51
681.573	53371.97
681.922	53136.72
682.27	53106.89
682.618	53069.16
682.966	53060.34
683.314	53109.38
683.661	53009.95
684.009	52881.82
684.357	52781.93
684.705	52775.6
685.053	52830.29
685.4	52753.91
685.748	52579.22
686.095	52482.05
686.443	52419.46
686.79	52347.59
687.138	52341.72
687.485	52283.64
687.832	52180.37
688.18	52272.34
688.527	52035.96
688.874	52024.89
689.221	51957.55
689.568	51882.29
689.915	51736.54
690.262	51766.59
690.609	51622.41
690.956	51619.02
691.303	51495.86
691.65	51325.47
691.997	51324.79
692.344	51126.83
692.69	51008.19
693.037	51010.45
693.383	50771.14
693.73	50984.46
694.077	50666.51
694.423	50783.79
694.769	50556.91
695.116	50501.77
695.462	50430.13
695.808	50321.88
696.155	50332.96
696.501	50125.05
696.847	50109.01
697.193	49825.4
697.539	50102.45
697.885	49680.09
698.231	49534.79
698.577	49624.27
698.923	49612.98
699.269	49395.58
699.614	49238.3
699.96	49262.93
700.306	49181.8
700.651	48948.81
700.997	48798.53
701.342	48752.21
701.688	48683.28
702.033	48692.77
702.379	48602.38
702.724	48498.2
703.069	48598.09
703.415	48132.79
703.76	48241.49
704.105	48092.56
704.45	47991.32
704.795	47833.59
705.14	47796.53
705.485	47790.65
705.83	47554.27
706.175	47679.92
706.52	47549.98
706.865	47245.58
707.209	47265.47
707.554	47152.7
707.899	47192.7
708.243	47030.22
708.588	46863.44
708.932	46631.58
709.277	46665.48
709.621	46578.48
709.966	46414.19
710.31	46473.85
710.654	46248.77
710.998	46294.19
711.342	46285.61
711.687	46146.17
712.031	46045.16
712.375	45918.83
712.719	45932.17
713.063	45910.02
713.407	45953.41
713.75	45566.53
714.094	45714.09
714.438	45479.3
714.782	45510.48
715.125	45306.2
715.469	45311.17
715.812	45121.12
716.156	44970.84
716.499	45009.03
716.843	45030.5
717.186	44895.13
717.53	44940.56
717.873	44966.32
718.216	44773.55
718.559	44566.55
718.902	44387.58
719.246	44456.95
719.589	44358.42
719.932	44120.46
720.275	44140.35
720.617	44072.33
720.96	44066.68
721.303	43892
721.646	44120.01
721.989	43831.88
722.331	43971.54
722.674	43786.01
723.016	43788.5
723.359	43698.33
723.701	43698.55
724.044	43393.25
724.386	43302.41
724.729	43461.95
725.071	43319.13
725.413	43296.31
725.755	43259.24
726.097	43029.42
726.439	42934.96
726.782	42953.49
727.124	43049.31
727.465	42851.12
727.807	42806.6
728.149	42706.04
728.491	42601.18
728.833	42627.17
729.175	42431.92
729.516	42543.56
729.858	42332.26
730.199	42426.72
730.541	42309.21
730.882	42211.36
731.224	42360.06
731.565	41904.03
731.906	42179.5
732.248	42200.06
732.589	41869.9
732.93	41832.16
733.271	41819.96
733.612	41918.26
733.953	41903.12
734.294	41823.12
734.635	41450.93
734.976	41665.39
735.317	41454.09
735.658	41492.28
735.999	41436.92
736.339	41264.27
736.68	41372.06
737.021	41300.65
737.361	41105.4
737.702	41297.94
738.042	41219.3
738.383	41019.08
738.723	41135.23
739.063	40876.26
739.404	41088.23
739.744	40748.58
740.084	40765.52
740.424	40875.35
740.764	40638.75
741.104	40777.95
741.444	40647.34
741.784	40358.08
742.124	40570.05
742.464	40495.47
742.804	40251.64
743.143	40249.38
743.483	40340.22
743.823	40193.11
744.162	40043.96
744.502	40149.5
744.841	39951.53
745.181	40152.88
745.52	39959.9
745.86	40020.46
746.199	39733.46
746.538	39826.57
746.877	39856.4
747.216	39710.64
747.556	39756.51
747.895	39710.86
748.234	39410.31
748.573	39358.56
748.911	39285.79
749.25	39301.38
749.589	39179.35
749.928	39153.59
750.267	39219.35
750.605	39114.04
750.944	39086.02
751.283	38765.58
751.621	38871.79
751.96	38744.11
752.298	38843.31
752.636	38623.43
