Data from white_wall_FLMS001491_066.txt Node
Date: Tue Feb 07 11:05:24 GMT 2017
User: dcchb
Spectrometer: FLMS00149
Trigger mode: 0
Integration Time (sec): 2.000000E-2
Scans to average: 10
Electric dark correction enabled: true
Nonlinearity correction enabled: false
Boxcar width: 0
XAxis mode: Wavelengths
Number of Pixels in Spectrum: 2048
>>>>>Begin Spectral Data<<<<<
341.393	-3.84
341.776	-3.84
342.16	-3.84
342.543	-87.46
342.927	-41.35
343.31	-69.15
343.693	-69.6
344.077	-72.09
344.46	-48.59
344.843	-58.08
345.226	-36.16
345.61	-28.7
345.993	-30.06
346.376	-0.23
346.759	21.47
347.142	29.83
347.525	36.38
347.908	59.89
348.291	72.31
348.674	89.04
349.057	103.73
349.44	113.9
349.823	134.23
350.206	138.53
350.588	232.76
350.971	252.42
351.354	251.07
351.737	267.79
352.119	276.15
352.502	277.73
352.884	291.97
353.267	301.46
353.65	316.38
354.032	320.67
354.414	318.86
354.797	329.93
355.179	351.4
355.562	358.86
355.944	346.88
356.326	363.61
356.709	368.13
357.091	366.09
357.473	367.67
357.855	349.14
358.238	349.14
358.62	353.66
359.002	361.35
359.384	378.75
359.766	374
360.148	336.71
360.53	385.98
360.912	357.28
361.294	348.47
361.676	355.47
362.057	343.95
362.439	343.04
362.821	353.44
363.203	347.34
363.584	349.6
363.966	350.73
364.348	353.44
364.729	344.62
365.111	358.86
365.493	344.85
365.874	351.4
366.256	344.62
366.637	332.19
367.019	343.27
367.4	347.79
367.781	342.14
368.163	359.99
368.544	344.85
368.925	326.09
369.306	342.82
369.688	343.27
370.069	327.22
370.45	327.67
370.831	365.41
371.212	337.17
371.593	335.36
371.974	343.04
372.355	327
372.736	368.8
373.117	368.13
373.498	320.67
373.879	355.92
374.26	337.84
374.641	338.52
375.021	349.6
375.402	354.57
375.783	362.25
376.163	369.03
376.544	372.65
376.925	345.3
377.305	369.26
377.686	368.58
378.066	356.6
378.447	358.41
378.827	374.23
379.208	343.72
379.588	386.2
379.968	381.68
380.349	366.09
380.729	358.41
381.109	406.99
381.489	379.65
381.87	392.08
382.25	382.81
382.63	391.18
383.01	376.04
383.39	393.89
383.77	405.64
384.15	405.41
384.53	393.89
384.91	397.96
385.29	390.95
385.67	403.61
386.049	439.08
386.429	416.03
386.809	428.69
387.189	430.27
387.568	419.42
387.948	416.71
388.328	442.93
388.707	436.15
389.087	413.55
389.466	426.43
389.846	441.34
390.225	448.8
390.605	447.9
390.984	459.2
391.363	464.62
391.743	475.47
392.122	481.57
392.501	491.96
392.881	481.57
393.26	494.22
393.639	492.87
394.018	530.61
394.397	527.67
394.776	541.45
395.155	530.61
395.534	532.87
395.913	541
396.292	541.91
396.671	580.55
397.05	585.97
397.429	572.41
397.808	596.59
398.186	586.65
398.565	615.8
398.944	605.18
399.323	615.58
399.701	651.06
400.08	667.78
400.458	643.6
400.837	674.33
401.215	682.92
401.594	691.73
401.972	703.03
402.351	738.51
402.729	752.3
403.107	729.92
403.486	755.01
403.864	771.96
404.242	773.99
404.62	786.19
404.999	803.14
405.377	843.82
405.755	809.47
406.133	851.5
406.511	873.65
406.889	880.2
407.267	910.03
407.645	915
408.023	938.05
408.401	960.43
408.779	954.33
409.156	1006.53
409.534	1005.62
409.912	1016.02
410.29	1065.73
410.667	1069.12
411.045	1072.29
411.422	1078.84
411.8	1100.54
412.178	1134.89
412.555	1157.94
412.933	1150.48
413.31	1182.57
413.687	1192.29
414.065	1232.51
414.442	1229.12
414.819	1260.31
415.197	1276.35
415.574	1306.18
415.951	1286.29
416.328	1314.09
416.705	1315.67
417.082	1321.77
417.46	1398.83
417.837	1369.68
418.214	1379.85
418.591	1411.26
418.967	1400.19
419.344	1416.01
419.721	1492.16
420.098	1459.85
420.475	1461.66
420.852	1493.52
421.228	1519.06
421.605	1529
421.982	1515.67
422.358	1572.84
422.735	1572.61
423.111	1575.1
423.488	1611.48
423.864	1632.5
424.241	1649.67
424.617	1643.8
424.994	1691.48
425.37	1696.68
425.746	1719.73
426.123	1718.37
426.499	1753.63
426.875	1759.95
427.251	1820.07
427.627	1849.67
428.003	1839.73
428.379	1897.58
428.756	1914.3
429.132	1913.85
429.507	1970.34
429.883	1992.04
430.259	2019.61
430.635	2051.7
431.011	2058.25
431.387	2076.33
431.763	2114.29
432.138	2148.64
432.514	2171.92
432.89	2190.22
433.265	2272.03
433.641	2264.12
434.016	2302.09
434.392	2334.4
434.767	2357.68
435.143	2380.28
435.518	2401.07
435.894	2429.31
436.269	2497.56
436.644	2520.16
437.02	2524.45
437.395	2547.05
437.77	2587.28
438.145	2590.89
438.52	2634.28
438.895	2634.28
439.271	2675.18
439.646	2761.06
440.021	2773.71
440.395	2770.32
440.77	2757.44
441.145	2796.99
441.52	2888.29
441.895	2838.57
442.27	2863.65
442.645	2899.58
443.019	2952.92
443.394	2931.67
443.769	2995.63
444.143	2977.1
444.518	3045.8
444.892	3048.06
445.267	3061.16
445.641	3097.77
446.016	3101.84
446.39	3152.23
446.764	3161.72
447.139	3178
447.513	3193.14
447.887	3232.01
448.262	3269.52
448.636	3253.25
449.01	3328.5
449.384	3396.52
449.758	3406.24
450.132	3384.77
450.506	3406.92
450.88	3448.72
451.254	3493.02
451.628	3521.26
452.002	3561.94
452.376	3602.17
452.75	3631.54
453.123	3670.19
453.497	3728.94
453.871	3733.91
454.244	3838.77
454.618	3852.55
454.992	3901.37
455.365	3935.26
455.739	4013.91
456.112	4093.45
456.486	4054.58
456.859	4167.8
457.232	4264.75
457.606	4231.98
457.979	4340.68
458.352	4412.09
458.725	4407.79
459.099	4506.32
459.472	4554.91
459.845	4641.01
460.218	4667.9
460.591	4727.11
460.964	4715.13
461.337	4843.26
461.71	4926.88
462.083	4952.64
462.456	5016.14
462.829	5042.13
463.201	5145.18
463.574	5101.33
463.947	5180.2
464.32	5392.17
464.692	5387.65
465.065	5430.82
465.438	5518.27
465.81	5608.89
466.183	5684.37
466.555	5774.99
466.928	5784.48
467.3	5841.65
467.672	5956.23
468.045	6039.84
468.417	6109.22
468.789	6166.39
469.161	6258.14
469.534	6364.35
469.906	6509.89
470.278	6521.41
470.65	6608.19
471.022	6756.66
471.394	6896.77
471.766	6929.54
472.138	7034.39
472.51	7232.35
472.882	7272.13
473.253	7398.22
473.625	7539.01
473.997	7662.62
474.369	7711.66
474.74	7847.7
475.112	8016.96
475.484	8116.62
475.855	8258.09
476.227	8413.11
476.598	8597.51
476.97	8671.18
477.341	8854.68
477.713	8969.71
478.084	9049.48
478.455	9298.29
478.827	9388.68
479.198	9684.94
479.569	9683.81
479.94	10014.43
480.311	10032.28
480.682	10291.71
481.053	10555.43
481.424	10719.94
481.795	10807.85
482.166	10948.19
482.537	11156.32
482.908	11447.16
483.279	11486.03
483.65	11753.14
484.021	11982.28
484.391	12130.3
484.762	12235.84
485.133	12374.14
485.503	12523.29
485.874	12862.03
486.244	13018.19
486.615	13211.86
486.985	13379.76
487.356	13651.84
487.726	13782.91
488.097	14045.28
488.467	14134.32
488.837	14383.58
489.207	14580.18
489.578	14739.95
489.948	14934.52
490.318	15097.23
490.688	15230.79
491.058	15486.15
491.428	15682.07
491.798	15813.37
492.168	16124.1
492.538	16242.28
492.908	16430.08
493.278	16632.11
493.648	16765.21
494.017	16926.56
494.387	17169.49
494.757	17216.72
495.126	17517.28
495.496	17540.56
495.866	17653.77
496.235	17908.23
496.605	18039.75
496.974	18271.38
497.344	18503.47
497.713	18480.19
498.082	18625.27
498.452	18769.9
498.821	18976.9
499.19	18972.16
499.559	19240.4
499.928	19349.77
500.298	19575.53
500.667	19776.2
501.036	19600.39
501.405	19898.91
501.774	20057.1
502.143	20247.6
502.512	20352.23
502.88	20664.09
503.249	20632.9
503.618	20888.26
503.987	21024.31
504.356	21024.31
504.724	21220.23
505.093	21344.98
505.462	21419.78
505.83	21594.46
506.199	21866.32
506.567	22089.36
506.936	22169.59
507.304	22368.23
507.672	22476.92
508.041	22663.58
508.409	22845.73
508.777	22999.17
509.145	23260.41
509.514	23300.63
509.882	23457.01
510.25	23527.74
510.618	23682.32
510.986	23836.44
511.354	24109.2
511.722	24298.34
512.09	24607.49
512.458	24607.49
512.826	24875.73
513.193	24910.08
513.561	25129.51
513.929	25312.1
514.297	25431.2
514.664	25636.84
515.032	25906.66
515.4	26043.61
515.767	26153.44
516.135	26300.1
516.502	26293.55
516.869	26718.39
517.237	26994.09
517.604	26921.78
517.972	27201.32
518.339	27516.11
518.706	27567.64
519.073	27687.41
519.44	27877.69
519.808	28083.1
520.175	28260.27
520.542	28597.21
520.909	28759.92
521.276	28804.67
521.643	29190.87
522.009	29256.63
522.376	29456.17
522.743	29830.18
523.11	30179.09
523.477	30270.16
523.843	30381.8
524.21	30743.15
524.577	30915.12
524.943	31089.58
525.31	31268.78
525.676	31724.14
526.043	31799.39
526.409	31885.04
526.776	32260.62
527.142	32281.64
527.508	32722.98
527.874	32840.27
528.241	33060.83
528.607	33210.65
528.973	33469.85
529.339	33488.39
529.705	33953.91
530.071	34038.2
530.437	34270.29
530.803	34605.19
531.169	34643.83
531.535	34699.88
531.901	34891.29
532.267	35055.58
532.632	35329.92
532.998	35456.92
533.364	35625.05
533.73	35794.99
534.095	35963.8
534.461	36002.22
534.826	36293.96
535.192	36474.75
535.557	36682.65
535.923	36757.9
536.288	36848.97
536.653	37106.14
537.019	36952.93
537.384	37296.42
537.749	37473.36
538.114	37514.04
538.479	37652.12
538.845	37952.22
539.21	37805.79
539.575	37893.24
539.94	37995.61
540.305	38404.64
540.67	38468.82
541.034	38573.45
541.399	38777.96
541.764	38841.69
542.129	38989.26
542.494	39192.19
542.858	39215.92
543.223	39336.82
543.587	39651.39
543.952	39612.07
544.316	39908.33
544.681	39812.51
545.045	40225.38
545.41	40255.89
545.774	40384.47
546.138	40440.52
546.503	40764.8
546.867	40719.83
547.231	41089.09
547.595	41039.82
547.959	41391.23
548.324	41322.08
548.688	41411.34
549.052	41589.87
549.416	41848.17
549.779	41908.73
550.143	42108.95
550.507	42264.2
550.871	42550.97
551.235	42446.12
551.599	42840.23
551.962	42948.02
552.326	42964.75
552.689	43357.05
553.053	43228.92
553.417	43487.44
553.78	44003.36
554.143	43980.54
554.507	44011.27
554.87	44320.42
555.234	44706.4
555.597	44540.75
555.96	44820.06
556.323	45039.27
556.686	44991.13
557.05	45483.55
557.413	45429.54
557.776	45627.27
558.139	45929.19
558.502	46005.57
558.865	46160.37
559.228	46423.86
559.59	46631.09
559.953	46549.28
560.316	47100.68
560.679	47155.37
561.041	47457.28
561.404	47418.41
561.767	47770.27
562.129	47565.98
562.492	48178.39
562.854	48136.59
563.217	48132.75
563.579	48256.36
563.941	48575.9
564.304	48759.4
564.666	49092.95
565.028	49044.36
565.39	49304.47
565.753	49514.18
566.115	49457.91
566.477	49625.36
566.839	49676.89
567.201	49991.91
567.563	49940.16
567.925	50235.06
568.287	50171.34
568.648	50393.03
569.01	50520.03
569.372	50713.47
569.734	50735.39
570.095	50933.8
570.457	51001.6
570.819	51156.62
571.18	51226.9
571.542	51280.01
571.903	51360.68
572.265	51550.28
572.626	51605.2
572.987	51670.96
573.349	51877.73
573.71	51971.29
574.071	52016.03
574.432	52223.03
574.794	52374.44
575.155	52356.59
575.516	52267.55
575.877	52407.44
576.238	52395.23
576.599	52606.3
576.96	52582.57
577.32	52677.94
577.681	52781.89
578.042	52775.11
578.403	52912.51
578.763	52821.44
579.124	52893.52
579.485	53110.69
579.845	53051.26
580.206	53017.82
580.566	53000.64
580.927	52978.95
581.287	53096.91
581.648	53120.19
582.008	53260.07
582.368	53227.75
582.728	53303.68
583.089	53281.76
583.449	53251.48
583.809	53289.22
584.169	53336
584.529	53289.45
584.889	53548.87
585.249	53336.45
585.609	53203.57
585.969	53454.64
586.329	53392.72
586.688	53437.24
587.048	53430.69
587.408	53305.27
587.768	53390.69
588.127	53372.38
588.487	53251.48
588.846	53574.41
589.206	53330.8
589.565	53375.77
589.925	53459.16
590.284	53359.95
590.643	53462.32
591.003	53483.57
591.362	53586.39
591.721	53542.77
592.08	53548.2
592.44	53561.76
592.799	53617.57
593.158	53601.08
593.517	53568.08
593.876	53609.89
594.235	53540.29
594.593	53520.17
594.952	53648.08
595.311	53626.61
595.67	53631.36
596.029	53764.69
596.387	53801.75
596.746	53831.35
597.104	53676.55
597.463	53707.29
597.822	53858.7
598.18	53775.76
598.538	53642.43
598.897	53814.86
599.255	53654.41
599.613	54051.23
599.972	53844.23
600.33	53844.46
600.688	53763.56
601.046	53900.73
601.404	54002.87
601.762	53903.89
602.12	54070.89
602.478	54044.91
602.836	54121.97
603.194	53997.45
603.552	54143.44
603.91	53882.65
604.268	54150.89
604.625	54038.35
604.983	54176.43
605.341	53997
605.698	54085.36
606.056	54313.6
606.413	54255.75
606.771	54265.01
607.128	54432.92
607.485	54207.84
607.843	54344.11
608.2	54432.47
608.557	54520.15
608.914	54461.62
609.272	54638.56
609.629	54647.6
609.986	54737.54
610.343	54594.95
610.7	54825.68
611.057	54673.36
611.414	54690.77
611.771	54774.6
612.127	54770.54
612.484	54787.71
612.841	54779.8
613.198	54799.46
613.554	54826.81
613.911	54944.09
614.267	54899.8
614.624	54916.07
614.98	55027.93
615.337	55094.82
615.693	55141.37
616.05	55027.93
616.406	55163.07
616.762	55117.87
617.118	55153.13
617.475	55178.89
617.831	55220.24
618.187	55305.21
618.543	55284.2
618.899	55434.25
619.255	55441.93
619.611	55319
619.967	55504.76
620.323	55485.55
620.678	55326.91
621.034	55341.14
621.39	55407.81
621.746	55418.66
622.101	55653
622.457	55406
622.812	55539.33
623.168	55501.37
623.523	55504.98
623.879	55588.82
624.234	55363.74
624.589	55456.39
624.945	55448.26
625.3	55474.93
625.655	55526.68
626.01	55486.9
626.365	55499.78
626.72	55505.89
627.075	55517.64
627.43	55444.19
627.785	55363.74
628.14	55483.29
628.495	55507.69
628.85	55439.22
629.205	55355.15
629.559	55474.47
629.914	55334.36
630.269	55407.13
630.623	55336.17
630.978	55306.57
631.332	55375.95
631.687	55396.06
632.041	55278.09
632.396	55361.26
632.75	55248.49
633.104	55271.09
633.459	55146.57
633.813	55038.55
634.167	55051.89
634.521	55043.3
634.875	55077.2
635.229	55012.56
635.583	54943.64
635.937	54872.46
636.291	54977.54
636.645	54923.08
636.999	54914.26
637.352	55020.93
637.706	54742.74
638.06	54905.45
638.413	54797.43
638.767	54794.04
639.121	54813.7
639.474	54643.08
639.828	54657.32
640.181	54695.96
640.534	54640.82
640.888	54596.98
641.241	54521.28
641.594	54582.52
641.947	54506.82
642.301	54487.61
642.654	54531
643.007	54390.66
643.36	54390.89
643.713	54419.59
644.066	54559.47
644.419	54274.28
644.771	54105.7
645.124	53781.86
645.477	53714.52
645.83	53500.06
646.182	53387.97
646.535	53374.42
646.888	53455.09
647.24	53205.83
647.593	53453.06
647.945	53306.62
648.298	53088.1
648.65	53175.1
649.002	53110.02
649.355	53194.31
649.707	53134.42
650.059	53174.65
650.411	53547.29
650.763	53531.02
651.115	53934.63
651.467	53851.24
651.819	53794.74
652.171	53647.18
652.523	53665.93
652.875	53693.96
653.227	53513.62
653.578	53659.38
653.93	53675.42
654.282	53516.78
654.633	53472.94
654.985	53472.27
655.337	53472.27
655.688	53417.35
656.039	53439.05
656.391	53261.65
656.742	53330.8
657.094	53312.72
657.445	53421.65
657.796	53284.25
658.147	53310.01
658.498	53198.15
658.849	53297.58
659.2	53232.95
659.551	53184.59
659.902	53331.71
660.253	53228.2
660.604	53274.76
660.955	53059.85
661.306	53223.91
661.656	53099.39
662.007	53050.13
662.358	52948.66
662.708	52959.51
663.059	52988.44
663.409	52772.17
663.76	53010.13
664.11	52960.64
664.461	53016.01
664.811	52907.08
665.161	52846.75
665.511	52830.48
665.862	52835.45
666.212	52954.54
666.562	52967.19
666.912	52773.75
667.262	52811.04
667.612	52773.3
667.962	52860.08
668.312	52702.8
668.662	52890.36
669.011	52780.08
669.361	52724.26
669.711	52669.35
670.06	52639.75
670.41	52597.49
670.76	52587.54
671.109	52710.93
671.459	52653.76
671.808	52505.74
672.157	52596.58
672.507	52443.59
672.856	52505.06
673.205	52475.46
673.554	52545.06
673.904	52398.17
674.253	52533.76
674.602	52342.13
674.951	51910.95
675.3	51772.88
675.649	52216.25
675.998	52202.47
676.346	52204.05
676.695	52425.51
677.044	52019.88
677.393	52176.48
677.741	52211.96
678.09	52128.8
678.438	51957.73
678.787	52113.88
679.135	52019.42
679.484	51798.64
679.832	51971.29
680.181	51734.46
680.529	51875.25
680.877	51756.61
681.225	51762.71
681.573	51982.36
681.922	51696.49
682.27	51622.37
682.618	51685.19
682.966	51551.19
683.314	51621.24
683.661	51353
684.009	51183.51
684.357	51136.96
684.705	51174.02
685.053	51128.37
685.4	51020.58
685.748	50906.46
686.095	50906.91
686.443	50702.62
686.79	50670.98
687.138	50737.42
687.485	50755.28
687.832	50645.45
688.18	50607.93
688.527	50448.17
688.874	50169.53
689.221	50318
689.568	50210.88
689.915	50104.45
690.262	50045.69
690.609	49953.04
690.956	49717.11
691.303	49733.16
691.65	49563.89
691.997	49600.96
692.344	49417.23
692.69	49317.8
693.037	49281.87
693.383	48995.1
693.73	49178.59
694.077	48899.96
694.423	48901.99
694.769	48806.17
695.116	48712.84
695.462	48694.76
695.808	48472.4
696.155	48671.71
696.501	48250.26
696.847	48348.56
697.193	48114.67
697.539	48178.39
697.885	47816.6
698.231	47694.11
698.577	47742.25
698.923	47704.96
699.269	47521.24
699.614	47350.85
699.96	47341.35
700.306	47350.17
700.651	47101.81
700.997	46960.8
701.342	46849.16
701.688	46861.82
702.033	46737.08
702.379	46727.13
702.724	46597.42
703.069	46540.7
703.415	46208.95
703.76	46102.06
704.105	46129.41
704.45	46007.15
704.795	45796.31
705.14	45807.84
705.485	45848.96
705.83	45694.62
706.175	45707.05
706.52	45360.39
706.865	45330.33
707.209	45380.73
707.554	45151.81
707.899	45303.22
708.243	44938.25
708.588	44995.65
708.932	44678.6
709.277	44722.67
709.621	44613.29
709.966	44425.27
710.31	44664.81
710.654	44269.57
710.998	44350.47
711.342	44273.86
711.687	44145.51
712.031	44115
712.375	43973.53
712.719	44007.88
713.063	43888.34
713.407	44038.84
713.75	43642.47
714.094	43603.15
714.438	43602.7
714.782	43442.7
715.125	43243.61
715.469	43392.53
715.812	43054.91
716.156	42904.18
716.499	42972.2
716.843	42921.13
717.186	42747.58
717.53	42828.25
717.873	42833.45
718.216	42776.28
718.559	42508.26
718.902	42277.08
719.246	42411.99
719.589	42035.28
719.932	42070.31
720.275	42210.42
720.617	42234.37
720.96	41929.74
721.303	41993.02
721.646	41973.36
721.989	41671.45
722.331	41788.96
722.674	41595.29
723.016	41635.29
723.359	41577.89
723.701	41502.41
724.044	41250.67
724.386	41324.34
724.729	41406.82
725.071	41173.61
725.413	41162.53
725.755	41162.31
726.097	41024.23
726.439	40810.45
726.782	40847.06
727.124	41022.2
727.465	40733.84
727.807	40623.79
728.149	40595.54
728.491	40557.8
728.833	40466.51
729.175	40392.61
729.516	40407.53
729.858	40365.49
730.199	40327.53
730.541	40234.65
730.882	40087.76
731.224	40236.68
731.565	39965.73
731.906	39930.48
732.248	39948.78
732.589	39753.08
732.93	39713.98
733.271	39704.94
733.612	39575.46
733.953	39696.81
734.294	39521.22
734.635	39328.23
734.976	39428.57
735.317	39334.33
735.658	39175.24
735.999	39280.78
736.339	39164.39
736.68	39271.06
737.021	39124.4
737.361	39032.65
737.702	39091.63
738.042	38951.74
738.383	38791.75
738.723	38752.2
739.063	38738.19
739.404	38831.75
739.744	38614.35
740.084	38502.04
740.424	38625.2
740.764	38516.95
741.104	38593.11
741.444	38305.21
741.784	38316.28
742.124	38414.13
742.464	38109.73
742.804	38195.15
743.143	38100.69
743.483	38194.48
743.823	37926.91
744.162	37946.35
744.502	37986.57
744.841	37714.26
745.181	37853.69
745.52	37656.64
745.86	37703.64
746.199	37557.66
746.538	37524.89
746.877	37500.48
747.216	37575.28
747.556	37348.17
747.895	37362.86
748.234	37283.09
748.573	37033.15
748.911	37145.46
749.25	37067.73
749.589	36961.06
749.928	36966.26
750.267	37010.33
750.605	36865.02
750.944	36747.51
751.283	36691.92
751.621	36763.78
751.96	36502.77
752.298	36559.49
752.636	36547.06
752.975	36335.09
753.313	36214.64
