Data from white_wall_FLMS001491_038.txt Node
Date: Tue Feb 07 11:04:18 GMT 2017
User: dcchb
Spectrometer: FLMS00149
Trigger mode: 0
Integration Time (sec): 2.000000E-2
Scans to average: 10
Electric dark correction enabled: true
Nonlinearity correction enabled: false
Boxcar width: 0
XAxis mode: Wavelengths
Number of Pixels in Spectrum: 2048
>>>>>Begin Spectral Data<<<<<
341.393	-24.17
341.776	-24.17
342.16	-24.17
342.543	-61.91
342.927	-53.54
343.31	-69.36
343.693	-66.88
344.077	-57.84
344.46	-68.68
344.843	-57.39
345.226	-24.84
345.61	-14.9
345.993	-35.01
346.376	-5.64
346.759	6.34
347.142	39.11
347.525	35.95
347.908	61.03
348.291	70.52
348.674	89.28
349.057	98.32
349.44	120.01
349.823	133.57
350.206	180.57
350.588	198.2
350.971	215.6
351.354	239.1
351.737	258.09
352.119	283.62
352.502	288.82
352.884	277.97
353.267	296.28
353.65	301.7
354.032	308.48
354.414	327.69
354.797	339.89
355.179	335.15
355.562	334.69
355.944	350.51
356.326	342.38
356.709	349.84
357.091	348.25
357.473	359.33
357.855	347.12
358.238	351.42
358.62	334.24
359.002	364.98
359.384	360.68
359.766	329.5
360.148	356.16
360.53	344.41
360.912	358.2
361.294	336.5
361.676	340.57
362.057	354.81
362.439	351.19
362.821	346.22
363.203	345.77
363.584	345.09
363.966	346.67
364.348	329.95
364.729	339.21
365.111	325.88
365.493	329.27
365.874	333.56
366.256	334.24
366.637	326.11
367.019	323.17
367.4	334.47
367.781	339.89
368.163	321.81
368.544	332.21
368.925	320.68
369.306	324.07
369.688	329.05
370.069	308.71
370.45	320.46
370.831	339.89
371.212	326.33
371.593	315.26
371.974	333.11
372.355	339.21
372.736	323.85
373.117	347.35
373.498	337.86
373.879	338.08
374.26	343.51
374.641	308.71
375.021	341.93
375.402	345.54
375.783	328.59
376.163	348.48
376.544	348.71
376.925	339.67
377.305	325.43
377.686	346.9
378.066	347.35
378.447	344.41
378.827	364.52
379.208	369.04
379.588	346.9
379.968	348.03
380.349	343.73
380.729	352.55
381.109	345.54
381.489	385.99
381.87	363.62
382.25	366.11
382.63	373.34
383.01	367.91
383.39	370.63
383.77	364.3
384.15	375.37
384.53	394.58
384.91	375.37
385.29	381.02
385.67	388.93
386.049	400.68
386.429	382.15
386.809	419.66
387.189	406.56
387.568	398.42
387.948	404.98
388.328	401.81
388.707	398.87
389.087	424.86
389.466	431.19
389.846	407.69
390.225	419.89
390.605	442.04
390.984	415.14
391.363	458.76
391.743	435.48
392.122	458.53
392.501	446.1
392.881	445.88
393.26	461.47
393.639	451.53
394.018	470.51
394.397	499.21
394.776	496.27
395.155	492.88
395.534	506.44
395.913	522.26
396.292	501.24
396.671	536.05
397.05	529.94
397.429	541.69
397.808	539.43
398.186	533.79
398.565	557.51
398.944	561.13
399.323	574.01
399.701	561.58
400.08	588.47
400.458	614.46
400.837	627.57
401.215	627.12
401.594	610.62
401.972	626.66
402.351	642.71
402.729	662.6
403.107	694.01
403.486	682.03
403.864	687.68
404.242	702.82
404.62	694.23
404.999	731.29
405.377	738.3
405.755	742.59
406.133	769.26
406.511	771.07
406.889	776.72
407.267	783.95
407.645	787.56
408.023	819.2
408.401	846.09
408.779	848.81
409.156	899.65
409.534	889.48
409.912	899.88
410.29	919.99
410.667	941.91
411.045	936.71
411.422	955.7
411.8	947.56
412.178	990.72
412.555	1020.55
412.933	1025.75
413.31	1030.5
413.687	1047.22
414.065	1067.33
414.442	1090.38
414.819	1075.69
415.197	1090.61
415.574	1117.27
415.951	1125.41
416.328	1142.36
416.705	1159.76
417.082	1172.86
417.46	1199.76
417.837	1192.07
418.214	1210.15
418.591	1212.41
418.967	1242.69
419.344	1266.42
419.721	1283.37
420.098	1287.66
420.475	1301.67
420.852	1277.27
421.228	1312.75
421.605	1315.91
421.982	1333.54
422.358	1349.81
422.735	1392.97
423.111	1366.53
423.488	1411.5
423.864	1405.17
424.241	1417.15
424.617	1399.75
424.994	1451.5
425.37	1478.62
425.746	1477.72
426.123	1499.64
426.499	1485.62
426.875	1525.62
427.251	1569.01
427.627	1605.85
428.003	1620.08
428.379	1619.41
428.756	1633.19
429.132	1675
429.507	1679.97
429.883	1717.48
430.259	1752.28
430.635	1744.38
431.011	1779.4
431.387	1820.31
431.763	1854.88
432.138	1856.01
432.514	1880.87
432.89	1890.81
433.265	1919.51
433.641	1956.35
434.016	1973.3
434.392	2000.87
434.767	2020.75
435.143	2035.89
435.518	2071.82
435.894	2088.77
436.269	2129.9
436.644	2138.71
437.02	2143.23
437.395	2186.17
437.77	2244.25
438.145	2231.37
438.52	2260.07
438.895	2278.82
439.271	2248.77
439.646	2317.24
440.021	2367.86
440.395	2379.61
440.77	2360.4
441.145	2428.42
441.52	2439.72
441.895	2424.13
442.27	2462.77
442.645	2456.67
443.019	2554.52
443.394	2467.29
443.769	2558.36
444.143	2554.98
444.518	2599.95
444.892	2584.13
445.267	2650.34
445.641	2648.53
446.016	2667.06
446.39	2672.26
446.764	2687.4
447.139	2682.43
447.513	2728.98
447.887	2765.59
448.262	2779.83
448.636	2787.74
449.01	2813.5
449.384	2837.68
449.758	2855.76
450.132	2886.04
450.506	2910.45
450.88	2987.96
451.254	2924.68
451.628	2985.02
452.002	3066.37
452.376	3044.68
452.75	3099.59
453.123	3110.67
453.497	3168.52
453.871	3162.42
454.244	3259.14
454.618	3284.45
454.992	3332.58
455.365	3316.31
455.739	3429.98
456.112	3425.69
456.486	3497.32
456.859	3502.07
457.232	3594.72
457.606	3515.63
457.979	3661.84
458.352	3665
458.725	3754.72
459.099	3774.83
459.472	3857.09
459.845	3879.91
460.218	3926.24
460.591	3978.67
460.964	3995.84
461.337	4093.69
461.71	4149.28
462.083	4191.77
462.456	4182.05
462.829	4284.2
463.201	4360.13
463.574	4332.56
463.947	4389.73
464.32	4525.32
464.692	4522.83
465.065	4590.18
465.438	4655.94
465.81	4723.51
466.183	4772.32
466.555	4847.8
466.928	4904.07
467.3	4944.74
467.672	4970.05
468.045	5124.17
468.417	5078.98
468.789	5130.05
469.161	5229.26
469.534	5326.88
469.906	5447.1
470.278	5480.1
470.65	5551.51
471.022	5628.79
471.394	5784.27
471.766	5851.39
472.138	5878.28
472.51	5993.98
472.882	6121.21
473.253	6198.27
473.625	6286.18
473.997	6433.07
474.369	6484.14
474.74	6520.97
475.112	6618.6
475.484	6828.31
475.855	6946.27
476.227	6947.4
476.598	7133.61
476.97	7251.57
477.341	7398.24
477.713	7522.98
478.084	7578.57
478.455	7776.76
478.827	7881.16
479.198	8094.94
479.569	8045.23
479.94	8400.7
480.311	8459.68
480.682	8556.85
481.053	8793.68
481.424	8929.72
481.795	9066.44
482.166	9177.85
482.537	9345.76
482.908	9515.24
483.279	9592.98
483.65	9764.73
484.021	9968.34
484.391	10096.47
484.762	10232.51
485.133	10337.82
485.503	10458.95
485.874	10686.29
486.244	10820.07
486.615	11023
486.985	11202.43
487.356	11342.09
487.726	11425.48
488.097	11701.85
488.467	11701.63
488.837	11905.46
489.207	12086.48
489.578	12256.64
489.948	12486.01
490.318	12627.25
490.688	12702.5
491.058	12925.1
491.428	13029.73
491.798	13207.12
492.168	13421.13
492.538	13502.26
492.908	13685.3
493.278	13867.22
493.648	13880.1
494.017	14101.11
494.387	14267.89
494.757	14309.92
495.126	14469.46
495.496	14611.38
495.866	14649.57
496.235	14882.56
496.605	14920.75
496.974	15193.96
497.344	15286.62
497.713	15433.51
498.082	15443.22
498.452	15710.79
498.821	15788.53
499.19	15830.56
499.559	16039.82
499.928	16112.13
500.298	16217.89
500.667	16437.1
501.036	16443.2
501.405	16685.9
501.774	16668.73
502.143	16906.91
502.512	16996.18
502.88	17164.08
503.249	17166.79
503.618	17261.26
503.987	17439.56
504.356	17562.26
504.724	17725.65
505.093	17771.75
505.462	17875.48
505.83	18019.43
506.199	18162.25
506.567	18472.3
506.936	18441.11
507.304	18627.09
507.672	18715.23
508.041	18797.94
508.409	19048.33
508.777	19164.48
509.145	19334.2
509.514	19401.09
509.882	19552.49
510.25	19611.02
510.618	19802.88
510.986	19891.24
511.354	20181.86
511.722	20130.56
512.09	20418.91
512.458	20435.41
512.826	20674.27
513.193	20807.38
513.561	20830.43
513.929	21025.22
514.297	21237.2
514.664	21355.84
515.032	21490.3
515.4	21670.4
515.767	21829.5
516.135	21904.97
516.502	21892.09
516.869	22290.28
517.237	22459.99
517.604	22440.55
517.972	22751.96
518.339	22779.98
518.706	22846.65
519.073	23059.29
519.44	23177.94
519.808	23538.6
520.175	23491.83
520.542	23803
520.909	23895.21
521.276	23948.31
521.643	24259.49
522.009	24488.86
522.376	24678.91
522.743	24813.82
523.11	25136.75
523.477	25296.98
523.843	25339.69
524.21	25704.65
524.577	25828.94
524.943	25971.76
525.31	26127.46
525.676	26406.55
526.043	26495.59
526.409	26574
526.776	26839.53
527.142	27123.14
527.508	27253.53
527.874	27377.15
528.241	27594.99
528.607	27625.28
528.973	27979.62
529.339	27938.04
529.705	28340.29
530.071	28389.32
530.437	28584.12
530.803	28719.71
531.169	28770.78
531.535	29016.2
531.901	29126.93
532.267	29352.46
532.632	29541.61
532.998	29481.27
533.364	29703.19
533.73	29693.92
534.095	30069.96
534.461	30144.98
534.826	30350.63
535.192	30395.15
535.557	30828.13
535.923	30740.9
536.288	30846.43
536.653	31003.04
537.019	30959.88
537.384	31103.6
537.749	31315.12
538.114	31224.5
538.479	31494.78
538.845	31697.71
539.21	31490.49
539.575	31773.42
539.94	31877.37
540.305	32126.4
540.67	32098.61
541.034	32297.7
541.399	32530.01
541.764	32535.88
542.129	32635.09
542.494	32773.39
542.858	32799.38
543.223	33085.25
543.587	33174.28
543.952	33225.81
544.316	33340.15
544.681	33362.07
545.045	33595.51
545.41	33783.31
545.774	33798.9
546.138	33898.78
546.503	34067.37
546.867	34158.66
547.231	34657.63
547.595	34567.24
547.959	34721.81
548.324	34713.45
548.688	34888.59
549.052	35084.06
549.416	35179.88
549.779	35251.97
550.143	35470.27
550.507	35582.36
550.871	35631.39
551.235	35749.36
551.599	36129.91
551.962	36071.83
552.326	36095.11
552.689	36486.29
553.053	36446.29
553.417	36637.69
553.78	36895.32
554.143	37018.48
554.507	37193.61
554.87	37254.4
555.234	37617.78
555.597	37499.82
555.96	37727.61
556.323	37980.48
556.686	38041.73
557.05	38332.57
557.413	38268.61
557.776	38608.49
558.139	38776.85
558.502	38831.99
558.865	38951.76
559.228	39273.56
559.59	39372.54
559.953	39405.98
560.316	40024.5
560.679	39995.35
561.041	40177.04
561.404	40376.81
561.767	40623.8
562.129	40537.03
562.492	41029.67
562.854	40980.18
563.217	40939.73
563.579	41167.29
563.941	41530
564.304	41589.88
564.666	41920.49
565.028	41949.19
565.39	42081.62
565.753	42312.35
566.115	42363.87
566.477	42615.39
566.839	42675.95
567.201	43054.93
567.563	42894.03
567.925	43270.06
568.287	43393.68
568.648	43441.36
569.01	43678.64
569.372	43856.04
569.734	43790.5
570.095	44038.63
570.457	44258.29
570.819	44336.48
571.18	44410.37
571.542	44550.26
571.903	44724.71
572.265	44899.17
572.626	44889.68
572.987	44986.85
573.349	45184.14
573.71	45234.76
574.071	45373.28
574.432	45492.83
574.794	45843.33
575.155	45660.96
575.516	45750.68
575.877	45778.7
576.238	45907.06
576.599	46159.48
576.96	46000.39
577.32	46193.83
577.681	46359.02
578.042	46279.02
578.403	46405.35
578.763	46513.82
579.124	46505.46
579.485	46616.42
579.845	46749.29
580.206	46755.39
580.566	46808.95
580.927	46868.16
581.287	46942.06
581.648	46822.29
582.008	47022.28
582.368	46881.72
582.728	47025.22
583.089	47076.29
583.449	47021.6
583.809	47046.69
584.169	47139.11
584.529	47069.96
584.889	47350.63
585.249	47102.96
585.609	47068.61
585.969	47258.88
586.329	47035.84
586.688	47100.24
587.048	47194.03
587.408	47026.35
587.768	47181.37
588.127	47161.94
588.487	47217.08
588.846	47337.3
589.206	47179.56
589.565	47167.14
589.925	47326
590.284	47206.46
590.643	47252.33
591.003	47289.62
591.362	47379.56
591.721	47271.99
592.08	47301.6
592.44	47323.29
592.799	47360.58
593.158	47184.54
593.517	47268.6
593.876	47323.74
594.235	47299.11
594.593	47281.26
594.952	47423.85
595.311	47286.68
595.67	47344.76
596.029	47608.48
596.387	47698.42
596.746	47655.48
597.104	47498.65
597.463	47538.65
597.822	47702.04
598.18	47519.67
598.538	47650.74
598.897	47919.21
599.255	47439.9
599.613	48000.11
599.972	47949.94
600.33	47768.7
600.688	47639.67
601.046	47887.34
601.404	48014.8
601.762	47937.74
602.12	48075.59
602.478	48139.99
602.836	48117.62
603.194	47932.77
603.552	47982.03
603.91	47817.06
604.268	47999.88
604.625	48099.99
604.983	48196.94
605.341	47979.77
605.698	48257.5
606.056	48353.54
606.413	48125.98
606.771	48388.8
607.128	48521.68
607.485	48318.52
607.843	48375.92
608.2	48410.49
608.557	48690.26
608.914	48408.23
609.272	48607.1
609.629	48838.5
609.986	48772.07
610.343	48641.67
610.7	48900.65
611.057	48871.72
611.414	48742.24
611.771	48952.63
612.127	48929.35
612.484	48940.42
612.841	49119.17
613.198	48957.82
613.554	49084.83
613.911	49313.07
614.267	49246.18
614.624	49228.55
614.98	49305.16
615.337	49518.49
615.693	49457.24
616.05	49306.06
616.406	49504.25
616.762	49417.92
617.118	49384.7
617.475	49415.89
617.831	49477.36
618.187	49577.92
618.543	49622.66
618.899	49753.28
619.255	49710.8
619.611	49638.71
619.967	49772.26
620.323	49803.45
620.678	49712.61
621.034	49616.11
621.39	49564.81
621.746	49628.31
622.101	49944.69
622.457	49620.18
622.812	49704.47
623.168	49857.23
623.523	49830.79
623.879	49998.93
624.234	49646.62
624.589	49875.09
624.945	49908.98
625.3	49979.26
625.655	49870.34
626.01	49797.12
626.365	49860.4
626.72	49793.51
627.075	49772.49
627.43	49821.53
627.785	49777.46
628.14	49732.72
628.495	49838.25
628.85	49839.61
629.205	49755.32
629.559	49809.78
629.914	49745.37
630.269	49848.65
630.623	49621.31
630.978	49616.79
631.332	49768.42
631.687	49785.82
632.041	49636
632.396	49784.69
632.75	49575.43
633.104	49524.36
633.459	49454.53
633.813	49453.18
634.167	49455.66
634.521	49440.75
634.875	49437.36
635.229	49285.72
635.583	49169.34
635.937	49239.17
636.291	49147.87
636.645	49214.09
636.999	49116.24
637.352	49220.64
637.706	48935.22
638.06	49104.26
638.413	49056.13
638.767	49044.15
639.121	49007.09
639.474	48756.02
639.828	48743.14
640.181	48880.76
640.534	48784.27
640.888	48686.87
641.241	48593.09
641.594	48690.71
641.947	48717.15
642.301	48657.27
642.654	48566.65
643.007	48476.71
643.36	48504.05
643.713	48378.4
644.066	48542.69
644.419	48211.4
644.771	48032.42
645.124	47654.13
645.477	47626.11
645.83	47309.05
646.182	47280.35
646.535	47188.6
646.888	47220.24
647.24	47054.37
647.593	47290.75
647.945	47088.95
648.298	46906.35
648.65	46817.31
649.002	46815.51
649.355	46909.74
649.707	46842.85
650.059	46963.07
650.411	47431.54
650.763	47417.3
651.115	47776.61
651.467	47609.16
651.819	47573.23
652.171	47496.17
652.523	47526.45
652.875	47466.56
653.227	47301.6
653.578	47630.4
653.93	47422.72
654.282	47308.83
654.633	47070.41
654.985	47330.97
655.337	47196.29
655.688	47233.12
656.039	47316.74
656.391	46949.29
656.742	47042.17
657.094	47014.37
657.445	47152.67
657.796	46923.53
658.147	47039.68
658.498	46865.45
658.849	46914.71
659.2	46870.87
659.551	46797.2
659.902	46958.78
660.253	46884.43
660.604	46847.37
660.955	46606.25
661.306	46690.54
661.656	46660.71
662.007	46681.05
662.358	46651.67
662.708	46630.88
663.059	46686.02
663.409	46364.22
663.76	46681.72
664.11	46628.39
664.461	46661.84
664.811	46629.07
665.161	46582.52
665.511	46482.41
665.862	46512.46
666.212	46640.14
666.562	46511.79
666.912	46413.71
667.262	46357.89
667.612	46365.35
667.962	46375.52
668.312	46361.51
668.662	46712.23
669.011	46321.73
669.361	46450.54
669.711	46310.66
670.06	46266.14
670.41	46077.67
670.76	45988.18
671.109	46263.43
671.459	46095.53
671.808	46236.54
672.157	46223.43
672.507	45924.23
672.856	46064.34
673.205	45953.38
673.554	46109.31
673.904	45910.67
674.253	46138.24
674.602	45941.86
674.951	45335.77
675.3	45137.13
675.649	45768.3
675.998	45781.64
676.346	45781.86
676.695	45946.6
677.044	45538.03
677.393	45728.08
677.741	45688.98
678.09	45508.2
678.438	45528.76
678.787	45602.2
679.135	45528.76
679.484	45258.94
679.832	45495.32
680.181	45111.82
680.529	45244.7
680.877	45165.83
681.225	45029.34
681.573	45192.72
681.922	45021.43
682.27	44847.2
682.618	44862.79
682.966	44794.99
683.314	44953.18
683.661	44757.26
684.009	44515.91
684.357	44408.34
684.705	44310.94
685.053	44343.48
685.4	44281.56
685.748	44046.09
686.095	43977.39
686.443	43886.54
686.79	43888.58
687.138	43898.75
687.485	43848.8
687.832	43601.13
688.18	43694.23
688.527	43459.89
688.874	43371.53
689.221	43339.21
689.568	43226
689.915	42993.01
690.262	43050.41
690.609	42889.51
690.956	42819.68
691.303	42829.62
691.65	42509.18
691.997	42629.4
692.344	42519.57
692.69	42399.8
693.037	42312.12
693.383	42091.34
693.73	42246.81
694.077	41954.39
694.423	41968.63
694.769	41909.65
695.116	41729.99
695.462	41575.64
695.808	41470.11
696.155	41489.54
696.501	41311.24
696.847	41301.08
697.193	40995.09
697.539	41175.88
697.885	40784.25
698.231	40686.85
698.577	40694.99
698.923	40758.72
699.269	40508.33
699.614	40244.61
699.96	40319.18
700.306	40236.02
700.651	39950.83
700.997	39909.47
701.342	39958.74
701.688	39767.56
702.033	39688.01
702.379	39620.89
702.724	39435.36
703.069	39566.88
703.415	39107.69
703.76	39186.1
704.105	39061.81
704.45	38936.17
704.795	38910.4
705.14	38642.61
705.485	38714.02
705.83	38528.49
706.175	38476.06
706.52	38391.77
706.865	38307.03
707.209	38310.87
707.554	38226.35
707.899	38145.9
708.243	38096.41
708.588	37982.29
708.932	37709.31
709.277	37761.28
709.621	37648.97
709.966	37606.26
710.31	37686.48
710.654	37398.58
710.998	37397.9
711.342	37355.42
711.687	37307.06
712.031	37133.95
712.375	36943
712.719	37102.77
713.063	37025.03
713.407	37063.67
713.75	36800.85
714.094	36699.84
714.438	36667.75
714.782	36639.05
715.125	36477.93
715.469	36568.54
715.812	36427.98
716.156	36257.82
716.499	36182.34
716.843	36292.39
717.186	36072.29
717.53	36093.75
717.873	36165.39
718.216	35971.27
718.559	36023.7
718.902	35797.49
719.246	35783.48
719.589	35646.76
719.932	35555.24
720.275	35500.78
720.617	35464.62
720.96	35453.77
721.303	35357.5
721.646	35364.96
721.989	35211.52
722.331	35201.12
722.674	35130.16
723.016	35024.63
723.359	34996.83
723.701	35030.73
724.044	34896.72
724.386	34678.2
724.729	34763.39
725.071	34628.48
725.413	34678.65
725.755	34706.45
726.097	34499.67
726.439	34441.37
726.782	34384.19
727.124	34497.86
727.465	34345.55
727.807	34299.68
728.149	34184.2
728.491	34057.88
728.833	34211.32
729.175	33934.49
729.516	33964.09
729.858	34009.74
730.199	33922.74
730.541	33839.58
730.882	33709.18
731.224	33790.09
731.565	33597.1
731.906	33487.72
732.248	33553.93
732.589	33504.67
732.93	33399.14
733.271	33445.24
733.612	33387.38
733.953	33447.95
734.294	33135.19
734.635	33099.93
734.976	33214.73
735.317	33169.99
735.658	33074.17
735.999	33081.18
736.339	32982.65
736.68	33115.98
737.021	32743.11
737.361	32762.77
737.702	32862.2
738.042	32928.87
738.383	32769.55
738.723	32687.97
739.063	32579.04
739.404	32556.22
739.744	32561.42
740.084	32319.62
740.424	32473.51
740.764	32300.63
741.104	32396.45
741.444	32279.62
741.784	31973.64
742.124	32117.81
742.464	32073.97
742.804	32054.99
743.143	31969.57
743.483	32020.87
743.823	31807.09
744.162	31822
744.502	31880.08
744.841	31697.71
745.181	31695.9
745.52	31603.02
745.86	31687.99
746.199	31648.45
746.538	31556.92
746.877	31584.95
747.216	31671.72
747.556	31422.24
747.895	31485.06
748.234	31267.67
748.573	31246.42
748.911	31129.37
749.25	31132.3
749.589	31008.01
749.928	31112.64
750.267	31021.35
750.605	30868.13
750.944	30818.19
751.283	30748.13
751.621	30909.94
751.96	30623.39
752.298	30546.33
752.636	30528.25
752.975	30430.63
753.313	30344.53
