Data from white_poster_card_FLMS001491_00072.txt Node
Date: Wed Feb 08 11:51:58 GMT 2017
User: dcchb
Spectrometer: FLMS00149
Trigger mode: 0
Integration Time (sec): 2.000000E-2
Scans to average: 10
Electric dark correction enabled: true
Nonlinearity correction enabled: false
Boxcar width: 0
XAxis mode: Wavelengths
Number of Pixels in Spectrum: 2048
>>>>>Begin Spectral Data<<<<<
341.393	-2.46
341.776	-2.46
342.16	-2.46
342.543	-84.49
342.927	-73.64
343.31	-76.13
343.693	-37.94
344.077	-58.73
344.46	-68.22
344.843	-51.04
345.226	-59.63
345.61	-39.52
345.993	-22.8
346.376	-10.82
346.759	-2.23
347.142	51.78
347.525	44.55
347.908	73.02
348.291	79.8
348.674	90.87
349.057	87.03
349.44	112.12
349.823	127.03
350.206	153.47
350.588	190.53
350.971	197.31
351.354	207.48
351.737	265.56
352.119	259.46
352.502	271.66
352.884	297.65
353.267	289.29
353.65	299.23
354.032	308.49
354.414	281.38
354.797	317.76
355.179	316.18
355.562	311.88
355.944	314.37
356.326	321.15
356.709	334.48
357.091	338.78
357.473	362.5
357.855	335.16
358.238	332.67
358.62	345.78
359.002	325.67
359.384	345.56
359.766	330.64
360.148	356.18
360.53	349.17
360.912	331.32
361.294	329.96
361.676	345.33
362.057	332.67
362.439	356.18
362.821	316.18
363.203	338.55
363.584	315.5
363.966	305.33
364.348	348.27
364.729	339.45
365.111	323.18
365.493	357.98
365.874	331.09
366.256	313.47
366.637	306.23
367.019	319.12
367.4	321.38
367.781	308.95
368.163	321.6
368.544	311.21
368.925	321.38
369.306	327.03
369.688	307.36
370.069	319.34
370.45	311.43
370.831	320.02
371.212	317.53
371.593	317.76
371.974	310.08
372.355	314.14
372.736	332.9
373.117	334.93
373.498	298.1
373.879	325.22
374.26	303.98
374.641	317.08
375.021	337.42
375.402	340.58
375.783	317.99
376.163	329.06
376.544	332.9
376.925	334.26
377.305	341.49
377.686	323.18
378.066	327.48
378.447	334.71
378.827	325.67
379.208	339.45
379.588	321.83
379.968	342.17
380.349	334.48
380.729	338.78
381.109	345.56
381.489	336.29
381.87	347.36
382.25	365.67
382.63	346.46
383.01	348.04
383.39	364.31
383.77	336.74
384.15	351.21
384.53	368.15
384.91	351.66
385.29	356.63
385.67	373.13
386.049	351.43
386.429	377.87
386.809	379.68
387.189	373.13
387.568	369.96
387.948	378.1
388.328	374.93
388.707	390.07
389.087	380.81
389.466	376.29
389.846	394.14
390.225	363.41
390.605	387.14
390.984	376.29
391.363	388.49
391.743	367.02
392.122	421.49
392.501	417.19
392.881	393.92
393.26	403.18
393.639	411.77
394.018	389.62
394.397	407.02
394.776	421.71
395.155	421.49
395.534	426.23
395.913	410.64
396.292	438.66
396.671	419
397.05	411.09
397.429	435.27
397.808	434.37
398.186	433.01
398.565	427.81
398.944	459.23
399.323	445.44
399.701	468.94
400.08	451.32
400.458	447.93
400.837	452.22
401.215	460.81
401.594	470.75
401.972	483.63
402.351	476.17
402.729	472.56
403.107	475.04
403.486	478.89
403.864	494.7
404.242	487.93
404.62	506.68
404.999	501.26
405.377	496.29
405.755	498.77
406.133	534.25
406.511	514.59
406.889	542.16
407.267	541.03
407.645	551.2
408.023	553.69
408.401	541.26
408.779	561.14
409.156	566.34
409.534	587.13
409.912	580.58
410.29	607.24
410.667	632.78
411.045	632.33
411.422	626.45
411.8	658.54
412.178	676.62
412.555	682.72
412.933	691.31
413.31	716.62
413.687	730.63
414.065	741.48
414.442	772.44
414.819	780.35
415.197	785.09
415.574	790.06
415.951	820.35
416.328	840.46
416.705	849.95
417.082	853.79
417.46	879.1
417.837	896.5
418.214	891.3
418.591	911.42
418.967	926.11
419.344	959.33
419.721	976.05
420.098	984.41
420.475	988.48
420.852	998.65
421.228	1018.98
421.605	1030.74
421.982	1065.31
422.358	1070.73
422.735	1059.66
423.111	1096.5
423.488	1124.29
423.864	1122.26
424.241	1145.08
424.617	1150.05
424.994	1178.53
425.37	1214.46
425.746	1205.19
426.123	1214.01
426.499	1250.62
426.875	1240.45
427.251	1285.19
427.627	1324.97
428.003	1305.3
428.379	1337.39
428.756	1344.4
429.132	1381.23
429.507	1383.27
429.883	1429.37
430.259	1424.85
430.635	1449.26
431.011	1466.2
431.387	1490.16
431.763	1506.66
432.138	1559.08
432.514	1535.58
432.89	1555.69
433.265	1635.47
433.641	1615.58
434.016	1650.61
434.392	1681.57
434.767	1708.46
435.143	1696.25
435.518	1730.38
435.894	1751.62
436.269	1774.67
436.644	1788.23
437.02	1809.25
437.395	1825.07
437.77	1885.85
438.145	1838.62
438.52	1875.46
438.895	1911.39
439.271	1975.8
439.646	1944.16
440.021	1955.23
440.395	1986.64
440.77	1964.04
441.145	1997.49
441.52	2018.51
441.895	2026.19
442.27	2039.75
442.645	2030.26
443.019	2071.16
443.394	2129.69
443.769	2097.15
444.143	2095.57
444.518	2140.31
444.892	2141.44
445.267	2138.05
445.641	2144.38
446.016	2192.06
446.39	2218.28
446.764	2226.18
447.139	2201.33
447.513	2248.78
447.887	2236.35
448.262	2244.49
448.636	2265.28
449.01	2296.01
449.384	2302.57
449.758	2359.51
450.132	2387.99
450.506	2379.85
450.88	2366.52
451.254	2406.97
451.628	2428.44
452.002	2456.91
452.376	2486.29
452.75	2479.74
453.123	2526.06
453.497	2544.59
453.871	2553.63
454.244	2628.21
454.618	2668.21
454.992	2662.11
455.365	2666.4
455.739	2774.87
456.112	2754.53
456.486	2820.52
456.859	2852.16
457.232	2886.73
457.606	2861.2
457.979	2901.87
458.352	2916.79
458.725	2954.53
459.099	2983.68
459.472	3048.99
459.845	3033.39
460.218	3143
460.591	3110.23
460.964	3139.61
461.337	3233.84
461.71	3220.28
462.083	3286.95
462.456	3318.81
462.829	3347.96
463.201	3393.84
463.574	3369.66
463.947	3417.79
464.32	3521.07
464.692	3570.56
465.065	3598.13
465.438	3649.88
465.81	3671.34
466.183	3741.4
466.555	3792.24
466.928	3820.27
467.3	3805.13
467.672	3861.85
468.045	3962.64
468.417	3973.03
468.789	4016.87
469.161	4044.67
469.534	4131.45
469.906	4215.28
470.278	4219.58
470.65	4282.4
471.022	4377.99
471.394	4446.69
471.766	4439.91
472.138	4507.71
472.51	4546.58
472.882	4680.81
473.253	4736.17
473.625	4800.35
473.997	4819.79
474.369	4912.89
474.74	5000.12
475.112	5035.6
475.484	5120.8
475.855	5237.86
476.227	5264.07
476.598	5389.94
476.97	5446.21
477.341	5550.84
477.713	5632.65
478.084	5674.46
478.455	5818.18
478.827	5849.82
479.198	6069.47
479.569	6061.11
479.94	6207.1
480.311	6328.9
480.682	6414.32
481.053	6559.86
481.424	6624.26
481.795	6684.37
482.166	6768.89
482.537	6830.58
482.908	6963.01
483.279	7107.41
483.65	7188.09
484.021	7353.51
484.391	7468.08
484.762	7471.7
485.133	7508.08
485.503	7718.47
485.874	7925.24
486.244	7978.12
486.615	8059.7
486.985	8152.36
487.356	8381.28
487.726	8390.09
488.097	8562.74
488.467	8571.1
488.837	8803.64
489.207	8919.79
489.578	9001.15
489.948	9063.07
490.318	9222.16
490.688	9228.49
491.058	9398.88
491.428	9563.17
491.798	9616.05
492.168	9810.39
492.538	9865.08
492.908	10002.25
493.278	10113.21
493.648	10115.47
494.017	10254
494.387	10347.33
494.757	10417.38
495.126	10521.11
495.496	10645.62
495.866	10607.21
496.235	10795.22
496.605	10875.22
496.974	10969.23
497.344	11071.38
497.713	11170.13
498.082	11261.2
498.452	11420.74
498.821	11408.54
499.19	11404.93
499.559	11615.77
499.928	11692.15
500.298	11715.65
500.667	11811.7
501.036	11859.83
501.405	11982.54
501.774	12032.25
502.143	12167.39
502.512	12253.27
502.88	12396.99
503.249	12345.92
503.618	12497.78
503.987	12508.17
504.356	12714.5
504.724	12756.75
505.093	12774.83
505.462	12804.21
505.83	12999.23
506.199	13034.71
506.567	13209.62
506.936	13179.57
507.304	13351.99
507.672	13395.16
508.041	13445.78
508.409	13618.43
508.777	13792.89
509.145	13892.54
509.514	13909.04
509.882	14021.81
510.25	14000.79
510.618	14118.98
510.986	14224.29
511.354	14419.08
511.722	14516.71
512.09	14654.56
512.458	14668.8
512.826	14788.34
513.193	14940.65
513.561	14906.53
513.929	15027.66
514.297	15270.59
514.664	15300.87
515.032	15511.94
515.4	15624.93
515.767	15583.57
516.135	15601.88
516.502	15644.59
516.869	15978.82
517.237	16006.16
517.604	16069.21
517.972	16264.69
518.339	16337.45
518.706	16388.07
519.073	16493.61
519.44	16620.38
519.808	16834.84
520.175	16827.16
520.542	17071.9
520.909	17210.42
521.276	17147.15
521.643	17356.41
522.009	17605.22
522.376	17553.01
522.743	17752.56
523.11	17917.07
523.477	18139.21
523.843	18193.67
524.21	18346.21
524.577	18571.07
524.943	18615.36
525.31	18786.65
525.676	19002.24
526.043	19134.21
526.409	19188.68
526.776	19404.04
527.142	19415.79
527.508	19511.38
527.874	19696.91
528.241	19850.81
528.607	19884.25
528.973	20081.31
529.339	20162.21
529.705	20423.22
530.071	20504.12
530.437	20595.19
530.803	20763.1
531.169	20755.64
531.535	20973.94
531.901	20932.36
532.267	21098.91
532.632	21198.34
532.998	21280.37
533.364	21393.59
533.73	21569.18
534.095	21749.06
534.461	21704.99
534.826	21948.83
535.192	22016.62
535.557	22178.43
535.923	22198.31
536.288	22313.79
536.653	22453.22
537.019	22295.26
537.384	22463.62
537.749	22573.22
538.114	22737.74
538.479	22786.32
538.845	22934.57
539.21	22879.65
539.575	23011.4
539.94	23131.85
540.305	23281.45
540.67	23251.62
541.034	23411.39
541.399	23475.12
541.764	23445.51
542.129	23637.82
542.494	23650.48
542.858	23745.39
543.223	23766.18
543.587	24012.73
543.952	23826.29
544.316	24085.95
544.681	24075.33
545.045	24230.58
545.41	24296.56
545.774	24424.92
546.138	24384.92
546.503	24516.45
546.867	24576.78
547.231	24842.31
547.595	24955.76
547.959	24831.69
548.324	24990.56
548.688	25049.99
549.052	25121.4
549.416	25309.87
549.779	25212.02
550.143	25312.36
550.507	25572.69
550.871	25576.08
551.235	25605.68
551.599	25919.12
551.962	25866.01
552.326	26001.83
552.689	26227.36
553.053	26112.56
553.417	26274.59
553.78	26574.92
554.143	26359.79
554.507	26580.8
554.87	26721.13
555.234	26925.87
555.597	26741.92
555.96	26969.26
556.323	27057.4
556.686	27082.03
557.05	27309.59
557.413	27463.94
557.776	27463.03
558.139	27786.19
558.502	27677.72
558.865	27891.5
559.228	27986.64
559.59	28204.71
559.953	28293.75
560.316	28559.96
560.679	28482.44
561.041	28729.89
561.404	28766.5
561.767	29083.56
562.129	28886.5
562.492	29264.57
562.854	29277.22
563.217	29322.87
563.579	29467.95
563.941	29558.57
564.304	29756.08
564.666	29966.02
565.028	29978
565.39	30174.38
565.753	30396.07
566.115	30339.34
566.477	30418.66
566.839	30554.71
567.201	30629.96
567.563	30739.56
567.925	30959.21
568.287	31101.36
568.648	31179.55
569.01	31313.1
569.372	31488.92
569.734	31371.86
570.095	31794.22
570.457	31580.67
570.819	31815.01
571.18	31832.64
571.542	32086.87
571.903	32080.31
572.265	32342
572.626	32304.26
572.987	32379.29
573.349	32411.61
573.71	32618.15
574.071	32616.35
574.432	32849.56
574.794	33050.91
575.155	32914.87
575.516	32854.76
575.877	33012.49
576.238	33147.63
576.599	33266.72
576.96	33297.68
577.32	33347.63
577.681	33480.96
578.042	33596.66
578.403	33683.21
578.763	33609.77
579.124	33658.35
579.485	33712.14
579.845	33903.77
580.206	33767.73
580.566	33787.61
580.927	33903.09
581.287	34005.01
581.648	33855.64
582.008	34122.75
582.368	33993.71
582.728	34065.35
583.089	34031.45
583.449	33993.94
583.809	34114.84
584.169	34148.73
584.529	34107.83
584.889	34348.05
585.249	34053.6
585.609	34150.09
585.969	34294.49
586.329	34185.12
586.688	34308.73
587.048	34293.59
587.408	34154.16
587.768	34160.71
588.127	33976.99
588.487	33934.5
588.846	34359.12
589.206	34153.71
589.565	34133.14
589.925	34369.75
590.284	34254.04
590.643	34291.56
591.003	34272.57
591.362	34459.46
591.721	34294.49
592.08	34387.15
592.44	34528.39
592.799	34324.1
593.158	34427.82
593.517	34334.72
593.876	34548.95
594.235	34456.98
594.593	34496.3
594.952	34585.33
595.311	34430.08
595.67	34470.76
596.029	34775.84
596.387	34725.89
596.746	34770.64
597.104	34574.03
597.463	34588.72
597.822	34670.98
598.18	34563.64
598.538	34674.14
598.897	34930.18
599.255	34592.34
599.613	35040.69
599.972	34948.94
600.33	34951.2
600.688	34813.35
601.046	35071.2
601.404	35182.61
601.762	34918.66
602.12	35038.88
602.478	35220.57
602.836	35204.75
603.194	35016.73
603.552	35083.17
603.91	35020.8
604.268	35107.13
604.625	35125.66
604.983	35095.38
605.341	34992.78
605.698	35261.25
606.056	35373.11
606.413	35264.64
606.771	35381.02
607.128	35448.36
607.485	35274.58
607.843	35388.7
608.2	35478.42
608.557	35628.47
608.914	35428.93
609.272	35587.34
609.629	35669.6
609.986	35683.84
610.343	35600.45
610.7	35972.87
611.057	35889.25
611.414	35928.58
611.771	35818.3
612.127	36094.45
612.484	36004.51
612.841	36114.33
613.198	35907.33
613.554	36004.96
613.911	36290.37
614.267	36181
614.624	36249.02
614.98	36193.65
615.337	36354.33
615.693	36263.03
616.05	36347.32
616.406	36421.67
616.762	36369.69
617.118	36431.16
617.475	36439.75
617.831	36432.97
618.187	36482.68
618.543	36577.15
618.899	36752.73
619.255	36586.64
619.611	36685.62
619.967	36694.66
620.323	36839.29
620.678	36598.39
621.034	36639.52
621.39	36527.43
621.746	36681.32
622.101	36989.11
622.457	36708.22
622.812	36575.34
623.168	36845.84
623.523	36796.35
623.879	36886.29
624.234	36656.24
624.589	36726.75
624.945	36790.25
625.3	36862.79
625.655	36855.56
626.01	36874.54
626.365	36613.75
626.72	36703.92
627.075	36755.22
627.43	36703.7
627.785	36648.78
628.14	36649.01
628.495	36672.96
628.85	36710.93
629.205	36535.56
629.559	36759.97
629.914	36523.14
630.269	36575.79
630.623	36609.01
630.978	36515.23
631.332	36701.44
631.687	36603.81
632.041	36433.19
632.396	36376.02
632.75	36365.85
633.104	36345.74
633.459	36334.89
633.813	36176.48
634.167	36255.35
634.521	36063.03
634.875	36141.9
635.229	36059.65
635.583	35938.07
635.937	35930.38
636.291	35839.99
636.645	36040.44
636.999	35868.92
637.352	35832.08
637.706	35730.84
638.06	35791.63
638.413	35824.17
638.767	35446.55
639.121	35661.92
639.474	35356.16
639.828	35382.37
640.181	35514.57
640.534	35606.55
640.888	35390.51
641.241	35274.58
641.594	35285.43
641.947	35437.29
642.301	35281.13
642.654	35288.82
643.007	35178.31
643.36	35155.49
643.713	35032.33
644.066	35270.51
644.419	34933.57
644.771	34738.55
645.124	34352.8
645.477	34445.22
645.83	34147.83
646.182	34073.93
646.535	33864.9
646.888	34056.99
647.24	33804.11
647.593	34053.37
647.945	33909.65
648.298	33806.15
648.65	33670.1
649.002	33808.86
649.355	33738.58
649.707	33604.79
650.059	33861.06
650.411	34143.09
650.763	34221.05
651.115	34511.21
651.467	34308.5
651.819	34235.51
652.171	34191.22
652.523	34228.73
652.875	34071.67
653.227	34035.52
653.578	34095.85
653.93	34055.18
654.282	33963.88
654.633	33826.48
654.985	33991.9
655.337	34021.28
655.688	33926.37
656.039	33918.01
656.391	33664.68
656.742	33910.1
657.094	33901.74
657.445	33827.61
657.796	33733.6
658.147	33772.25
658.498	33704.23
658.849	33699.26
659.2	33622.2
659.551	33631.69
659.902	33631.23
660.253	33584.91
660.604	33584.46
660.955	33392.82
661.306	33498.81
661.656	33563.67
662.007	33558.24
662.358	33553.04
662.708	33417.91
663.059	33508.3
663.409	33319.38
663.76	33436.21
664.11	33349.21
664.461	33540.39
664.811	33441.41
665.161	33397.34
665.511	33319.15
665.862	33307.85
666.212	33435.53
666.562	33410.22
666.912	33325.25
667.262	33297.91
667.612	33229.21
667.962	33307.4
668.312	33132.49
668.662	33312.37
669.011	33202.09
669.361	33209.1
669.711	33163.9
670.06	33115.99
670.41	32949.44
670.76	33066.05
671.109	33093.4
671.459	32969.33
671.808	33113.28
672.157	32991.7
672.507	32905.15
672.856	32911.48
673.205	32765.04
673.554	32991.03
673.904	32833.29
674.253	32929.56
674.602	32937.24
674.951	32444.6
675.3	32282.34
675.649	32765.04
675.998	32708.32
676.346	32762.1
676.695	32764.36
677.044	32560.3
677.393	32745.61
677.741	32688.66
678.09	32574.31
678.438	32571.6
678.787	32424.03
679.135	32495.45
679.484	32412.06
679.832	32492.28
680.181	32259.97
680.529	32477.14
680.877	32202.35
681.225	32251.38
681.573	32426.75
681.922	32193.53
682.27	32090.48
682.618	31995.12
682.966	31963.48
683.314	32000.54
683.661	31866.53
684.009	31764.84
684.357	31663.15
684.705	31648.69
685.053	31683.04
685.4	31657.73
685.748	31425.64
686.095	31455.47
686.443	31251.86
686.79	31330.96
687.138	31262.94
687.485	31299.09
687.832	31163.5
688.18	31173.9
688.527	30848.26
688.874	31017.52
689.221	30879.89
689.568	30797.64
689.915	30674.48
690.262	30764.42
690.609	30590.86
690.956	30565.55
691.303	30535.04
691.65	30385.9
691.997	30291.44
692.344	30192.68
692.69	30096.41
693.037	30078.79
693.383	29779.81
693.73	29995.4
694.077	29761.96
694.423	29895.06
694.769	29689.64
695.116	29596.76
695.462	29492.36
695.808	29460.5
696.155	29504.56
696.501	29298.24
696.847	29289.88
697.193	29046.5
697.539	29188.41
697.885	28876.33
698.231	28880.85
698.577	28903.22
698.923	28779.61
699.269	28613.29
699.614	28545.04
699.96	28474.53
700.306	28503.91
700.651	28441.99
700.997	28232.73
701.342	28262.56
701.688	28082.45
702.033	28168.33
702.379	28106.18
702.724	28076.35
703.069	28000.2
703.415	27672.07
703.76	27724.05
704.105	27783.48
704.45	27733.76
704.795	27541.68
705.14	27387.78
705.485	27477.72
705.83	27259.2
706.175	27305.07
706.52	27230.05
706.865	27172.2
707.209	27137.17
707.554	27011.75
707.899	27088.58
708.243	26825.09
708.588	26875.71
708.932	26647.01
709.277	26715.03
709.621	26538.77
709.966	26540.35
710.31	26677.97
710.654	26398.43
710.998	26442.95
711.342	26414.93
711.687	26303.29
712.031	26125.22
712.375	25969.74
712.719	26119.34
713.063	26170.87
713.407	26191.88
713.75	25917.99
714.094	25927.93
714.438	25827.82
714.782	25918.22
715.125	25835.28
715.469	25776.07
715.812	25602.29
716.156	25472.8
716.499	25498.57
716.843	25586.02
717.186	25360.04
717.53	25479.13
717.873	25454.73
718.216	25336.54
718.559	25245.24
718.902	25047.96
719.246	25172.47
719.589	25176.77
719.932	24893.84
720.275	24956.21
720.617	25004.57
720.96	24865.14
721.303	24839.38
721.646	24944.23
721.989	24728.64
722.331	24801.41
722.674	24716.21
723.016	24620.17
723.359	24563.45
723.701	24545.82
724.044	24363.68
724.386	24261.09
724.729	24401.42
725.071	24423.79
725.413	24232.84
725.755	24309.45
726.097	24189.9
726.439	24012.05
726.782	24028.77
727.124	24125.27
727.465	24070.36
727.807	23949.46
728.149	23946.07
728.491	23821.55
728.833	24010.47
729.175	23826.07
729.516	23753.98
729.858	23733.64
730.199	23803.47
730.541	23797.82
730.882	23790.82
731.224	23647.77
731.565	23657.94
731.906	23491.84
732.248	23592.85
732.589	23457.94
732.93	23371.39
733.271	23458.62
733.612	23406.64
733.953	23399.41
734.294	23329.58
734.635	23192.19
734.976	23344.05
735.317	23041.91
735.658	23172.53
735.999	23106.09
736.339	23008.69
736.68	23102.92
737.021	23024.28
737.361	22854.79
737.702	22925.98
738.042	22796.27
738.383	22850.73
738.723	22761.69
739.063	22835.36
739.404	22803.27
739.744	22629.72
740.084	22623.84
740.424	22680.34
740.764	22505.2
741.104	22705.65
741.444	22481.7
741.784	22495.93
742.124	22431.3
742.464	22346.79
742.804	22328.71
743.143	22222.49
743.483	22390.63
743.823	22162.84
744.162	22154.02
744.502	22219.56
744.841	22061.6
745.181	22316.96
745.52	22108.15
745.86	22079.9
746.199	21998.32
746.538	22112.22
746.877	22060.47
747.216	22054.59
747.556	21928.04
747.895	21945.21
748.234	21827.93
748.573	21782.96
748.911	21660.25
749.25	21722.17
749.589	21683.07
749.928	21618.67
750.267	21548.84
750.605	21655.5
750.944	21460.71
751.283	21394.27
751.621	21498.45
751.96	21313.14
752.298	21304.78
752.636	21322.63
752.975	21156.76
753.313	21139.59
753.651	21242.86
