Data from whiteboard_FLMS001491_00097.txt Node
Date: Wed Feb 08 11:28:45 GMT 2017
User: dcchb
Spectrometer: FLMS00149
Trigger mode: 0
Integration Time (sec): 2.000000E-2
Scans to average: 10
Electric dark correction enabled: true
Nonlinearity correction enabled: false
Boxcar width: 0
XAxis mode: Wavelengths
Number of Pixels in Spectrum: 2048
>>>>>Begin Spectral Data<<<<<
341.393	-9.8
341.776	-9.8
342.16	-9.8
342.543	-64.04
342.927	-56.35
343.31	-89.12
343.693	-63.59
344.077	-61.33
344.46	-62.23
344.843	-57.94
345.226	-50.7
345.61	-25.85
345.993	-14.55
346.376	-10.25
346.759	6.02
347.142	24.77
347.525	35.62
347.908	71.33
348.291	96.41
348.674	74.94
349.057	126.47
349.44	120.14
349.823	139.12
350.206	194.94
350.588	232.68
350.971	227.25
351.354	255.5
351.737	243.98
352.119	275.16
352.502	300.47
352.884	313.35
353.267	329.62
353.65	316.97
354.032	340.92
354.414	338.89
354.797	354.48
355.179	349.51
355.562	372.33
355.944	360.81
356.326	359.91
356.709	385.22
357.091	382.73
357.473	366.46
357.855	368.49
358.238	381.83
358.62	377.08
359.002	367.82
359.384	399
359.766	381.83
360.148	379.11
360.53	375.5
360.912	353.58
361.294	389.28
361.676	379.79
362.057	376.63
362.439	374.59
362.821	360.36
363.203	372.33
363.584	359.23
363.966	380.47
364.348	372.79
364.729	372.33
365.111	369.4
365.493	339.12
365.874	359.45
366.256	352.45
366.637	352
367.019	367.59
367.4	370.75
367.781	368.72
368.163	353.13
368.544	394.03
368.925	359.23
369.306	371.2
369.688	364.88
370.069	359.91
370.45	366.46
370.831	369.85
371.212	366.01
371.593	375.27
371.974	384.54
372.355	364.43
372.736	366.01
373.117	377.31
373.498	378.44
373.879	388.83
374.26	377.98
374.641	387.93
375.021	381.6
375.402	377.76
375.783	398.32
376.163	392.67
376.544	403.07
376.925	387.48
377.305	375.05
377.686	397.19
378.066	404.2
378.447	415.5
378.827	396.06
379.208	399
379.588	409.62
379.968	397.87
380.349	384.76
380.729	401.03
381.109	428.6
381.489	425.21
381.87	425.21
382.25	441.26
382.63	427.7
383.01	424.31
383.39	449.62
383.77	445.78
384.15	439.23
384.53	459.34
384.91	441.03
385.29	472.22
385.67	459.56
386.049	471.32
386.429	448.72
386.809	486.46
387.189	452.56
387.568	474.25
387.948	477.19
388.328	454.59
388.707	495.5
389.087	486.23
389.466	497.98
389.846	514.03
390.225	521.71
390.605	528.71
390.984	527.13
391.363	524.2
391.743	519.9
392.122	529.62
392.501	543.63
392.881	552.44
393.26	562.84
393.639	582.05
394.018	582.72
394.397	574.82
394.776	592.89
395.155	585.89
395.534	619.79
395.913	603.97
396.292	606.68
396.671	643.29
397.05	633.57
397.429	662.04
397.808	640.35
398.186	653.46
398.565	667.69
398.944	662.04
399.323	660.69
399.701	676.28
400.08	688.03
400.458	719.22
400.837	734.36
401.215	734.36
401.594	744.53
401.972	763.74
402.351	776.39
402.729	807.8
403.107	799.44
403.486	798.54
403.864	817.29
404.242	831.76
404.62	833.34
404.999	873.56
405.377	900.91
405.755	924.41
406.133	924.86
406.511	923.28
406.889	963.28
407.267	987.91
407.645	994.24
408.023	999.66
408.401	1013.9
408.779	1039.66
409.156	1066.33
409.534	1083.5
409.912	1096.38
410.29	1149.26
410.667	1165.99
411.045	1179.55
411.422	1218.87
411.8	1206.66
412.178	1261.35
412.555	1281.01
412.933	1282.14
413.31	1308.58
413.687	1307.45
414.065	1353.78
414.442	1394.91
414.819	1406.66
415.197	1428.13
415.574	1467.22
415.951	1463.38
416.328	1473.1
416.705	1484.85
417.082	1502.02
417.46	1541.8
417.837	1549.71
418.214	1578.86
418.591	1612.75
418.967	1601
419.344	1627.9
419.721	1667.67
420.098	1692.53
420.475	1699.76
420.852	1716.71
421.228	1737.27
421.605	1765.52
421.982	1781.79
422.358	1804.39
422.735	1821.79
423.111	1864.5
423.488	1872.63
423.864	1906.31
424.241	1903.82
424.617	1942.24
424.994	1950.6
425.37	1944.04
425.746	1959.19
426.123	2005.51
426.499	2030.6
426.875	2052.29
427.251	2094.55
427.627	2153.76
428.003	2165.96
428.379	2232.85
428.756	2238.5
429.132	2267.2
429.507	2295.9
429.883	2310.59
430.259	2367.31
430.635	2400.98
431.011	2413.19
431.387	2464.48
431.763	2542.67
432.138	2510.13
432.514	2573.86
432.89	2584.25
433.265	2629
433.641	2648.89
434.016	2718.26
434.392	2747.19
434.767	2783.8
435.143	2771.82
435.518	2836.45
435.894	2881.87
436.269	2911.25
436.644	2942.66
437.02	2971.81
437.395	2988.76
437.77	3025.15
438.145	3088.42
438.52	3096.11
438.895	3142.66
439.271	3118.93
439.646	3238.25
440.021	3275.99
440.395	3265.59
440.77	3285.7
441.145	3303.33
441.52	3324.57
441.895	3330.9
442.27	3410.67
442.645	3411.12
443.019	3437.34
443.394	3514.17
443.769	3511.01
444.143	3462.88
444.518	3549.88
444.892	3528.41
445.267	3611.12
445.641	3616.77
446.016	3633.49
446.39	3678.46
446.764	3719.82
447.139	3711
447.513	3760.95
447.887	3782.64
448.262	3785.13
448.636	3793.49
449.01	3858.8
449.384	3928.17
449.758	3895.18
450.132	3957.78
450.506	4009.08
450.88	4021.73
451.254	4078.68
451.628	4093.37
452.002	4136.3
452.376	4221.5
452.75	4205
453.123	4278.45
453.497	4374.04
453.871	4389.4
454.244	4490.42
454.618	4525.9
454.992	4604.54
455.365	4579.46
455.739	4702.84
456.112	4726.12
456.486	4781.26
456.859	4836.85
457.232	4946
457.606	4958.2
457.979	5000.01
458.352	5083.62
458.725	5160.91
459.099	5207.01
459.472	5328.36
459.845	5421.02
460.218	5373.11
460.591	5461.92
460.964	5503.5
461.337	5618.07
461.71	5721.57
462.083	5801.34
462.456	5812.19
462.829	5825.3
463.201	5975.35
463.574	5936.93
463.947	6135.12
464.32	6181.9
464.692	6233.2
465.065	6317.26
465.438	6399.52
465.81	6503.02
466.183	6533.98
466.555	6710.02
466.928	6711.83
467.3	6746.4
467.672	6880.86
468.045	7029.11
468.417	7018.71
468.789	7109.11
469.161	7213.06
469.534	7375.54
469.906	7541.64
470.278	7542.32
470.65	7621.64
471.022	7739.6
471.394	7950.44
471.766	8077.44
472.138	8089.87
472.51	8340.49
472.882	8420.71
473.253	8486.92
473.625	8678.78
473.997	8795.16
474.369	8907.03
474.74	9017.98
475.112	9173.01
475.484	9291.42
475.855	9473.11
476.227	9577.06
476.598	9791.07
476.97	9903.38
477.341	10101.8
477.713	10240.32
478.084	10294.33
478.455	10607.77
478.827	10652.06
479.198	11068.55
479.569	11085.73
479.94	11353.97
480.311	11483.46
480.682	11760.06
481.053	11961.86
481.424	12174.74
481.795	12326.6
482.166	12468.51
482.537	12699.02
482.908	12945.34
483.279	13066.24
483.65	13216.06
484.021	13608.6
484.391	13689.95
484.762	13856.95
485.133	14058.3
485.503	14199.32
485.874	14561.79
486.244	14657.61
486.615	14834.55
486.985	15136.69
487.356	15345.05
487.726	15551.82
488.097	15862.55
488.467	15812.38
488.837	16091.24
489.207	16342.54
489.578	16650.1
489.948	16647.84
490.318	16984.78
490.688	17151.1
491.058	17286.69
491.428	17539.12
491.798	17716.51
492.168	18013.23
492.538	18115.15
492.908	18325.31
493.278	18567.11
493.648	18583.83
494.017	18850.27
494.387	18968.46
494.757	19201.44
495.126	19490.93
495.496	19500.42
495.866	19591.26
496.235	19797.36
496.605	20008.88
496.974	20207.07
497.344	20393.5
497.713	20531.13
498.082	20747.17
498.452	20955.3
498.821	21024.22
499.19	21061.73
499.559	21371.78
499.928	21460.59
500.298	21516.86
500.667	21844.09
501.036	21818.55
501.405	21962.5
501.774	22112.78
502.143	22279.33
502.512	22418.76
502.88	22640.45
503.249	22667.57
503.618	22858.98
503.987	22992.53
504.356	23121.57
504.724	23226.88
505.093	23315.23
505.462	23361.56
505.83	23615.34
506.199	23745.73
506.567	24097.36
506.936	23990.24
507.304	24283.12
507.672	24451.48
508.041	24493.96
508.409	24686.72
508.777	24806.95
509.145	25033.83
509.514	25074.06
509.882	25348.63
510.25	25528.06
510.618	25675.4
510.986	25754.49
511.354	25996.07
511.722	26219.34
512.09	26413.23
512.458	26532.78
512.826	26820.9
513.193	26863.84
513.561	27147.68
513.929	27301.12
514.297	27585.86
514.664	27712.18
515.032	27756.25
515.4	28162.34
515.767	28210.02
516.135	28565.27
516.502	28321.43
516.869	28750.57
517.237	28958.93
517.604	29023.33
517.972	29438.92
518.339	29506.71
518.706	29602.98
519.073	29820.15
519.44	29912.58
519.808	30278.22
520.175	30252.91
520.542	30663.74
520.909	30828.03
521.276	30823.51
521.643	31114.35
522.009	31436.6
522.376	31525.19
522.743	31879.3
523.11	32059.19
523.477	32369.46
523.843	32554.77
524.21	32776.45
524.577	33110.91
524.943	33125.37
525.31	33385.25
525.676	33673.61
526.043	33886.93
526.409	34093.48
526.776	34338.22
527.142	34465.22
527.508	34818.89
527.874	34995.15
528.241	35175.71
528.607	35339.55
528.973	35801.23
529.339	35670.62
529.705	36105.63
530.071	36356.25
530.437	36495.9
530.803	36710.14
531.169	36878.27
531.535	37018.6
531.901	37042.78
532.267	37458.37
532.632	37685.93
532.998	37950.78
533.364	38190.1
533.73	38218.57
534.095	38567.49
534.461	38570.65
534.826	38739.91
535.192	38915.28
535.557	39161.82
535.923	39232.56
536.288	39312.33
536.653	39694.69
537.019	39445.43
537.384	39710.96
537.749	39932.42
538.114	39956.83
538.479	40040.44
538.845	40238.63
539.21	40307.56
539.575	40415.8
539.94	40599.07
540.305	40731.27
540.67	40691.5
541.034	40917.26
541.399	41166.29
541.764	41152.51
542.129	41321.09
542.494	41315.89
542.858	41642.89
543.223	41586.84
543.587	41784.58
543.952	41713.17
544.316	41814.18
544.681	41854.63
545.045	42134.85
545.41	42418.69
545.774	42516.31
546.138	42647.61
546.503	42751.79
546.867	42709.07
547.231	43314.03
547.595	43160.14
547.959	43528.49
548.324	43429.06
548.688	43600.12
549.052	43762.38
549.416	44060.9
549.779	44069.26
550.143	44327.11
550.507	44563.72
550.871	44749.93
551.235	44634.67
551.599	45001.22
551.962	45039.86
552.326	45216.35
552.689	45403.92
553.053	45342.9
553.417	45411.83
553.78	45998.25
554.143	45786.96
554.507	46172.71
554.87	46121.41
555.234	46522.31
555.597	46375.42
555.96	46640.04
556.323	46816.54
556.686	46794.39
557.05	47003.2
557.413	47062.18
557.776	47205.45
558.139	47411.32
558.502	47485.45
558.865	47536.74
559.228	47741.26
559.59	47864.42
559.953	47809.51
560.316	48392.77
560.679	48275.71
561.041	48493.78
561.404	48611.74
561.767	48890.38
562.129	48866.2
562.492	49112.97
562.854	49207.43
563.217	49120.88
563.579	49275.23
563.941	49460.99
564.304	49800.64
564.666	50008.54
565.028	50001.54
565.39	50033.18
565.753	50213.51
566.115	50254.41
566.477	50533.5
566.839	50605.59
567.201	50899.82
567.563	50981.4
567.925	51142.3
568.287	51262.07
568.648	51377.55
569.01	51623.87
569.372	51708.16
569.734	51747.71
570.095	52037.42
570.457	52212.33
570.819	52179.56
571.18	52270.41
571.542	52527.8
571.903	52516.5
572.265	52662.94
572.626	52778.87
572.987	52865.42
573.349	52948.35
573.71	53037.39
574.071	53184.73
574.432	53245.97
574.794	53445.97
575.155	53470.15
575.516	53412.3
575.877	53557.15
576.238	53681.44
576.599	53738.39
576.96	53723.47
577.32	53758.5
577.681	53827.65
578.042	53871.49
578.403	53836.92
578.763	53789.91
579.124	53872.17
579.485	53978.61
579.845	54032.62
580.206	53974.77
580.566	53951.72
580.927	54001.66
581.287	54044.37
581.648	53840.76
582.008	54038.49
582.368	53963.92
582.728	54177.47
583.089	53947.2
583.449	53997.14
583.809	54024.26
584.169	54079.17
584.529	53955.78
584.889	54216.79
585.249	54020.87
585.609	54006.86
585.969	54172.28
586.329	54087.76
586.688	54062.45
587.048	54123.46
587.408	54067.87
587.768	54056.8
588.127	54080.3
588.487	54190.81
588.846	54297.92
589.206	54227.64
589.565	54261.31
589.925	54346.28
590.284	54374.98
590.643	54378.15
591.003	54494.3
591.362	54591.25
591.721	54515.09
592.08	54571.59
592.44	54725.93
592.799	54702.66
593.158	54652.04
593.517	54725.71
593.876	54800.96
594.235	54708.99
594.593	54776.33
594.952	54877.12
595.311	54681.87
595.67	54759.38
596.029	54990.33
596.387	54905.14
596.746	54964.57
597.104	54846.38
597.463	54803.45
597.822	54864.01
598.18	54830.11
598.538	54857.46
598.897	54964.57
599.255	54804.58
599.613	55091.8
599.972	54908.75
600.33	54958.02
600.688	54806.61
601.046	54873.95
601.404	54961.41
601.762	54878.25
602.12	55018.13
602.478	54930
602.836	54949.66
603.194	54689.1
603.552	54748.08
603.91	54721.87
604.268	54757.35
604.625	54610
604.983	54852.48
605.341	54646.16
605.698	54791.92
606.056	54781.3
606.413	54757.57
606.771	54851.13
607.128	54774.75
607.485	54804.12
607.843	54786.5
608.2	54876.89
608.557	55039.82
608.914	54955.76
609.272	55047.28
609.629	55056.32
609.986	55264.45
610.343	55090.67
610.7	55280.27
611.057	55254.51
611.414	55231.23
611.771	55321.4
612.127	55433.03
612.484	55373.15
612.841	55513.94
613.198	55454.73
613.554	55477.55
613.911	55636.19
614.267	55670.99
614.624	55665.34
614.98	55798
615.337	55958.67
615.693	55946.92
616.05	55876.86
616.406	56165.44
616.762	56023.07
617.118	56040.02
617.475	56057.88
617.831	56181.49
618.187	56198.21
618.543	56232.33
618.899	56357.76
619.255	56239.34
619.611	56238.89
619.967	56344.65
620.323	56379.45
620.678	56252.45
621.034	56225.33
621.39	56173.35
621.746	56121.15
622.101	56376.06
622.457	56113.92
622.812	56131.32
623.168	56120.7
623.523	56099.23
623.879	56197.08
624.234	55929.52
624.589	56005.45
624.945	55964.55
625.3	56087.93
625.655	56041.61
626.01	56001.61
626.365	55954.6
626.72	55900.82
627.075	55809.07
627.43	55787.6
627.785	55702.41
628.14	55708.28
628.495	55804.55
628.85	55687.04
629.205	55570.43
629.559	55796.64
629.914	55556.65
630.269	55661.95
630.623	55522.3
630.978	55469.19
631.332	55558.91
631.687	55563.43
632.041	55475.07
632.396	55498.34
632.75	55370.44
633.104	55407.95
633.459	55335.41
633.813	55373.37
634.167	55320.95
634.521	55316.65
634.875	55341.74
635.229	55370.89
635.583	55312.81
635.937	55338.57
636.291	55257.45
636.645	55291.57
636.999	55282.53
637.352	55237.11
637.706	55111.01
638.06	55274.17
638.413	55225.13
638.767	55094.29
639.121	55225.13
639.474	55116.21
639.828	55073.72
640.181	55151.01
640.534	55226.94
640.888	55064.91
641.241	54979.49
641.594	55123.21
641.947	55169.76
642.301	55066.26
642.654	55064.23
643.007	55044.12
643.36	55071.69
643.713	55050.67
644.066	55191.23
644.419	54955.31
644.771	54751.02
645.124	54456.79
645.477	54372.95
645.83	54220.64
646.182	54165.04
646.535	54129.57
646.888	54090.02
647.24	53975.9
647.593	54085.95
647.945	54019.74
648.298	53787.43
648.65	53642.57
649.002	53514.21
649.355	53636.7
649.707	53617.94
650.059	53725.51
650.411	53978.83
650.763	53963.24
651.115	54205.95
651.467	54068.55
651.819	53997.37
652.171	53883.02
652.523	53934.32
652.875	53780.2
653.227	53587.43
653.578	53896.13
653.93	53714.89
654.282	53644.38
654.633	53560.99
654.985	53516.47
655.337	53570.71
655.688	53476.7
656.039	53537.04
656.391	53178.18
656.742	53250.27
657.094	53276.48
657.445	53369.59
657.796	53285.07
658.147	53100.89
658.498	53202.13
658.849	53242.36
659.2	53172.53
659.551	53103.38
659.902	53257.05
660.253	53128.46
660.604	53191.96
660.955	52980.22
661.306	53247.55
661.656	53114.68
662.007	53142.92
662.358	53180.21
662.708	53259.53
663.059	53052.08
663.409	52821.8
663.76	53102.93
664.11	53115.58
664.461	53188.57
664.811	53213.21
665.161	53175.24
665.511	53172.3
665.862	53148.12
666.212	53268.8
666.562	53172.53
666.912	53098.86
667.262	53067.22
667.612	53153.09
667.962	53115.58
668.312	53130.72
668.662	53228.57
669.011	53175.24
669.361	53145.18
669.711	53135.69
670.06	53036.26
670.41	53071.74
670.76	52943.16
671.109	53113.55
671.459	53008.01
671.808	52987.67
672.157	52877.85
672.507	52822.03
672.856	52795.36
673.205	52829.71
673.554	52934.12
673.904	52811.63
674.253	53009.37
674.602	52811.18
674.951	52347.01
675.3	52183.85
675.649	52620
675.998	52573.22
676.346	52554.01
676.695	52637.18
677.044	52376.39
677.393	52432.21
677.741	52500.46
678.09	52380.23
678.438	52270.18
678.787	52264.3
679.135	52229.5
679.484	51971.66
679.832	52042.16
680.181	51766.92
680.529	51961.26
680.877	51781.38
681.225	51698.44
681.573	51881.49
681.922	51638.56
682.27	51475.62
682.618	51469.75
682.966	51305.01
683.314	51412.8
683.661	51318.11
684.009	51185.91
684.357	50971.23
684.705	50978.24
685.053	50973.72
685.4	50921.29
685.748	50587.29
686.095	50694.85
686.443	50540.73
686.79	50412.83
687.138	50499.6
687.485	50513.62
687.832	50459.38
688.18	50300.06
688.527	50154.98
688.874	50150.24
689.221	50149.78
689.568	50103
689.915	49880.19
690.262	49860.75
690.609	49883.35
690.956	49599.06
691.303	49536.01
691.65	49372.4
691.997	49424.15
692.344	49257.38
692.69	49145.52
693.037	49207.43
693.383	48861.91
693.73	49034.11
694.077	48715.47
694.423	48857.39
694.769	48710.5
695.116	48769.71
695.462	48710.5
695.808	48382.15
696.155	48639.31
696.501	48314.13
696.847	48372.65
697.193	48152.32
697.539	48245.65
697.885	47947.81
698.231	47945.77
698.577	47958.43
698.923	47701.94
699.269	47673.01
699.614	47501.04
699.96	47450.19
700.306	47370.87
700.651	47195.74
700.997	47163.87
701.342	47132.01
701.688	47043.88
702.033	46973.14
702.379	46873.71
702.724	46683.89
703.069	46913.94
703.415	46312.14
703.76	46307.17
704.105	46468.3
704.45	46291.13
704.795	46091.58
705.14	45843.91
705.485	45943.11
705.83	45735.21
706.175	45902.21
706.52	45487.53
706.865	45511.71
707.209	45497.02
707.554	45299.97
707.899	45366.63
708.243	45186.3
708.588	45043.02
708.932	44699.98
709.277	44795.12
709.621	44597.16
709.966	44170.28
710.31	44328.47
710.654	44104.52
710.998	44178.87
711.342	43945.2
711.687	43792.66
712.031	43539.79
712.375	43646.23
712.719	43456.63
713.063	43442.84
713.407	43482.84
713.75	43272
714.094	43176.18
714.438	42989.29
714.782	42881.27
715.125	42867.04
715.469	42766.7
715.812	42374.17
716.156	42337.11
716.499	42291.68
716.843	42389.08
717.186	42058.7
717.53	42281.74
717.873	42182.99
718.216	42156.09
718.559	41827.06
718.902	41462.33
719.246	41631.36
719.589	41460.07
719.932	41285.38
720.275	41305.27
720.617	41334.65
720.96	41127.65
721.303	41059.4
721.646	41046.52
721.989	40781.67
722.331	40878.61
722.674	40735.12
723.016	40872.29
723.359	40763.14
723.701	40525.18
724.044	40624.38
724.386	40397.5
724.729	40456.25
725.071	40338.29
725.413	40365.86
725.755	40210.61
726.097	40190.5
726.439	39764.52
726.782	39893.1
727.124	40061.23
727.465	39763.62
727.807	39791.19
728.149	39753.67
728.491	39691.98
728.833	39752.54
729.175	39512.77
729.516	39286.79
729.858	39370.18
730.199	39397.75
730.541	39327.47
730.882	39254.7
731.224	39385.77
731.565	39008.38
731.906	39114.37
732.248	39181.94
732.589	39000.02
732.93	39013.13
733.271	38985.33
733.612	39028.95
733.953	39061.71
734.294	38891.77
734.635	38784.43
734.976	38842.28
735.317	38776.97
735.658	38665.79
735.999	38665.79
736.339	38629.18
736.68	38741.5
737.021	38389.64
737.361	38225.8
737.702	38382.41
738.042	38533.14
738.383	38284.78
738.723	38294.28
739.063	38068.07
739.404	38175.41
739.744	38054.96
740.084	38064.23
740.424	37979.93
740.764	37894.51
741.104	38103.32
741.444	37838.69
741.784	37618.36
742.124	37599.38
742.464	37573.84
742.804	37575.88
743.143	37381.76
743.483	37415.2
743.823	37170.46
744.162	37243
744.502	37184.02
744.841	37059.05
745.181	37066.29
745.52	36976.34
745.86	36980.86
746.199	36869.45
746.538	36618.61
746.877	36692.74
747.216	36649.12
747.556	36575.45
747.895	36524.83
748.234	36386.76
748.573	36421.78
748.911	36342.24
749.25	36259.75
749.589	36025.63
749.928	35859.31
750.267	35955.58
750.605	35874
750.944	35755.81
751.283	35528.47
751.621	35559.21
751.96	35336.16
752.298	35284.64
752.636	35298.87
752.975	35182.04
753.313	34942.27
