Data from whiteboard_FLMS001491_00075.txt Node
Date: Wed Feb 08 11:28:03 GMT 2017
User: dcchb
Spectrometer: FLMS00149
Trigger mode: 0
Integration Time (sec): 2.000000E-2
Scans to average: 10
Electric dark correction enabled: true
Nonlinearity correction enabled: false
Boxcar width: 0
XAxis mode: Wavelengths
Number of Pixels in Spectrum: 2048
>>>>>Begin Spectral Data<<<<<
341.393	10.45
341.776	10.45
342.16	10.45
342.543	-74.07
342.927	-63.9
343.31	-65.03
343.693	-71.81
344.077	-70.9
344.46	-52.82
344.843	-68.42
345.226	-50.34
345.61	-12.15
345.993	-20.28
346.376	-6.05
346.759	16.33
347.142	12.49
347.525	37.57
347.908	73.27
348.291	74.4
348.674	95.65
349.057	108.08
349.44	128.64
349.823	156.89
350.206	168.64
350.588	241.18
350.971	239.37
351.354	250.45
351.737	275.53
352.119	272.37
352.502	288.86
352.884	308.52
353.267	308.75
353.65	324.12
354.032	347.39
354.414	334.06
354.797	349.2
355.179	342.42
355.562	359.37
355.944	355.3
356.326	375.41
356.709	359.14
357.091	392.81
357.473	374.96
357.855	369.09
358.238	366.6
358.62	377.22
359.002	389.88
359.384	362.98
359.766	380.84
360.148	380.84
360.53	379.03
360.912	376.77
361.294	384.91
361.676	366.15
362.057	370.89
362.439	370.44
362.821	368.63
363.203	371.57
363.584	359.6
363.966	350.56
364.348	358.47
364.729	369.09
365.111	353.49
365.493	368.63
365.874	377.22
366.256	358.69
366.637	371.8
367.019	362.76
367.4	354.62
367.781	356.43
368.163	353.72
368.544	351.01
368.925	366.15
369.306	374.06
369.688	356.43
370.069	366.6
370.45	377.67
370.831	383.1
371.212	361.63
371.593	353.49
371.974	363.21
372.355	365.47
372.736	354.17
373.117	359.6
373.498	371.12
373.879	381.97
374.26	374.06
374.641	360.72
375.021	354.62
375.402	368.18
375.783	376.32
376.163	396.66
376.544	391.68
376.925	376.77
377.305	395.07
377.686	388.97
378.066	388.97
378.447	383.55
378.827	412.93
379.208	396.66
379.588	387.16
379.968	401.85
380.349	397.56
380.729	400.95
381.109	419.93
381.489	414.28
381.87	414.51
382.25	409.54
382.63	419.71
383.01	421.97
383.39	419.48
383.77	431.91
384.15	419.48
384.53	452.25
384.91	447.28
385.29	445.47
385.67	435.3
386.049	454.96
386.429	447.73
386.809	462.42
387.189	451.8
387.568	464.45
387.948	486.15
388.328	480.95
388.707	496.09
389.087	472.36
389.466	491.12
389.846	490.67
390.225	502.87
390.605	524.11
390.984	522.75
391.363	504
391.743	527.73
392.122	518.69
392.501	522.53
392.881	524.34
393.26	552.13
393.639	567.73
394.018	579.02
394.397	590.1
394.776	565.24
395.155	560.72
395.534	591
395.913	581.51
396.292	608.85
396.671	605.69
397.05	622.19
397.429	628.74
397.808	631
398.186	644.33
398.565	644.56
398.944	650.21
399.323	662.86
399.701	670.77
400.08	669.64
400.458	692.69
400.837	705.35
401.215	714.16
401.594	749.64
401.972	746.03
402.351	741.96
402.729	781.28
403.107	787.83
403.486	762.52
403.864	780.37
404.242	837.32
404.62	840.26
404.999	874.61
405.377	867.6
405.755	896.08
406.133	861.73
406.511	925.46
406.889	927.72
407.267	941.95
407.645	954.83
408.023	1010.88
408.401	1000.93
408.779	1030.76
409.156	1060.37
409.534	1069.41
409.912	1087.71
410.29	1105.79
410.667	1133.59
411.045	1153.25
411.422	1175.17
411.8	1173.81
412.178	1219.23
412.555	1247.93
412.933	1273.92
413.31	1256.97
413.687	1293.36
414.065	1336.97
414.442	1320.25
414.819	1366.57
415.197	1375.16
415.574	1427.82
415.951	1439.34
416.328	1456.52
416.705	1484.76
417.082	1478.66
417.46	1515.04
417.837	1522.28
418.214	1567.7
418.591	1547.59
418.967	1580.81
419.344	1623.74
419.721	1649.73
420.098	1642.27
420.475	1658.09
420.852	1699.67
421.228	1707.13
421.605	1708.03
421.982	1737.86
422.358	1762.72
422.735	1790.52
423.111	1770.63
423.488	1835.49
423.864	1854.25
424.241	1856.96
424.617	1884.98
424.994	1913.9
425.37	1928.82
425.746	1933.56
426.123	1977.63
426.499	2001.59
426.875	2001.13
427.251	2037.97
427.627	2073.9
428.003	2103.28
428.379	2145.76
428.756	2190.96
429.132	2235.03
429.507	2228.25
429.883	2265.76
430.259	2304.18
430.635	2350.5
431.011	2365.64
431.387	2413.1
431.763	2450.39
432.138	2470.27
432.514	2510.05
432.89	2548.69
433.265	2559.31
433.641	2605.41
434.016	2628.24
434.392	2689.03
434.767	2729.25
435.143	2741.68
435.518	2799.98
435.894	2746.88
436.269	2811.51
436.644	2880.88
437.02	2861.22
437.395	2932.41
437.77	2980.77
438.145	3006.08
438.52	3024.84
438.895	3072.07
439.271	3096.25
439.646	3146.41
440.021	3177.6
440.395	3180.54
440.77	3176.02
441.145	3195
441.52	3254.43
441.895	3283.36
442.27	3363.81
442.645	3334.88
443.019	3379.18
443.394	3348.44
443.769	3413.3
444.143	3376.92
444.518	3471.6
444.892	3478.16
445.267	3495.33
445.641	3527.65
446.016	3573.97
446.39	3591.37
446.764	3589.11
447.139	3586.18
447.513	3611.26
447.887	3650.36
448.262	3683.12
448.636	3709.34
449.01	3759.96
449.384	3845.83
449.758	3816.91
450.132	3873.4
450.506	3893.29
450.88	3923.8
451.254	3959.05
451.628	4015.09
452.002	4053.74
452.376	4077.46
452.75	4144.58
453.123	4180.74
453.497	4184.13
453.871	4274.52
454.244	4347.74
454.618	4403.1
454.992	4430
455.365	4462.54
455.739	4580.05
456.112	4576.66
456.486	4656.66
456.859	4691.68
457.232	4804
457.606	4782.53
457.979	4851.68
458.352	4974.16
458.725	5034.73
459.099	5029.53
459.472	5144.78
459.845	5232.46
460.218	5294.38
460.591	5300.48
460.964	5296.19
461.337	5434.72
461.71	5505.22
462.083	5606.69
462.456	5623.41
462.829	5652.79
463.201	5672
463.574	5820.69
463.947	5859.79
464.32	5989.5
464.692	6099.33
465.065	6111.31
465.438	6149.73
465.81	6257.97
466.183	6402.83
466.555	6481.69
466.928	6557.85
467.3	6564.4
467.672	6626.32
468.045	6785.41
468.417	6755.81
468.789	6892.53
469.161	7010.72
469.534	7061.11
469.906	7269.24
470.278	7274.67
470.65	7364.83
471.022	7527.99
471.394	7652.28
471.766	7757.14
472.138	7876.69
472.51	8012.95
472.882	8138.15
473.253	8224.02
473.625	8364.58
473.997	8456.56
474.369	8589.89
474.74	8619.49
475.112	8831.01
475.484	8981.52
475.855	9177.89
476.227	9174.5
476.598	9483.65
476.97	9548.51
477.341	9728.16
477.713	9894.94
478.084	9956.86
478.455	10275.27
478.827	10331.31
479.198	10647.46
479.569	10559.78
479.94	10945.08
480.311	11075.92
480.682	11286.77
481.053	11607.21
481.424	11758.39
481.795	11797.49
482.166	12048.55
482.537	12162.45
482.908	12422.55
483.279	12536.68
483.65	12798.36
484.021	13017.57
484.391	13157.9
484.762	13316.99
485.133	13472.47
485.503	13704.33
485.874	13957.43
486.244	14119.01
486.615	14335.95
486.985	14495.04
487.356	14726.67
487.726	14919.89
488.097	15238.3
488.467	15248.24
488.837	15508.35
489.207	15727.78
489.578	15979.07
489.948	16163.93
490.318	16323.24
490.688	16389.91
491.058	16693.18
491.428	16956.22
491.798	17034.41
492.168	17472.59
492.538	17484.34
492.908	17637.11
493.278	17845.01
493.648	17899.47
494.017	18120.03
494.387	18190.76
494.757	18512.56
495.126	18615.61
495.496	18736.74
495.866	18749.17
496.235	19078.88
496.605	19233.68
496.974	19293.79
497.344	19506.21
497.713	19627.79
498.082	19749.59
498.452	19877.05
498.821	20141.67
499.19	20145.74
499.559	20385.96
499.928	20428.67
500.298	20648.55
500.667	20777.82
501.036	20901.2
501.405	21069.11
501.774	21082.44
502.143	21334.18
502.512	21447.85
502.88	21509.1
503.249	21627.51
503.618	21806.71
503.987	21994.51
504.356	22098.23
504.724	22206.03
505.093	22315.18
505.462	22488.05
505.83	22553.81
506.199	22861.83
506.567	23059.79
506.936	22995.38
507.304	23314.7
507.672	23522.38
508.041	23519.66
508.409	23734.12
508.777	23970.27
509.145	24053.66
509.514	24069.93
509.882	24395.12
510.25	24391.05
510.618	24628.79
510.986	24693.42
511.354	25007.99
511.722	25122.33
512.09	25323.46
512.458	25385.15
512.826	25598.03
513.193	25701.53
513.561	25886.38
513.929	26060.39
514.297	26385.35
514.664	26489.08
515.032	26585.8
515.4	26913.93
515.767	26876.64
516.135	27069.4
516.502	27049.51
516.869	27546.22
517.237	27751.19
517.604	27624.41
517.972	28042.48
518.339	28121.8
518.706	28261.01
519.073	28397.28
519.44	28682.47
519.808	28930.14
520.175	28968.11
520.542	29312.28
520.909	29412.16
521.276	29455.55
521.643	29735.09
522.009	30026.61
522.376	30270.67
522.743	30361.74
523.11	30701.62
523.477	30945.68
523.843	31094.83
524.21	31496.86
524.577	31637.87
524.943	31819.33
525.31	32020.46
525.676	32307.68
526.043	32527.79
526.409	32745.64
526.776	33027.44
527.142	33020.43
527.508	33244.83
527.874	33694.09
528.241	33772.05
528.607	33824.7
528.973	34169.1
529.339	34247.74
529.705	34773.83
530.071	34826.26
530.437	35002.53
530.803	35260.15
531.169	35225.8
531.535	35310.77
531.901	35526.58
532.267	35680.93
532.632	36076.85
532.998	36076.62
533.364	36338.54
533.73	36531.75
534.095	36680.67
534.461	36854.23
534.826	37007.45
535.192	37148.23
535.557	37278.17
535.923	37303.71
536.288	37479.07
536.653	37703.7
537.019	37649.91
537.384	37967.42
537.749	38045.38
538.114	38054.42
538.479	38243.34
538.845	38440.4
539.21	38379.39
539.575	38598.14
539.94	38864.12
540.305	38966.94
540.67	38931.69
541.034	39141.4
541.399	39357.89
541.764	39458
542.129	39421.39
542.494	39652.12
542.858	39814.6
543.223	39881.49
543.587	40052.56
543.952	40080.81
544.316	40232.9
544.681	40293.23
545.045	40524.41
545.41	40790.4
545.774	40941.58
546.138	40810.06
546.503	40984.74
546.867	41100.22
547.231	41473.99
547.595	41545.86
547.959	41716.93
548.324	41769.13
548.688	41876.24
549.052	42005.28
549.416	42185.39
549.779	42067.2
550.143	42345.16
550.507	42571.82
550.871	42622.44
551.235	42671.25
551.599	43128.19
551.962	42954.63
552.326	43074.63
552.689	43550.1
553.053	43253.61
553.417	43430.78
553.78	43941.95
554.143	43770.88
554.507	44117.54
554.87	44136.52
555.234	44569.05
555.597	44375.39
555.96	44567.92
556.323	44747.13
556.686	44887.24
557.05	45014.69
557.413	45190.05
557.776	45389.6
558.139	45628.46
558.502	45790.26
558.865	45781.45
559.228	46059.86
559.59	46208.33
559.953	46281.1
560.316	46789.79
560.679	46711.14
561.041	46888.77
561.404	47071.14
561.767	47331.47
562.129	47198.36
562.492	47733.94
562.854	47632.25
563.217	47686.71
563.579	47866.37
563.941	48247.83
564.304	48239.92
564.666	48556.07
565.028	48648.27
565.39	48711.77
565.753	48891.43
566.115	48999.67
566.477	49084.19
566.839	49204.86
567.201	49560.34
567.563	49457.06
567.925	49852.76
568.287	49788.8
568.648	49874.45
569.01	50052.53
569.372	50342.69
569.734	50223.82
570.095	50523.7
570.457	50557.37
570.819	50752.62
571.18	50632.4
571.542	50917.36
571.903	50967.08
572.265	51091.37
572.626	51167.3
572.987	51269.44
573.349	51375.65
573.71	51515.31
574.071	51591.02
574.432	51693.39
574.794	51832.82
575.155	51875.75
575.516	51742.65
575.877	51916.88
576.238	51991.91
576.599	52143.77
576.96	52121.4
577.32	52213.82
577.681	52289.53
578.042	52363.88
578.403	52364.1
578.763	52381.28
579.124	52460.15
579.485	52543.31
579.845	52699.24
580.206	52635.06
580.566	52620.37
580.927	52731.1
581.287	52835.05
581.648	52667.82
582.008	52893.13
582.368	52822.85
582.728	52934.26
583.089	52873.92
583.449	52930.87
583.809	52826.46
584.169	53015.84
584.529	52832.11
584.889	53131.77
585.249	52905.11
585.609	52908.5
585.969	53110.07
586.329	52941.49
586.688	53099
587.048	53089.06
587.408	53057.19
587.768	52962.28
588.127	53075.5
588.487	52970.87
588.846	53208.15
589.206	52904.88
589.565	53076.4
589.925	53207.25
590.284	53068.27
590.643	53146.23
591.003	53150.3
591.362	53294.7
591.721	53166.57
592.08	53149.17
592.44	53225.32
592.799	53318.43
593.158	53225.55
593.517	53219.22
593.876	53263.97
594.235	53257.41
594.593	53240.24
594.952	53313.46
595.311	53286.56
595.67	53327.47
596.029	53395.49
596.387	53347.58
596.746	53327.69
597.104	53190.07
597.463	53249.28
597.822	53349.84
598.18	53297.64
598.538	53167.47
598.897	53519.33
599.255	53263.51
599.613	53654.46
599.972	53402.49
600.33	53498.76
600.688	53377.86
601.046	53542.38
601.404	53674.13
601.762	53538.99
602.12	53672.32
602.478	53674.13
602.836	53723.84
603.194	53502.83
603.552	53550.06
603.91	53474.36
604.268	53658.98
604.625	53606.78
604.983	53624.86
605.341	53528.14
605.698	53671.64
606.056	53684.75
606.413	53659.89
606.771	53852.43
607.128	53904.63
607.485	53749.15
607.843	53850.84
608.2	53960.67
608.557	54003.83
608.914	53904.63
609.272	54050.39
609.629	54132.87
609.986	54157.73
610.343	54063.95
610.7	54235.24
611.057	54072.53
611.414	54127.9
611.771	54223.94
612.127	54304.17
612.484	54255.35
612.841	54353.2
613.198	54185.75
613.554	54322.24
613.911	54370.15
614.267	54279.76
614.624	54400.21
614.98	54377.84
615.337	54508.91
615.693	54493.09
616.05	54434.11
616.406	54675.68
616.762	54504.61
617.118	54514.78
617.475	54590.71
617.831	54551.62
618.187	54617.15
618.543	54559.53
618.899	54745.28
619.255	54724.49
619.611	54639.3
619.967	54769.24
620.323	54766.75
620.678	54611.28
621.034	54616.7
621.39	54595.01
621.746	54552.75
622.101	54878.84
622.457	54599.3
622.812	54655.57
623.168	54701.22
623.523	54646.3
623.879	54726.75
624.234	54524.5
624.589	54622.35
624.945	54616.93
625.3	54664.61
625.655	54680.88
626.01	54676.13
626.365	54696.7
626.72	54672.52
627.075	54616.47
627.43	54611.05
627.785	54593.65
628.14	54611.05
628.495	54686.3
628.85	54606.53
629.205	54431.39
629.559	54646.3
629.914	54487.44
630.269	54464.61
630.623	54263.94
630.978	54282.25
631.332	54497.38
631.687	54488.57
632.041	54292.19
632.396	54327.44
632.75	54186.88
633.104	54232.08
633.459	54128.8
633.813	54046.77
634.167	54118.18
634.521	54079.54
634.875	54058.07
635.229	54009.94
635.583	53769.49
635.937	53836.61
636.291	53814.23
636.645	53895.14
636.999	53763.61
637.352	53840.45
637.706	53638.87
638.06	53813.78
638.413	53710.96
638.767	53627.35
639.121	53650.62
639.474	53466
639.828	53484.53
640.181	53541.02
640.534	53537.63
640.888	53445.66
641.241	53344.64
641.594	53296.51
641.947	53331.76
642.301	53341.7
642.654	53282.05
643.007	53311.2
643.36	53220.58
643.713	53209.28
644.066	53312.33
644.419	53043.41
644.771	52864.66
645.124	52509.64
645.477	52417.89
645.83	52246.14
646.182	52198.46
646.535	52192.13
646.888	52242.98
647.24	51988.97
647.593	52184.67
647.945	52115.75
648.298	51932.7
648.65	51976.32
649.002	51803.44
649.355	51942.65
649.707	51908.07
650.059	51985.58
650.411	52245.69
650.763	52350.32
651.115	52655.17
651.467	52482.97
651.819	52392.8
652.171	52380.37
652.523	52423.99
652.875	52254.73
653.227	52192.36
653.578	52436.19
653.93	52311.45
654.282	52273.94
654.633	52106.03
654.985	52179.93
655.337	52117.56
655.688	52048.41
656.039	52175.86
656.391	51914.85
656.742	51850.22
657.094	52006.6
657.445	52007.95
657.796	51858.81
658.147	51858.13
658.498	51760.05
658.849	51927.28
659.2	51786.94
659.551	51617.91
659.902	51791.92
660.253	51741.97
660.604	51718.47
660.955	51580.85
661.306	51574.52
661.656	51552.15
662.007	51600.06
662.358	51704.01
662.708	51582.2
663.059	51607.51
663.409	51332.49
663.76	51658.13
664.11	51477.12
664.461	51564.8
664.811	51465.37
665.161	51428.53
665.511	51371.14
665.862	51429.21
666.212	51468.53
666.562	51417.91
666.912	51314.41
667.262	51280.97
667.612	51261.99
667.962	51235.77
668.312	51218.6
668.662	51400.06
669.011	51254.3
669.361	51169.56
669.711	51199.16
670.06	51039.62
670.41	51072.61
670.76	50974.08
671.109	51262.66
671.459	51122.55
671.808	50933.86
672.157	51017.25
672.507	50836.23
672.856	50838.95
673.205	50803.24
673.554	50870.81
673.904	50875.1
674.253	50995.33
674.602	50737.03
674.951	50282.8
675.3	50180.66
675.649	50646.18
675.998	50650.7
676.346	50656.35
676.695	50656.13
677.044	50420.43
677.393	50530.25
677.741	50527.77
678.09	50445.28
678.438	50387.66
678.787	50438.5
679.135	50409.58
679.484	50031.51
679.832	50286.42
680.181	49946.31
680.529	50177.95
680.877	50044.39
681.225	50005.52
681.573	50043.26
681.922	49847.11
682.27	49721.91
682.618	49762.82
682.966	49647.11
683.314	49707.45
683.661	49589.49
684.009	49414.8
684.357	49326.9
684.705	49214.13
685.053	49259.55
685.4	49187.69
685.748	49038.99
686.095	48944.31
686.443	48871.54
686.79	48793.58
687.138	48908.83
687.485	48876.06
687.832	48675.16
688.18	48623.64
688.527	48399.69
688.874	48427.48
689.221	48379.58
689.568	48122.63
689.915	48141.62
690.262	48083.76
690.609	48029.53
690.956	47780.72
691.303	47838.8
691.65	47527.17
691.997	47491.92
692.344	47304.58
692.69	47236.78
693.037	47424.57
693.383	46844.02
693.73	47002.66
694.077	46838.15
694.423	46802.22
694.769	46571.94
695.116	46578.04
695.462	46598.38
695.808	46399.06
696.155	46496.24
696.501	46098.51
696.847	46124.72
697.193	45957.04
697.539	46042.24
697.885	45755.24
698.231	45442.7
698.577	45545.07
698.923	45390.28
699.269	45212.88
699.614	45057.63
699.96	45013.79
700.306	44857.63
700.651	44750.74
700.997	44591.2
701.342	44598.43
701.688	44523.18
702.033	44243.86
702.379	44294.26
702.724	44159.35
703.069	44505.78
703.415	43689.76
703.76	43732.47
704.105	43799.36
704.45	43691.34
704.795	43379.93
705.14	43246.38
705.485	43333.61
705.83	43053.16
706.175	43115.98
706.52	42950.79
706.865	42800.29
707.209	42884.35
707.554	42614.76
707.899	42832.6
708.243	42493.18
708.588	42408.21
708.932	42098.84
709.277	42311.26
709.621	42212.73
709.966	41931.38
710.31	42127.54
710.654	41730.48
710.998	41851.16
711.342	41957.37
711.687	41502.02
712.031	41564.16
712.375	41233.55
712.719	41413.66
713.063	41278.97
713.407	41418.4
713.75	41100.9
714.094	41083.95
714.438	40899.32
714.782	40992.42
715.125	40796.27
715.469	40896.61
715.812	40678.31
716.156	40469.27
716.499	40397.64
716.843	40492.55
717.186	40191.54
717.53	40304.08
717.873	40260.24
718.216	40174.59
718.559	40029.29
718.902	39699.35
719.246	39748.16
719.589	39726.24
719.932	39439.47
720.275	39659.58
720.617	39523.76
720.96	39351.56
721.303	39245.8
721.646	39366.71
721.989	39148.41
722.331	39227.73
722.674	39006.49
723.016	38950.22
723.359	38888.3
723.701	38958.58
724.044	38734.63
724.386	38466.62
724.729	38738.92
725.071	38443.11
725.413	38498.71
725.755	38407.63
726.097	38260.52
726.439	38072.5
726.782	38013.97
727.124	38229.56
727.465	38028.66
727.807	37941.88
728.149	37805.84
728.491	37664.6
728.833	37680.87
729.175	37717.93
729.516	37546.19
729.858	37397.27
730.199	37503.48
730.541	37446.3
730.882	37259.87
731.224	37352.52
731.565	37104.39
731.906	37066.43
732.248	36985.52
732.589	36885.19
732.93	36712.09
733.271	36672.31
733.612	36783.04
733.953	36638.87
734.294	36538.53
734.635	36626.89
734.976	36456.27
735.317	36338.99
735.658	36404.97
735.999	36315.49
736.339	36270.74
736.68	36258.09
737.021	36120.01
737.361	36021.71
737.702	36113.46
738.042	36043.63
738.383	35844.76
738.723	35907.13
739.063	35660.14
739.404	35750.75
739.744	35563.64
740.084	35545.56
740.424	35509.41
740.764	35361.16
741.104	35544.21
741.444	35183.09
741.784	35096.76
742.124	35240.71
742.464	35128.4
742.804	35059.93
743.143	34953.04
743.483	35040.04
743.823	34755.07
744.162	34697.22
744.502	34705.13
744.841	34549.88
745.181	34690.44
745.52	34618.58
745.86	34675.3
746.199	34520.28
746.538	34513.95
746.877	34455.87
747.216	34541.3
747.556	34316.89
747.895	34342.88
748.234	34230.79
748.573	34041.87
748.911	34189.21
749.25	34133.17
749.589	33918.26
749.928	33918.03
750.267	34014.53
750.605	33826.06
750.944	33827.42
751.283	33534.09
751.621	33580.87
751.96	33358.95
752.298	33446.63
752.636	33490.02
752.975	33127.32
