Data from white_wall_FLMS001491_068.txt Node
Date: Tue Feb 07 11:05:24 GMT 2017
User: dcchb
Spectrometer: FLMS00149
Trigger mode: 0
Integration Time (sec): 2.000000E-2
Scans to average: 10
Electric dark correction enabled: true
Nonlinearity correction enabled: false
Boxcar width: 0
XAxis mode: Wavelengths
Number of Pixels in Spectrum: 2048
>>>>>Begin Spectral Data<<<<<
341.393	-12.22
341.776	-12.22
342.16	-12.22
342.543	-41.82
342.927	-56.74
343.31	-53.57
343.693	-75.04
344.077	-73.68
344.46	-66.45
344.843	-37.98
345.226	-44.76
345.61	-41.37
345.993	-24.19
346.376	-10.18
346.759	37.05
347.142	16.26
347.525	36.14
347.908	56.26
348.291	81.11
348.674	99.87
349.057	100.55
349.44	100.1
349.823	139.87
350.206	160.66
350.588	227.1
350.971	246.53
351.354	273.43
351.737	263.93
352.119	269.58
352.502	266.42
352.884	304.38
353.267	312.75
353.65	302.35
354.032	313.88
354.414	314.33
354.797	344.16
355.179	353.2
355.562	344.61
355.944	364.5
356.326	360.88
356.709	379.41
357.091	365.63
357.473	374.67
357.855	350.71
358.238	357.72
358.62	364.72
359.002	370.6
359.384	362.01
359.766	353.65
360.148	370.82
360.53	356.13
360.912	350.03
361.294	363.14
361.676	368.11
362.057	358.62
362.439	355.23
362.821	344.61
363.203	357.26
363.584	340.77
363.966	341.67
364.348	357.04
364.729	343.93
365.111	344.38
365.493	361.33
365.874	340.99
366.256	349.13
366.637	327.89
367.019	331.28
367.4	367.43
367.781	345.51
368.163	355.46
368.544	351.84
368.925	361.56
369.306	370.15
369.688	346.19
370.069	327.43
370.45	358.85
370.831	322.46
371.212	337.6
371.593	350.71
371.974	332.18
372.355	346.42
372.736	345.97
373.117	347.55
373.498	352.97
373.879	365.4
374.26	358.62
374.641	354.1
375.021	368.34
375.402	360.88
375.783	366.76
376.163	375.57
376.544	379.86
376.925	364.5
377.305	366.76
377.686	355.91
378.066	367.21
378.447	366.3
378.827	367.43
379.208	361.33
379.588	362.24
379.968	399.52
380.349	384.83
380.729	390.71
381.109	401.11
381.489	379.18
381.87	381.67
382.25	404.5
382.63	402.46
383.01	383.03
383.39	399.3
383.77	407.66
384.15	408.11
384.53	415.34
384.91	417.15
385.29	405.4
385.67	412.4
386.049	429.35
386.429	417.15
386.809	418.05
387.189	403.37
387.568	431.61
387.948	408.56
388.328	448.34
388.707	447.88
389.087	444.27
389.466	443.14
389.846	455.34
390.225	477.71
390.605	461.22
390.984	477.04
391.363	496.7
391.743	498.28
392.122	467.54
392.501	488.33
392.881	496.47
393.26	488.56
393.639	507.09
394.018	510.48
394.397	536.92
394.776	554.1
395.155	539.41
395.534	564.26
395.913	562.68
396.292	560.88
396.671	553.42
397.05	578.5
397.429	577.6
397.808	597.26
398.186	595
398.565	605.62
398.944	628.67
399.323	639.52
399.701	647.2
400.08	651.27
400.458	667.09
400.837	669.12
401.215	671.61
401.594	670.93
401.972	706.18
402.351	696.01
402.729	717.71
403.107	735.79
403.486	766.52
403.864	789.8
404.242	792.28
404.62	814.65
404.999	808.55
405.377	830.7
405.755	843.81
406.133	845.61
406.511	880.64
406.889	875.44
407.267	896.46
407.645	900.53
408.023	906.18
408.401	959.96
408.779	960.86
409.156	998.6
409.534	977.14
409.912	1036.12
410.29	1026.4
410.667	1075.66
411.045	1097.13
411.422	1100.3
411.8	1119.96
412.178	1131.93
412.555	1143.01
412.933	1170.8
413.31	1188.88
413.687	1209.45
414.065	1213.29
414.442	1234.76
414.819	1260.74
415.197	1273.17
415.574	1269.78
415.951	1330.12
416.328	1338.71
416.705	1351.59
417.082	1333.06
417.46	1353.85
417.837	1411.47
418.214	1418.93
418.591	1415.32
418.967	1428.2
419.344	1413.73
419.721	1448.31
420.098	1467.97
420.475	1484.24
420.852	1517.46
421.228	1520.62
421.605	1535.76
421.982	1570.57
422.358	1569.21
422.735	1593.39
423.111	1604.24
423.488	1632.26
423.864	1668.42
424.241	1640.85
424.617	1674.52
424.994	1727.4
425.37	1703.22
425.746	1710.9
426.123	1749.77
426.499	1760.84
426.875	1776.21
427.251	1797.45
427.627	1840.62
428.003	1878.81
428.379	1892.37
428.756	1931.69
429.132	1915.42
429.507	1967.17
429.883	1999.03
430.259	2030.44
430.635	2073.83
431.011	2069.76
431.387	2105.92
431.763	2152.47
432.138	2152.7
432.514	2185.24
432.89	2223.43
433.265	2258.23
433.641	2280.15
434.016	2279.93
434.392	2324.67
434.767	2368.51
435.143	2371.22
435.518	2427.27
435.894	2431.79
436.269	2501.62
436.644	2538.68
437.02	2552.01
437.395	2552.24
437.77	2567.83
438.145	2582.06
438.52	2656.41
438.895	2686.92
439.271	2682.18
439.646	2791.78
440.021	2766.47
440.395	2771.21
440.77	2787.94
441.145	2812.57
441.52	2856.63
441.895	2869.06
442.27	2885.33
442.645	2887.59
443.019	2945.67
443.394	2958.55
443.769	2979.79
444.143	2980.25
444.518	3001.71
444.892	3022.05
445.267	3081.49
445.641	3111.77
446.016	3116.51
446.39	3155.84
446.764	3194.7
447.139	3168.04
447.513	3215.49
447.887	3246.23
448.262	3211.65
448.636	3294.36
449.01	3370.52
449.384	3384.76
449.758	3371.65
450.132	3421.14
450.506	3456.17
450.88	3484.41
451.254	3461.82
451.628	3565.09
452.002	3608.48
452.376	3626.33
452.75	3688.25
453.123	3689.15
453.497	3753.11
453.871	3773.22
454.244	3854.35
454.618	3852.31
454.992	3943.61
455.365	3925.31
455.739	4082.59
456.112	4087.56
456.486	4126.66
456.859	4124.85
457.232	4237.16
457.606	4247.56
457.979	4302.25
458.352	4385.86
458.725	4480.32
459.099	4469.25
459.472	4613.2
459.845	4640.77
460.218	4701.11
460.591	4704.95
460.964	4722.8
461.337	4851.16
461.71	4925.73
462.083	4996.92
462.456	4986.75
462.829	5032.85
463.201	5123.92
463.574	5187.65
463.947	5247.08
464.32	5360.97
464.692	5390.35
465.065	5451.82
465.438	5534.3
465.81	5583.79
466.183	5657.46
466.555	5795.54
466.928	5855.2
467.3	5864.46
467.672	5947.85
468.045	6118.24
468.417	6143.1
468.789	6148.07
469.161	6275.75
469.534	6372.25
469.906	6547.38
470.278	6519.36
470.65	6623.09
471.022	6771.33
471.394	6912.35
471.766	6950.54
472.138	7028.95
472.51	7239.34
472.882	7316.63
473.253	7432.11
473.625	7572.89
473.997	7706
474.369	7748.48
474.74	7858.76
475.112	8031.64
475.484	8184.63
475.855	8276.38
476.227	8370.39
476.598	8555.02
476.97	8682.7
477.341	8896.25
477.713	9039.75
478.084	9115.9
478.455	9357.48
478.827	9399.96
479.198	9675.44
479.569	9721.09
479.94	9959.72
480.311	10149.32
480.682	10301.41
481.053	10572.36
481.424	10704.79
481.795	10891.9
482.166	11015.97
482.537	11172.12
482.908	11402.85
483.279	11589.06
483.65	11798.55
484.021	12010.97
484.391	12151.3
484.762	12330.74
485.133	12432.2
485.503	12568.47
485.874	12782.25
486.244	13039.42
486.615	13258.62
486.985	13470.37
487.356	13654.77
487.726	13821.77
488.097	13996.23
488.467	14097.92
488.837	14489.55
489.207	14715.76
489.578	14828.52
489.948	14913.72
490.318	15235.07
490.688	15280.94
491.058	15521.16
491.428	15732.45
491.798	15948.95
492.168	16344.19
492.538	16202.05
492.908	16374.92
493.278	16730.85
493.648	16701.02
494.017	16955.02
494.387	17177.16
494.757	17254.67
495.126	17475.46
495.496	17586.64
495.866	17736.92
496.235	17938.27
496.605	18180.07
496.974	18364.02
497.344	18401.31
497.713	18539.39
498.082	18715.2
498.452	18905.25
498.821	19016.89
499.19	19141.63
499.559	19371.45
499.928	19520.83
500.298	19624.78
500.667	19879.24
501.036	19774.61
501.405	20082.4
501.774	20067.25
502.143	20294.37
502.512	20378.89
502.88	20603.74
503.249	20700.23
503.618	20794.47
503.987	20885.31
504.356	21106.32
504.724	21236.04
505.093	21375.92
505.462	21556.71
505.83	21762.13
506.199	21936.58
506.567	22224.03
506.936	22106.75
507.304	22391.94
507.672	22533.4
508.041	22633.06
508.409	22838.71
508.777	23092.94
509.145	23327.96
509.514	23310.33
509.882	23459.26
510.25	23632.36
510.618	23747.61
510.986	23994.38
511.354	24206.81
511.722	24387.82
512.09	24630.75
512.458	24628.26
512.826	24934.92
513.193	25003.4
513.561	25161.13
513.929	25363.84
514.297	25630.27
514.664	25788.91
515.032	25968.34
515.4	26169.92
515.767	26382.34
516.135	26552.73
516.502	26383.7
516.869	26867.53
517.237	26942.78
517.604	26927.41
517.972	27338.25
518.339	27500.51
518.706	27575.53
519.073	27803.55
519.44	27968.97
519.808	28231.79
520.175	28347.72
520.542	28631.78
520.909	28815.73
521.276	28912.45
521.643	29150.41
522.009	29328.93
522.376	29626.33
522.743	29811.63
523.11	30041.46
523.477	30312.86
523.843	30499.97
524.21	30829.01
524.577	31077.13
524.943	31139.28
525.31	31332.5
525.676	31679.15
526.043	31851.58
526.409	31986.49
526.776	32332.24
527.142	32359.59
527.508	32733.36
527.874	32968.16
528.241	33141.71
528.607	33224.2
528.973	33484.3
529.339	33630.06
529.705	33981.24
530.071	34154.79
530.437	34277.28
530.803	34593.88
531.169	34731.05
531.535	34710.94
531.901	34803.14
532.267	35193.41
532.632	35307.53
532.998	35444.7
533.364	35784.36
533.73	35830
534.095	36187.51
534.461	36242.65
534.826	36352.93
535.192	36577.1
535.557	36721.05
535.923	36849.19
536.288	37055.06
536.653	37066.58
537.019	37172.79
537.384	37357.87
537.749	37535.72
538.114	37640.8
538.479	37606.68
538.845	37905.66
539.21	37834.47
539.575	38188.59
539.94	38365.08
540.305	38486.21
540.67	38431.07
541.034	38795.12
541.399	38788.34
541.764	39043.93
542.129	39051.84
542.494	39160.99
542.858	39469.68
543.223	39487.76
543.587	39666.06
543.952	39669
544.316	39977.92
544.681	39957.58
545.045	40213.62
545.41	40573.38
545.774	40483.89
546.138	40652.25
546.503	40648.18
546.867	40754.85
547.231	41102.41
547.595	41207.26
547.959	41463.08
548.324	41363.87
548.688	41472.12
549.052	41657.42
549.416	41816.06
549.779	41916.62
550.143	42024.64
550.507	42440.23
550.871	42538.98
551.235	42579.88
551.599	43060.32
551.962	42995.92
552.326	43174.22
552.689	43426.19
553.053	43357.04
553.417	43585.05
553.78	44032.05
554.143	43979.62
554.507	44236.79
554.87	44456.9
555.234	44829.54
555.597	44597.68
555.96	44801.07
556.323	45018.24
556.686	45091.23
557.05	45463.65
557.413	45500.94
557.776	45707.48
558.139	45944.77
558.502	46180.92
558.865	46294.81
559.228	46437.86
559.59	46679.89
559.953	46764.41
560.316	47193.77
560.679	47160.1
561.041	47520.09
561.404	47625.4
561.767	47902.23
562.129	47801.89
562.492	48237.36
562.854	48264.48
563.217	48176.12
563.579	48507.86
563.941	48784.01
564.304	48818.36
564.666	49069.43
565.028	49136.77
565.39	49257.45
565.753	49562.3
566.115	49561.39
566.477	49673.48
566.839	49829.41
567.201	49987.37
567.563	50106.24
567.925	50384.2
568.287	50442.28
568.648	50389.4
569.01	50618.32
569.372	50858.76
569.734	50825.32
570.095	50977.4
570.457	51151.64
570.819	51245.42
571.18	51285.87
571.542	51491.74
571.903	51435.24
572.265	51678.63
572.626	51690.6
572.987	51816.25
573.349	51814.89
573.71	52043.14
574.071	52111.38
574.432	52269.12
574.794	52458.72
575.155	52436.35
575.516	52271.38
575.877	52454.88
576.238	52500.98
576.599	52680.41
576.96	52771.93
577.32	52671.82
577.681	52823.68
578.042	52857.58
578.403	52846.51
578.763	52950.23
579.124	52934.87
579.485	53156.78
579.845	53129.89
580.206	53157.01
580.566	53133.96
580.927	53201.3
581.287	53332.14
581.648	53125.82
582.008	53324.69
582.368	53255.08
582.728	53366.04
583.089	53299.83
583.449	53320.17
583.809	53256.66
584.169	53441.29
584.529	53303.44
584.889	53564.91
585.249	53390.67
585.609	53278.13
585.969	53512.48
586.329	53419.82
586.688	53551.12
587.048	53462.99
587.408	53424.34
587.768	53416.66
588.127	53475.42
588.487	53350.22
588.846	53627.5
589.206	53428.41
589.565	53499.6
589.925	53547.05
590.284	53512.93
590.643	53477.22
591.003	53585.02
591.362	53615.75
591.721	53627.95
592.08	53558.35
592.44	53620.27
592.799	53674.05
593.158	53584.57
593.517	53736.88
593.876	53681.74
594.235	53591.57
594.593	53686.26
594.952	53633.6
595.311	53632.02
595.67	53764.67
596.029	53891.68
596.387	53888.29
596.746	53861.39
597.104	53733.71
597.463	53796.31
597.822	53941.62
598.18	53759.02
598.538	53742.53
598.897	53935.74
599.255	53619.14
599.613	54121.73
599.972	54002.63
600.33	54011.67
600.688	53884.67
601.046	53957.89
601.404	54139.58
601.762	53954.73
602.12	54170.99
602.478	54149.52
602.836	54189.97
603.194	54044.89
603.552	54151.56
603.91	54066.36
604.268	54218.22
604.625	54129.64
604.983	54259.12
605.341	54110.43
605.698	54248.28
606.056	54418.44
606.413	54304.55
606.771	54442.4
607.128	54501.83
607.485	54247.6
607.843	54351.1
608.2	54529.85
608.557	54565.1
608.914	54545.9
609.272	54734.82
609.629	54726.23
609.986	54817.75
610.343	54626.35
610.7	54857.53
611.057	54823.86
611.414	54770.75
611.771	54804.19
612.127	54879.22
612.484	54879.22
612.841	54967.81
613.198	54844.87
613.554	54859.33
613.911	55039.67
614.267	54974.59
614.624	54987.69
614.98	55004.87
615.337	55163.28
615.693	55104.07
616.05	55034.92
616.406	55228.59
616.762	55161.93
617.118	55190.63
617.475	55212.32
617.831	55319.89
618.187	55336.38
618.543	55412.99
618.899	55425.65
619.255	55371.41
619.611	55417.74
619.967	55528.24
620.323	55532.99
620.678	55387.46
621.034	55344.52
621.39	55459.32
621.746	55411.41
622.101	55740.89
622.457	55530.28
622.812	55563.27
623.168	55589.71
623.523	55557.17
623.879	55647.11
624.234	55407.57
624.589	55587.22
624.945	55470.84
625.3	55607.11
625.655	55510.62
626.01	55601.46
626.365	55559.65
626.72	55569.15
627.075	55484.4
627.43	55540.45
627.785	55449.83
628.14	55548.13
628.495	55556.04
628.85	55509.71
629.205	55369.38
629.559	55562.82
629.914	55452.99
630.269	55424.97
630.623	55405.53
630.978	55329.83
631.332	55449.15
631.687	55476.72
632.041	55323.28
632.396	55422.03
632.75	55301.58
633.104	55251.64
633.459	55187.46
633.813	55154.24
634.167	55165.99
634.521	55097.52
634.875	55178.65
635.229	55173.45
635.583	55054.81
635.937	55086.9
636.291	54966.9
636.645	55022.49
636.999	55026.11
637.352	55006
637.706	54832.67
638.06	55006.9
638.413	54984.75
638.767	54810.97
639.121	54805.55
639.474	54711.99
639.828	54719.23
640.181	54743.41
640.534	54821.82
640.888	54660.02
641.241	54532.34
641.594	54709.51
641.947	54579.12
642.301	54586.12
642.654	54553.58
643.007	54537.99
643.36	54508.16
643.713	54450.08
644.066	54562.17
644.419	54324.66
644.771	54123.53
645.124	53848.74
645.477	53781.17
645.83	53627.73
646.182	53533.95
646.535	53458.02
646.888	53503.89
647.24	53369.66
647.593	53451.24
647.945	53463.66
648.298	53196.78
648.65	53156.1
649.002	53097.8
649.355	53180.28
649.707	53138.48
650.059	53303.9
650.411	53643.32
650.763	53661.4
651.115	54011.9
651.467	53846.25
651.819	53818.46
652.171	53733.71
652.523	53573.04
652.875	53742.98
653.227	53606.03
653.578	53832.69
653.93	53720.83
654.282	53628.86
654.633	53494.62
654.985	53566.71
655.337	53552.02
655.688	53507.28
656.039	53529.65
656.391	53277.68
656.742	53312.71
657.094	53454.17
657.445	53460.73
657.796	53279.49
658.147	53338.92
658.498	53319.71
658.849	53455.53
659.2	53284.46
659.551	53230.9
659.902	53399.03
660.253	53262.99
660.604	53267.74
660.955	53192.49
661.306	53280.62
661.656	53082.88
662.007	53094.86
662.358	53053.96
662.708	52988.42
663.059	53020.51
663.409	52797.69
663.76	53049.89
664.11	53029.1
664.461	53010.34
664.811	53038.14
665.161	53030
665.511	52963.79
665.862	52996.56
666.212	53040.4
666.562	53075.88
666.912	52975.54
667.262	52881.99
667.612	52917.46
667.962	52825.94
668.312	52797.02
668.662	52946.39
669.011	52846.96
669.361	52761.08
669.711	52740.29
670.06	52725.61
670.41	52699.62
670.76	52659.62
671.109	52788.2
671.459	52682.89
671.808	52644.03
672.157	52605.38
672.507	52506.63
672.856	52519.73
673.205	52587.98
673.554	52591.15
673.904	52477.25
674.253	52560.41
674.602	52417.36
674.951	52052.63
675.3	51800.88
675.649	52406.29
675.998	52321.32
676.346	52447.42
676.695	52402.45
677.044	52166.98
677.393	52282.9
677.741	52336.01
678.09	52168.11
678.438	52050.37
678.787	52130.37
679.135	52038.84
679.484	51836.14
679.832	52033.19
680.181	51863.48
680.529	52006.3
680.877	51922.46
681.225	51897.38
681.573	52049.69
681.922	51792.52
682.27	51637.27
682.618	51701
682.966	51564.05
683.314	51572.64
683.661	51414.91
684.009	51381.91
684.357	51228.7
684.705	51185.31
685.053	51211.75
685.4	51250.62
685.748	51055.14
686.095	50975.59
686.443	50893.11
686.79	50812.66
687.138	50827.58
687.485	50798.2
687.832	50560.92
688.18	50691.76
688.527	50440.69
688.874	50395.04
689.221	50403.63
689.568	50159.34
689.915	50029.63
690.262	50070.31
690.609	49980.37
690.956	49919.13
691.303	49848.17
691.65	49736.98
691.997	49696.31
692.344	49494.73
692.69	49439.36
693.037	49410.44
693.383	49110.56
693.73	49198.47
694.077	48965.48
694.423	49004.12
694.769	48956.21
695.116	48754.86
695.462	48753.51
695.808	48663.79
696.155	48672.15
696.501	48464.25
696.847	48351.03
697.193	48172.05
697.539	48219.06
697.885	48061.77
698.231	47889.8
698.577	47798.73
698.923	47751.72
699.269	47645.96
699.614	47493.43
699.96	47340.66
700.306	47466.08
700.651	47232.42
700.997	47074.91
701.342	47042.36
701.688	46944.51
702.033	46954.46
702.379	46773.9
702.724	46646.44
703.069	46753.33
703.415	46325.55
703.76	46269.5
704.105	46420.01
704.45	46170.52
704.795	46005.33
705.14	45886.01
705.485	45937.76
705.83	45751.78
706.175	45709.52
706.52	45552.23
706.865	45356.31
707.209	45392.46
707.554	45378.45
707.899	45355.18
708.243	45287.61
708.588	45083.55
708.932	44942.31
709.277	45041.97
709.621	44827.96
709.966	44646.95
710.31	44732.59
710.654	44302.1
710.998	44504.58
711.342	44482.43
711.687	44258.94
712.031	44063.91
712.375	44157.24
712.719	44071.82
713.063	43923.35
713.407	44021.88
713.75	43856.69
714.094	43728.1
714.438	43525.17
714.782	43642.91
715.125	43453.53
715.469	43420.09
715.812	43272.52
716.156	43101
716.499	43132.19
716.843	43199.08
717.186	42729.03
717.53	43017.84
717.873	42922.02
718.216	42880.44
718.559	42710.73
718.902	42465.54
719.246	42475.93
719.589	42274.58
719.932	42126.11
720.275	42192.32
720.617	42186.9
720.96	42085.88
721.303	42071.2
721.646	42151.65
721.989	41730.41
722.331	41921.14
722.674	41798.43
723.016	41682.28
723.359	41563.41
723.701	41820.81
724.044	41530.65
724.386	41424.21
724.729	41494.04
725.071	41588.95
725.413	41339.01
725.755	41243.2
726.097	40986.25
726.439	40838.23
726.782	40948.06
727.124	41115.74
727.465	40809.31
727.807	40767.5
728.149	40704.9
728.491	40545.81
728.833	40611.8
729.175	40455.87
729.516	40486.83
729.858	40260.62
730.199	40402.31
730.541	40478.7
730.882	40295.65
731.224	40348.08
731.565	40031.25
731.906	40124.13
732.248	39964.13
732.589	39817.24
732.93	39605.05
733.271	39738.15
733.612	39664.71
733.953	39744.03
734.294	39596.23
734.635	39514.65
734.976	39534.31
735.317	39363.24
735.658	39409.57
735.999	39376.13
736.339	39295.45
736.68	39382
737.021	39319.86
737.361	39003.71
737.702	39205.96
738.042	39064.27
738.383	38994.44
738.723	39044.83
739.063	38926.87
739.404	38889.13
739.744	38686.65
740.084	38633.32
740.424	38737.72
740.764	38557.16
741.104	38732.3
741.444	38452.08
741.784	38345.64
742.124	38431.52
742.464	38349.71
742.804	38233.33
743.143	38236.04
743.483	38168.47
743.823	38048.7
744.162	37984.52
744.502	37879.89
744.841	37823.85
745.181	38030.85
745.52	37716.28
745.86	37872.66
746.199	37786.79
746.538	37691.2
746.877	37619.34
747.216	37697.3
747.556	37458.21
747.895	37427.25
748.234	37312.68
748.573	37079.24
748.911	37195.84
749.25	37279.46
749.589	36933.93
749.928	36991.78
750.267	37050.99
750.605	36852.58
750.944	36956.3
751.283	36815.52
751.621	36818.23
751.96	36710.21
752.298	36547.5
752.636	36548.4
752.975	36376.88
