Data from White_paper_FLMS001491_089.txt Node
Date: Tue Feb 07 10:35:41 GMT 2017
User: dcchb
Spectrometer: FLMS00149
Trigger mode: 0
Integration Time (sec): 2.000000E-2
Scans to average: 10
Electric dark correction enabled: true
Nonlinearity correction enabled: false
Boxcar width: 0
XAxis mode: Wavelengths
Number of Pixels in Spectrum: 2048
>>>>>Begin Spectral Data<<<<<
341.393	-12.46
341.776	-12.46
342.16	-12.46
342.543	-67.37
342.927	-66.24
343.31	-68.28
343.693	-56.07
344.077	-55.17
344.46	-62.85
344.843	-66.47
345.226	-56.52
345.61	-30.08
345.993	-31.21
346.376	11.04
346.759	0.65
347.142	32.74
347.525	60.08
347.908	61.21
348.291	64.6
348.674	103.47
349.057	92.85
349.44	149.12
349.823	116.13
350.206	155.9
350.588	237.03
350.971	218.95
351.354	247.65
351.737	263.02
352.119	276.57
352.502	285.39
352.884	312.73
353.267	294.65
353.65	339.4
354.032	310.25
354.414	347.53
354.797	344.14
355.179	345.73
355.562	356.35
355.944	354.09
356.326	355.22
356.709	373.07
357.091	362.45
357.473	366.97
357.855	357.02
358.238	381.88
358.62	376.69
359.002	392.05
359.384	365.84
359.766	366.52
360.148	366.29
360.53	381.66
360.912	370.36
361.294	373.75
361.676	359.28
362.057	376.23
362.439	354.54
362.821	362
363.203	379.4
363.584	354.09
363.966	361.77
364.348	361.54
364.729	361.09
365.111	350.25
365.493	383.01
365.874	370.58
366.256	369.91
366.637	365.16
367.019	361.32
367.4	371.71
367.781	365.39
368.163	342.34
368.544	353.86
368.925	353.86
369.306	355.89
369.688	364.48
370.069	358.61
370.45	393.63
370.831	382.11
371.212	369.68
371.593	372.39
371.974	345.27
372.355	371.71
372.736	375.33
373.117	397.93
373.498	388.89
373.879	384.37
374.26	348.89
374.641	365.39
375.021	368.55
375.402	396.57
375.783	384.59
376.163	363.58
376.544	379.62
376.925	375.78
377.305	402.45
377.686	393.18
378.066	386.18
378.447	400.64
378.827	395.67
379.208	399.06
379.588	402
379.968	415.33
380.349	424.14
380.729	417.81
381.109	417.36
381.489	424.14
381.87	409
382.25	421.2
382.63	426.4
383.01	426.18
383.39	438.83
383.77	424.59
384.15	442.22
384.53	431.15
384.91	431.37
385.29	443.58
385.67	435.67
386.049	472.28
386.429	450.13
386.809	456.91
387.189	458.49
387.568	450.36
387.948	466.4
388.328	469.34
388.707	473.86
389.087	459.17
389.466	488.32
389.846	471.82
390.225	498.26
390.605	492.39
390.984	494.87
391.363	512.5
391.743	504.37
392.122	534.19
392.501	514.99
392.881	549.11
393.26	516.12
393.639	536.91
394.018	566.28
394.397	565.61
394.776	560.18
395.155	542.78
395.534	559.28
395.913	579.17
396.292	572.61
396.671	579.84
397.05	568.09
397.429	601.54
397.808	585.27
398.186	627.98
398.565	599.05
398.944	619.62
399.323	597.02
399.701	641.54
400.08	642.44
400.458	642.21
400.837	660.97
401.215	691.48
401.594	687.86
401.972	678.15
402.351	684.7
402.729	689.45
403.107	701.65
403.486	723.57
403.864	716.34
404.242	738.48
404.62	749.33
404.999	773.51
405.377	781.19
405.755	790.91
406.133	793.62
406.511	803.34
406.889	844.47
407.267	862.32
407.645	900.97
408.023	891.25
408.401	923.56
408.779	927.4
409.156	957.69
409.534	994.97
409.912	1011.02
410.29	1024.13
410.667	1048.53
411.045	1069.1
411.422	1072.03
411.8	1094.18
412.178	1126.95
412.555	1179.38
412.933	1181.41
413.31	1265.7
413.687	1266.15
414.065	1281.75
414.442	1291.92
414.819	1343.67
415.197	1361.07
415.574	1378.47
415.951	1418.24
416.328	1443.78
416.705	1481.74
417.082	1476.32
417.46	1505.92
417.837	1561.06
418.214	1544.34
418.591	1583.66
418.967	1625.47
419.344	1670.21
419.721	1682.64
420.098	1673.6
420.475	1753.15
420.852	1705.46
421.228	1778.91
421.605	1792.92
421.982	1837.21
422.358	1854.39
422.735	1890.09
423.111	1883.99
423.488	1928.28
423.864	1970.32
424.241	1994.04
424.617	2017.09
424.994	2006.47
425.37	2056.64
425.746	2069.75
426.123	2094.15
426.499	2102.74
426.875	2153.59
427.251	2205.79
427.627	2286.69
428.003	2257.54
428.379	2291.21
428.756	2360.81
429.132	2374.82
429.507	2422.51
429.883	2398.1
430.259	2466.57
430.635	2469.06
431.011	2530.53
431.387	2586.8
431.763	2657.3
432.138	2684.42
432.514	2715.15
432.89	2694.36
433.265	2790.86
433.641	2855.26
434.016	2824.98
434.392	2913.79
434.767	2977.07
435.143	3003.96
435.518	3032.66
435.894	3070.63
436.269	3096.39
436.644	3187.23
437.02	3178.19
437.395	3169.83
437.77	3271.52
438.145	3353.78
438.52	3348.13
438.895	3358.53
439.271	3376.15
439.646	3474.68
440.021	3486.21
440.395	3472.65
440.77	3491.41
441.145	3520.33
441.52	3597.84
441.895	3568.69
442.27	3636.94
442.645	3627.45
443.019	3643.49
443.394	3700.67
443.769	3720.55
444.143	3738.18
444.518	3814.33
444.892	3770.72
445.267	3800.55
445.641	3830.61
446.016	3880.32
446.39	3914.67
446.764	3890.26
447.139	3927.33
447.513	3982.92
447.887	3975.46
448.262	4029.02
448.636	4021.79
449.01	4071.73
449.384	4113.08
449.758	4129.13
450.132	4229.92
450.506	4182.01
450.88	4238.73
451.254	4245.51
451.628	4328.9
452.002	4308.56
452.376	4389.69
452.75	4419.97
453.123	4472.62
453.497	4544.49
453.871	4563.92
454.244	4682.56
454.618	4646.86
454.992	4764.59
455.365	4769.11
455.739	4879.39
456.112	4909
456.486	4929.11
456.859	5003.68
457.232	5130.68
457.606	5038.94
457.979	5167.07
458.352	5237.8
458.725	5299.49
459.099	5376.33
459.472	5464.91
459.845	5496.78
460.218	5567.96
460.591	5624.68
460.964	5667.85
461.337	5793.27
461.71	5868.97
462.083	5951.68
462.456	5941.74
462.829	5966.14
463.201	6104.22
463.574	6111.22
463.947	6240.03
464.32	6344.89
464.692	6386.7
465.065	6437.32
465.438	6523.87
465.81	6632.57
466.183	6707.37
466.555	6847.7
466.928	6925.67
467.3	6928.15
467.672	6998.43
468.045	7257.41
468.417	7153.23
468.789	7226.22
469.161	7384.86
469.534	7527.23
469.906	7694.01
470.278	7712.76
470.65	7866.66
471.022	7941.46
471.394	8087.67
471.766	8113.66
472.138	8274.56
472.51	8426.64
472.882	8548.22
473.253	8677.03
473.625	8796.12
473.997	8923.58
474.369	8989.34
474.74	9096
475.112	9255.55
475.484	9383
475.855	9631.58
476.227	9740.73
476.598	9917
476.97	10067.96
477.341	10194.05
477.713	10376.42
478.084	10439.02
478.455	10811.21
478.827	10947.93
479.198	11204.42
479.569	11171.88
479.94	11497.3
480.311	11614.58
480.682	11865.42
481.053	12112.87
481.424	12319.87
481.795	12422.92
482.166	12624.05
482.537	12732.74
482.908	12969.8
483.279	13170.47
483.65	13392.16
484.021	13679.61
484.391	13757.58
484.762	13981.3
485.133	14031.92
485.503	14269.43
485.874	14586.48
486.244	14677.1
486.615	14945.34
486.985	15100.37
487.356	15311.43
487.726	15458.1
488.097	15764.3
488.467	15901.25
488.837	16197.29
489.207	16420.33
489.578	16700.32
489.948	16756.37
490.318	16969.02
490.688	17079.07
491.058	17348.22
491.428	17604.93
491.798	17712.95
492.168	18053.51
492.538	18080.4
492.908	18314.29
493.278	18543.44
493.648	18571.46
494.017	18865.46
494.387	19032.47
494.757	19129.19
495.126	19391.55
495.496	19478.1
495.866	19561.27
496.235	19823.18
496.605	19856.17
496.974	20085.09
497.344	20184.07
497.713	20323.51
498.082	20525.08
498.452	20817.96
498.821	20751.97
499.19	20919.42
499.559	21091.39
499.928	21206.42
500.298	21321.22
500.667	21551.04
501.036	21498.84
501.405	21763.92
501.774	21691.38
502.143	22082.78
502.512	22106.96
502.88	22307.63
503.249	22324.36
503.618	22512.83
503.987	22595.08
504.356	22788.98
504.724	22932.93
505.093	22986.03
505.462	23092.92
505.83	23354.39
506.199	23529.97
506.567	23815.16
506.936	23834.37
507.304	24111.65
507.672	24151.65
508.041	24262.16
508.409	24430.97
508.777	24684.07
509.145	24764.07
509.514	24834.8
509.882	24965.42
510.25	25041.57
510.618	25238.18
510.986	25353.66
511.354	25596.81
511.722	25800.42
512.09	26034.09
512.458	26038.16
512.826	26288.32
513.193	26372.16
513.561	26584.36
513.929	26796.78
514.297	27041.75
514.664	27147.28
515.032	27283.77
515.4	27568.96
515.767	27526.71
516.135	27746.36
516.502	27661.39
516.869	28114.03
517.237	28291.43
517.604	28152.68
517.972	28530.97
518.339	28742.27
518.706	28850.96
519.073	29053.22
519.44	29147.45
519.808	29476.71
520.175	29421.8
520.542	29910.37
520.909	30028.33
521.276	29911.95
521.643	30404.82
522.009	30555.1
522.376	30820.63
522.743	30875.77
523.11	31170.45
523.477	31498.58
523.843	31612.93
524.21	32035.51
524.577	32205.45
524.943	32277.77
525.31	32536.52
525.676	32683.41
526.043	32912.33
526.409	33084.53
526.776	33447.68
527.142	33496.72
527.508	33753.89
527.874	33894.45
528.241	34168.34
528.607	34246.75
528.973	34584.15
529.339	34655.11
529.705	34916.12
530.071	35151.36
530.437	35336.67
530.803	35567.85
531.169	35758.81
531.535	35785.7
531.901	35975.97
532.267	36020.27
532.632	36351.56
532.998	36373.7
533.364	36676.75
533.73	36854.82
534.095	37071.54
534.461	37147.24
534.826	37349.5
535.192	37382.49
535.557	37865.19
535.923	37760.11
536.288	37956.04
536.653	38091.4
537.019	37964.17
537.384	38281.9
537.749	38427.44
538.114	38597.37
538.479	38616.36
538.845	38960.3
539.21	38876.24
539.575	39075.78
539.94	39288.88
540.305	39528.65
540.67	39400.97
541.034	39576.78
541.399	39639.38
541.764	39726.16
542.129	40029.2
542.494	40271
542.858	40376.54
543.223	40329.31
543.587	40565.91
543.952	40654.5
544.316	40727.49
544.681	40885.9
545.045	41157.08
545.41	41273.01
545.774	41303.07
546.138	41278.43
546.503	41451.09
546.867	41579.9
547.231	41892.66
547.595	42094.01
547.959	42146.21
548.324	42264.85
548.688	42285.19
549.052	42514.56
549.416	42540.32
549.779	42537.84
550.143	42729.7
550.507	42993.42
550.871	43058.73
551.235	43129.69
551.599	43450.35
551.962	43455.1
552.326	43575.78
552.689	43827.52
553.053	43793.62
553.417	43899.83
553.78	44402.42
554.143	44267.06
554.507	44375.75
554.87	44614.62
555.234	44960.6
555.597	44667.95
555.96	44897.77
556.323	45117.66
556.686	45214.15
557.05	45456.4
557.413	45510.87
557.776	45579.34
558.139	45906.56
558.502	46020.68
558.865	46013.45
559.228	46306.1
559.59	46404.63
559.953	46503.16
560.316	46920.77
560.679	46976.59
561.041	47116.47
561.404	47308.11
561.767	47636.69
562.129	47480.53
562.492	47839.17
562.854	47865.15
563.217	47837.58
563.579	48145.82
563.941	48297.68
564.304	48476.66
564.666	48698.13
565.028	48834.85
565.39	48878.69
565.753	49113.26
566.115	49193.71
566.477	49370.43
566.839	49459.69
567.201	49703.07
567.563	49705.56
567.925	49923.86
568.287	50077.3
568.648	50075.27
569.01	50300.12
569.372	50471.41
569.734	50453.11
570.095	50665.98
570.457	50814
570.819	50982.81
571.18	51054.45
571.542	51223.26
571.903	51218.51
572.265	51332.86
572.626	51408.79
572.987	51440.2
573.349	51701.44
573.71	51705.96
574.071	51915.44
574.432	52000.86
574.794	52191.82
575.155	52136.91
575.516	52177.81
575.877	52204.25
576.238	52390.01
576.599	52424.36
576.96	52509.55
577.32	52506.16
577.681	52771.92
578.042	52756.78
578.403	52795.42
578.763	52747.96
579.124	52917.68
579.485	52958.81
579.845	53062.76
580.206	53079.25
580.566	53095.75
580.927	53180.27
581.287	53270.66
581.648	53201.96
582.008	53332.13
582.368	53265.69
582.728	53447.61
583.089	53445.35
583.449	53366.93
583.809	53455.97
584.169	53512.69
584.529	53459.13
584.889	53709.07
585.249	53619.8
585.609	53520.37
585.969	53629.75
586.329	53579.58
586.688	53646.02
587.048	53676.3
587.408	53630.43
587.768	53666.13
588.127	53692.35
588.487	53652.8
588.846	53826.35
589.206	53748.84
589.565	53671.78
589.925	53905.9
590.284	53707.94
590.643	53812.57
591.003	53804.43
591.362	54019.79
591.721	54013.69
592.08	54012.56
592.44	54084.88
592.799	54084.43
593.158	54021.15
593.517	54055.27
593.876	54083.3
594.235	54004.88
594.593	54083.52
594.952	54203.74
595.311	54072
595.67	54145.21
596.029	54245.1
596.387	54306.11
596.746	54404.64
597.104	54239
597.463	54224.08
597.822	54411.2
598.18	54217.08
598.538	54273.57
598.897	54433.57
599.255	54176.17
599.613	54621.36
599.972	54396.96
600.33	54418.88
600.688	54385.21
601.046	54543.17
601.404	54693.9
601.762	54599.44
602.12	54708.59
602.478	54716.95
602.836	54638.31
603.194	54548.82
603.552	54685.77
603.91	54633.34
604.268	54805.31
604.625	54644.41
604.983	54832.2
605.341	54676.73
605.698	54858.87
606.056	54862.03
606.413	54777.51
606.771	54939.32
607.128	54952.43
607.485	54871.98
607.843	54879.88
608.2	55056.15
608.557	55072.65
608.914	54947.91
609.272	55075.36
609.629	55137.96
609.986	55133.89
610.343	55141.57
610.7	55328.69
611.057	55237.16
611.414	55233.77
611.771	55160.1
612.127	55387.67
612.484	55307.67
612.841	55491.85
613.198	55323.04
613.554	55318.07
613.911	55401.9
614.267	55500.43
614.624	55488.23
614.98	55415.46
615.337	55649.58
615.693	55566.65
616.05	55506.08
616.406	55692.07
616.762	55591.5
617.118	55560.32
617.475	55601
617.831	55686.42
618.187	55641.67
618.543	55699.3
618.899	55839.63
619.255	55828.56
619.611	55745.85
619.967	55847.99
620.323	55894.32
620.678	55824.49
621.034	55725.06
621.39	55781.56
621.746	55723.25
622.101	55989.69
622.457	55793.53
622.812	55838.96
623.168	55962.34
623.523	55953.08
623.879	55986.97
624.234	55835.79
624.589	55802.8
624.945	55932.06
625.3	55916.92
625.655	55867.88
626.01	55883.7
626.365	55892.06
626.72	55929.8
627.075	55902.91
627.43	55891.84
627.785	55856.36
628.14	55952.17
628.495	55918.95
628.85	55943.81
629.205	55878.5
629.559	56037.82
629.914	55839.18
630.269	55950.82
630.623	55828.56
630.978	55713.08
631.332	55912.17
631.687	55932.29
632.041	55867.88
632.396	55930.48
632.75	55788.11
633.104	55831.5
633.459	55709.24
633.813	55718.73
634.167	55769.35
634.521	55773.87
634.875	55765.96
635.229	55748.34
635.583	55582.47
635.937	55647.32
636.291	55603.03
636.645	55597.83
636.999	55523.03
637.352	55676.7
637.706	55529.59
638.06	55537.49
638.413	55488.68
638.767	55485.52
639.121	55533.2
639.474	55375.46
639.828	55424.73
640.181	55449.14
640.534	55459.76
640.888	55357.39
641.241	55296.37
641.594	55290.95
641.947	55374.56
642.301	55341.79
642.654	55369.59
643.007	55305.41
643.36	55335.69
643.713	55269.25
644.066	55351.96
644.419	55194.9
644.771	55029.94
645.124	54737.52
645.477	54777.74
645.83	54595.6
646.182	54506.56
646.535	54403.74
646.888	54520.35
647.24	54306.57
647.593	54495.94
647.945	54477.18
648.298	54296.62
648.65	54203.74
649.002	54212.78
649.355	54268.6
649.707	54301.37
650.059	54293.91
650.411	54728.02
650.763	54732.09
651.115	55027.45
651.467	55014.12
651.819	54923.27
652.171	54871.98
652.523	54894.57
652.875	54823.61
653.227	54689.16
653.578	54933.67
653.93	54814.8
654.282	54715.14
654.633	54583.17
654.985	54707.91
655.337	54664.75
655.688	54683.05
656.039	54821.58
656.391	54526.22
656.742	54570.74
657.094	54544.07
657.445	54712.66
657.796	54663.17
658.147	54627.46
658.498	54572.1
658.849	54628.14
659.2	54596.05
659.551	54544.53
659.902	54645.77
660.253	54509.95
660.604	54485.54
660.955	54440.35
661.306	54578.2
661.656	54446.22
662.007	54539.78
662.358	54406.45
662.708	54462.95
663.059	54497.75
663.409	54262.5
663.76	54438.09
664.11	54490.52
664.461	54533.91
664.811	54433.79
665.161	54368.03
665.511	54374.81
665.862	54293.46
666.212	54409.84
666.562	54452.1
666.912	54354.02
667.262	54353.34
667.612	54307.7
667.962	54337.75
668.312	54231.09
668.662	54409.16
669.011	54290.07
669.361	54310.41
669.711	54344.31
670.06	54169.39
670.41	54165.33
670.76	54155.84
671.109	54176.4
671.459	54180.24
671.808	54138.66
672.157	54095.05
672.507	53896.63
672.856	53938.89
673.205	54041.49
673.554	54090.07
673.904	53905.22
674.253	54116.97
674.602	53970.53
674.951	53535.29
675.3	53362.86
675.649	53863.87
675.998	53808.05
676.346	53813.02
676.695	53959.46
677.044	53637.21
677.393	53781.38
677.741	53759.01
678.09	53688.5
678.438	53649.63
678.787	53668.39
679.135	53604.89
679.484	53335.07
679.832	53475.18
680.181	53349.76
680.529	53439.47
680.877	53285.12
681.225	53239.7
681.573	53467.72
681.922	53307.5
682.27	53098.46
682.618	53088.07
682.966	53059.59
683.314	53074.73
683.661	52891.46
684.009	52776.44
684.357	52802.88
684.705	52749.77
685.053	52780.05
685.4	52665.93
685.748	52501.42
686.095	52525.37
686.443	52470.23
686.79	52423.9
687.138	52295.09
687.485	52295.32
687.832	52160.63
688.18	52230.91
688.527	51976.68
688.874	52039.96
689.221	51870.02
689.568	51766.52
689.915	51816.69
690.262	51692.62
690.609	51598.84
690.956	51481.33
691.303	51499.63
691.65	51400.88
691.997	51235.46
692.344	51040.66
692.69	51021.91
693.037	51049.48
693.383	50778.07
693.73	50905.53
694.077	50771.52
694.423	50734.68
694.769	50597.29
695.116	50470.51
695.462	50300.8
695.808	50306.9
696.155	50358.87
696.501	50071.42
696.847	50068.03
697.193	49789.4
697.539	49923.18
697.885	49750.3
698.231	49576.07
698.577	49640.25
698.923	49581.04
699.269	49326.58
699.614	49192.35
699.96	49079.13
700.306	49191.22
700.651	48932.7
700.997	48885.92
701.342	48802.53
701.688	48673.04
702.033	48594.4
702.379	48659.94
702.724	48515.76
703.069	48543.78
703.415	48061.76
703.76	48139.27
704.105	48181.98
704.45	47998.03
704.795	47823.35
705.14	47647.53
705.485	47688.21
705.83	47478.05
706.175	47563.01
706.52	47475.11
706.865	47313.08
707.209	47275.56
707.554	47131.16
707.899	47262.68
708.243	47007.32
708.588	46947.66
708.932	46803.26
709.277	46738.86
709.621	46706.09
709.966	46393.55
710.31	46523.49
710.654	46071.98
710.998	46354.69
711.342	46350.84
711.687	46236.72
712.031	45852.78
712.375	45842.38
712.719	46050.51
713.063	45791.54
713.407	45940.01
713.75	45774.14
714.094	45558.77
714.438	45483.52
714.782	45508.83
715.125	45394.94
715.469	45362.62
715.812	45265.9
716.156	44989.98
716.499	44983.42
716.843	44975.06
717.186	44821.17
717.53	44847.38
717.873	44999.24
718.216	44817.78
718.559	44718.34
718.902	44371.69
719.246	44448.29
719.589	44331.24
719.932	44088.3
720.275	44287.62
720.617	44163.56
720.96	44011.02
721.303	43944.35
721.646	44011.92
721.989	43744.36
722.331	43935.54
722.674	43596.34
723.016	43811.93
723.359	43777.58
723.701	43723.57
724.044	43412.62
724.386	43236.12
724.729	43340.53
725.071	43223.69
725.413	43232.51
725.755	43245.61
726.097	42957.71
726.439	42810.82
726.782	42943.25
727.124	43184.15
727.465	42759.53
727.807	42840.2
728.149	42732.86
728.491	42632.98
728.833	42762.01
729.175	42407.67
729.516	42449.03
729.858	42433.43
730.199	42417.16
730.541	42293.77
730.882	42291.52
731.224	42453.77
731.565	42036.61
731.906	42143.5
732.248	41957.06
732.589	41740.8
732.93	41855.14
733.271	41853.79
733.612	41824.63
733.953	41882.71
734.294	41731.3
734.635	41488.6
734.976	41605.88
735.317	41406.79
735.658	41413.8
735.999	41476.4
736.339	41336.74
736.68	41414.25
737.021	41292.9
737.361	41067.82
737.702	41221.94
738.042	41136.29
738.383	41195.72
738.723	41140.13
739.063	40807.49
739.404	40909.86
739.744	40819.69
740.084	40777.88
740.424	40708.96
740.764	40675.29
741.104	40775.62
741.444	40498.34
741.784	40388.51
742.124	40500.38
742.464	40386.48
742.804	40375.41
743.143	40260.38
743.483	40344.45
743.823	40110.1
744.162	40059.94
744.502	40114.62
744.841	40015.64
745.181	40126.6
745.52	39942.2
745.86	39950.56
746.199	39915.76
746.538	39765.48
746.877	39867.17
747.216	39749.44
747.556	39721.64
747.895	39814.29
748.234	39441.87
748.573	39399.61
748.911	39447.97
749.25	39379.5
749.589	39190.35
749.928	39227.19
750.267	39335.43
750.605	39123.46
750.944	38973.41
751.283	38777.26
751.621	38951.49
751.96	38738.16
752.298	38691.38
752.636	38782.91
752.975	38400.54
