Data from white_wall_FLMS001491_041.txt Node
Date: Tue Feb 07 11:04:34 GMT 2017
User: dcchb
Spectrometer: FLMS00149
Trigger mode: 0
Integration Time (sec): 2.000000E-2
Scans to average: 10
Electric dark correction enabled: true
Nonlinearity correction enabled: false
Boxcar width: 0
XAxis mode: Wavelengths
Number of Pixels in Spectrum: 2048
>>>>>Begin Spectral Data<<<<<
341.393	-29.65
341.776	-29.65
342.16	-29.65
342.543	-52.7
342.927	-70.1
343.31	-79.59
343.693	-55.18
344.077	-77.33
344.46	-55.18
344.843	-71.45
345.226	-33.71
345.61	-37.33
345.993	-12.7
346.376	2.9
346.759	17.13
347.142	29.79
347.525	45.38
347.908	53.74
348.291	83.12
348.674	93.74
349.057	96.68
349.44	109.56
349.823	124.7
350.206	166.28
350.588	206.28
350.971	229.56
351.354	229.33
351.737	248.31
352.119	257.8
352.502	263.91
352.884	283.79
353.267	303.23
353.65	297.12
354.032	320.63
354.414	301.87
354.797	336.22
355.179	317.46
355.562	342.1
355.944	351.13
356.326	344.36
356.709	357.91
357.091	366.05
357.473	346.16
357.855	331.02
358.238	359.5
358.62	340.74
359.002	359.27
359.384	337.58
359.766	330.57
360.148	340.29
360.53	348.2
360.912	341.42
361.294	342.32
361.676	347.75
362.057	344.58
362.439	332.83
362.821	336.22
363.203	306.16
363.584	312.27
363.966	347.07
364.348	333.96
364.729	331.02
365.111	343
365.493	323.56
365.874	312.27
366.256	344.58
366.637	343.68
367.019	346.62
367.4	331.93
367.781	297.12
368.163	328.31
368.544	331.25
368.925	326.5
369.306	339.38
369.688	320.18
370.069	303.23
370.45	327.18
370.831	328.08
371.212	333.73
371.593	313.62
371.974	352.26
372.355	328.54
372.736	339.61
373.117	334.19
373.498	311.36
373.879	319.05
374.26	307.07
374.641	332.83
375.021	328.76
375.402	360.17
375.783	349.33
376.163	345.71
376.544	322.44
376.925	333.28
377.305	367.86
377.686	346.84
378.066	324.69
378.447	331.47
378.827	355.65
379.208	352.72
379.588	359.5
379.968	349.78
380.349	346.39
380.729	347.75
381.109	359.04
381.489	361.98
381.87	344.81
382.25	355.88
382.63	378.7
383.01	378.48
383.39	372.15
383.77	359.95
384.15	361.76
384.53	384.35
384.91	392.94
385.29	386.61
385.67	376.9
386.049	383.68
386.429	394.52
386.809	409.21
387.189	394.75
387.568	389.55
387.948	430.23
388.328	402.21
388.707	414.41
389.087	419.83
389.466	411.47
389.846	405.14
390.225	405.6
390.605	445.6
390.984	414.41
391.363	419.16
391.743	432.94
392.122	437.69
392.501	445.14
392.881	431.58
393.26	444.24
393.639	455.54
394.018	477.91
394.397	474.3
394.776	488.31
395.155	485.14
395.534	491.92
395.913	498.48
396.292	491.92
396.671	513.16
397.05	508.87
397.429	519.72
397.808	538.93
398.186	533.5
398.565	567.85
398.944	563.78
399.323	566.04
399.701	572.6
400.08	566.72
400.458	601.75
400.837	580.51
401.215	614.63
401.594	593.16
401.972	626.38
402.351	630.68
402.729	657.34
403.107	667.28
403.486	674.74
403.864	681.07
404.242	684.91
404.62	701.41
404.999	739.83
405.377	714.97
405.755	741.86
406.133	746.6
406.511	763.55
406.889	783.89
407.267	799.48
407.645	799.03
408.023	828.18
408.401	845.36
408.779	845.13
409.156	881.06
409.534	879.48
409.912	897.11
410.29	897.34
410.667	927.16
411.045	922.87
411.422	952.02
411.8	948.86
412.178	966.49
412.555	1000.16
412.933	983.43
413.31	1026.37
413.687	1035.18
414.065	1053.26
414.442	1066.14
414.819	1062.3
415.197	1095.07
415.574	1102.3
415.951	1128.74
416.328	1135.3
416.705	1145.01
417.082	1145.69
417.46	1155.63
417.837	1196.54
418.214	1176.42
418.591	1189.08
418.967	1223.65
419.344	1244.22
419.721	1238.34
420.098	1252.35
420.475	1281.51
420.852	1282.41
421.228	1304.56
421.605	1323.99
421.982	1305.91
422.358	1344.33
422.735	1352.24
423.111	1350.43
423.488	1415.29
423.864	1374.38
424.241	1397.89
424.617	1421.84
424.994	1441.05
425.37	1451.44
425.746	1459.81
426.123	1471.11
426.499	1480.14
426.875	1485.12
427.251	1556.07
427.627	1547.94
428.003	1565.57
428.379	1611.44
428.756	1631.33
429.132	1662.96
429.507	1682.85
429.883	1709.29
430.259	1702.06
430.635	1706.58
431.011	1716.3
431.387	1766.46
431.763	1844.88
432.138	1837.65
432.514	1832.23
432.89	1858.67
433.265	1914.26
433.641	1938.66
434.016	1966.91
434.392	1976.18
434.767	2006.91
435.143	2025.22
435.518	2034.71
435.894	2045.55
436.269	2051.88
436.644	2104.54
437.02	2167.81
437.395	2147.02
437.77	2180.69
438.145	2197.19
438.52	2228.83
438.895	2241.03
439.271	2267.24
439.646	2300.69
440.021	2352.89
440.395	2355.83
440.77	2334.13
441.145	2368.03
441.52	2435.37
441.895	2407.35
442.27	2464.3
442.645	2445.09
443.019	2439.22
443.394	2500.23
443.769	2513.11
444.143	2496.84
444.518	2563.51
444.892	2554.24
445.267	2555.14
445.641	2594.47
446.016	2594.01
446.39	2648.48
446.764	2650.28
447.139	2650.06
447.513	2716.27
447.887	2714.46
448.262	2689.83
448.636	2765.53
449.01	2763.73
449.384	2831.3
449.758	2840.56
450.132	2889.37
450.506	2892.54
450.88	2919.88
451.254	2884.63
451.628	2961.46
452.002	2956.94
452.376	3008.01
452.75	3020.44
453.123	3079.2
453.497	3114.9
453.871	3136.37
454.244	3212.53
454.618	3248.01
454.992	3320.32
455.365	3292.53
455.739	3381.11
456.112	3391.51
456.486	3434.44
456.859	3465.63
457.232	3539.75
457.606	3556.93
457.979	3601.67
458.352	3676.7
458.725	3734.77
459.099	3723.93
459.472	3793.98
459.845	3850.93
460.218	3858.84
460.591	3904.94
460.964	3939.52
461.337	4081.43
461.71	4101.32
462.083	4142
462.456	4175.67
462.829	4177.25
463.201	4274.2
463.574	4299.51
463.947	4340.41
464.32	4462.44
464.692	4479.84
465.065	4504.25
465.438	4586.5
465.81	4657.01
466.183	4679.61
466.555	4808.42
466.928	4838.02
467.3	4834.41
467.672	4966.38
468.045	5039.83
468.417	5122.31
468.789	5102.42
469.161	5142.87
469.534	5262.87
469.906	5411.11
470.278	5395.97
470.65	5539.02
471.022	5584.9
471.394	5709.41
471.766	5708.73
472.138	5830.76
472.51	5966.13
472.882	6023.75
473.253	6127.03
473.625	6219.68
473.997	6315.27
474.369	6404.76
474.74	6405.66
475.112	6503.06
475.484	6709.16
475.855	6849.27
476.227	6894.92
476.598	7069.6
476.97	7140.56
477.341	7362.48
477.713	7389.14
478.084	7505.3
478.455	7729.92
478.827	7795.91
479.198	8030.71
479.569	7990.93
479.94	8202.91
480.311	8305.73
480.682	8532.16
481.053	8734.64
481.424	8888.99
481.795	8940.74
482.166	9079.49
482.537	9177.8
482.908	9387.06
483.279	9527.62
483.65	9662.3
484.021	9883.77
484.391	9976.64
484.762	10107.04
485.133	10157.66
485.503	10457.31
485.874	10584.99
486.244	10636.06
486.615	10876.51
486.985	11051.87
487.356	11269.04
487.726	11387
488.097	11547.45
488.467	11637.84
488.837	11853.88
489.207	12044.16
489.578	12205.06
489.948	12282.57
490.318	12472.4
490.688	12603.02
491.058	12820.64
491.428	12991.03
491.798	13136.79
492.168	13368.65
492.538	13355.31
492.908	13587.4
493.278	13721.18
493.648	13766.6
494.017	13946.48
494.387	14065.35
494.757	14280.49
495.126	14373.82
495.496	14501.05
495.866	14600.48
496.235	14795.27
496.605	14873.69
496.974	15005.21
497.344	15230.74
497.713	15235.72
498.082	15319.55
498.452	15588.47
498.821	15610.62
499.19	15711.86
499.559	15908.01
499.928	16026.2
500.298	16109.14
500.667	16243.6
501.036	16243.6
501.405	16501.67
501.774	16485.85
502.143	16718.84
502.512	16770.36
502.88	16998.38
503.249	17026.18
503.618	17145.27
503.987	17307.07
504.356	17327.19
504.724	17423.91
505.093	17613.28
505.462	17714.52
505.83	17893.72
506.199	18094.17
506.567	18293.49
506.936	18247.84
507.304	18612.8
507.672	18560.83
508.041	18576.87
508.409	18790.88
508.777	19033.36
509.145	19227.02
509.514	19220.47
509.882	19318.77
510.25	19505.66
510.618	19603.28
510.986	19708.82
511.354	19981.35
511.722	20115.36
512.09	20417.95
512.458	20289.14
512.826	20556.48
513.193	20616.59
513.561	20706.76
513.929	20841.22
514.297	21038.5
514.664	21242.79
515.032	21310.36
515.4	21592.84
515.767	21655.21
516.135	21821.76
516.502	21818.14
516.869	22070.56
517.237	22285.7
517.604	22203.89
517.972	22521.17
518.339	22695.63
518.706	22727.04
519.073	22933.59
519.44	23091.55
519.808	23225.56
520.175	23403.18
520.542	23563.63
520.909	23773.34
521.276	23675.04
521.643	24061.7
522.009	24316.15
522.376	24451.52
522.743	24564.28
523.11	24765.41
523.477	25004.72
523.843	25211.72
524.21	25502.34
524.577	25636.57
524.943	25703.24
525.31	25946.17
525.676	26124.24
526.043	26362.65
526.409	26506.38
526.776	26789.08
527.142	26775.07
527.508	26971.9
527.874	27183.88
528.241	27329.86
528.607	27357.66
528.973	27621.38
529.339	27642.85
529.705	27957.64
530.071	28236.5
530.437	28257.29
530.803	28501.81
531.169	28669.49
531.535	28677.17
531.901	28794
532.267	28940.89
532.632	29137.72
532.998	29227.44
533.364	29437.38
533.73	29628.56
534.095	29790.36
534.461	29834.43
534.826	30117.13
535.192	30095.66
535.557	30466.05
535.923	30406.16
536.288	30557.57
536.653	30769.54
537.019	30651.81
537.384	30996.88
537.749	31039.82
538.114	31160.27
538.479	31169.53
538.845	31407.49
539.21	31246.14
539.575	31609.07
539.94	31702.85
540.305	31901.27
540.67	31839.12
541.034	31884.32
541.399	32096.51
541.764	32215.16
542.129	32430.07
542.494	32357.75
542.858	32595.26
543.223	32690.85
543.587	32877.06
543.952	32859.88
544.316	32978.98
544.681	33103.95
545.045	33194.79
545.41	33442.24
545.774	33554.33
546.138	33558.4
546.503	33645.17
546.867	33693.31
547.231	34030.25
547.595	34178.72
547.959	34307.98
548.324	34318.83
548.688	34630.01
549.052	34652.38
549.416	34737.12
549.779	34817.12
550.143	34831.81
550.507	35216.21
550.871	35227.51
551.235	35290.33
551.599	35714.72
551.962	35720.83
552.326	35754.27
552.689	36086.24
553.053	36158.1
553.417	36083.53
553.78	36700.24
554.143	36502.27
554.507	36740.69
554.87	36846.22
555.234	37338.18
555.597	37063.16
555.96	37287.56
556.323	37601
556.686	37649.36
557.05	37939.75
557.413	37972.52
557.776	38082.57
558.139	38438.27
558.502	38410.25
558.865	38680.97
559.228	38961.87
559.59	39080.06
559.953	39224.91
560.316	39542.65
560.679	39600.27
561.041	39815.63
561.404	39785.8
561.767	40134.72
562.129	40121.61
562.492	40454.94
562.854	40577.42
563.217	40627.36
563.579	40708.72
563.941	41103.74
564.304	41158.42
564.666	41527.91
565.028	41409.94
565.39	41625.08
565.753	41949.36
566.115	42102.35
566.477	42317.71
566.839	42253.76
567.201	42451.95
567.563	42520.42
567.925	42937.81
568.287	42796.12
568.648	42907.76
569.01	43294.19
569.372	43468.65
569.734	43355.43
570.095	43750.22
570.457	43847.62
570.819	43864.79
571.18	43994.73
571.542	44252.58
571.903	44243.54
572.265	44394.27
572.626	44516.53
572.987	44639.91
573.349	44712.23
573.71	44994.25
574.071	44916.29
574.432	45161.03
574.794	45364.41
575.155	45242.84
575.516	45167.36
575.877	45559.21
576.238	45517.18
576.599	45699.55
576.96	45740.9
577.32	45712.2
577.681	45867
578.042	46038.97
578.403	46005.75
578.763	45930.5
579.124	46072.87
579.485	46238.74
579.845	46311.51
580.206	46318.29
580.566	46222.02
580.927	46271.74
581.287	46469.02
581.648	46443.48
582.008	46500.66
582.368	46534.33
582.728	46610.71
583.089	46445.97
583.449	46531.16
583.809	46671.72
584.169	46702.91
584.529	46606.87
584.889	46898.16
585.249	46638.96
585.609	46614.55
585.969	46892.06
586.329	46741.55
586.688	46735.23
587.048	46855.67
587.408	46684.15
587.768	46768.45
588.127	46745.4
588.487	46753.98
588.846	46906.75
589.206	46672.4
589.565	46720.09
589.925	47041.66
590.284	46809.8
590.643	46882.79
591.003	46955.11
591.362	47070.36
591.721	46912.62
592.08	46920.08
592.44	46941.77
592.799	47104.71
593.158	46928.22
593.517	47010.25
593.876	46967.54
594.235	46995.33
594.593	46887.76
594.952	47001.89
595.311	47016.57
595.67	47072.39
596.029	47379.5
596.387	47311.48
596.746	47388.99
597.104	47178.6
597.463	47226.29
597.822	47356.68
598.18	47106.06
598.538	47213.63
598.897	47358.03
599.255	47097.7
599.613	47604.58
599.972	47363.46
600.33	47518.48
600.688	47304.48
601.046	47453.63
601.404	47594.86
601.762	47541.08
602.12	47729.55
602.478	47657.46
602.836	47806.61
603.194	47552.15
603.552	47751.24
603.91	47579.95
604.268	47862.88
604.625	47648.2
604.983	47777.91
605.341	47720.96
605.698	47853.39
606.056	47870.56
606.413	47882.99
606.771	48128.86
607.128	48200.5
607.485	48082.76
607.843	47928.19
608.2	48368.4
608.557	48359.36
608.914	48134.96
609.272	48352.13
609.629	48371.34
609.986	48641.62
610.343	48412.92
610.7	48482.98
611.057	48475.29
611.414	48506.48
611.771	48516.42
612.127	48751.44
612.484	48762.97
612.841	48761.61
613.198	48754.83
613.554	48661.28
613.911	48904.89
614.267	48984.21
614.624	48854.94
614.98	48879.12
615.337	49150.76
615.693	49044.54
616.05	49078.67
616.406	49259.23
616.762	49072.34
617.118	49121.83
617.475	49231.43
617.831	49294.48
618.187	49287.48
618.543	49242.5
618.899	49499.67
619.255	49442.73
619.611	49497.87
619.967	49546.23
620.323	49586.22
620.678	49454.25
621.034	49268.04
621.39	49324.31
621.746	49336.06
622.101	49731.31
622.457	49385.55
622.812	49594.13
623.168	49633.23
623.523	49512.55
623.879	49754.36
624.234	49380.35
624.589	49592.55
624.945	49589.39
625.3	49585.77
625.655	49590.29
626.01	49607.01
626.365	49740.34
626.72	49645.21
627.075	49579.9
627.43	49648.37
627.785	49658.31
628.14	49647.24
628.495	49611.99
628.85	49563.17
629.205	49447.02
629.559	49655.38
629.914	49515.04
630.269	49520.69
630.623	49383.52
630.978	49291.77
631.332	49489.73
631.687	49546
632.041	49359.34
632.396	49392.11
632.75	49181.49
633.104	49282.96
633.459	49072.57
633.813	49303.52
634.167	49082.51
634.521	49180.81
634.875	49176.07
635.229	49146.01
635.583	48904.43
635.937	48868.28
636.291	48799.35
636.645	48868.96
636.999	48880.03
637.352	48945.56
637.706	48695.4
638.06	48776.53
638.413	48730.2
638.767	48517.55
639.121	48652.46
639.474	48502.86
639.828	48491.56
640.181	48566.82
640.534	48481.62
640.888	48355.75
641.241	48229.65
641.594	48266.26
641.947	48495.63
642.301	48162.99
642.654	48251.8
643.007	48228.97
643.36	48225.81
643.713	48171.35
644.066	48320.95
644.419	48050.45
644.771	47860.85
645.124	47417.24
645.477	47231.26
645.83	47057.7
646.182	46861.78
646.535	46766.86
646.888	46915.56
647.24	46711.95
647.593	46866.75
647.945	46788.11
648.298	46485.52
648.65	46550.37
649.002	46390.6
649.355	46497.94
649.707	46331.17
650.059	46580.65
650.411	47027.42
650.763	46974.09
651.115	47483
651.467	47329.79
651.819	47257.7
652.171	47078.04
652.523	47178.83
652.875	47201.65
653.227	47062.45
653.578	47314.42
653.93	47150.81
654.282	46884.37
654.633	46736.13
654.985	46913.75
655.337	46797.37
655.688	46725.06
656.039	46969.57
656.391	46608.9
656.742	46798.5
657.094	46775.45
657.445	46838.5
657.796	46652.52
658.147	46676.47
658.498	46731.61
658.849	46574.78
659.2	46656.36
659.551	46466.76
659.902	46702.01
660.253	46481.9
660.604	46515.34
660.955	46400.77
661.306	46476.93
661.656	46314.45
662.007	46473.76
662.358	46318.97
662.708	46283.26
663.059	46371.85
663.409	45994.45
663.76	46276.93
664.11	46319.19
664.461	46373.2
664.811	46389.02
665.161	46253.2
665.511	46156.48
665.862	46252.75
666.212	46299.98
666.562	46277.61
666.912	46133.66
667.262	46107.67
667.612	46158.97
667.962	46118.97
668.312	46101.12
668.662	46194.68
669.011	46066.09
669.361	45903.16
669.711	45875.59
670.06	45976.38
670.41	45778.64
670.76	45789.71
671.109	45966.66
671.459	45681.02
671.808	45849.83
672.157	45777.29
672.507	45690.06
672.856	45699.1
673.205	45536.16
673.554	45822.71
673.904	45413.23
674.253	45654.35
674.602	45617.97
674.951	44959
675.3	44775.96
675.649	45335.04
675.998	45391.98
676.346	45422.04
676.695	45475.37
677.044	45107.02
677.393	45264.76
677.741	45415.03
678.09	45170.07
678.438	45016.18
678.787	45164.65
679.135	45145.89
679.484	44905.9
679.832	44951.09
680.181	44723.75
680.529	44952.67
680.877	44833.81
681.225	44676.97
681.573	44882.17
681.922	44517.43
682.27	44498.22
682.618	44467.49
682.966	44387.27
683.314	44398.79
683.661	44280.83
684.009	44061.85
684.357	44055.07
684.705	43868.41
685.053	44045.35
685.4	43862.53
685.748	43662.76
686.095	43748.41
686.443	43574.41
686.79	43403.34
687.138	43468.19
687.485	43452.15
687.832	43313.62
688.18	43425.03
688.527	43053.97
688.874	43143.91
689.221	42953.86
689.568	42896.91
689.915	42728.55
690.262	42749.34
690.609	42687.65
690.956	42464.83
691.303	42458.05
691.65	42267.32
691.997	42338.96
692.344	42128.34
692.69	42146.87
693.037	42074.78
693.383	41858.74
693.73	41760.22
694.077	41725.19
694.423	41569.49
694.769	41359.77
695.116	41337.4
695.462	41343.73
695.808	41198.2
696.155	41195.71
696.501	40924.76
696.847	40961.37
697.193	40660.36
697.539	40851.31
697.885	40430.31
698.231	40399.35
698.577	40378.78
698.923	40308.73
699.269	40169.75
699.614	40061.05
699.96	40101.28
700.306	39911.9
700.651	39842.3
700.997	39616.77
701.342	39525.47
701.688	39404.8
702.033	39226.04
702.379	39370.67
702.724	39107.18
703.069	39295.87
703.415	38791.48
703.76	38906.28
704.105	38963.9
704.45	38672.84
704.795	38601.2
705.14	38598.49
705.485	38581.09
705.83	38254.54
706.175	38305.17
706.52	38298.61
706.865	38079.41
707.209	38141.33
707.554	37983.59
707.899	38073.76
708.243	37786.08
708.588	37647.78
708.932	37479.65
709.277	37435.81
709.621	37473.55
709.966	37228.58
710.31	37275.14
710.654	37013.45
710.998	37171.64
711.342	37111.07
711.687	37074.91
712.031	36934.35
712.375	36645.32
712.719	36864.3
713.063	36805.77
713.407	36766.45
713.75	36566.68
714.094	36539.11
714.438	36419.11
714.782	36406.01
715.125	36178.89
715.469	36126.24
715.812	36030.2
716.156	35869.3
716.499	35958.11
716.843	35991.33
717.186	35668.4
717.53	35789.98
717.873	35883.08
718.216	35716.98
718.559	35622.07
718.902	35473.83
719.246	35538.91
719.589	35253.27
719.932	35179.82
720.275	35284.45
720.617	35229.99
720.96	35161.52
721.303	35076.78
721.646	35159.71
721.989	34806.95
722.331	34988.19
722.674	34794.97
723.016	34902.09
723.359	34882.43
723.701	34827.97
724.044	34444.25
724.386	34434.31
724.729	34660.52
725.071	34397.25
725.413	34284.93
725.755	34306.17
726.097	34139.85
726.439	33997.48
726.782	33988.22
727.124	34216.46
727.465	34022.79
727.807	33975.56
728.149	34051.27
728.491	33860.99
728.833	33803.59
729.175	33588
729.516	33691.95
729.858	33677.26
730.199	33548.45
730.541	33406.31
730.882	33507.78
731.224	33582.35
731.565	33126.32
731.906	33383.26
732.248	33241.8
732.589	33149.37
732.93	33037.51
733.271	33143.49
733.612	33134.68
733.953	33180.55
734.294	32930.84
734.635	32862.14
734.976	32949.6
735.317	32682.49
735.658	32656.05
735.999	32847.91
736.339	32647.46
736.68	32634.13
737.021	32626.44
737.361	32445.43
737.702	32655.14
738.042	32529.72
738.383	32464.64
738.723	32454.25
739.063	32349.16
739.404	32406.56
739.744	32315.27
740.084	32201.6
740.424	32179
740.764	32080.24
741.104	32263.74
741.444	31969.96
741.784	31793.7
742.124	31954.37
742.464	31984.2
742.804	31798.22
743.143	31827.37
743.483	31741.5
743.823	31495.4
744.162	31536.08
744.502	31548.51
744.841	31488.85
745.181	31345.35
745.52	31270.55
745.86	31379.7
746.199	31300.15
746.538	31337.66
746.877	31343.54
747.216	31245.46
747.556	31121.17
747.895	31106.71
748.234	30937.9
748.573	30957.11
748.911	30810.22
749.25	30883.67
749.589	30797.57
749.928	30831.01
750.267	30748.08
750.605	30747.17
750.944	30612.49
751.283	30472.83
751.621	30603.22
751.96	30356.22
752.298	30392.15
752.636	30294.75
752.975	30299.73
753.313	30074.42
