Data from white_steel_sheet_FLMS001491_025.txt Node
Date: Tue Feb 07 10:57:37 GMT 2017
User: dcchb
Spectrometer: FLMS00149
Trigger mode: 0
Integration Time (sec): 2.000000E-2
Scans to average: 10
Electric dark correction enabled: true
Nonlinearity correction enabled: false
Boxcar width: 0
XAxis mode: Wavelengths
Number of Pixels in Spectrum: 2048
>>>>>Begin Spectral Data<<<<<
341.393	-10.72
341.776	-10.72
342.16	-10.72
342.543	-73.54
342.927	-56.82
343.31	-78.51
343.693	-65.86
344.077	-66.31
344.46	-51.62
344.843	-43.94
345.226	-34.22
345.61	-29.02
345.993	-26.09
346.376	-11.17
346.759	11.2
347.142	32.22
347.525	60.46
347.908	57.98
348.291	67.92
348.674	73.57
349.057	103.4
349.44	126.23
349.823	153.34
350.206	167.81
350.588	200.35
350.971	222.04
351.354	236.05
351.737	273.57
352.119	271.31
352.502	260.01
352.884	298.2
353.267	276.96
353.65	309.72
354.032	316.05
354.414	312.66
354.797	354.02
355.179	340.46
355.562	335.03
355.944	335.71
356.326	346.11
356.709	340.46
357.091	356.28
357.473	350.63
357.855	329.61
358.238	341.59
358.62	345.65
359.002	355.82
359.384	368.03
359.766	365.77
360.148	349.04
360.53	370.29
360.912	350.4
361.294	344.3
361.676	352.43
362.057	334.13
362.439	330.29
362.821	343.17
363.203	347.24
363.584	342.27
363.966	339.78
364.348	345.2
364.729	332.1
365.111	325.99
365.493	341.14
365.874	342.72
366.256	324.19
366.637	331.19
367.019	316.5
367.4	330.06
367.781	333.45
368.163	323.51
368.544	338.2
368.925	321.47
369.306	339.55
369.688	327.12
370.069	343.85
370.45	335.03
370.831	328.25
371.212	326.22
371.593	340.01
371.974	340.68
372.355	332.55
372.736	328.48
373.117	323.96
373.498	343.39
373.879	359.44
374.26	325.77
374.641	346.78
375.021	357.63
375.402	350.85
375.783	355.82
376.163	357.18
376.544	321.25
376.925	349.04
377.305	346.11
377.686	348.37
378.066	351.98
378.447	369.16
378.827	365.77
379.208	365.99
379.588	352.66
379.968	370.29
380.349	353.34
380.729	368.48
381.109	369.61
381.489	367.58
381.87	369.38
382.25	365.99
382.63	368.48
383.01	382.26
383.39	364.41
383.77	363.73
384.15	370.74
384.53	402.38
384.91	374.58
385.29	396.95
385.67	391.76
386.049	415.48
386.429	380.91
386.809	396.5
387.189	402.15
387.568	419.1
387.948	388.59
388.328	406.44
388.707	420
389.087	396.5
389.466	409.38
389.846	419.78
390.225	432.66
390.605	444.86
390.984	430.4
391.363	419.78
391.743	453.67
392.122	425.65
392.501	455.48
392.881	473.79
393.26	464.75
393.639	460.68
394.018	470.4
394.397	466.78
394.776	475.82
395.155	500.23
395.534	479.89
395.913	492.54
396.292	510.17
396.671	512.88
397.05	509.49
397.429	518.31
397.808	520.11
398.186	525.99
398.565	525.76
398.944	528.25
399.323	550.4
399.701	562.6
400.08	542.26
400.458	549.94
400.837	584.52
401.215	587.46
401.594	576.61
401.972	582.94
402.351	598.76
402.729	609.15
403.107	636.27
403.486	624.29
403.864	644.63
404.242	646.89
404.62	651.86
404.999	638.75
405.377	663.39
405.755	659.54
406.133	664.52
406.511	681.92
406.889	695.93
407.267	715.59
407.645	727.79
408.023	720.79
408.401	762.14
408.779	740.9
409.156	778.64
409.534	762.14
409.912	771.63
410.29	814.79
410.667	800.11
411.045	810.5
411.422	819.54
411.8	827
412.178	863.61
412.555	872.19
412.933	862.93
413.31	875.13
413.687	883.04
414.065	916.71
414.442	899.09
414.819	943.38
415.197	945.41
415.574	967.33
415.951	1003.72
416.328	973.21
416.705	991.29
417.082	992.64
417.46	1017.05
417.837	1008.91
418.214	1008.91
418.591	1049.14
418.967	1034.22
419.344	1059.99
419.721	1073.77
420.098	1068.35
420.475	1103.6
420.852	1108.57
421.228	1123.04
421.605	1128.46
421.982	1133.2
422.358	1146.31
422.735	1181.56
423.111	1157.84
423.488	1174.11
423.864	1197.38
424.241	1210.26
424.617	1192.19
424.994	1228.12
425.37	1235.12
425.746	1246.65
426.123	1261.56
426.499	1281
426.875	1304.5
427.251	1296.36
427.627	1332.97
428.003	1343.59
428.379	1357.61
428.756	1382.01
429.132	1370.94
429.507	1398.51
429.883	1436.47
430.259	1445.29
430.635	1477.38
431.011	1448.9
431.387	1531.61
431.763	1543.36
432.138	1574.32
432.514	1566.19
432.89	1572.52
433.265	1592.85
433.641	1636.69
434.016	1639.18
434.392	1671.04
434.767	1693.87
435.143	1708.1
435.518	1719.4
435.894	1745.62
436.269	1769.8
436.644	1787.88
437.02	1800.53
437.395	1827.65
437.77	1874.2
438.145	1847.99
438.52	1868.78
438.895	1896.35
439.271	1919.4
439.646	1945.39
440.021	1969.79
440.395	1972.28
440.77	1972.73
441.145	1998.04
441.52	2045.27
441.895	2022.67
442.27	2053.18
442.645	2076.91
443.019	2087.98
443.394	2098.83
443.769	2068.77
444.143	2093.41
444.518	2157.13
444.892	2156.68
445.267	2180.18
445.641	2214.31
446.016	2216.11
446.39	2237.36
446.764	2247.3
447.139	2222.89
447.513	2278.94
447.887	2286.39
448.262	2286.85
448.636	2298.37
449.01	2324.81
449.384	2342.89
449.758	2376.79
450.132	2398.03
450.506	2437.13
450.88	2446.16
451.254	2438.26
451.628	2491.81
452.002	2534.75
452.376	2551.47
452.75	2532.04
453.123	2575.2
453.497	2600.28
453.871	2603.67
454.244	2699.49
454.618	2711.24
454.992	2761.18
455.365	2747.17
455.739	2852.48
456.112	2837.79
456.486	2840.05
456.859	2902.2
457.232	2932.93
457.606	2958.24
457.979	3003.66
458.352	3038.69
458.725	3016.77
459.099	3099.03
459.472	3178.35
459.845	3200.49
460.218	3219.48
460.591	3228.74
460.964	3286.37
461.337	3372.92
461.71	3355.07
462.083	3454.73
462.456	3426.48
462.829	3431.22
463.201	3507.15
463.574	3527.94
463.947	3581.73
464.32	3620.6
464.692	3674.38
465.065	3693.59
465.438	3755.28
465.81	3843.42
466.183	3833.02
466.555	3939.01
466.928	3954.6
467.3	3975.62
467.672	4033.02
468.045	4135.39
468.417	4145.33
468.789	4190.53
469.161	4221.94
469.534	4284.08
469.906	4375.38
470.278	4422.84
470.65	4454.47
471.022	4571.53
471.394	4618.31
471.766	4693.56
472.138	4657.18
472.51	4812.2
472.882	4889.94
473.253	4934.91
473.625	5028.7
473.997	5099.2
474.369	5124.74
474.74	5194.34
475.112	5279.54
475.484	5345.3
475.855	5420.1
476.227	5501.9
476.598	5707.32
476.97	5675.23
477.341	5802.69
477.713	5897.37
478.084	5960.65
478.455	6151.15
478.827	6170.81
479.198	6335.78
479.569	6349.56
479.94	6491.26
480.311	6525.83
480.682	6741.19
481.053	6911.36
481.424	7035.2
481.795	7035.42
482.166	7171.92
482.537	7195.87
482.908	7369.2
483.279	7542.08
483.65	7683.99
484.021	7796.31
484.391	7872.01
484.762	7963.76
485.133	8042.63
485.503	8104.55
485.874	8265.9
486.244	8471.54
486.615	8568.04
486.985	8659.79
487.356	8840.57
487.726	8903.85
488.097	9044.86
488.467	9117.4
488.837	9267.45
489.207	9386.32
489.578	9506.32
489.948	9589.48
490.318	9775.92
490.688	9815.24
491.058	10009.58
491.428	10128.22
491.798	10206.41
492.168	10322.57
492.538	10430.59
492.908	10650.69
493.278	10723.46
493.648	10793.29
494.017	10843.91
494.387	11019.5
494.757	11129.55
495.126	11223.56
495.496	11282.77
495.866	11373.84
496.235	11499.49
496.605	11602.76
496.974	11600.95
497.344	11745.13
497.713	11859.93
498.082	11916.88
498.452	12050.88
498.821	12147.83
499.19	12251.78
499.559	12339.92
499.928	12390.08
500.298	12486.8
500.667	12689.06
501.036	12612.68
501.405	12776.29
501.774	12770.64
502.143	12953.23
502.512	12948.49
502.88	13146.45
503.249	13117.97
503.618	13292.66
503.987	13384.41
504.356	13425.99
504.724	13565.42
505.093	13521.35
505.462	13631.63
505.83	13774.23
506.199	13875.92
506.567	14143.26
506.936	13981.23
507.304	14256.93
507.672	14348.45
508.041	14465.28
508.409	14535.79
508.777	14616.47
509.145	14736.69
509.514	14802.68
509.882	14879.51
510.25	15026.4
510.618	15120.18
510.986	15195.43
511.354	15362.66
511.722	15443.11
512.09	15589.1
512.458	15632.94
512.826	15796.55
513.193	15888.97
513.561	15905.7
513.929	16060.27
514.297	16242.19
514.664	16316.08
515.032	16482.41
515.4	16604.89
515.767	16724.21
516.135	16865.67
516.502	16655.96
516.869	17050.53
517.237	17088.72
517.604	17202.16
517.972	17393.57
518.339	17417.97
518.706	17541.13
519.073	17641.7
519.44	17731.19
519.808	18058.18
520.175	18043.95
520.542	18199.87
520.909	18405.97
521.276	18316.26
521.643	18651.16
522.009	18793.53
522.376	18883.47
522.743	19125.95
523.11	19316.23
523.477	19506.73
523.843	19521.87
524.21	19776.33
524.577	19828.76
524.943	19981.07
525.31	20104.68
525.676	20330.21
526.043	20334.06
526.409	20484.33
526.776	20850.2
527.142	20846.58
527.508	20986.24
527.874	21109.63
528.241	21286.35
528.607	21390.75
528.973	21547.81
529.339	21614.7
529.705	21801.36
530.071	21991.19
530.437	22082.71
530.803	22130.84
531.169	22385.75
531.535	22334.91
531.901	22453.32
532.267	22576.71
532.632	22764.05
532.998	22896.25
533.364	23048.33
533.73	23049.24
534.095	23264.15
534.461	23356.35
534.826	23501.2
535.192	23512.28
535.557	23752.5
535.923	23785.72
536.288	23870.69
536.653	23998.14
537.019	23908.88
537.384	24187.74
537.749	24191.36
538.114	24273.39
538.479	24354.06
538.845	24444.68
539.21	24446.04
539.575	24576.2
539.94	24756.31
540.305	24847.61
540.67	24893.26
541.034	25028.62
541.399	25196.53
541.764	25205.79
542.129	25253.7
542.494	25462.28
542.858	25480.14
543.223	25577.76
543.587	25700.02
543.952	25657.08
544.316	25832.67
544.681	25916.06
545.045	25892.55
545.41	26101.81
545.774	26161.02
546.138	26175.03
546.503	26262.04
546.867	26222.04
547.231	26567.11
547.595	26586.32
547.959	26716.03
548.324	26717.39
548.688	26846.65
549.052	26885.07
549.416	27026.31
549.779	27159.86
550.143	27247.32
550.507	27335
550.871	27350.37
551.235	27479.63
551.599	27695.67
551.962	27601.89
552.326	27715.56
552.689	27942.9
553.053	27786.52
553.417	27902.9
553.78	28331.13
554.143	28171.14
554.507	28364.35
554.87	28421.53
555.234	28770.67
555.597	28626.04
555.96	28800.73
556.323	28981.29
556.686	28981.96
557.05	29222.41
557.413	29276.87
557.776	29247.72
558.139	29396.64
558.502	29621.5
558.865	29647.94
559.228	29910.75
559.59	29899
559.953	30021.71
560.316	30273.68
560.679	30377.63
561.041	30636.84
561.404	30623.28
561.767	30843.16
562.129	30835.02
562.492	31053.77
562.854	31112.53
563.217	31087.45
563.579	31351.62
563.941	31493.54
564.304	31647.2
564.666	31857.59
565.028	31754.77
565.39	31993.86
565.753	32130.81
566.115	32226.4
566.477	32407.64
566.839	32512.49
567.201	32535.54
567.563	32654.18
567.925	32954.74
568.287	32974.63
568.648	33089.43
569.01	33173.94
569.372	33347.72
569.734	33372.81
570.095	33528.96
570.457	33631.56
570.819	33756.53
571.18	33805.11
571.542	33938.22
571.903	33963.98
572.265	34084.43
572.626	34306.8
572.987	34242.39
573.349	34401.48
573.71	34505.66
574.071	34453.23
574.432	34701.36
574.794	34966.67
575.155	34908.14
575.516	34719.89
575.877	34903.39
576.238	35087.79
576.599	35134.12
576.96	35163.04
577.32	35096.83
577.681	35241.23
578.042	35359.42
578.403	35307.67
578.763	35380.89
579.124	35511.06
579.485	35574.56
579.845	35552.64
580.206	35431.51
580.566	35698.85
580.927	35714.89
581.287	35802.8
581.648	35696.36
582.008	35862.91
582.368	35758.51
582.728	35847.77
583.089	35840.31
583.449	35843.7
583.809	35858.62
584.169	35944.72
584.529	35779.75
584.889	36076.24
585.249	35813.87
585.609	35737.49
585.969	35989.46
586.329	35868.79
586.688	35941.33
587.048	35821.78
587.408	35726.87
587.768	35746.53
588.127	35888.45
588.487	35762.35
588.846	36005.51
589.206	35695.23
589.565	35838.05
589.925	36122.79
590.284	35878.05
590.643	35950.82
591.003	36118.95
591.362	36171.15
591.721	36054.32
592.08	36072.85
592.44	35970.93
592.799	36097.48
593.158	35941.1
593.517	36123.25
593.876	36085.96
594.235	35882.8
594.593	35912.4
594.952	36043.47
595.311	35932.29
595.67	36049.8
596.029	36243.02
596.387	36085.73
596.746	36267.2
597.104	36004.38
597.463	36195.56
597.822	36173.87
598.18	36039.18
598.538	36069.91
598.897	36278.27
599.255	36042.34
599.613	36504.93
599.972	36222.45
600.33	36299.29
600.688	36267.87
601.046	36335.67
601.404	36435.78
601.762	36342.9
602.12	36451.15
602.478	36510.13
602.836	36465.16
603.194	36304.48
603.552	36265.84
603.91	36330.7
604.268	36363.24
604.625	36296.12
604.983	36389.23
605.341	36338.61
605.698	36491.6
606.056	36528.43
606.413	36597.58
606.771	36694.3
607.128	36716.45
607.485	36502.44
607.843	36606.4
608.2	36640.29
608.557	36771.36
608.914	36614.53
609.272	36815.88
609.629	36972.71
609.986	37024.92
610.343	36899.72
610.7	37084.58
611.057	37022.66
611.414	37043.9
611.771	37027.63
612.127	37256.1
612.484	37099.26
612.841	37272.14
613.198	37110.34
613.554	37150.56
613.911	37308.52
614.267	37266.94
614.624	37300.16
614.98	37398.47
615.337	37715.97
615.693	37470.55
616.05	37423.55
616.406	37702.64
616.762	37581.51
617.118	37532.47
617.475	37527.5
617.831	37711.68
618.187	37653.6
618.543	37683.43
618.899	37995.06
619.255	37979.24
619.611	37778.12
619.967	37933.82
620.323	38082.52
620.678	37893.82
621.034	37735.41
621.39	37852.47
621.746	37835.74
622.101	38165.23
622.457	37825.57
622.812	37982.41
623.168	38169.74
623.523	37984.67
623.879	38164.32
624.234	38008.39
624.589	38146.69
624.945	38005.46
625.3	38180.14
625.655	38132.01
626.01	38110.76
626.365	38172.68
626.72	38085.91
627.075	38015.62
627.43	38090.2
627.785	37863.31
628.14	38028.73
628.495	37988.28
628.85	37931.79
629.205	37731.56
629.559	37906.25
629.914	37893.37
630.269	37846.59
630.623	37713.26
630.978	37729.76
631.332	37818.79
631.687	37871.9
632.041	37751.45
632.396	37886.36
632.75	37650.89
633.104	37591.91
633.459	37478.24
633.813	37500.61
634.167	37508.07
634.521	37379.48
634.875	37563.66
635.229	37455.64
635.583	37241.41
635.937	37341.52
636.291	37255.87
636.645	37319.6
636.999	36985.6
637.352	37186.72
637.706	36919.83
638.06	37033.5
638.413	36988.53
638.767	36810.01
639.121	36999.15
639.474	36798.71
639.828	36756.67
640.181	36674.64
640.534	36789.67
640.888	36657.24
641.241	36514.87
641.594	36578.37
641.947	36562.56
642.301	36473.52
642.654	36527.75
643.007	36389.68
643.36	36240.76
643.713	36253.41
644.066	36618.83
644.419	36174.54
644.771	35998.5
645.124	35691.84
645.477	35522.58
645.83	35298.63
646.182	35186.77
646.535	35192.42
646.888	35363.72
647.24	35008.47
647.593	35263.83
647.945	35133.21
648.298	35011.64
648.65	34890.96
649.002	34972.99
649.355	35040.34
649.707	34717.18
650.059	34963.5
650.411	35364.17
650.763	35267.67
651.115	35742.92
651.467	35645.29
651.819	35638.51
652.171	35514.9
652.523	35516.48
652.875	35412.53
653.227	35355.36
653.578	35565.52
653.93	35432.19
654.282	35283.04
654.633	35309.93
654.985	35183.61
655.337	35280.1
655.688	35192.42
656.039	35299.99
656.391	34971.86
656.742	35095.93
657.094	35049.83
657.445	35250.5
657.796	35153.55
658.147	34965.76
658.498	34881.47
658.849	35138.41
659.2	34959.21
659.551	34789.49
659.902	34951.75
660.253	34756.73
660.604	34717.41
660.955	34567.81
661.306	34772.77
661.656	34654.36
662.007	34643.74
662.358	34594.7
662.708	34528.03
663.059	34518.32
663.409	34389.28
663.76	34429.28
664.11	34476.96
664.461	34408.49
664.811	34389.51
665.161	34224.09
665.511	34112.9
665.862	34088.72
666.212	34157.2
666.562	34096.63
666.912	33893.25
667.262	33842.63
667.612	33814.83
667.962	33763.31
668.312	33613.03
668.662	33859.8
669.011	33683.08
669.361	33505.01
669.711	33342.98
670.06	33244
670.41	33301.17
670.76	33102.76
671.109	33241.06
671.459	33035.42
671.808	32805.37
672.157	33088.3
672.507	32910
672.856	32755.2
673.205	32794.75
673.554	32847.85
673.904	32670.91
674.253	32736.44
674.602	32502.55
674.951	32128.55
675.3	31925.84
675.649	32451.93
675.998	32477.47
676.346	32447.41
676.695	32518.82
677.044	32277.24
677.393	32169
677.741	32209.68
678.09	32143.46
678.438	32080.41
678.787	32174.42
679.135	32199.51
679.484	31907.08
679.832	32068.89
680.181	32025.27
680.529	31998.38
680.877	31976.46
681.225	31991.83
681.573	32172.16
681.922	31860.98
682.27	31968.1
682.618	32043.13
682.966	31921.77
683.314	32052.62
683.661	31937.82
684.009	31776.47
684.357	31795
684.705	31846.52
685.053	32025.05
685.4	31917.03
685.748	31777.37
686.095	31700.99
686.443	31589.8
686.79	31699.63
687.138	31774.43
687.485	31830.48
687.832	31710.25
688.18	31887.2
688.527	31659.63
688.874	31706.41
689.221	31661.44
689.568	31568.79
689.915	31621.67
690.262	31536.7
690.609	31584.16
690.956	31485.4
691.303	31568.56
691.65	31458.06
691.997	31518.85
692.344	31248.12
692.69	31339.42
693.037	31319.53
693.383	31042.93
693.73	31191.17
694.077	31002.25
694.423	31036.15
694.769	31132.19
695.116	31015.58
695.462	30920.22
695.808	30953.21
696.155	31059.65
696.501	30727.68
696.847	30794.12
697.193	30565.2
697.539	30616.5
697.885	30551.19
698.231	30505.54
698.577	30365.2
698.923	30436.61
699.269	30304.87
699.614	29956.85
699.96	30015.16
700.306	30074.59
700.651	29901.26
700.997	29944.2
701.342	29841.6
701.688	29807.25
702.033	29729.06
702.379	29688.61
702.724	29573.81
703.069	29605.9
703.415	29351.67
703.76	29359.58
704.105	29208.4
704.45	29248.17
704.795	29114.39
705.14	28959.82
705.485	28974.51
705.83	28835.53
706.175	28850.44
706.52	28844.34
706.865	28758.69
707.209	28641.86
707.554	28626.49
707.899	28661.29
708.243	28435.99
708.588	28426.5
708.932	28303.79
709.277	28253.4
709.621	28276.45
709.966	28121.2
710.31	28209.33
710.654	27915.1
710.998	28031.71
711.342	28039.16
711.687	27804.37
712.031	27727.76
712.375	27652.51
712.719	27657.25
713.063	27667.42
713.407	27610.25
713.75	27593.98
714.094	27552.85
714.438	27472.4
714.782	27483.92
715.125	27352.18
715.469	27378.16
715.812	27234.89
716.156	27023.37
716.499	26925.52
716.843	27103.14
717.186	26926.42
717.53	27156.02
717.873	27010.26
718.216	26934.33
718.559	26963.49
718.902	26598.98
719.246	26723.49
719.589	26688.46
719.932	26545.64
720.275	26540.22
720.617	26554.68
720.96	26511.75
721.303	26404.4
721.646	26500.9
721.989	26362.37
722.331	26338.19
722.674	26281.92
723.016	26273.56
723.359	26297.29
723.701	26149.27
724.044	25920.12
724.386	25869.05
724.729	26023.17
725.071	25970.52
725.413	25877.19
725.755	25857.3
726.097	25681.71
726.439	25664.09
726.782	25784.53
727.124	25864.53
727.465	25613.92
727.807	25592.9
728.149	25421.83
728.491	25477.88
728.833	25578.89
729.175	25422.28
729.516	25462.28
729.858	25389.06
730.199	25259.35
730.541	25281.95
730.882	25166.7
731.224	25256.19
731.565	25053.03
731.906	25239.92
732.248	25113.59
732.589	25047.38
732.93	25001.05
733.271	24923.77
733.612	24893.94
733.953	25048.28
734.294	24781.85
734.635	24792.02
734.976	24962.18
735.317	24688.29
735.658	24660.04
735.999	24587.5
736.339	24588.86
736.68	24735.3
737.021	24552.48
737.361	24317.68
737.702	24594.06
738.042	24479.48
738.383	24352.93
738.723	24446.04
739.063	24320.62
739.404	24370.11
739.744	24247.85
740.084	24222.99
740.424	24161.98
740.764	24150.9
741.104	24303.44
741.444	24011.02
741.784	23881.08
742.124	23985.26
742.464	23943.23
742.804	23936.22
743.143	23872.95
743.483	24063.22
743.823	23830.91
744.162	23775.55
744.502	23804.92
744.841	23714.31
745.181	23755.21
745.52	23590.69
745.86	23721.09
746.199	23507.53
746.538	23558.15
746.877	23540.3
747.216	23591.15
747.556	23485.61
747.895	23467.76
748.234	23233.64
748.573	23329.68
748.911	23314.32
749.25	23260.08
749.589	22984.38
749.928	23218.95
750.267	23123.59
750.605	23064.61
750.944	23002.69
751.283	22926.98
751.621	22980.99
751.96	22828.23
752.298	22870.49
752.636	22866.87
752.975	22649.93
753.313	22569.03
753.651	22701.9
753.989	22559.99
