Data from white_wall_FLMS001491_082.txt Node
Date: Tue Feb 07 11:06:02 GMT 2017
User: dcchb
Spectrometer: FLMS00149
Trigger mode: 0
Integration Time (sec): 2.000000E-2
Scans to average: 10
Electric dark correction enabled: true
Nonlinearity correction enabled: false
Boxcar width: 0
XAxis mode: Wavelengths
Number of Pixels in Spectrum: 2048
>>>>>Begin Spectral Data<<<<<
341.393	-17.23
341.776	-17.23
342.16	-17.23
342.543	-68.08
342.927	-81.64
343.31	-78.92
343.693	-73.05
344.077	-87.74
344.46	-63.11
344.843	-44.12
345.226	-40.51
345.61	-29.21
345.993	-6.38
346.376	-5.25
346.759	12.37
347.142	52.82
347.525	54.18
347.908	41.3
348.291	66.83
348.674	84.46
349.057	116.32
349.44	136.66
349.823	135.53
350.206	160.84
350.588	204.01
350.971	223.21
351.354	243.1
351.737	248.98
352.119	264.12
352.502	285.13
352.884	300.27
353.267	305.7
353.65	326.71
354.032	323.78
354.414	317.68
354.797	331.01
355.179	348.63
355.562	351.8
355.944	371.01
356.326	347.73
356.709	370.33
357.091	360.39
357.473	349.09
357.855	367.39
358.238	368.07
358.62	358.8
359.002	378.46
359.384	376.2
359.766	371.23
360.148	352.93
360.53	380.95
360.912	361.74
361.294	366.04
361.676	352.25
362.057	368.52
362.439	363.55
362.821	382.76
363.203	377.79
363.584	343.21
363.966	371.91
364.348	339.82
364.729	371.23
365.111	365.36
365.493	364.23
365.874	346.38
366.256	342.08
366.637	333.27
367.019	326.71
367.4	349.31
367.781	354.51
368.163	352.02
368.544	371.91
368.925	349.76
369.306	376.2
369.688	345.47
370.069	333.04
370.45	343.66
370.831	350.67
371.212	356.54
371.593	354.74
371.974	350.44
372.355	336.88
372.736	361.29
373.117	312.93
373.498	364.23
373.879	341.4
374.26	354.51
374.641	352.93
375.021	343.89
375.402	371.91
375.783	368.07
376.163	354.06
376.544	381.18
376.925	375.75
377.305	372.82
377.686	376.88
378.066	381.4
378.447	375.3
378.827	383.89
379.208	387.28
379.588	371.69
379.968	385.02
380.349	366.94
380.729	378.69
381.109	393.15
381.489	391.57
381.87	396.32
382.25	407.39
382.63	391.12
383.01	411.46
383.39	408.52
383.77	394.51
384.15	394.06
384.53	425.7
384.91	403.55
385.29	417.79
385.67	433.38
386.049	424.79
386.429	417.56
386.809	428.86
387.189	433.83
387.568	444
387.948	439.93
388.328	455.98
388.707	445.36
389.087	472.25
389.466	449.88
389.846	479.93
390.225	462.08
390.605	474.06
390.984	490.1
391.363	479.03
391.743	495.3
392.122	483.09
392.501	519.7
392.881	524.45
393.26	533.04
393.639	511.12
394.018	551.12
394.397	539.82
394.776	558.57
395.155	563.77
395.534	558.35
395.913	537.78
396.292	607.39
396.671	599.48
397.05	580.95
397.429	602.87
397.808	589.31
398.186	615.97
398.565	643.54
398.944	640.83
399.323	642.19
399.701	667.95
400.08	673.15
400.458	691.9
400.837	709.3
401.215	709.08
401.594	736.2
401.972	732.35
402.351	749.98
402.729	745.01
403.107	772.58
403.486	787.04
403.864	817.78
404.242	801.96
404.62	831.56
404.999	848.51
405.377	854.16
405.755	880.15
406.133	876.3
406.511	890.77
406.889	922.18
407.267	947.94
407.645	948.39
408.023	965.12
408.401	982.97
408.779	1024.78
409.156	1039.92
409.534	1039.01
409.912	1059.58
410.29	1091.67
410.667	1098.22
411.045	1124.89
411.422	1132.8
411.8	1159.91
412.178	1176.18
412.555	1208.27
412.933	1219.35
413.31	1238.56
413.687	1269.06
414.065	1271.77
414.442	1277.2
414.819	1307.71
415.197	1322.17
415.574	1342.73
415.951	1328.72
416.328	1361.49
416.705	1382.05
417.082	1407.59
417.46	1399.68
417.837	1464.54
418.214	1469.06
418.591	1453.46
418.967	1466.35
419.344	1467.48
419.721	1554.48
420.098	1556.96
420.475	1549.73
420.852	1572.56
421.228	1604.42
421.605	1615.49
421.982	1621.6
422.358	1645.78
422.735	1675.38
423.111	1619.79
423.488	1710.63
423.864	1740.24
424.241	1722.38
424.617	1764.19
424.994	1765.09
425.37	1779.78
425.746	1802.38
426.123	1781.59
426.499	1837.41
426.875	1850.97
427.251	1908.37
427.627	1942.94
428.003	1980
428.379	2005.77
428.756	2011.42
429.132	2068.82
429.507	2025.43
429.883	2088.02
430.259	2130.51
430.635	2136.84
431.011	2150.85
431.387	2231.98
431.763	2229.04
432.138	2256.16
432.514	2304.29
432.89	2288.24
433.265	2345.42
433.641	2378.86
434.016	2405.3
434.392	2474.45
434.767	2505.19
435.143	2502.93
435.518	2545.87
435.894	2552.64
436.269	2614.11
436.644	2648.91
437.02	2696.37
437.395	2638.97
437.77	2730.72
438.145	2787.67
438.52	2789.02
438.895	2794.9
439.271	2840.77
439.646	2866.76
440.021	2884.16
440.395	2933.43
440.77	2913.09
441.145	2914.44
441.52	3015.01
441.895	3043.25
442.27	3046.87
442.645	3071.95
443.019	3085.51
443.394	3099.75
443.769	3142.23
444.143	3146.3
444.518	3194.21
444.892	3196.02
445.267	3217.26
445.641	3227.66
446.016	3288.67
446.39	3327.54
446.764	3351.95
447.139	3327.54
447.513	3416.8
447.887	3399.4
448.262	3408.22
448.636	3484.82
449.01	3469.23
449.384	3565.73
449.758	3574.99
450.132	3658.83
450.506	3581.54
450.88	3679.62
451.254	3667.19
451.628	3684.14
452.002	3814.08
452.376	3791.03
452.75	3875.32
453.123	3882.1
453.497	3926.39
453.871	3977.47
454.244	4075.54
454.618	4057.46
454.992	4125.71
455.365	4176.78
455.739	4254.75
456.112	4291.58
456.486	4317.12
456.859	4367.29
457.232	4458.58
457.606	4479.83
457.979	4530.9
458.352	4657.45
458.725	4713.72
459.099	4716.66
459.472	4844.11
459.845	4919.81
460.218	4921.4
460.591	4968.17
460.964	4988.51
461.337	5085.01
461.71	5232.8
462.083	5314.38
462.456	5294.04
462.829	5317.54
463.201	5416.07
463.574	5431.89
463.947	5494.49
464.32	5663.3
464.692	5647.7
465.065	5783.52
465.438	5870.52
465.81	5977.87
466.183	5999.11
466.555	6183.51
466.928	6193.68
467.3	6170.85
467.672	6343.05
468.045	6484.07
468.417	6526.55
468.789	6532.65
469.161	6637.74
469.534	6724.51
469.906	6906.43
470.278	6979.42
470.65	7081.34
471.022	7173.09
471.394	7292.63
471.766	7366.3
472.138	7492.18
472.51	7687.65
472.882	7730.36
473.253	7835.22
473.625	8009.22
473.997	8161.08
474.369	8253.06
474.74	8341.42
475.112	8490.57
475.484	8634.52
475.855	8837.45
476.227	8829.99
476.598	9131.23
476.97	9247.61
477.341	9364.44
477.713	9576.41
478.084	9594.04
478.455	9882.4
478.827	10018.66
479.198	10294.59
479.569	10294.59
479.94	10629.27
480.311	10683.28
480.682	10944.06
481.053	11185.64
481.424	11389.7
481.795	11511.96
482.166	11672.18
482.537	11880.31
482.908	12157.14
483.279	12231.71
483.65	12544.92
484.021	12717.8
484.391	12947.17
484.762	13066.49
485.133	13146.26
485.503	13363.21
485.874	13780.15
486.244	13804.33
486.615	14022.4
486.985	14301.49
487.356	14602.72
487.726	14714.36
488.097	14915.94
488.467	15006.78
488.837	15326.77
489.207	15571.29
489.578	15693.32
489.948	15918.62
490.318	16174.89
490.688	16234.54
491.058	16560.86
491.428	16723.8
491.798	16940.52
492.168	17244.69
492.538	17349.32
492.908	17563.1
493.278	17800.83
493.648	17793.37
494.017	18086.02
494.387	18287.15
494.757	18343.42
495.126	18645.78
495.496	18615.5
495.866	18932.55
496.235	19119.44
496.605	19296.84
496.974	19373.22
497.344	19568.92
497.713	19713.1
498.082	19895.47
498.452	20053.65
498.821	20275.12
499.19	20333.65
499.559	20499.74
499.928	20677.14
500.298	20810.47
500.667	21039.16
501.036	21028.09
501.405	21214.3
501.774	21320.96
502.143	21630.34
502.512	21729.32
502.88	21927.28
503.249	21963.66
503.618	22189.64
503.987	22209.53
504.356	22535.17
504.724	22576.07
505.093	22688.84
505.462	22807.48
505.83	23005.67
506.199	23229.16
506.567	23536.5
506.936	23594.8
507.304	23815.81
507.672	23861.69
508.041	24088.8
508.409	24265.29
508.777	24395.23
509.145	24735.56
509.514	24720.65
509.882	24939.4
510.25	25094.42
510.618	25352.5
510.986	25320.86
511.354	25740.74
511.722	25879.49
512.09	26327.39
512.458	26178.24
512.826	26402.19
513.193	26629.75
513.561	26775.28
513.929	26999.91
514.297	27251.2
514.664	27344.08
515.032	27489.39
515.4	27821.36
515.767	27868.59
516.135	28113.33
516.502	28026.78
516.869	28420.89
517.237	28553.99
517.604	28652.75
517.972	28920.54
518.339	29076.47
518.706	29310.13
519.073	29525.27
519.44	29704.25
519.808	29871.93
520.175	29979.95
520.542	30382.65
520.909	30559.14
521.276	30733.37
521.643	30935.85
522.009	31198.22
522.376	31423.52
522.743	31644.31
523.11	32044.52
523.477	32186.22
523.843	32433.89
524.21	32792.3
524.577	32897.61
524.943	33059.19
525.31	33284.27
525.676	33644.93
526.043	33871.14
526.409	33923.8
526.776	34323.11
527.142	34587.28
527.508	34680.39
527.874	34994.05
528.241	35200.15
528.607	35270.2
528.973	35677.2
529.339	35662.96
529.705	36048.94
530.071	36310.63
530.437	36526.67
530.803	36688.7
531.169	36858.18
531.535	36850.5
531.901	36900.44
532.267	37300.66
532.632	37557.15
532.998	37611.61
533.364	37915.78
533.73	37855.22
534.095	38250.24
534.461	38352.61
534.826	38573.39
535.192	38689.55
535.557	38923.44
535.923	38989.65
536.288	39204.11
536.653	39378.12
537.019	39399.13
537.384	39574.27
537.749	39634.83
538.114	39857.88
538.479	39971.55
538.845	40237.53
539.21	40052.22
539.575	40296.74
539.94	40621.25
540.305	40746.22
540.67	40776.27
541.034	40849.49
541.399	41165.19
541.764	41260.78
542.129	41533.99
542.494	41531.96
542.858	41828.67
543.223	41840.43
543.587	42051.49
543.952	41999.07
544.316	42273.63
544.681	42309.11
545.045	42515.66
545.41	42768.31
545.774	42938.7
546.138	42940.96
546.503	43148.87
546.867	43159.94
547.231	43553.83
547.595	43675.18
547.959	43729.64
548.324	43875.85
548.688	44058.22
549.052	44189.29
549.416	44327.59
549.779	44444.65
550.143	44625.66
550.507	44991.3
550.871	45031.98
551.235	45012.77
551.599	45356.04
551.962	45549.25
552.326	45646.2
552.689	45934.78
553.053	45645.97
553.417	45939.53
553.78	46452.28
554.143	46287.31
554.507	46584.26
554.87	46638.72
555.234	47221.98
555.597	47016.11
555.96	47267.85
556.323	47382.2
556.686	47581.07
557.05	47833.49
557.413	47913.71
557.776	48019.7
558.139	48343.08
558.502	48376.98
558.865	48547.82
559.228	48878.66
559.59	49009.05
559.953	49041.37
560.316	49415.14
560.679	49463.5
561.041	49684.29
561.404	49790.95
561.767	50072.53
562.129	49990.72
562.492	50440.65
562.854	50385.06
563.217	50437.26
563.579	50563.13
563.941	50877.48
564.304	50992.95
564.666	51311.36
565.028	51329.67
565.39	51412.15
565.753	51550.23
566.115	51800.62
566.477	51761.07
566.839	51836.77
567.201	52170.55
567.563	52156.76
567.925	52429.53
568.287	52435.4
568.648	52482.18
569.01	52641.27
569.372	52827.03
569.734	52855.05
570.095	53060.02
570.457	53078.32
570.819	53187.25
571.18	53225.89
571.542	53374.59
571.903	53340.91
572.265	53472.44
572.626	53584.52
572.987	53710.17
573.349	53826.78
573.71	53973.21
574.071	54037.62
574.432	54025.42
574.794	54270.83
575.155	54201.91
575.516	54180.67
575.877	54311.74
576.238	54402.81
576.599	54517.61
576.96	54342.02
577.32	54507.44
577.681	54532.52
578.042	54627.21
578.403	54626.08
578.763	54595.8
579.124	54746.75
579.485	54837.82
579.845	54879.18
580.206	54849.12
580.566	54861.33
580.927	54868.33
581.287	54977.71
581.648	54910.82
582.008	55076.01
582.368	54965.73
582.728	55141.09
583.089	55024.94
583.449	55087.31
583.809	55119.85
584.169	55118.49
584.529	55012.28
584.889	55269.22
585.249	55132.96
585.609	55011.6
585.969	55162.56
586.329	55161.88
586.688	55177.48
587.048	55227.87
587.408	55132.96
587.768	55165.72
588.127	55186.74
588.487	55082.56
588.846	55272.39
589.206	55207.98
589.565	55185.84
589.925	55332.27
590.284	55277.13
590.643	55305.16
591.003	55396.68
591.362	55353.29
591.721	55383.57
592.08	55331.6
592.44	55401.2
592.799	55346.74
593.158	55341.54
593.517	55330.92
593.876	55443.23
594.235	55257.02
594.593	55427.41
594.952	55546.51
595.311	55393.06
595.67	55421.09
596.029	55554.41
596.387	55490.91
596.746	55539.05
597.104	55452.27
597.463	55479.61
597.822	55576.79
598.18	55514.64
598.538	55494.76
598.897	55673.96
599.255	55525.72
599.613	55813.62
599.972	55589.22
600.33	55767.29
600.688	55625.6
601.046	55806.61
601.404	55878.7
601.762	55815.43
602.12	55884.35
602.478	55839.83
602.836	55863.79
603.194	55687.29
603.552	55885.25
603.91	55847.51
604.268	55905.82
604.625	55745.6
604.983	55976.55
605.341	55829.21
605.698	55995.31
606.056	56013.61
606.413	56059.49
606.771	56154.63
607.128	56144.46
607.485	56015.19
607.843	56043.67
608.2	56264.68
608.557	56335.41
608.914	56258.58
609.272	56338.35
609.629	56412.25
609.986	56487.72
610.343	56325.02
610.7	56533.37
611.057	56550.55
611.414	56439.59
611.771	56478.23
612.127	56638
612.484	56583.99
612.841	56684.1
613.198	56569.3
613.554	56626.25
613.911	56780.6
614.267	56698.57
614.624	56694.5
614.98	56742.86
615.337	56866.47
615.693	56741.5
616.05	56766.59
616.406	56957.09
616.762	56827.83
617.118	56848.84
617.475	56797.32
617.831	56923.42
618.187	56943.08
618.543	57012
618.899	57127.71
619.255	57030.31
619.611	57132.23
619.967	57143.75
620.323	57149.63
620.678	57155.5
621.034	56993.02
621.39	57057.43
621.746	57002.29
622.101	57255.16
622.457	57129.06
622.812	57170.87
623.168	57264.88
623.523	57212.68
623.879	57273.92
624.234	57093.58
624.589	57186.91
624.945	57232.11
625.3	57237.76
625.655	57226.91
626.01	57203.41
626.365	57261.49
626.72	57200.93
627.075	57186.91
627.43	57236.63
627.785	57161.38
628.14	57219.46
628.495	57214.26
628.85	57169.51
629.205	57076.63
629.559	57257.87
629.914	57117.76
630.269	57143.3
630.623	57127.25
630.978	57016.3
631.332	57059.46
631.687	57134.94
632.041	56994.83
632.396	57051.78
632.75	56951.21
633.104	56950.08
633.459	56866.7
633.813	56863.99
634.167	56859.01
634.521	56813.82
634.875	56891.55
635.229	56863.76
635.583	56727.94
635.937	56696.98
636.291	56659.7
636.645	56706.02
636.999	56633.26
637.352	56706.7
637.706	56569.3
638.06	56703.54
638.413	56657.21
638.767	56480.27
639.121	56622.18
639.474	56463.32
639.828	56415.18
640.181	56408.18
640.534	56448.18
640.888	56372.47
641.241	56233.04
641.594	56289.31
641.947	56329.31
642.301	56278.92
642.654	56245.92
643.007	56319.82
643.36	56221.06
643.713	56166.15
644.066	56272.36
644.419	56074.4
644.771	55882.09
645.124	55684.58
645.477	55647.75
645.83	55530.69
646.182	55312.39
646.535	55298.6
646.888	55306.74
647.24	55139.06
647.593	55230.81
647.945	55185.84
648.298	55041.21
648.65	54982.9
649.002	54967.54
649.355	55137.93
649.707	55059.29
650.059	55058.38
650.411	55407.98
650.763	55413.4
651.115	55680.97
651.467	55566.84
651.819	55643
652.171	55506.28
652.523	55438.94
652.875	55502.21
653.227	55388.09
653.578	55506.28
653.93	55403.23
654.282	55304.7
654.633	55226.51
654.985	55247.3
655.337	55305.83
655.688	55264.48
656.039	55427.64
656.391	55122.56
656.742	55173.41
657.094	55223.58
657.445	55281.88
657.796	55176.12
658.147	55153.75
658.498	55178.15
658.849	55189.45
659.2	55111.26
659.551	55054.99
659.902	55152.39
660.253	55071.72
660.604	55139.74
660.955	54930.93
661.306	55077.59
661.656	54963.7
662.007	54942.68
662.358	55021.1
662.708	54919.4
663.059	54887.54
663.409	54789.69
663.76	54987.2
664.11	54872.17
664.461	54910.59
664.811	54895.22
665.161	54870.37
665.511	54846.64
665.862	54858.16
666.212	54934.09
666.562	54880.76
666.912	54714.21
667.262	54755.57
667.612	54735
667.962	54887.09
668.312	54694.55
668.662	54871.95
669.011	54784.72
669.361	54690.48
669.711	54640.99
670.06	54657.26
670.41	54614.78
670.76	54636.92
671.109	54735
671.459	54610.71
671.808	54514.89
672.157	54501.56
672.507	54340.21
672.856	54350.38
673.205	54381.79
673.554	54433.54
673.904	54279.42
674.253	54475.35
674.602	54450.49
674.951	53902.03
675.3	53812.77
675.649	54244.39
675.998	54165.07
676.346	54138.86
676.695	54264.73
677.044	54038.52
677.393	54116.26
677.741	54211.17
678.09	54024.29
678.438	53966.21
678.787	53964.4
679.135	54049.82
679.484	53805.76
679.832	53911.75
680.181	53724.18
680.529	53961.24
680.877	53812.99
681.225	53751.3
681.573	53982.48
681.922	53585.65
682.27	53589.95
682.618	53587.91
682.966	53497.52
683.314	53584.75
683.661	53488.03
684.009	53269.5
684.357	53281.48
684.705	53121.94
685.053	53248.94
685.4	53186.79
685.748	53002.84
686.095	53037.87
686.443	52895.05
686.79	52747.03
687.138	52895.5
687.485	52785.45
687.832	52683.76
688.18	52750.87
688.527	52437.43
688.874	52519.92
689.221	52482.86
689.568	52256.42
689.915	52261.39
690.262	52221.62
690.609	52121.74
690.956	52112.47
691.303	52034.51
691.65	51846.26
691.997	51871.35
692.344	51580.73
692.69	51652.82
693.037	51627.51
693.383	51427.29
693.73	51499.38
694.077	51288.09
694.423	51211.03
694.769	51059.62
695.116	51100.52
695.462	50971.94
695.808	50936.68
696.155	50931.71
696.501	50634.54
696.847	50709.34
697.193	50527.43
697.539	50686.75
697.885	50295.34
698.231	50214.44
698.577	50214.22
698.923	50130.38
699.269	49924.51
699.614	49842.25
699.96	49669.37
700.306	49782.36
700.651	49533.1
700.997	49393
701.342	49356.84
701.688	49334.92
702.033	49203.62
702.379	49224.19
702.724	49126.11
703.069	49064.19
703.415	48656.07
703.76	48786.01
704.105	48701.94
704.45	48564.77
704.795	48460.59
705.14	48367.49
705.485	48387.6
705.83	48103.99
706.175	48271.22
706.52	48093.37
706.865	47982.86
707.209	47913.03
707.554	47840.27
707.899	47828.29
708.243	47551.91
708.588	47553.04
708.932	47337.91
709.277	47238.48
709.621	47416.32
709.966	47003.91
710.31	47226.5
710.654	46740.41
710.998	46899.28
711.342	46867.41
711.687	46776.57
712.031	46560.3
712.375	46417.93
712.719	46541.77
713.063	46414.77
713.407	46605.05
713.75	46277.82
714.094	46219.52
714.438	46030.15
714.782	46189.46
715.125	45934.78
715.469	46055.46
715.812	45762.13
716.156	45567.56
716.499	45593.09
716.843	45754.67
717.186	45331.63
717.53	45455.25
717.873	45304.97
718.216	45330.73
718.559	45169.83
718.902	44943.85
719.246	44958.54
719.589	44797.18
719.932	44699.33
720.275	44828.6
720.617	44631.31
720.96	44689.16
721.303	44641.71
721.646	44664.76
721.989	44319.91
722.331	44356.29
722.674	44403.52
723.016	44312.22
723.359	44233.81
723.701	44206.69
724.044	43996.3
724.386	43877.66
724.729	43921.73
725.071	43772.58
725.413	43740.94
725.755	43770.32
726.097	43604.67
726.439	43542.53
726.782	43520.16
727.124	43712.24
727.465	43475.18
727.807	43480.38
728.149	43277.68
728.491	43158.58
728.833	43177.11
729.175	43044.01
729.516	43059.38
729.858	42855.31
730.199	42811.25
730.541	42886.73
730.882	42772.38
731.224	42934.86
731.565	42530.12
731.906	42515.21
732.248	42486.96
732.589	42375.55
732.93	42119.06
733.271	42238.15
733.612	42189.57
733.953	42100.76
734.294	42042.68
734.635	41855.79
734.976	42003.58
735.317	41837.26
735.658	41794.55
735.999	41814.44
736.339	41644.27
736.68	41756.36
737.021	41709.58
737.361	41551.62
737.702	41625.74
738.042	41487.89
738.383	41312.76
738.723	41484.05
739.063	41181.91
739.404	41247.45
739.744	41134
740.084	41060.33
740.424	41035.25
740.764	40845.42
741.104	41023.5
741.444	40874.35
741.784	40642.94
742.124	40776.27
742.464	40743.5
742.804	40533.57
743.143	40531.76
743.483	40615.82
743.823	40359.33
744.162	40301.26
744.502	40320.92
744.841	40188.94
745.181	40226
745.52	39981.27
745.86	40088.38
746.199	40103.3
746.538	39978.33
746.877	39965.9
747.216	40029.17
747.556	39858.1
747.895	39993.02
748.234	39645
748.573	39518.9
748.911	39426.03
749.25	39466.7
749.589	39303.99
749.928	39381.96
750.267	39543.54
750.605	39292.7
750.944	39157.78
751.283	38978.35
751.621	39123.66
751.96	38763.22
752.298	38813.61
752.636	38881.63
752.975	38593.28
