Data from White_paper_FLMS001491_063.txt Node
Date: Tue Feb 07 10:35:24 GMT 2017
User: dcchb
Spectrometer: FLMS00149
Trigger mode: 0
Integration Time (sec): 2.000000E-2
Scans to average: 10
Electric dark correction enabled: true
Nonlinearity correction enabled: false
Boxcar width: 0
XAxis mode: Wavelengths
Number of Pixels in Spectrum: 2048
>>>>>Begin Spectral Data<<<<<
341.393	-22.46
341.776	-22.46
342.16	-22.46
342.543	-54.32
342.927	-68.56
343.31	-61.33
343.693	-72.17
344.077	-85.96
344.46	-30.37
344.843	-66.75
345.226	-44.38
345.61	-21.55
345.993	-25.17
346.376	-22.68
346.759	11.21
347.142	29.29
347.525	64.32
347.908	41.27
348.291	75.62
348.674	105.68
349.057	102.96
349.44	130.08
349.823	127.6
350.206	180.7
350.588	222.51
350.971	220.02
351.354	250.53
351.737	252.11
352.119	280.13
352.502	288.27
352.884	299.12
353.267	298.89
353.65	320.13
354.032	315.84
354.414	308.38
354.797	330.98
355.179	346.12
355.562	368.27
355.944	351.54
356.326	360.58
356.709	364.2
357.091	372.79
357.473	372.79
357.855	394.48
358.238	393.13
358.62	374.37
359.002	356.52
359.384	386.8
359.766	368.27
360.148	373.69
360.53	392
360.912	360.58
361.294	375.27
361.676	362.84
362.057	356.06
362.439	361.71
362.821	343.18
363.203	389.74
363.584	382.96
363.966	344.31
364.348	376.85
364.729	368.49
365.111	360.36
365.493	377.08
365.874	358.1
366.256	347.25
366.637	369.4
367.019	343.41
367.4	382.05
367.781	360.81
368.163	342.05
368.544	358.55
368.925	347.48
369.306	371.66
369.688	366.01
370.069	370.53
370.45	363.07
370.831	365.33
371.212	362.84
371.593	356.52
371.974	369.85
372.355	406.23
372.736	373.69
373.117	394.26
373.498	363.75
373.879	361.04
374.26	382.5
374.641	379.79
375.021	366.23
375.402	369.17
375.783	363.52
376.163	381.15
376.544	389.28
376.925	380.24
377.305	408.94
377.686	389.06
378.066	419.79
378.447	393.8
378.827	394.26
379.208	396.74
379.588	407.81
379.968	396.74
380.349	420.02
380.729	408.72
381.109	425.44
381.489	411.43
381.87	418.66
382.25	427.7
382.63	431.32
383.01	428.83
383.39	432.45
383.77	441.94
384.15	422.28
384.53	418.21
384.91	435.16
385.29	454.37
385.67	433.35
386.049	447.36
386.429	470.41
386.809	480.35
387.189	461.37
387.568	466.57
387.948	494.14
388.328	462.28
388.707	471.77
389.087	484.2
389.466	493.01
389.846	481.03
390.225	476.06
390.605	486.91
390.984	491.88
391.363	510.64
391.743	515.16
392.122	510.18
392.501	517.87
392.881	540.92
393.26	533.46
393.639	556.51
394.018	521.03
394.397	575.95
394.776	535.95
395.155	579.56
395.534	550.64
395.913	570.3
396.292	564.87
396.671	585.44
397.05	579.34
397.429	606.23
397.808	606.68
398.186	610.07
398.565	599.45
398.944	597.87
399.323	606.23
399.701	634.02
400.08	615.04
400.458	671.08
400.837	669.5
401.215	662.27
401.594	637.19
401.972	691.87
402.351	681.25
402.729	711.08
403.107	709.05
403.486	716.28
403.864	705.66
404.242	750.4
404.62	755.15
404.999	771.65
405.377	754.92
405.755	803.96
406.133	817.75
406.511	812.32
406.889	827.69
407.267	859.1
407.645	877.18
408.023	909.27
408.401	921.25
408.779	911.98
409.156	907.91
409.534	973
409.912	1002.15
410.29	1039.44
410.667	1073.56
411.045	1074.69
411.422	1077.63
411.8	1136.16
412.178	1167.12
412.555	1190.84
412.933	1213.67
413.31	1253.44
413.687	1269.71
414.065	1285.98
414.442	1312.2
414.819	1353.78
415.197	1394.23
415.574	1413.21
415.951	1439.43
416.328	1451.18
416.705	1463.38
417.082	1515.13
417.46	1572.98
417.837	1572.76
418.214	1571.4
418.591	1596.94
418.967	1648.69
419.344	1669.02
419.721	1677.16
420.098	1695.24
420.475	1744.5
420.852	1771.17
421.228	1788.34
421.605	1781.34
421.982	1819.98
422.358	1877.61
422.735	1907.89
423.111	1910.6
423.488	1957.83
423.864	1964.61
424.241	2002.57
424.617	2052.52
424.994	2015.91
425.37	2072.63
425.746	2059.52
426.123	2119.41
426.499	2143.14
426.875	2185.85
427.251	2204.38
427.627	2264.49
428.003	2308.1
428.379	2336.8
428.756	2327.76
429.132	2393.75
429.507	2414.09
429.883	2432.85
430.259	2510.36
430.635	2511.04
431.011	2506.29
431.387	2603.69
431.763	2689.11
432.138	2679.62
432.514	2739.28
432.89	2723.01
433.265	2764.14
433.641	2847.07
434.016	2887.97
434.392	2915.77
434.767	2975.88
435.143	2994.64
435.518	3026.05
435.894	3075.99
436.269	3116.22
436.644	3165.71
437.02	3178.36
437.395	3210.23
437.77	3235.76
438.145	3293.84
438.52	3321.64
438.895	3369.32
439.271	3405.93
439.646	3454.29
440.021	3479.82
440.395	3502.2
440.77	3492.93
441.145	3544.45
441.52	3581.52
441.895	3573.15
442.27	3652.47
442.645	3621.51
443.019	3729.76
443.394	3699.03
443.769	3759.14
444.143	3741.74
444.518	3807.05
444.892	3802.53
445.267	3784.22
445.641	3847.72
446.016	3870.77
446.39	3924.33
446.764	3915.29
447.139	3941.96
447.513	3969.75
447.887	4006.59
448.262	4015.18
448.636	4035.29
449.01	4085.23
449.384	4082.75
449.758	4137.21
450.132	4153.93
450.506	4195.29
450.88	4247.49
451.254	4277.32
451.628	4311.89
452.002	4377.65
452.376	4382.17
452.75	4423.08
453.123	4437.54
453.497	4546.46
453.871	4507.14
454.244	4655.84
454.618	4687.48
454.992	4720.24
455.365	4701.26
455.739	4849.51
456.112	4886.79
456.486	4931.09
456.859	4973.57
457.232	5131.31
457.606	5084.98
457.979	5157.75
458.352	5245.2
458.725	5320.23
459.099	5348.7
459.472	5444.52
459.845	5510.05
460.218	5499.21
460.591	5611.29
460.964	5656.94
461.337	5827.56
461.71	5862.36
462.083	5959.31
462.456	5993.2
462.829	5932.64
463.201	6144.39
463.574	6098.74
463.947	6204.05
464.32	6387.54
464.692	6387.54
465.065	6452.17
465.438	6538.73
465.81	6613.98
466.183	6692.17
466.555	6899.85
466.928	6910.92
467.3	6861.2
467.672	7042.22
468.045	7218.93
468.417	7157.02
468.789	7308.88
469.161	7349.55
469.534	7513.39
469.906	7675.19
470.278	7705.7
470.65	7821.18
471.022	7964.9
471.394	8109.08
471.766	8185.91
472.138	8275.86
472.51	8414.38
472.882	8534.61
473.253	8660.25
473.625	8800.59
473.997	8943.63
474.369	9029.96
474.74	9100.47
475.112	9271.31
475.484	9453.45
475.855	9580.91
476.227	9650.73
476.598	9926.43
476.97	10069.03
477.341	10208.69
477.713	10363.48
478.084	10420.43
478.455	10751.95
478.827	10886.18
479.198	11172.28
479.569	11163.92
479.94	11513.96
480.311	11613.85
480.682	11821.07
481.053	12078.69
481.424	12287.95
481.795	12373.38
482.166	12522.3
482.537	12784.44
482.908	13053.13
483.279	13136.97
483.65	13330.86
484.021	13611.53
484.391	13726.56
484.762	13816.05
485.133	14012.88
485.503	14154.57
485.874	14572.87
486.244	14669.81
486.615	14956.58
486.985	15067.09
487.356	15281.77
487.726	15511.37
488.097	15832.49
488.467	15912.49
488.837	16190.9
489.207	16333.95
489.578	16564.45
489.948	16746.37
490.318	16943.65
490.688	17086.92
491.058	17266.13
491.428	17574.37
491.798	17576.18
492.168	17963.74
492.538	18082.6
492.908	18201.92
493.278	18478.3
493.648	18534.8
494.017	18718.52
494.387	18914.67
494.757	19058.4
495.126	19299.75
495.496	19274.21
495.866	19430.36
496.235	19624.26
496.605	19918.04
496.974	19956
497.344	20248.87
497.713	20205.49
498.082	20467.85
498.452	20692.93
498.821	20672.14
499.19	20728.64
499.559	20995.97
499.928	21176.31
500.298	21263.99
500.667	21503.53
501.036	21462.85
501.405	21705.56
501.774	21785.56
502.143	21902.39
502.512	22153.01
502.88	22329.72
503.249	22259.44
503.618	22441.36
503.987	22482.71
504.356	22661.69
504.724	22833.21
505.093	22941.91
505.462	23047.22
505.83	23283.14
506.199	23408.57
506.567	23717.71
506.936	23713.19
507.304	23977.36
507.672	24062.11
508.041	24237.02
508.409	24389.33
508.777	24497.12
509.145	24641.3
509.514	24747.06
509.882	24955.42
510.25	24970.56
510.618	25166.03
510.986	25316.99
511.354	25551.11
511.722	25736.41
512.09	25970.76
512.458	25908.16
512.826	26215.95
513.193	26404.42
513.561	26485.77
513.929	26623.85
514.297	26798.31
514.664	27140.9
515.032	27139.99
515.4	27349.25
515.767	27421.34
516.135	27627.44
516.502	27601
516.869	28113.98
517.237	28070.14
517.604	28123.47
517.972	28524.14
518.339	28585.38
518.706	28708.54
519.073	28763.68
519.44	28974.97
519.808	29354.85
520.175	29387.17
520.542	29809.98
520.909	29797.78
521.276	29917.77
521.643	30242.51
522.009	30551.43
522.376	30583.52
522.743	30777.41
523.11	31182.6
523.477	31338.07
523.843	31457.62
524.21	31833.2
524.577	31905.29
524.943	32159.52
525.31	32394.09
525.676	32631.6
526.043	32823.46
526.409	32862.55
526.776	33370.34
527.142	33500.28
527.508	33574.4
527.874	33889.87
528.241	34066.82
528.607	34063.2
528.973	34460.25
529.339	34468.84
529.705	34779.34
530.071	35076.96
530.437	35196.05
530.803	35433.11
531.169	35650.05
531.535	35767.56
531.901	35836.49
532.267	35992.19
532.632	36342.69
532.998	36399.18
533.364	36537.94
533.73	36609.35
534.095	36962.79
534.461	37087.3
534.826	37246.85
535.192	37197.13
535.557	37609.55
535.923	37710.56
536.288	37791.01
536.653	38021.51
537.019	38008.18
537.384	38200.94
537.749	38242.53
538.114	38550.31
538.479	38574.04
538.845	38807.03
539.21	38831.21
539.575	38981.49
539.94	39207.47
540.305	39324.3
540.67	39290.63
541.034	39472.55
541.399	39623.73
541.764	39886.1
542.129	39927.23
542.494	40055.81
542.858	40190.5
543.223	40131.74
543.587	40442.69
543.952	40515.69
544.316	40668.9
544.681	40667.32
545.045	40989.57
545.41	41147.53
545.774	41295.78
546.138	41212.84
546.503	41512.5
546.867	41425.49
547.231	41953.16
547.595	41909.32
547.959	41942.99
548.324	42114.74
548.688	42114.74
549.052	42411.91
549.416	42383.43
549.779	42610.77
550.143	42561.73
550.507	43018.67
550.871	43129.63
551.235	43021.16
551.599	43342.73
551.962	43519.22
552.326	43657.52
552.689	43880.57
553.053	43656.62
553.417	43780.68
553.78	44237.85
554.143	44022.03
554.507	44216.61
554.87	44475.81
555.234	44847.32
555.597	44596.93
555.96	44972.07
556.323	45060.43
556.686	45068.56
557.05	45560.3
557.413	45504.26
557.776	45704.48
558.139	45822.44
558.502	45869.44
558.865	45964.13
559.228	46220.62
559.59	46417
559.953	46543.55
560.316	46875.29
560.679	46920.04
561.041	47111.67
561.404	47374.94
561.767	47465.79
562.129	47414.71
562.492	47673.24
562.854	47841.82
563.217	47786.46
563.579	47883.85
563.941	48237.97
564.304	48360.68
564.666	48618.75
565.028	48731.29
565.39	48816.48
565.753	49057.83
566.115	49110.71
566.477	49379.63
566.839	49406.53
567.201	49663.02
567.563	49721.09
567.925	49992.5
568.287	49994.08
568.648	50074.76
569.01	50283.56
569.372	50367.4
569.734	50393.62
570.095	50733.95
570.457	50775.3
570.819	50881.06
571.18	50934.62
571.542	51072.24
571.903	51182.3
572.265	51334.61
572.626	51429.3
572.987	51367.15
573.349	51655.51
573.71	51637.88
574.071	51879.23
574.432	51968.04
574.794	52065.44
575.155	52034.03
575.516	52049.17
575.877	52157.64
576.238	52314.02
576.599	52500.23
576.96	52512.66
577.32	52466.56
577.681	52661.58
578.042	52605.09
578.403	52752.88
578.763	52718.08
579.124	52780.67
579.485	52871.97
579.845	53026.77
580.206	52994.91
580.566	53047.33
580.927	53144.51
581.287	53252.98
581.648	53155.13
582.008	53277.84
582.368	53195.8
582.728	53403.03
583.089	53314.22
583.449	53289.81
583.809	53346.99
584.169	53453.43
584.529	53433.76
584.889	53589.01
585.249	53471.96
585.609	53437.83
585.969	53575.46
586.329	53515.8
586.688	53555.8
587.048	53638.28
587.408	53526.64
587.768	53673.76
588.127	53606.87
588.487	53664.27
588.846	53791.04
589.206	53682.35
589.565	53721.44
589.925	53828.33
590.284	53800.08
590.643	53758.05
591.003	53917.14
591.362	53887.09
591.721	53822.45
592.08	53871.27
592.44	53974.54
592.799	53921.21
593.158	53912.85
593.517	53988.78
593.876	54051.15
594.235	53927.76
594.593	53965.28
594.952	54094.99
595.311	53884.83
595.67	54001.89
596.029	54200.52
596.387	54290.01
596.746	54268.32
597.104	54122.11
597.463	54175.67
597.822	54246.62
598.18	54230.81
598.538	54149.68
598.897	54309.45
599.255	54091.15
599.613	54551.25
599.972	54331.59
600.33	54416.11
600.688	54296.34
601.046	54461.99
601.404	54530.91
601.762	54420.18
602.12	54683.9
602.478	54645.94
602.836	54632.38
603.194	54426.73
603.552	54571.36
603.91	54463.57
604.268	54664.69
604.625	54624.92
604.983	54711.25
605.341	54552.38
605.698	54752.15
606.056	54703.11
606.413	54671.47
606.771	54785.14
607.128	54871.01
607.485	54789.44
607.843	54746.72
608.2	54982.65
608.557	54986.27
608.914	54953.5
609.272	55052.7
609.629	55049.99
609.986	55244.79
610.343	55092.25
610.7	55246.82
611.057	55188.29
611.414	55163.44
611.771	55205.24
612.127	55333.6
612.484	55297.9
612.841	55373.6
613.198	55209.31
613.554	55290.66
613.911	55433.71
614.267	55377.44
614.624	55381.28
614.98	55370.66
615.337	55495.63
615.693	55460.38
616.05	55441.85
616.406	55655.4
616.762	55517.1
617.118	55539.92
617.475	55502.41
617.831	55498.12
618.187	55537.44
618.543	55592.13
618.899	55758.22
619.255	55701.05
619.611	55698.11
619.967	55766.13
620.323	55818.11
620.678	55679.81
621.034	55645.23
621.39	55692.69
621.746	55689.98
622.101	55959.35
622.457	55670.77
622.812	55763.42
623.168	55846.58
623.523	55783.08
623.879	55847.94
624.234	55668.51
624.589	55845.23
624.945	55785.79
625.3	55807.71
625.655	55793.02
626.01	55797.32
626.365	55906.69
626.72	55815.4
627.075	55830.09
627.43	55769.3
627.785	55809.52
628.14	55851.33
628.495	55799.13
628.85	55822.18
629.205	55717.77
629.559	55883.19
629.914	55751.44
630.269	55833.02
630.623	55671.22
630.978	55725.91
631.332	55913.47
631.687	55863.98
632.041	55736.98
632.396	55801.39
632.75	55668.96
633.104	55744.21
633.459	55641.39
633.813	55611.11
634.167	55657.43
634.521	55691.56
634.875	55625.57
635.229	55670.09
635.583	55538.57
635.937	55571.56
636.291	55455.86
636.645	55516.42
636.999	55456.08
637.352	55499.7
637.706	55371.11
638.06	55498.34
638.413	55406.59
638.767	55422.64
639.121	55415.18
639.474	55292.47
639.828	55328.18
640.181	55348.29
640.534	55443.88
640.888	55315.75
641.241	55070.78
641.594	55170.22
641.947	55358.23
642.301	55273.26
642.654	55296.77
643.007	55254.73
643.36	55275.75
643.713	55215.19
644.066	55293.15
644.419	55049.99
644.771	54969.32
645.124	54627.41
645.477	54685.48
645.83	54444.59
646.182	54372.95
646.535	54283.91
646.888	54325.94
647.24	54241.65
647.593	54421.76
647.945	54342.67
648.298	54246.85
648.65	54178.83
649.002	54115.33
649.355	54186.51
649.707	54142.45
650.059	54247.3
650.411	54661.3
650.763	54588.99
651.115	54946.27
651.467	54902.43
651.819	54781.07
652.171	54751.92
652.523	54740.4
652.875	54759.38
653.227	54600.97
653.578	54857
653.93	54699.27
654.282	54572.04
654.633	54544.92
654.985	54667.86
655.337	54588.08
655.688	54626.95
656.039	54676.44
656.391	54480.74
656.742	54491.82
657.094	54531.81
657.445	54675.54
657.796	54661.75
658.147	54471.25
658.498	54516.22
658.849	54563.45
659.2	54537.69
659.551	54411.82
659.902	54515.77
660.253	54460.86
660.604	54495.43
660.955	54317.36
661.306	54456.56
661.656	54376.11
662.007	54394.19
662.358	54367.75
662.708	54341.09
663.059	54353.74
663.409	54229
663.76	54452.49
664.11	54363.23
664.461	54377.47
664.811	54363.91
665.161	54344.48
665.511	54184.48
665.862	54237.36
666.212	54313.97
666.562	54384.93
666.912	54269
667.262	54152.84
667.612	54217.25
667.962	54340.86
668.312	54171.37
668.662	54316.91
669.011	54233.07
669.361	54082.34
669.711	54114.88
670.06	54038.27
670.41	54027.42
670.76	53886.41
671.109	54125.72
671.459	54024.26
671.808	54006.86
672.157	54014.77
672.507	53784.49
672.856	53871.04
673.205	53803.02
673.554	53832.4
673.904	53820.42
674.253	53942.45
674.602	53952.62
674.951	53399.64
675.3	53220.44
675.649	53740.65
675.998	53692.74
676.346	53694.77
676.695	53829.46
677.044	53569.35
677.393	53637.6
677.741	53653.87
678.09	53558.73
678.438	53440.77
678.787	53545.63
679.135	53431.5
679.484	53262.7
679.832	53286.2
680.181	53190.38
680.529	53251.4
680.877	53184.05
681.225	53102.02
681.573	53281
681.922	53054.79
682.27	53106.09
682.618	52949.71
682.966	52980.22
683.314	52901.8
683.661	52960.33
684.009	52735.25
684.357	52578.42
684.705	52498.65
685.053	52688.25
685.4	52550.85
685.748	52317.64
686.095	52447.8
686.443	52245.77
686.79	52218.2
687.138	52245.55
687.485	52263.17
687.832	52042.39
688.18	52092.78
688.527	51912.9
688.874	51937.08
689.221	51805.56
689.568	51625.9
689.915	51639.01
690.262	51583.87
690.609	51550.42
690.956	51382.29
691.303	51367.15
691.65	51273.82
691.997	51180.94
692.344	50846.94
692.69	50891.91
693.037	50953.83
693.383	50695.08
693.73	50754.96
694.077	50603.56
694.423	50520.85
694.769	50605.59
695.116	50434.3
695.462	50316.11
695.808	50174.64
696.155	50233.4
696.501	49944.14
696.847	49979.62
697.193	49819.4
697.539	49840.41
697.885	49670.47
698.231	49518.84
698.577	49551.83
698.923	49340.09
699.269	49284.72
699.614	49054.44
699.96	49044.73
700.306	49038.85
700.651	48883.6
700.997	48753.21
701.342	48737.84
701.688	48649.71
702.033	48594.8
702.379	48547.79
702.724	48477.28
703.069	48446.33
703.415	48039.78
703.76	48066.45
704.105	48098.31
704.45	47939.9
704.795	47676.18
705.14	47689.06
705.485	47563.64
705.83	47404.54
706.175	47605.9
706.52	47350.76
706.865	47188.96
707.209	47114.16
707.554	47065.8
707.899	47074.16
708.243	46830.1
708.588	46697.22
708.932	46576.09
709.277	46583.55
709.621	46512.14
709.966	46278.92
710.31	46364.35
710.654	46087.29
710.998	46209.1
711.342	46214.07
711.687	46028.76
712.031	45857.92
712.375	45732.05
712.719	45836
713.063	45784.02
713.407	45701.99
713.75	45445.73
714.094	45682.1
714.438	45329.57
714.782	45320.98
715.125	45018.39
715.469	45232.4
715.812	44876.93
716.156	44871.05
716.499	44681.9
716.843	45012.07
717.186	44671.74
717.53	44816.36
717.873	44814.33
718.216	44677.38
718.559	44474.68
718.902	44093.67
719.246	44279.43
719.589	44126.89
719.932	43944.97
720.275	44025.88
720.617	44102.71
720.96	44009.15
721.303	43917.86
721.646	43833.34
721.989	43651.42
722.331	43753.12
722.674	43595.15
723.016	43561.03
723.359	43610.97
723.701	43453.01
724.044	43252.34
724.386	43011.89
724.729	43291.66
725.071	43196.97
725.413	43150.87
725.755	42969.18
726.097	43009.18
726.439	42651
726.782	42768.06
727.124	42907.26
727.465	42700.94
727.807	42695.52
728.149	42491.91
728.491	42386.82
728.833	42445.13
729.175	42419.36
729.516	42180.05
729.858	42278.13
730.199	42310.44
730.541	42062.76
730.882	42025.48
731.224	42241.06
731.565	42058.24
731.906	41922.88
732.248	41995.87
732.589	41835.2
732.93	41755.2
733.271	41762.88
733.612	41760.17
733.953	41759.5
734.294	41512.27
734.635	41318.6
734.976	41516.56
735.317	41273.86
735.658	41177.36
735.999	41278.6
736.339	41145.27
736.68	41220.98
737.021	41077.25
737.361	41088.1
737.702	41084.26
738.042	41140.08
738.383	40886.75
738.723	40952.51
739.063	40741.67
739.404	40929.23
739.744	40723.82
740.084	40604.5
740.424	40718.17
740.764	40443.15
741.104	40706.42
741.444	40417.38
741.784	40366.76
742.124	40402.69
742.464	40350.94
742.804	40291.29
743.143	40119.09
743.483	40304.84
743.823	39916.15
744.162	39991.63
744.502	40126.32
744.841	39896.72
745.181	39994.8
745.52	39717.97
745.86	39889.49
746.199	39733.11
746.538	39720.9
746.877	39728.36
747.216	39689.49
747.556	39562.72
747.895	39549.84
748.234	39438.2
748.573	39428.03
748.911	39239.11
749.25	39197.3
749.589	39104.2
749.928	39171.99
750.267	39106.01
750.605	39042.96
750.944	38911.21
751.283	38688.84
751.621	38800.93
751.96	38555.96
752.298	38575.85
752.636	38664.89
752.975	38413.82
