Data from white_wall_FLMS001491_033.txt Node
Date: Tue Feb 07 11:04:17 GMT 2017
User: dcchb
Spectrometer: FLMS00149
Trigger mode: 0
Integration Time (sec): 2.000000E-2
Scans to average: 10
Electric dark correction enabled: true
Nonlinearity correction enabled: false
Boxcar width: 0
XAxis mode: Wavelengths
Number of Pixels in Spectrum: 2048
>>>>>Begin Spectral Data<<<<<
341.393	-22.05
341.776	-22.05
342.16	-22.05
342.543	-81.71
342.927	-59.33
343.31	-61.82
343.693	-77.64
344.077	-59.11
344.46	-48.71
344.843	-71.09
345.226	-32.67
345.61	-34.25
345.993	-33.8
346.376	-10.75
346.759	3.94
347.142	26.99
347.525	51.85
347.908	63.83
348.291	70.38
348.674	93.2
349.057	119.64
349.44	130.72
349.823	133.88
350.206	153.77
350.588	207.33
350.971	213.43
351.354	241.67
351.737	256.59
352.119	256.82
352.502	276.48
352.884	266.76
353.267	289.58
353.65	299.07
354.032	312.86
354.414	338.85
354.797	305.85
355.179	323.93
355.562	322.12
355.944	340.65
356.326	360.54
356.709	349.47
357.091	353.76
357.473	359.19
357.855	349.69
358.238	353.99
358.62	374.1
359.002	369.58
359.384	364.84
359.766	360.99
360.148	345.4
360.53	346.3
360.912	351.28
361.294	341.11
361.676	347.89
362.057	330.94
362.439	337.72
362.821	325.06
363.203	354.44
363.584	344.72
363.966	344.95
364.348	354.89
364.729	330.49
365.111	340.2
365.493	352.63
365.874	341.78
366.256	333.88
366.637	329.36
367.019	333.65
367.4	343.14
367.781	315.12
368.163	319.19
368.544	338.85
368.925	349.47
369.306	342.01
369.688	327.55
370.069	334.33
370.45	338.17
370.831	325.29
371.212	333.42
371.593	341.33
371.974	333.88
372.355	343.14
372.736	356.25
373.117	367.77
373.498	345.17
373.879	335.46
374.26	323.25
374.641	325.06
375.021	337.04
375.402	345.85
375.783	342.91
376.163	351.05
376.544	335.91
376.925	346.98
377.305	357.6
377.686	342.46
378.066	326.87
378.447	351.95
378.827	326.19
379.208	374.78
379.588	355.8
379.968	359.86
380.349	368.9
380.729	350.6
381.109	364.84
381.489	371.16
381.87	368.22
382.25	381.56
382.63	373.2
383.01	387.21
383.39	365.96
383.77	389.69
384.15	378.17
384.53	382.46
384.91	397.38
385.29	385.63
385.67	393.99
386.049	392.18
386.429	388.56
386.809	392.18
387.189	402.8
387.568	391.5
387.948	413.42
388.328	410.71
388.707	405.06
389.087	412.97
389.466	438.51
389.846	433.08
390.225	427.66
390.605	432.18
390.984	446.87
391.363	442.12
391.743	436.02
392.122	444.15
392.501	464.72
392.881	453.65
393.26	463.36
393.639	460.88
394.018	473.53
394.397	494.78
394.776	511.5
395.155	507.66
395.534	503.36
395.913	497.49
396.292	511.27
396.671	522.8
397.05	535.23
397.429	557.37
397.808	549.46
398.186	556.02
398.565	549.91
398.944	585.39
399.323	577.94
399.701	585.39
400.08	600.99
400.458	620.65
400.837	608.44
401.215	629.69
401.594	637.14
401.972	604.15
402.351	674.88
402.729	645.28
403.107	664.94
403.486	657.48
403.864	680.76
404.242	720.08
404.62	722.34
404.999	729.57
405.377	727.54
405.755	740.42
406.133	757.59
406.511	774.32
406.889	758.72
407.267	798.04
407.645	793.52
408.023	845.5
408.401	845.5
408.779	842.79
409.156	872.84
409.534	898.38
409.912	906.97
410.29	908.32
410.667	936.57
411.045	970.02
411.422	962.11
411.8	970.24
412.178	980.64
412.555	1004.82
412.933	1036.68
413.31	1013.86
413.687	1065.16
414.065	1069.45
414.442	1087.53
414.819	1104.48
415.197	1108.54
415.574	1127.98
415.951	1145.15
416.328	1133.18
416.705	1149.45
417.082	1156.68
417.46	1178.15
417.837	1197.81
418.214	1197.81
418.591	1213.85
418.967	1209.33
419.344	1228.32
419.721	1277.35
420.098	1255.89
420.475	1262.21
420.852	1300.63
421.228	1315.32
421.605	1320.06
421.982	1337.69
422.358	1367.07
422.735	1387.18
423.111	1364.13
423.488	1409.55
423.864	1417.69
424.241	1452.26
424.617	1420.4
424.994	1432.15
425.37	1477.35
425.746	1486.84
426.123	1509.21
426.499	1502.88
426.875	1522.77
427.251	1588.08
427.627	1579.49
428.003	1598.47
428.379	1622.66
428.756	1647.51
429.132	1673.05
429.507	1707.85
429.883	1691.35
430.259	1737.91
430.635	1722.31
431.011	1767.96
431.387	1844.34
431.763	1825.14
432.138	1838.02
432.514	1860.84
432.89	1887.96
433.265	1921.4
433.641	1948.75
434.016	1981.97
434.392	2025.13
434.767	2035.07
435.143	2038.24
435.518	2056.32
435.894	2062.19
436.269	2100.16
436.644	2144.9
437.02	2164.34
437.395	2169.53
437.77	2205.92
438.145	2231.45
438.52	2294.5
438.895	2243.2
439.271	2279.59
439.646	2326.14
440.021	2354.61
440.395	2376.53
440.77	2330.66
441.145	2379.25
441.52	2409.75
441.895	2421.05
442.27	2440.71
442.645	2459.47
443.019	2470.99
443.394	2527.26
443.769	2546.02
444.143	2525.68
444.518	2561.39
444.892	2571.33
445.267	2602.06
445.641	2636.19
446.016	2652.68
446.39	2674.6
446.764	2645.68
447.139	2701.27
447.513	2731.1
447.887	2729.97
448.262	2746.47
448.636	2760.93
449.01	2837.54
449.384	2855.39
449.758	2859.01
450.132	2957.76
450.506	2890.42
450.88	2937.87
451.254	2967.93
451.628	3026.23
452.002	3004.09
452.376	3081.6
452.75	3062.84
453.123	3118.21
453.497	3191.43
453.871	3199.34
454.244	3263.74
454.618	3254.02
454.992	3341.03
455.365	3347.13
455.739	3420.12
456.112	3432.55
456.486	3512.77
456.859	3523.62
457.232	3601.81
457.606	3527.24
457.979	3633.9
458.352	3719.78
458.725	3752.99
459.099	3765.65
459.472	3834.8
459.845	3881.35
460.218	3920.67
460.591	3952.76
460.964	3971.97
461.337	4119.09
461.71	4118.86
462.083	4206.99
462.456	4201.57
462.829	4216.71
463.201	4300.78
463.574	4289.93
463.947	4384.39
464.32	4456.7
464.692	4506.87
465.065	4562.69
465.438	4668.22
465.81	4711.39
466.183	4748.45
466.555	4892.17
466.928	4878.39
467.3	4893.3
467.672	5015.33
468.045	5057.14
468.417	5144.82
468.789	5146.63
469.161	5244.93
469.534	5335.1
469.906	5470.92
470.278	5478.82
470.65	5552.72
471.022	5689.21
471.394	5732.6
471.766	5803.11
472.138	5863
472.51	6057.79
472.882	6141.86
473.253	6222.08
473.625	6313.61
473.997	6461.17
474.369	6453.71
474.74	6561.96
475.112	6673.14
475.484	6759.47
475.855	6878.79
476.227	6958.33
476.598	7192
476.97	7228.16
477.341	7413.92
477.713	7524.42
478.084	7549.05
478.455	7754.25
478.827	7882.15
479.198	8105.2
479.569	8097.29
479.94	8342.93
480.311	8445.3
480.682	8575.01
481.053	8766.2
481.424	8938.85
481.795	9100.42
482.166	9222.23
482.537	9302.23
482.908	9533.63
483.279	9603.01
483.65	9824.25
484.021	9938.82
484.391	10126.84
484.762	10236.21
485.133	10224.01
485.503	10472.14
485.874	10692.93
486.244	10822.41
486.615	10987.38
486.985	11202.29
487.356	11332.46
487.726	11400.48
488.097	11601.83
488.467	11720.69
488.837	11957.75
489.207	12138.76
489.578	12348.25
489.948	12498.98
490.318	12621.24
490.688	12717.05
491.058	12949.59
491.428	13111.39
491.798	13230.94
492.168	13456.24
492.538	13484.04
492.908	13679.06
493.278	13930.13
493.648	13806.29
494.017	14045.61
494.387	14211.7
494.757	14363.11
495.126	14604.46
495.496	14580.28
495.866	14672.26
496.235	14936.2
496.605	14987.28
496.974	15116.99
497.344	15299.13
497.713	15411.9
498.082	15563.76
498.452	15643.3
498.821	15724.88
499.19	15842.39
499.559	16083.97
499.928	16220.24
500.298	16299.33
500.667	16408.48
501.036	16436.95
501.405	16711.75
501.774	16694.35
502.143	16825.42
502.512	17011.18
502.88	17205.07
503.249	17170.04
503.618	17278.97
503.987	17366.87
504.356	17534.55
504.724	17662.69
505.093	17779.52
505.462	17853.19
505.83	18093.86
506.199	18200.98
506.567	18372.72
506.936	18361.88
507.304	18663.34
507.672	18729.55
508.041	18784.24
508.409	18997.57
508.777	19190.55
509.145	19376.54
509.514	19378.35
509.882	19649.98
510.25	19664.44
510.618	19829.41
510.986	19933.59
511.354	20151.66
511.722	20279.11
512.09	20542.84
512.458	20462.16
512.826	20753.45
513.193	20724.53
513.561	20823.05
513.929	21116.38
514.297	21281.12
514.664	21415.81
515.032	21489.25
515.4	21766.31
515.767	21797.72
516.135	22046.75
516.502	21902.12
516.869	22297.37
517.237	22414.2
517.604	22374.43
517.972	22747.75
518.339	22836.11
518.706	22821.19
519.073	23069.1
519.44	23354.97
519.808	23481.52
520.175	23467.96
520.542	23792.47
520.909	23978
521.276	24064.55
521.643	24217.54
522.009	24450.08
522.376	24638.32
522.743	24810.97
523.11	25036.73
523.477	25261.58
523.843	25355.36
524.21	25639.42
524.577	25811.17
524.943	26017.27
525.31	26137.26
525.676	26342.46
526.043	26587.2
526.409	26720.98
526.776	26936.11
527.142	27037.58
527.508	27203.9
527.874	27311.92
528.241	27602.31
528.607	27741.29
528.973	28033.94
529.339	28009.76
529.705	28292.01
530.071	28523.42
530.437	28543.3
530.803	28783.07
531.169	28955.72
531.535	28899.23
531.901	29063.52
532.267	29304.87
532.632	29462.83
532.998	29576.95
533.364	29739.66
533.73	29875.7
534.095	30054
534.461	30095.8
534.826	30324.5
535.192	30416.25
535.557	30612.85
535.923	30641.78
536.288	30854.2
536.653	31110.24
537.019	30996.57
537.384	31096.91
537.749	31185.04
538.114	31341.2
538.479	31463.45
538.845	31541.19
539.21	31561.08
539.575	31731.47
539.94	31929.88
540.305	32081.29
540.67	32105.02
541.034	32242.41
541.399	32391.56
541.764	32511.56
542.129	32718.11
542.494	32864.77
542.858	33017.54
543.223	32912.91
543.587	33161.26
543.952	33111.54
544.316	33278.77
544.681	33261.37
545.045	33497.98
545.41	33786.78
545.774	33838.08
546.138	33873.78
546.503	34076.04
546.867	34131.18
547.231	34376.82
547.595	34452.07
547.959	34593.09
548.324	34690.71
548.688	34778.62
549.052	35056.58
549.416	35109.91
549.779	35029.01
550.143	35294.31
550.507	35568.43
550.871	35683.45
551.235	35692.72
551.599	35920.96
551.962	36180.39
552.326	36136.78
552.689	36406.6
553.053	36406.37
553.417	36496.77
553.78	37042.29
554.143	36957.09
554.507	37139.01
554.87	37212
555.234	37642.05
555.597	37577.42
555.96	37849.05
556.323	37944.19
556.686	37931.08
557.05	38308.47
557.413	38413.33
557.776	38548.24
558.139	38718.63
558.502	38853.54
558.865	38980.32
559.228	39313.64
559.59	39392.51
559.953	39565.39
560.316	39819.84
560.679	39831.14
561.041	40140.06
561.404	40271.36
561.767	40587.73
562.129	40505.02
562.492	41052.13
562.854	41065.01
563.217	40904.56
563.579	41113.14
563.941	41403.53
564.304	41619.12
564.666	41873.12
565.028	42028.15
565.39	42154.92
565.753	42168.71
566.115	42395.59
566.477	42718.07
566.839	42676.49
567.201	42928.91
567.563	42943.83
567.925	43329.36
568.287	43143.82
568.648	43243.93
569.01	43769.57
569.372	43829.45
569.734	43842.11
570.095	44142.44
570.457	44360.29
570.819	44267.86
571.18	44307.18
571.542	44655.2
571.903	44692.26
572.265	44794.4
572.626	44946.94
572.987	45019.48
573.349	45181.96
573.71	45210.66
574.071	45390.54
574.432	45529.3
574.794	45783.98
575.155	45732.23
575.516	45691.33
575.877	45983.3
576.238	45887.48
576.599	46149.85
576.96	46204.99
577.32	46122.28
577.681	46351.2
578.042	46402.04
578.403	46482.72
578.763	46464.41
579.124	46440.69
579.485	46647.23
579.845	46763.16
580.206	46744.63
580.566	46760.23
580.927	46784.86
581.287	46920.67
581.648	46805.42
582.008	46963.84
582.368	46966.32
582.728	47005.19
583.089	46986.89
583.449	46981.24
583.809	47220.1
584.169	47136.71
584.529	47108.24
584.889	47451.73
585.249	47113.21
585.609	47035.02
585.969	47194.79
586.329	47141.23
586.688	47149.37
587.048	47166.09
587.408	47046.55
587.768	47126.09
588.127	47157.05
588.487	47274.79
588.846	47421.22
589.206	47078.41
589.565	47131.51
589.925	47390.94
590.284	47099.88
590.643	47307.33
591.003	47249.48
591.362	47422.58
591.721	47346.42
592.08	47211.29
592.44	47457.38
592.799	47242.92
593.158	47148.24
593.517	47289.25
593.876	47374.9
594.235	47229.59
594.593	47415.35
594.952	47359.53
595.311	47330.15
595.67	47429.13
596.029	47651.73
596.387	47664.83
596.746	47748.45
597.104	47416.25
597.463	47519.3
597.822	47722.69
598.18	47518.62
598.538	47582.12
598.897	47800.42
599.255	47467.33
599.613	48022.11
599.972	47835.9
600.33	47828.9
600.688	47721.78
601.046	47918.16
601.404	47962.68
601.762	47834.77
602.12	47975.79
602.478	48027.31
602.836	47945.96
603.194	47825.51
603.552	47896.92
603.91	47945.73
604.268	48218.72
604.625	48027.08
604.983	48149.34
605.341	47995.67
605.698	48210.81
606.056	48314.53
606.413	48221.2
606.771	48368.54
607.128	48416.23
607.485	48245.38
607.843	48289.22
608.2	48549.78
608.557	48678.37
608.914	48535.77
609.272	48610.8
609.629	48701.19
609.986	48738.48
610.343	48753.62
610.7	49004.46
611.057	48883.11
611.414	48893.5
611.771	48770.57
612.127	49015.76
612.484	48905.93
612.841	49079.26
613.198	48985.25
613.554	49039.04
613.911	49259.14
614.267	49272.93
614.624	49142.76
614.98	49200.61
615.337	49360.38
615.693	49206.26
616.05	49366.71
616.406	49552.24
616.762	49218.01
617.118	49414.39
617.475	49467.5
617.831	49481.51
618.187	49549.53
618.543	49670.21
618.899	49706.81
619.255	49635.18
619.611	49624.33
619.967	49685.8
620.323	49870.2
620.678	49686.48
621.034	49508.63
621.39	49657.78
621.746	49568.97
622.101	49970.54
622.457	49617.55
622.812	49798.79
623.168	49855.74
623.523	49871.1
623.879	49969.63
624.234	49611.22
624.589	49868.62
624.945	49913.59
625.3	49947.94
625.655	49827.49
626.01	49870.43
626.365	49907.26
626.72	49868.39
627.075	49840.82
627.43	49872.91
627.785	49694.39
628.14	49718.57
628.495	49823.2
628.85	49819.81
629.205	49711.79
629.559	49944.55
629.914	49770.54
630.269	49813.93
630.623	49800.6
630.978	49669.75
631.332	49808.51
631.687	49762.86
632.041	49656.65
632.396	49695.29
632.75	49543.65
633.104	49618.68
633.459	49475.41
633.813	49572.81
634.167	49397.67
634.521	49439.02
634.875	49477.89
635.229	49297.79
635.583	49228.63
635.937	49247.39
636.291	49186.6
636.645	49213.49
636.999	49074.51
637.352	49291.68
637.706	48992.71
638.06	49203.78
638.413	49022.31
638.767	48944.8
639.121	49005.82
639.474	48823.45
639.828	48850.34
640.181	48911.13
640.534	48833.17
640.888	48777.57
641.241	48587.52
641.594	48632.27
641.947	48693.51
642.301	48467.3
642.654	48594.98
643.007	48571.48
643.36	48461.42
643.713	48443.57
644.066	48607.63
644.419	48405.38
644.771	48075.9
645.124	47764.94
645.477	47597.72
645.83	47142.36
646.182	47224.62
646.535	46992.76
646.888	47138.75
647.24	47014.46
647.593	47184.39
647.945	47159.31
648.298	46868.7
648.65	46892.88
649.002	46745.08
649.355	46822.14
649.707	46812.43
650.059	47086.77
650.411	47326.09
650.763	47378.74
651.115	47803.59
651.467	47584.84
651.819	47572.63
652.171	47501.67
652.523	47505.06
652.875	47469.81
653.227	47227.33
653.578	47543.48
653.93	47377.16
654.282	47224.39
654.633	47117.96
654.985	47275.24
655.337	47302.36
655.688	47124.96
656.039	47337.39
656.391	47111.63
656.742	47009.71
657.094	47099.88
657.445	47189.37
657.796	47091.29
658.147	46903.72
658.498	46805.65
658.849	46892.43
659.2	46983.5
659.551	46767.68
659.902	46898.3
660.253	46780.56
660.604	46767.46
660.955	46556.61
661.306	46836.83
661.656	46771.75
662.007	46733.56
662.358	46588.93
662.708	46764.29
663.059	46692.88
663.409	46448.37
663.76	46682.49
664.11	46590.06
664.461	46681.81
664.811	46729.94
665.161	46502.38
665.511	46461.48
665.862	46523.62
666.212	46491.08
666.562	46581.02
666.912	46656.73
667.262	46408.37
667.612	46485.66
667.962	46397.07
668.312	46339.9
668.662	46436.39
669.011	46399.56
669.361	46281.14
669.711	46268.03
670.06	46069.17
670.41	46127.93
670.76	46198.21
671.109	46252.44
671.459	46084.76
671.808	46125.67
672.157	46203.86
672.507	45890.87
672.856	46067.14
673.205	46118.89
673.554	46134.71
673.904	45849.29
674.253	46097.64
674.602	45963.41
674.951	45476.87
675.3	45180.83
675.649	45877.99
675.998	45768.16
676.346	45964.09
676.695	45867.59
677.044	45639.12
677.393	45655.17
677.741	45634.61
678.09	45437.55
678.438	45499.69
678.787	45651.1
679.135	45465.8
679.484	45189.65
679.832	45407.94
680.181	45022.64
680.529	45233.49
680.877	45113.49
681.225	45205.46
681.573	45348.51
681.922	45022.19
682.27	44896.09
682.618	44924.57
682.966	44730.9
683.314	44908.75
683.661	44679.38
684.009	44554.41
684.357	44340.18
684.705	44205.26
685.053	44357.12
685.4	44213.85
685.748	44045.49
686.095	44072.61
686.443	43892.05
686.79	43858.61
687.138	43838.04
687.485	43788.78
687.832	43628.56
688.18	43700.19
688.527	43457.26
688.874	43371.39
689.221	43287.32
689.568	43126.65
689.915	43066.31
690.262	43048.01
690.609	43010.72
690.956	42718.52
691.303	42711.07
691.65	42669.94
691.997	42564.4
692.344	42395.37
692.69	42281.7
693.037	42376.61
693.383	42019.11
693.73	42117.18
694.077	41935.72
694.423	41954.48
694.769	41718.78
695.116	41557.2
695.462	41520.82
695.808	41549.29
696.155	41538.67
696.501	41422.74
696.847	41341.61
697.193	40969.19
697.539	41166.47
697.885	40942.07
698.231	40628.86
698.577	40716.99
698.923	40645.58
699.269	40558.13
699.614	40313.62
699.96	40173.28
700.306	40216.89
700.651	39819.84
700.997	39738.04
701.342	39886.96
701.688	39718.15
702.033	39593.63
702.379	39512.96
702.724	39502.56
703.069	39622.79
703.415	38974.89
703.76	39129.01
704.105	39006.08
704.45	39048.79
704.795	38855.12
705.14	38706.88
705.485	38721.79
705.83	38540.1
706.175	38651.51
706.52	38434.34
706.865	38290.39
707.209	38396.6
707.554	38161.81
707.899	38287.45
708.243	38122.71
708.588	38009.04
708.932	37848.14
709.277	37794.81
709.621	37740.35
709.966	37576.74
710.31	37563.4
710.654	37173.13
710.998	37347.14
711.342	37484.54
711.687	37336.29
712.031	37096.75
712.375	36987.15
712.719	36978.56
713.063	36918.68
713.407	36990.31
713.75	36774.05
714.094	36855.18
714.438	36654.73
714.782	36634.62
715.125	36427.16
715.469	36544.9
715.812	36354.4
716.156	36221.97
716.499	36128.87
716.843	36280.95
717.186	36078.92
717.53	36217.23
717.873	36221.52
718.216	35939.94
718.559	35935.88
718.902	35683.91
719.246	35751.93
719.589	35653.85
719.932	35429
720.275	35541.99
720.617	35539.05
720.96	35462.67
721.303	35417.25
721.646	35480.07
721.989	35200.76
722.331	35307.42
722.674	35084.37
723.016	35150.81
723.359	35066.3
723.701	35078.95
724.044	34729.81
724.386	34647.1
724.729	34873.08
725.071	34699.98
725.413	34594.22
725.755	34623.14
726.097	34471.28
726.439	34323.04
726.782	34425.41
727.124	34665.4
727.465	34276.26
727.807	34306.77
728.149	34148.81
728.491	34080.33
728.833	34126.21
729.175	33966.89
729.516	33940.68
729.858	33848.25
730.199	33981.8
730.541	33805.99
730.882	33831.3
731.224	33809.38
731.565	33673.11
731.906	33590.4
732.248	33672.21
732.589	33392.22
732.93	33350.63
733.271	33360.13
733.612	33337.98
733.953	33440.12
734.294	33242.39
734.635	33161.49
734.976	33350.86
735.317	33094.14
735.658	33106.57
735.999	33089.62
736.339	33045.33
736.68	33055.27
737.021	32946.58
737.361	32825.45
737.702	32911.32
738.042	32872.45
738.383	32625
738.723	32649.41
739.063	32527.15
739.404	32646.02
739.744	32432.47
740.084	32316.31
740.424	32467.72
740.764	32385.91
741.104	32373.48
741.444	32210.78
741.784	32049.65
742.124	32136.88
742.464	32150.44
742.804	32000.61
743.143	32037
743.483	32009.65
743.823	31880.39
744.162	31984.12
744.502	31922.2
744.841	31639.72
745.181	31696.21
745.52	31546.84
745.86	31745.93
746.199	31587.29
746.538	31598.36
746.877	31546.16
747.216	31455.54
747.556	31381.19
747.895	31475.2
748.234	31244.48
748.573	31419.16
748.911	31314.3
749.25	31050.13
749.589	31051.71
749.928	31121.77
750.267	31118.15
750.605	30864.37
750.944	30826.18
751.283	30709.35
751.621	30827.31
751.96	30669.8
752.298	30525.17
752.636	30627.09
752.975	30502.57
