Data from white_wall_FLMS001491_097.txt Node
Date: Tue Feb 07 11:06:16 GMT 2017
User: dcchb
Spectrometer: FLMS00149
Trigger mode: 0
Integration Time (sec): 2.000000E-2
Scans to average: 10
Electric dark correction enabled: true
Nonlinearity correction enabled: false
Boxcar width: 0
XAxis mode: Wavelengths
Number of Pixels in Spectrum: 2048
>>>>>Begin Spectral Data<<<<<
341.393	-17.58
341.776	-17.58
342.16	-17.58
342.543	-55.1
342.927	-69.33
343.31	-65.04
343.693	-72.72
344.077	-47.87
344.46	-66.62
344.843	-27.98
345.226	-49.67
345.61	-55.78
345.993	-20.52
346.376	-14.87
346.759	12.92
347.142	28.74
347.525	46.82
347.908	68.29
348.291	74.39
348.674	80.49
349.057	109.42
349.44	100.6
349.823	134.73
350.206	177.66
350.588	224.67
350.971	240.04
351.354	234.16
351.737	268.74
352.119	266.7
352.502	301.73
352.884	325.68
353.267	303.31
353.65	312.35
354.032	306.93
354.414	329.3
354.797	332.24
355.179	336.3
355.562	349.41
355.944	358.23
356.326	377.66
356.709	351.67
357.091	372.24
357.473	350.77
357.855	368.39
358.238	361.16
358.62	360.71
359.002	348.73
359.384	343.99
359.766	372.46
360.148	375.85
360.53	373.82
360.912	343.31
361.294	365.68
361.676	352.12
362.057	354.61
362.439	358.68
362.821	349.19
363.203	354.38
363.584	343.99
363.966	352.35
364.348	344.21
364.729	350.99
365.111	342.18
365.493	335.4
365.874	340.15
366.256	342.18
366.637	354.16
367.019	332.69
367.4	336.08
367.781	351.67
368.163	354.38
368.544	340.82
368.925	363.42
369.306	361.84
369.688	350.54
370.069	330.88
370.45	346.7
370.831	355.06
371.212	351.9
371.593	360.94
371.974	354.61
372.355	349.86
372.736	341.95
373.117	346.47
373.498	344.67
373.879	353.71
374.26	349.86
374.641	353.93
375.021	356.42
375.402	337.43
375.783	356.42
376.163	373.14
376.544	354.38
376.925	355.06
377.305	364.78
377.686	370.88
378.066	382.18
378.447	376.53
378.827	381.28
379.208	371.11
379.588	350.09
379.968	367.26
380.349	370.65
380.729	365
381.109	378.34
381.489	397.77
381.87	393.48
382.25	390.54
382.63	365.46
383.01	385.34
383.39	381.95
383.77	398.9
384.15	405.23
384.53	419.92
384.91	426.92
385.29	419.47
385.67	398.9
386.049	416.98
386.429	410.43
386.809	426.7
387.189	423.08
387.568	436.87
387.948	434.16
388.328	441.61
388.707	460.14
389.087	447.04
389.466	441.84
389.846	433.93
390.225	466.47
390.605	482.29
390.984	473.93
391.363	487.71
391.743	474.15
392.122	489.07
392.501	516.19
392.881	501.72
393.26	513.93
393.639	528.62
394.018	515.06
394.397	542.4
394.776	550.99
395.155	578.33
395.534	557.99
395.913	558.45
396.292	585.11
396.671	579.01
397.05	597.31
397.429	609.97
397.808	622.62
398.186	607.94
398.565	642.29
398.944	628.5
399.323	632.57
399.701	664.88
400.08	674.37
400.458	699.46
400.837	680.25
401.215	696.97
401.594	726.35
401.972	747.82
402.351	740.14
402.729	765.22
403.107	769.51
403.486	773.36
403.864	814.26
404.242	803.41
404.62	832.56
404.999	842.73
405.377	852.9
405.755	860.13
406.133	913.24
406.511	920.02
406.889	918.66
407.267	954.59
407.645	978.32
408.023	979.9
408.401	1002.28
408.779	1026
409.156	1023.29
409.534	1065.78
409.912	1083.63
410.29	1107.58
410.667	1105.78
411.045	1108.71
411.422	1160.69
411.8	1185.77
412.178	1169.96
412.555	1191.88
412.933	1241.14
413.31	1263.74
413.687	1255.38
414.065	1275.94
414.442	1290.4
414.819	1323.17
415.197	1308.26
415.574	1357.07
415.951	1383.06
416.328	1388.71
416.705	1377.86
417.082	1395.03
417.46	1418.31
417.837	1471.42
418.214	1478.2
418.591	1480
418.967	1485.43
419.344	1534.69
419.721	1532.88
420.098	1545.76
420.475	1548.7
420.852	1581.02
421.228	1604.75
421.605	1585.76
421.982	1659.89
422.358	1647.91
422.735	1650.62
423.111	1674.12
423.488	1725.42
423.864	1736.72
424.241	1756.15
424.617	1767.23
424.994	1790.73
425.37	1793.22
425.746	1844.74
426.123	1810.16
426.499	1857.17
426.875	1867.34
427.251	1920.44
427.627	1961.57
428.003	1970.61
428.379	1986.2
428.756	2036.15
429.132	2057.62
429.507	2085.64
429.883	2128.35
430.259	2137.16
430.635	2148.01
431.011	2166.54
431.387	2247.44
431.763	2265.52
432.138	2274.11
432.514	2299.87
432.89	2331.51
433.265	2373.99
433.641	2445.63
434.016	2441.33
434.392	2476.81
434.767	2522.24
435.143	2530.15
435.518	2514.33
435.894	2576.25
436.269	2614.44
436.644	2683.59
437.02	2705.51
437.395	2704.38
437.77	2758.39
438.145	2785.51
438.52	2818.5
438.895	2842.45
439.271	2855.79
439.646	2949.57
440.021	2921.1
440.395	2988.44
440.77	2928.78
441.145	2966.74
441.52	3042.22
441.895	3042.9
442.27	3086.97
442.645	3092.62
443.019	3154.08
443.394	3145.5
443.769	3204.03
444.143	3197.47
444.518	3230.92
444.892	3223.23
445.267	3262.33
445.641	3312.95
446.016	3325.38
446.39	3309.33
446.764	3398.6
447.139	3389.78
447.513	3430.23
447.887	3474.75
448.262	3490.12
448.636	3517.46
449.01	3552.94
449.384	3583.22
449.758	3609.44
450.132	3675.2
450.506	3646.05
450.88	3695.09
451.254	3720.62
451.628	3746.61
452.002	3784.58
452.376	3853.05
452.75	3838.13
453.123	3898.47
453.497	3988.41
453.871	4011.46
454.244	4101.63
454.618	4099.82
454.992	4162.87
455.365	4208.52
455.739	4313.83
456.112	4360.38
456.486	4401.73
456.859	4415.75
457.232	4540.04
457.606	4457.78
457.979	4590.88
458.352	4676.76
458.725	4734.83
459.099	4762.18
459.472	4851.21
459.845	4919.01
460.218	4985.22
460.591	5034.94
460.964	5036.52
461.337	5182.28
461.71	5221.37
462.083	5310.86
462.456	5335.27
462.829	5324.87
463.201	5472.44
463.574	5508.37
463.947	5649.39
464.32	5672.21
464.692	5764.18
465.065	5806.22
465.438	5879.44
465.81	5994.46
466.183	6077.85
466.555	6172.31
466.928	6228.58
467.3	6260.22
467.672	6304.51
468.045	6537.95
468.417	6552.41
468.789	6606.65
469.161	6646.65
469.534	6797.6
469.906	6944.27
470.278	6972.51
470.65	7143.58
471.022	7234.65
471.394	7412.95
471.766	7453.41
472.138	7569.56
472.51	7734.53
472.882	7849.78
473.253	7975.88
473.625	8117.12
473.997	8209.77
474.369	8250.22
474.74	8367.28
475.112	8562.08
475.484	8656.76
475.855	8862.86
476.227	8977.66
476.598	9205
476.97	9236.18
477.341	9504.65
477.713	9646.57
478.084	9673.46
478.455	9982.15
478.827	10027.58
479.198	10441.58
479.569	10343.05
479.94	10653.55
480.311	10801.57
480.682	11059.41
481.053	11277.49
481.424	11383.7
481.795	11647.42
482.166	11816.91
482.537	11889.45
482.908	12282.88
483.279	12228.65
483.65	12612.37
484.021	12771.01
484.391	13016.42
484.762	13085.35
485.133	13280.6
485.503	13481.72
485.874	13768.72
486.244	13873.35
486.615	14156.28
486.985	14295.26
487.356	14635.36
487.726	14695.93
488.097	15079.87
488.467	15045.3
488.837	15469.47
489.207	15605.28
489.578	15773.64
489.948	15984.71
490.318	16197.81
490.688	16327.3
491.058	16622.43
491.428	16823.1
491.798	16930.9
492.168	17392.58
492.538	17425.12
492.908	17728.62
493.278	17934.71
493.648	17880.93
494.017	18270.75
494.387	18418.77
494.757	18540.35
495.126	18720
495.496	18820.79
495.866	18922.93
496.235	19082.48
496.605	19364.05
496.974	19511.62
497.344	19724.04
497.713	19903.02
498.082	20076.8
498.452	20158.61
498.821	20305.05
499.19	20449.22
499.559	20590.01
499.928	20761.3
500.298	20899.38
500.667	21105.02
501.036	21132.14
501.405	21406.71
501.774	21464.11
502.143	21762.41
502.512	21830.88
502.88	22068.16
503.249	22106.58
503.618	22253.24
503.987	22356.74
504.356	22552.22
504.724	22740.69
505.093	22732.78
505.462	22985.43
505.83	23268.36
506.199	23545.41
506.567	23714.9
506.936	23625.41
507.304	23968.68
507.672	24115.79
508.041	24111.27
508.409	24477.59
508.777	24589
509.145	24929.78
509.514	24897.69
509.882	25119.61
510.25	25196.44
510.618	25381.75
510.986	25528.64
511.354	25930.43
511.722	26260.82
512.09	26423.53
512.458	26155.74
512.826	26564.09
513.193	26783.07
513.561	26870.97
513.929	27088.82
514.297	27441.13
514.664	27525.65
515.032	27679.77
515.4	27971.51
515.767	28092.86
516.135	28335.57
516.502	28105.52
516.869	28614.43
517.237	28842.67
517.604	28712.28
517.972	29100.75
518.339	29414.86
518.706	29522.43
519.073	29740.28
519.44	29934.62
519.808	30297.55
520.175	30160.15
520.542	30688.28
520.909	30775.73
521.276	30676.98
521.643	31199.9
522.009	31464.53
522.376	31629.04
522.743	31845.31
523.11	32252.08
523.477	32515.57
523.843	32634.21
524.21	33061.32
524.577	33236
524.943	33316.23
525.31	33635.32
525.676	33883.22
526.043	33949.43
526.409	34263.1
526.776	34633.03
527.142	34668.51
527.508	34910.31
527.874	35282.73
528.241	35486.57
528.607	35540.58
528.973	35803.85
529.339	35745.32
529.705	36098.08
530.071	36520.21
530.437	36667.78
530.803	36898.96
531.169	37027.54
531.535	37020.76
531.901	37177.6
532.267	37345.73
532.632	37659.17
532.998	37892.38
533.364	38026.61
533.73	38115.65
534.095	38545.92
534.461	38493.95
534.826	38849.19
535.192	38923.76
535.557	39221.16
535.923	39079.92
536.288	39328.27
536.653	39551.32
537.019	39425.45
537.384	39782.27
537.749	39975.26
538.114	39970.06
538.479	40153.11
538.845	40374.57
539.21	40257.74
539.575	40538.19
539.94	40716.94
540.305	40986.08
540.67	40951.51
541.034	41141.79
541.399	41299.07
541.764	41504.49
542.129	41680.3
542.494	41797.36
542.858	41993.51
543.223	41973.18
543.587	42307.63
543.952	42273.06
544.316	42409.77
544.681	42382.43
545.045	42631.46
545.41	42904.45
545.774	43070.55
546.138	43198.91
546.503	43265.57
546.867	43300.82
547.231	43751.89
547.595	43744.43
547.959	43886.57
548.324	44042.05
548.688	44168.15
549.052	44293.57
549.416	44496.73
549.779	44690.17
550.143	44578.53
550.507	44978.97
550.871	45112.98
551.235	45121.57
551.599	45637.26
551.962	45548.45
552.326	45807.2
552.689	46073.18
553.053	45952.73
553.417	46112.05
553.78	46678.82
554.143	46498.93
554.507	46794.74
554.87	47011.01
555.234	47372.58
555.597	47092.36
555.96	47335.29
556.323	47633.14
556.686	47538.91
557.05	47929.86
557.413	48090.08
557.776	48281.71
558.139	48581.59
558.502	48581.36
558.865	48641.25
559.228	49037.62
559.59	49121.24
559.953	49166.43
560.316	49619.08
560.679	49525.75
561.041	49730.49
561.404	49980.42
561.767	50228.78
562.129	50129.12
562.492	50561.65
562.854	50511.26
563.217	50662.67
563.579	50784.92
563.941	51042.09
564.304	51118.02
564.666	51406.6
565.028	51497.22
565.39	51482.08
565.753	51714.16
566.115	51843.65
566.477	51940.37
566.839	52095.17
567.201	52225.11
567.563	52229.86
567.925	52484.99
568.287	52553.46
568.648	52581.26
569.01	52827.13
569.372	52906
569.734	52924.53
570.095	53116.39
570.457	53244.29
570.819	53273.67
571.18	53328.13
571.542	53566.54
571.903	53517.96
572.265	53599.31
572.626	53674.79
572.987	53826.42
573.349	53861.9
573.71	53971.28
574.071	54076.59
574.432	54046.98
574.794	54269.35
575.155	54267.09
575.516	54223.48
575.877	54433.64
576.238	54508.21
576.599	54569.68
576.96	54541.43
577.32	54560.87
577.681	54711.6
578.042	54666.18
578.403	54778.49
578.763	54769
579.124	54760.41
579.485	54878.15
579.845	55061.87
580.206	54885.38
580.566	54937.58
580.927	55000.86
581.287	55096.45
581.648	55075.2
582.008	55179.83
582.368	55148.65
582.728	55235.88
583.089	55115.66
583.449	55216.9
583.809	55150.46
584.169	55227.74
584.529	55172.83
584.889	55413.95
585.249	55269.78
585.609	55132.15
585.969	55369.43
586.329	55293.28
586.688	55271.36
587.048	55356.55
587.408	55292.37
587.768	55290.34
588.127	55272.49
588.487	55310.9
588.846	55463.89
589.206	55353.16
589.565	55402.65
589.925	55458.02
590.284	55418.02
590.643	55336.67
591.003	55495.08
591.362	55561.07
591.721	55462.99
592.08	55454.4
592.44	55522.42
592.799	55541.63
593.158	55541.18
593.517	55497.34
593.876	55510.67
594.235	55401.52
594.593	55498.7
594.952	55622.31
595.311	55527.62
595.67	55532.14
596.029	55781.63
596.387	55685.81
596.746	55775.3
597.104	55601.97
597.463	55628.86
597.822	55732.81
598.18	55576.21
598.538	55590.9
598.897	55771.23
599.255	55532.37
599.613	55913.37
599.972	55745.92
600.33	55884
600.688	55817.78
601.046	55841.29
601.404	55984.79
601.762	55775.98
602.12	55963.77
602.478	55928.06
602.836	55986.37
603.194	55857.56
603.552	55905.92
603.91	55884
604.268	56090.77
604.625	55909.08
604.983	56068.4
605.341	55889.19
605.698	56038.79
606.056	56169.41
606.413	56137.78
606.771	56235.85
607.128	56196.08
607.485	56103.2
607.843	56158.11
608.2	56246.25
608.557	56330.99
608.914	56316.3
609.272	56370.99
609.629	56447.15
609.986	56523.75
610.343	56368.96
610.7	56531.21
611.057	56536.86
611.414	56516.52
611.771	56503.64
612.127	56658.44
612.484	56643.98
612.841	56737.53
613.198	56571.21
613.554	56697.31
613.911	56819.11
614.267	56801.71
614.624	56719.91
614.98	56831.09
615.337	56996.74
615.693	56872.67
616.05	56866.8
616.406	57068.37
616.762	56869.06
617.118	56858.21
617.475	56920.13
617.831	56993.8
618.187	56963.29
618.543	57032.67
618.899	57176.84
619.255	57158.09
619.611	57118.09
619.967	57260.46
620.323	57246.9
620.678	57247.58
621.034	57132.55
621.39	57121.25
621.746	57129.16
622.101	57465.2
622.457	57194.92
622.812	57256.16
623.168	57321.25
623.523	57322.83
623.879	57333.68
624.234	57175.71
624.589	57273.56
624.945	57302.04
625.3	57294.81
625.655	57282.15
626.01	57347.91
626.365	57248.71
626.72	57263.62
627.075	57305.65
627.43	57200.8
627.785	57267.24
628.14	57326.22
628.495	57251.19
628.85	57286.67
629.205	57166
629.559	57348.14
629.914	57131.2
630.269	57194.47
630.623	57044.42
630.978	57050.07
631.332	57194.92
631.687	57259.78
632.041	57058.88
632.396	57116.28
632.75	57015.49
633.104	57055.04
633.459	56875.38
633.813	56942.05
634.167	56902.05
634.521	56964.87
634.875	56997.19
635.229	56893.46
635.583	56877.19
635.937	56777.53
636.291	56780.7
636.645	56792.67
636.999	56667.7
637.352	56789.74
637.706	56611.89
638.06	56775.95
638.413	56659.34
638.767	56570.98
639.121	56669.29
639.474	56513.13
639.828	56523.08
640.181	56490.76
640.534	56507.71
640.888	56387.03
641.241	56323.08
641.594	56358.56
641.947	56424.55
642.301	56258.9
642.654	56353.36
643.007	56352.91
643.36	56271.11
643.713	56248.51
644.066	56373.48
644.419	56089.87
644.771	55942.07
645.124	55688.07
645.477	55625.25
645.83	55468.19
646.182	55438.36
646.535	55324.01
646.888	55376.21
647.24	55227.74
647.593	55422.31
647.945	55310.23
648.298	55195.43
648.65	55205.82
649.002	55038.14
649.355	55180.51
649.707	55063.45
650.059	55193.17
650.411	55516.1
650.763	55530.56
651.115	55740.5
651.467	55601.74
651.819	55620.5
652.171	55669.09
652.523	55579.15
652.875	55503.89
653.227	55473.84
653.578	55615.08
653.93	55562.65
654.282	55446.49
654.633	55264.8
654.985	55396.55
655.337	55348.42
655.688	55391.13
656.039	55491.24
656.391	55235.2
656.742	55277.23
657.094	55229.32
657.445	55338.25
657.796	55205.82
658.147	55211.02
658.498	55198.37
658.849	55251.47
659.2	55169.89
659.551	55069.78
659.902	55235.2
660.253	55109.55
660.604	55229.78
660.955	54963.12
661.306	55101.19
661.656	55051.25
662.007	55029.33
662.358	54939.61
662.708	55057.8
663.059	55014.64
663.409	54842.67
663.76	54941.65
664.11	54960.18
664.461	54995.66
664.811	54957.92
665.161	54941.87
665.511	54837.92
665.862	54885.6
666.212	54942.55
666.562	54964.02
666.912	54865.49
667.262	54891.93
667.612	54769.68
667.962	54834.98
668.312	54680.64
668.662	54915.21
669.011	54807.41
669.361	54727.19
669.711	54753.18
670.06	54613.97
670.41	54577.82
670.76	54609.45
671.109	54707.53
671.459	54629.11
671.808	54557.03
672.157	54613.07
672.507	54413.98
672.856	54473.86
673.205	54490.81
673.554	54605.61
673.904	54432.74
674.253	54560.87
674.602	54430.93
674.951	54060.99
675.3	53843.6
675.649	54295.34
675.998	54308.44
676.346	54315.9
676.695	54479.06
677.044	54173.53
677.393	54256.02
677.741	54218.73
678.09	54174.66
678.438	54059.19
678.787	54133.76
679.135	54157.49
679.484	53919.53
679.832	54049.24
680.181	53823.26
680.529	53985.97
680.877	53900.77
681.225	53786.2
681.573	53979.64
681.922	53818.74
682.27	53715.92
682.618	53760.66
682.966	53596.37
683.314	53691.29
683.661	53599.31
684.009	53292.65
684.357	53346.66
684.705	53252.2
685.053	53304.18
685.4	53251.07
685.748	53065.09
686.095	53089.04
686.443	52983.06
686.79	52888.14
687.138	52980.34
687.485	52873.68
687.832	52731.54
688.18	52786.9
688.527	52447.7
688.874	52630.97
689.221	52492.67
689.568	52412.9
689.915	52393.47
690.262	52286.35
690.609	52164.09
690.956	52157.54
691.303	52022.18
691.65	51948.51
691.997	51888.62
692.344	51719.81
692.69	51586.26
693.037	51743.54
693.383	51364.12
693.73	51627.61
694.077	51357.79
694.423	51387.39
694.769	51306.04
695.116	51157.57
695.462	51079.6
695.808	50979.49
696.155	51059.72
696.501	50732.95
696.847	50796.45
697.193	50630.58
697.539	50649.33
697.885	50449.11
698.231	50268.78
698.577	50297.93
698.923	50234.88
699.269	50047.99
699.614	49883.93
699.96	49837.83
700.306	49801.44
700.651	49671.5
700.997	49543.6
701.342	49652.3
701.688	49485.52
702.033	49408.23
702.379	49388.35
702.724	49122.82
703.069	49116.49
703.415	48846.89
703.76	48848.7
704.105	48909.04
704.45	48716.5
704.795	48455.49
705.14	48376.17
705.485	48446.9
705.83	48311.77
706.175	48256.17
706.52	48286.23
706.865	48006.24
707.209	47947.71
707.554	47994.03
707.899	47858.9
708.243	47697.32
708.588	47623.2
708.932	47491.22
709.277	47443.99
709.621	47418.68
709.966	47137.79
710.31	47349.98
710.654	46997.45
710.998	47006.26
711.342	47022.76
711.687	46837.68
712.031	46836.1
712.375	46647.86
712.719	46730.57
713.063	46495.77
713.407	46523.11
713.75	46455.54
714.094	46332.16
714.438	46239.73
714.782	46256.68
715.125	46170.81
715.469	46111.37
715.812	45902.11
716.156	45807.88
716.499	45851.27
716.843	45782.12
717.186	45479.3
717.53	45528.34
717.873	45543.25
718.216	45412.63
718.559	45340.32
718.902	45049.25
719.246	45160.66
719.589	45073.43
719.932	44903.04
720.275	44895.59
720.617	44945.3
720.96	44676.83
721.303	44768.81
721.646	44717.51
721.989	44543.05
722.331	44646.1
722.674	44344.19
723.016	44396.62
723.359	44333.11
723.701	44424.19
724.044	44187.13
724.386	43968.83
724.729	44169.73
725.071	43942.62
725.413	43779
725.755	43844.99
726.097	43762.96
726.439	43513.93
726.782	43536.75
727.124	43875.72
727.465	43491.55
727.807	43472.12
728.149	43443.19
728.491	43262.41
728.833	43169.3
729.175	43204.78
729.516	43028.52
729.858	43046.82
730.199	42981.96
730.541	42833.72
730.882	42805.02
731.224	42904.22
731.565	42792.36
731.906	42645.7
732.248	42711.24
732.589	42540.84
732.93	42389.44
733.271	42335.43
733.612	42341.75
733.953	42406.38
734.294	42183.34
734.635	41936.34
734.976	42231.47
735.317	41947.41
735.658	41882.78
735.999	41922.1
736.339	41800.07
736.68	41849.11
737.021	41572.06
737.361	41553.3
737.702	41820.86
738.042	41620.19
738.383	41542
738.723	41579.51
739.063	41544.03
739.404	41398.05
739.744	41283.02
740.084	41151.73
740.424	41227.43
740.764	41036.03
741.104	41139.07
741.444	41063.6
741.784	40797.39
742.124	40957.16
742.464	40754.68
742.804	40824.73
743.143	40717.39
743.483	40746.77
743.823	40421.13
744.162	40470.16
744.502	40492.31
744.841	40270.17
745.181	40344.52
745.52	40386.55
745.86	40302.71
746.199	40238.08
746.538	40049.84
746.877	40165.54
747.216	40064.07
747.556	40039.22
747.895	39937.75
748.234	39790.41
748.573	39646.46
748.911	39676.97
749.25	39683.97
749.589	39511.09
749.928	39680.13
750.267	39602.39
750.605	39542.73
750.944	39371.44
751.283	39118.56
751.621	39251.44
751.96	39030.88
752.298	38913.82
752.636	38998.34
752.975	38693.71
