Data from White_reflection_standard_FLMS001491_035.txt Node
Date: Tue Feb 07 10:32:02 GMT 2017
User: dcchb
Spectrometer: FLMS00149
Trigger mode: 0
Integration Time (sec): 2.000000E-2
Scans to average: 10
Electric dark correction enabled: true
Nonlinearity correction enabled: false
Boxcar width: 0
XAxis mode: Wavelengths
Number of Pixels in Spectrum: 2048
>>>>>Begin Spectral Data<<<<<
341.393	2.4
341.776	2.4
342.16	2.4
342.543	-63.36
342.927	-60.2
343.31	-83.25
343.693	-55.68
344.077	-64.04
344.46	-43.47
344.843	-61.78
345.226	-48.22
345.61	-24.72
345.993	-7.32
346.376	-1.89
346.759	18.22
347.142	9.63
347.525	51.21
347.908	66.81
348.291	47.82
348.674	92.79
349.057	103.87
349.44	124.66
349.823	157.2
350.206	176.86
350.588	222.73
350.971	254.6
351.354	274.03
351.737	287.59
352.119	302.28
352.502	324.2
352.884	313.58
353.267	340.47
353.65	346.57
354.032	359
354.414	358.1
354.797	376.18
355.179	364.65
355.562	384.76
355.944	386.12
356.326	379.79
356.709	394.26
357.091	384.09
357.473	407.59
357.855	390.87
358.238	408.72
358.62	400.58
359.002	422.95
359.384	406.91
359.766	411.2
360.148	424.54
360.53	411.88
360.912	402.16
361.294	416.4
361.676	386.12
362.057	384.31
362.439	408.27
362.821	422.05
363.203	416.4
363.584	404.2
363.966	421.15
364.348	393.13
364.729	407.36
365.111	401.26
365.493	412.79
365.874	406.46
366.256	415.05
366.637	420.92
367.019	424.99
367.4	438.32
367.781	420.24
368.163	424.08
368.544	445.33
368.925	403.52
369.306	417.53
369.688	419.34
370.069	448.27
370.45	448.49
370.831	445.1
371.212	425.89
371.593	443.29
371.974	444.2
372.355	450.98
372.736	478.32
373.117	450.98
373.498	447.36
373.879	443.52
374.26	446.01
374.641	424.99
375.021	438.77
375.402	455.04
375.783	476.51
376.163	511.77
376.544	506.12
376.925	500.47
377.305	469.06
377.686	500.47
378.066	496.85
378.447	517.87
378.827	511.31
379.208	516.51
379.588	508.15
379.968	533.91
380.349	547.25
380.729	513.57
381.109	532.1
381.489	568.49
381.87	571.2
382.25	565.32
382.63	553.12
383.01	541.6
383.39	566.45
383.77	567.58
384.15	568.49
384.53	591.76
384.91	592.44
385.29	609.62
385.67	600.35
386.049	624.31
386.429	613.23
386.809	637.64
387.189	610.07
387.568	629.28
387.948	643.29
388.328	655.27
388.707	674.25
389.087	663.4
389.466	643.51
389.846	672.89
390.225	690.29
390.605	684.42
390.984	700.91
391.363	713.34
391.743	747.69
392.122	725.77
392.501	741.36
392.881	724.42
393.26	762.38
393.639	728.48
394.018	785.88
394.397	791.98
394.776	798.99
395.155	800.57
395.534	800.12
395.913	803.28
396.292	813.23
396.671	820.68
397.05	819.1
397.429	847.12
397.808	844.19
398.186	849.61
398.565	867.92
398.944	870.17
399.323	887.12
399.701	880.8
400.08	897.52
400.458	910.17
400.837	926.44
401.215	928.93
401.594	928.25
401.972	942.04
402.351	950.85
402.729	958.31
403.107	994.24
403.486	966.9
403.864	968.93
404.242	997.18
404.62	1020.45
404.999	1026.1
405.377	1029.04
405.755	1077.4
406.133	1083.28
406.511	1057.29
406.889	1108.59
407.267	1138.64
407.645	1109.04
408.023	1127.34
408.401	1152.2
408.779	1174.57
409.156	1213.89
409.534	1211.86
409.912	1198.98
410.29	1247.11
410.667	1250.28
411.045	1294.12
411.422	1295.47
411.8	1313.1
412.178	1331.18
412.555	1327.56
412.933	1350.16
413.31	1377.28
413.687	1405.3
414.065	1407.34
414.442	1422.93
414.819	1421.57
415.197	1457.5
415.574	1504.28
415.951	1484.85
416.328	1497.95
416.705	1489.59
417.082	1518.97
417.46	1582.92
417.837	1570.95
418.214	1576.37
418.591	1616.37
418.967	1620.66
419.344	1658.4
419.721	1668.57
420.098	1653.66
420.475	1683.49
420.852	1726.88
421.228	1744.05
421.605	1739.08
421.982	1767.1
422.358	1803.03
422.735	1777.04
423.111	1789.7
423.488	1834.9
423.864	1855.69
424.241	1867.89
424.617	1896.59
424.994	1911.96
425.37	1932.29
425.746	1926.19
426.123	2007.55
426.499	2000.77
426.875	2031.5
427.251	2059.97
427.627	2074.21
428.003	2124.38
428.379	2151.72
428.756	2175.9
429.132	2232.17
429.507	2233.98
429.883	2278.73
430.259	2303.13
430.635	2320.98
431.011	2340.64
431.387	2432.39
431.763	2471.94
432.138	2463.58
432.514	2506.52
432.89	2506.74
433.265	2612.5
433.641	2620.64
434.016	2647.3
434.392	2685.27
434.767	2759.39
435.143	2726.62
435.518	2774.98
435.894	2770.69
436.269	2837.58
436.644	2902.44
437.02	2901.99
437.395	2894.08
437.77	2957.58
438.145	2988.09
438.52	3033.96
438.895	3073.96
439.271	3098.59
439.646	3134.75
440.021	3145.14
440.395	3170.91
440.77	3174.97
441.145	3189.89
441.52	3276.89
441.895	3264.69
442.27	3308.3
442.645	3313.27
443.019	3363.44
443.394	3368.19
443.769	3410.67
444.143	3425.36
444.518	3468.07
444.892	3468.75
445.267	3509.2
445.641	3515.76
446.016	3536.55
446.39	3614.51
446.764	3650.67
447.139	3631.23
447.513	3704.45
447.887	3682.08
448.262	3720.27
448.636	3729.53
449.01	3774.73
449.384	3836.65
449.758	3824.22
450.132	3850.44
450.506	3903.54
450.88	3963.43
451.254	3941.28
451.628	4048.85
452.002	4103.99
452.376	4108.28
452.75	4177.88
453.123	4146.47
453.497	4267.6
453.871	4280.25
454.244	4355.51
454.618	4399.8
454.992	4469.18
455.365	4475.5
455.739	4574.71
456.112	4617.42
456.486	4684.99
456.859	4762.05
457.232	4787.13
457.606	4817.19
457.979	4899
458.352	4975.83
458.725	5033.91
459.099	5056.51
459.472	5156.84
459.845	5252.43
460.218	5263.05
460.591	5357.74
460.964	5338.31
461.337	5444.29
461.71	5546.66
462.083	5664.63
462.456	5687.22
462.829	5708.92
463.201	5829.82
463.574	5846.32
463.947	5933.32
464.32	6062.58
464.692	6140.09
465.065	6174.44
465.438	6304.61
465.81	6346.19
466.183	6367.66
466.555	6506.64
466.928	6549.57
467.3	6519.74
467.672	6685.62
468.045	6828.44
468.417	6895.1
468.789	6938.26
469.161	7041.09
469.534	7154.53
469.906	7351.13
470.278	7291.02
470.65	7453.96
471.022	7614.63
471.394	7767.62
471.766	7817.11
472.138	7909.99
472.51	8109.08
472.882	8284.44
473.253	8361.5
473.625	8431.11
473.997	8636.98
474.369	8643.98
474.74	8774.83
475.112	8961.04
475.484	9101.82
475.855	9307.69
476.227	9297.75
476.598	9627.46
476.97	9720.79
477.341	9871.97
477.713	10023.61
478.084	10148.12
478.455	10370.26
478.827	10525.06
479.198	10836.24
479.569	10848.67
479.94	11091.38
480.311	11237.81
480.682	11498.14
481.053	11747.4
481.424	11855.87
481.795	12079.37
482.166	12255.86
482.537	12400.49
482.908	12633.03
483.279	12797.32
483.65	13026.01
484.021	13257.42
484.391	13437.75
484.762	13564.3
485.133	13714.36
485.503	13849.27
485.874	14218.98
486.244	14355.47
486.615	14598.18
486.985	14820.99
487.356	15115.22
487.726	15189.35
488.097	15460.3
488.467	15622.33
488.837	15893.28
489.207	16059.38
489.578	16367.62
489.948	16472.25
490.318	16738.91
490.688	16781.39
491.058	17042.63
491.428	17308.39
491.798	17425.45
492.168	17846
492.538	17830.86
492.908	18018.42
493.278	18364.63
493.648	18396.04
494.017	18643.27
494.387	18736.37
494.757	18865.86
495.126	19103.14
495.496	19196.25
495.866	19373.42
496.235	19649.34
496.605	19741.77
496.974	19818.83
497.344	20047.52
497.713	20231.25
498.082	20383.56
498.452	20646.38
498.821	20665.36
499.19	20814.74
499.559	21023.09
499.928	21132.47
500.298	21238
500.667	21509.86
501.036	21445.23
501.405	21804.31
501.774	21808.38
502.143	22001.37
502.512	22132.44
502.88	22290.18
503.249	22434.35
503.618	22449.27
503.987	22678.64
504.356	22885.87
504.724	22982.81
505.093	23069.37
505.462	23200.21
505.83	23387.32
506.199	23589.13
506.567	23818.05
506.936	23878.84
507.304	24158.83
507.672	24340.74
508.041	24413.96
508.409	24664.35
508.777	24864.8
509.145	24961.52
509.514	25051.91
509.882	25298.46
510.25	25386.59
510.618	25537.77
510.986	25702.29
511.354	25931.44
511.722	26057.08
512.09	26458.2
512.458	26323.74
512.826	26595.6
513.193	26811.64
513.561	26926.44
513.929	27181.57
514.297	27398.06
514.664	27602.81
515.032	27671.73
515.4	28004.38
515.767	28032.85
516.135	28277.14
516.502	28304.93
516.869	28698.6
517.237	28884.35
517.604	28815.65
517.972	29229.66
518.339	29326.83
518.706	29332.93
519.073	29822.18
519.44	29990.31
519.808	30282.96
520.175	30121.84
520.542	30629.17
520.909	30822.83
521.276	30870.06
521.643	31196.16
522.009	31419.88
522.376	31727.67
522.743	31945.97
523.11	32303.92
523.477	32427.31
523.843	32708.43
524.21	33037.46
524.577	33296.21
524.943	33408.3
525.31	33569.43
525.676	34034.73
526.043	34137.77
526.409	34324.44
526.776	34758.55
527.142	34884.42
527.508	35142.95
527.874	35278.54
528.241	35578.64
528.607	35678.75
528.973	35943.15
529.339	36021.79
529.705	36335.46
530.071	36664.26
530.437	36828.1
530.803	37126.17
531.169	37328.65
531.535	37181.76
531.901	37420.4
532.267	37658.59
532.632	37920.5
532.998	37850.9
533.364	38274.16
533.73	38392.58
534.095	38686.81
534.461	38700.59
534.826	38987.14
535.192	39084.99
535.557	39347.13
535.923	39322.05
536.288	39491.76
536.653	39698.08
537.019	39795.71
537.384	39901.46
537.749	40160.67
538.114	40232.3
538.479	40437.72
538.845	40535.57
539.21	40453.54
539.575	40687.88
539.94	40931.27
540.305	41150.02
540.67	41151.15
541.034	41204.48
541.399	41492.61
541.764	41558.37
542.129	41725.15
542.494	41743.22
542.858	41962.88
543.223	41984.8
543.587	42338.91
543.952	42255.08
544.316	42557.89
544.681	42540.04
545.045	42777.1
545.41	42937.77
545.774	43050.76
546.138	43042.4
546.503	43306.57
546.867	43400.13
547.231	43764.87
547.595	43794.7
547.959	43918.99
548.324	43908.82
548.688	44034.01
549.052	44178.87
549.416	44309.26
549.779	44342.25
550.143	44586.77
550.507	44960.31
550.871	44885.97
551.235	44958.06
551.599	45244.83
551.962	45499.51
552.326	45493.41
552.689	45730.69
553.053	45695.44
553.417	45828.99
553.78	46282.54
554.143	46175.42
554.507	46362.54
554.87	46495.42
555.234	46803.43
555.597	46739.03
555.96	46908.51
556.323	47119.35
556.686	47180.82
557.05	47494.26
557.413	47493.36
557.776	47659.68
558.139	47904.87
558.502	48036.84
558.865	48199.78
559.228	48425.53
559.59	48559.32
559.953	48617.62
560.316	49056.93
560.679	49020.1
561.041	49308.68
561.404	49401.78
561.767	49714.31
562.129	49447.65
562.492	50002.89
562.854	49928.09
563.217	49997.02
563.579	50218.71
563.941	50403.11
564.304	50507.06
564.666	50717.45
565.028	50844.23
565.39	50967.39
565.753	51223.65
566.115	51206.93
566.477	51372.8
566.839	51474.27
567.201	51644.21
567.563	51726.46
567.925	51914.71
568.287	52012.56
568.648	51994.71
569.01	52266.11
569.372	52344.3
569.734	52223.63
570.095	52656.38
570.457	52688.7
570.819	52787.23
571.18	52851.63
571.542	53056.37
571.903	52981.57
572.265	53095.69
572.626	53205.97
572.987	53290.72
573.349	53342.47
573.71	53480.09
574.071	53549.02
574.432	53608.45
574.794	53817.94
575.155	53894.77
575.516	53786.75
575.877	53850.02
576.238	54064.03
576.599	54106.74
576.96	54141.09
577.32	54141.32
577.681	54254.53
578.042	54310.58
578.403	54330.24
578.763	54353.29
579.124	54438.26
579.485	54483.23
579.845	54568.88
580.206	54534.07
580.566	54544.02
580.927	54581.53
581.287	54625.82
581.648	54654.98
582.008	54737.23
582.368	54619.27
582.728	54738.59
583.089	54673.28
583.449	54677.57
583.809	54792.6
584.169	54755.76
584.529	54763.67
584.889	55012.25
585.249	54779.94
585.609	54742.88
585.969	54845.93
586.329	54785.37
586.688	54890.45
587.048	54789.21
587.408	54810.45
587.768	54742.43
588.127	54754.18
588.487	54756.22
588.846	55044.34
589.206	54710.34
589.565	54802.77
589.925	54876.44
590.284	54800.96
590.643	54910.56
591.003	54856.1
591.362	54990.56
591.721	54940.62
592.08	54890.9
592.44	55009.32
592.799	55080.5
593.158	54938.81
593.517	54997.34
593.876	54883.9
594.235	54956.21
594.593	55000.73
594.952	55132.25
595.311	54953.27
595.67	55020.62
596.029	55152.59
596.387	55216.54
596.746	55205.24
597.104	55045.7
597.463	55094.06
597.822	55273.26
598.18	55128.18
598.538	55045.47
598.897	55325.47
599.255	55031.46
599.613	55512.81
599.972	55229.65
600.33	55376.76
600.688	55277.33
601.046	55326.37
601.404	55414.28
601.762	55343.09
602.12	55513.26
602.478	55590.54
602.836	55509.19
603.194	55337.44
603.552	55404.11
603.91	55383.77
604.268	55535.86
604.625	55428.29
604.983	55597.78
605.341	55397.33
605.698	55637.1
606.056	55673.25
606.413	55605.01
606.771	55775.85
607.128	55722.74
607.485	55634.61
607.843	55691.11
608.2	55774.72
608.557	55919.35
608.914	55819.92
609.272	55916.19
609.629	55993.7
609.986	55995.96
610.343	55916.64
610.7	56156.86
611.057	56043.64
611.414	56007.71
611.771	56073.7
612.127	56219.45
612.484	56151.89
612.841	56258.55
613.198	56145.56
613.554	56161.15
613.911	56318.89
614.267	56286.57
614.624	56286.34
614.98	56329.96
615.337	56408.6
615.693	56380.13
616.05	56365.44
616.406	56479.79
616.762	56380.35
617.118	56302.62
617.475	56390.52
617.831	56460.58
618.187	56440.47
618.543	56468.04
618.899	56642.27
619.255	56548.26
619.611	56531.76
619.967	56638.88
620.323	56706.67
620.678	56515.49
621.034	56502.61
621.39	56518.43
621.746	56477.75
622.101	56720.68
622.457	56492.44
622.812	56607.01
623.168	56621.25
623.523	56629.16
623.879	56675.71
624.234	56526.56
624.589	56596.17
624.945	56608.14
625.3	56690.18
625.655	56682.94
626.01	56619.9
626.365	56623.74
626.72	56569.73
627.075	56611.08
627.43	56580.57
627.785	56541.93
628.14	56577.64
628.495	56622.16
628.85	56520.24
629.205	56525.66
629.559	56597.52
629.914	56442.05
630.269	56536.96
630.623	56404.76
630.978	56418.32
631.332	56481.37
631.687	56520.01
632.041	56324.08
632.396	56444.53
632.75	56312.33
633.104	56359.56
633.459	56168.83
633.813	56297.64
634.167	56181.04
634.521	56189.85
634.875	56138.78
635.229	56151.89
635.583	56057.88
635.937	55960.48
636.291	55942.4
636.645	55917.99
636.999	55836.19
637.352	55987.82
637.706	55796.41
638.06	55914.83
638.413	55774.04
638.767	55725.23
639.121	55839.8
639.474	55587.61
639.828	55713.93
640.181	55608.17
640.534	55659.69
640.888	55621.28
641.241	55518.91
641.594	55506.48
641.947	55535.63
642.301	55413.83
642.654	55462.19
643.007	55420.6
643.36	55362.98
643.713	55291.34
644.066	55431
644.419	55200.5
644.771	54956.21
645.124	54743.11
645.477	54750.11
645.83	54469.44
646.182	54351.48
646.535	54283.91
646.888	54405.26
647.24	54106.29
647.593	54381.76
647.945	54232.84
648.298	54218.38
648.65	54033.75
649.002	53949.46
649.355	54115.55
649.707	53972.51
650.059	54162.33
650.411	54404.81
650.763	54455.21
651.115	54759.83
651.467	54734.75
651.819	54585.6
652.171	54595.77
652.523	54512.61
652.875	54441.42
653.227	54333.18
653.578	54542.66
653.93	54426.73
654.282	54326.4
654.633	54232.16
654.985	54297.47
655.337	54325.94
655.688	54288.88
656.039	54358.26
656.391	54087.98
656.742	54146.74
657.094	54192.61
657.445	54284.82
657.796	54137.7
658.147	54135.44
658.498	54039.17
658.849	54143.12
659.2	54081.21
659.551	53931.38
659.902	54071.26
660.253	53986.07
660.604	54026.52
660.955	53881.89
661.306	54020.87
661.656	53909.23
662.007	53870.14
662.358	53883.24
662.708	53851.61
663.059	53856.58
663.409	53624.95
663.76	53870.36
664.11	53817.94
664.461	53846.86
664.811	53832.4
665.161	53778.16
665.511	53624.27
665.862	53714.89
666.212	53822.91
666.562	53690.71
666.912	53660.43
667.262	53636.7
667.612	53678.05
667.962	53657.04
668.312	53583.82
668.662	53635.57
669.011	53615.23
669.361	53534.55
669.711	53519.41
670.06	53492.52
670.41	53451.84
670.76	53362.13
671.109	53493.88
671.459	53343.37
671.808	53390.38
672.157	53412.75
672.507	53198.52
672.856	53237.39
673.205	53216.82
673.554	53287.1
673.904	53210.27
674.253	53330.49
674.602	53273.77
674.951	52742.03
675.3	52634.46
675.649	53098.86
675.998	53062.02
676.346	53027.67
676.695	53177.5
677.044	52924.17
677.393	53015.47
677.741	52992.19
678.09	52910.61
678.438	52789.04
678.787	52887.56
679.135	52939.09
679.484	52668.13
679.832	52797.4
680.181	52692.09
680.529	52811.41
680.877	52571.41
681.225	52579.78
681.573	52745.65
681.922	52478.76
682.27	52389.27
682.618	52436.5
682.966	52334.81
683.314	52262.04
683.661	52233.57
684.009	52036.97
684.357	51932.11
684.705	51904.99
685.053	52078.09
685.4	51991.77
685.748	51851.66
686.095	51725.11
686.443	51634.94
686.79	51535.74
687.138	51645.34
687.485	51594.26
687.832	51374.61
688.18	51474.72
688.527	51210.32
688.874	51218.23
689.221	51208.74
689.568	51053.49
689.915	51003.09
690.262	50935.53
690.609	50724.23
690.956	50772.14
691.303	50719.03
691.65	50491.69
691.997	50532.37
692.344	50311.36
692.69	50346.16
693.037	50306.84
693.383	49980.07
693.73	50125.6
694.077	49941.43
694.423	49935.33
694.769	49771.04
695.116	49713.86
695.462	49602.45
695.808	49490.82
696.155	49519.29
696.501	49203.59
696.847	49294.66
697.193	48898.06
697.539	49063.03
697.885	48744.17
698.231	48682.25
698.577	48708.69
698.923	48639.99
699.269	48386.21
699.614	48312.09
699.96	48211.08
700.306	48185.77
700.651	48017.64
700.997	47829.17
701.342	47944.87
701.688	47784.2
702.033	47634.37
702.379	47531.55
702.724	47494.49
703.069	47658.55
703.415	47059.92
703.76	47128.39
704.105	47165.91
704.45	46929.3
704.795	46850.89
705.14	46682.98
705.485	46796.88
705.83	46480.28
706.175	46432.59
706.52	46355.98
706.865	46174.52
707.209	46181.07
707.554	46030.34
707.899	46136.33
708.243	45818.6
708.588	45840.07
708.932	45464.48
709.277	45473.3
709.621	45517.81
709.966	45172.29
710.31	45247.54
710.654	44931.39
710.998	45102.23
711.342	45023.82
711.687	44906.31
712.031	44672.19
712.375	44594
712.719	44690.04
713.063	44481.91
713.407	44655.46
713.75	44331.86
714.094	44351.97
714.438	44135.03
714.782	44129.6
715.125	44094.35
715.469	44118.3
715.812	43899.33
716.156	43679.22
716.499	43716.96
716.843	43566.68
717.186	43513.35
717.53	43452.11
717.873	43451.2
718.216	43514.48
718.559	43188.38
718.902	42967.83
719.246	43088.73
719.589	42922.4
719.932	42835.85
720.275	42880.37
720.617	42678.12
720.96	42709.75
721.303	42638.12
721.646	42596.54
721.989	42422.08
722.331	42412.59
722.674	42356.77
723.016	42400.16
723.359	42201.07
723.701	42239.03
724.044	42011.92
724.386	41781.42
724.729	42037.68
725.071	41901.19
725.413	41773.96
725.755	41762.21
726.097	41673.17
726.439	41475.21
726.782	41532.38
727.124	41533.06
727.465	41278.83
727.807	41330.35
728.149	41042.23
728.491	41138.72
728.833	41209.23
729.175	40927.88
729.516	40904.83
729.858	40889.69
730.199	40859.18
730.541	40740.76
730.882	40769.92
731.224	40752.06
731.565	40451.73
731.906	40507.55
732.248	40505.29
732.589	40319.31
732.93	40213.32
733.271	40247.67
733.612	40244.51
733.953	40292.64
734.294	40040.67
734.635	39895.82
734.976	40003.16
735.317	39798.19
735.658	39748.47
735.999	39687.46
736.339	39614.69
736.68	39620.57
737.021	39515.03
737.361	39390.07
737.702	39450.63
738.042	39394.13
738.383	39280.24
738.723	39312.78
739.063	39191.88
739.404	39261.03
739.744	39097.19
740.084	38936.29
740.424	39023.07
740.764	38958.89
741.104	39111.88
741.444	38894.94
741.784	38679.12
742.124	38744.89
742.464	38625.57
742.804	38619.69
743.143	38424.67
743.483	38448.85
743.823	38294.5
744.162	38177.89
744.502	38239.14
744.841	38092.92
745.181	38147.61
745.52	38047.5
745.86	37992.59
746.199	37921.63
746.538	37830.11
746.877	37920.5
747.216	37772.03
747.556	37638.02
747.895	37717.57
748.234	37440.74
748.573	37491.13
748.911	37341.53
749.25	37440.29
749.589	37271.7
749.928	37242.78
750.267	37314.41
750.605	37171.14
750.944	36903.35
751.283	36850.25
751.621	37037.59
751.96	36725.73
752.298	36790.81
