Data from white_wall_FLMS001491_076.txt Node
Date: Tue Feb 07 11:05:46 GMT 2017
User: dcchb
Spectrometer: FLMS00149
Trigger mode: 0
Integration Time (sec): 2.000000E-2
Scans to average: 10
Electric dark correction enabled: true
Nonlinearity correction enabled: false
Boxcar width: 0
XAxis mode: Wavelengths
Number of Pixels in Spectrum: 2048
>>>>>Begin Spectral Data<<<<<
341.393	-18.52
341.776	-18.52
342.16	-18.52
342.543	-54.45
342.927	-65.07
343.31	-65.29
343.693	-80.21
344.077	-66.88
344.46	-60.32
344.843	-52.64
345.226	-40.89
345.61	-16.03
345.993	-6.99
346.376	-13.32
346.759	13.57
347.142	23.97
347.525	29.39
347.908	58.32
348.291	59.45
348.674	108.94
349.057	108.94
349.44	127.69
349.823	137.86
350.206	188.26
350.588	201.59
350.971	200.69
351.354	225.09
351.737	258.99
352.119	272.78
352.502	259.67
352.884	307.58
353.267	309.38
353.65	306.9
354.032	313.45
354.414	332.43
354.797	336.05
355.179	316.84
355.562	337.63
355.944	353.9
356.326	339.67
356.709	348.03
357.091	338.31
357.473	348.25
357.855	337.41
358.238	355.49
358.62	357.07
359.002	371.08
359.384	359.1
359.766	359.33
360.148	354.58
360.53	344.86
360.912	356.16
361.294	353.9
361.676	352.77
362.057	339.89
362.439	381.25
362.821	364.52
363.203	334.02
363.584	336.73
363.966	342.6
364.348	354.36
364.729	348.93
365.111	333.79
365.493	329.05
365.874	352.77
366.256	322.72
366.637	326.11
367.019	333.11
367.4	353.9
367.781	333.79
368.163	328.82
368.544	330.85
368.925	357.07
369.306	348.25
369.688	327.69
370.069	348.48
370.45	355.49
370.831	339.44
371.212	339.67
371.593	327.46
371.974	343.96
372.355	308.71
372.736	335.6
373.117	348.71
373.498	339.44
373.879	360.91
374.26	353.45
374.641	329.95
375.021	346.22
375.402	350.29
375.783	360.91
376.163	363.62
376.544	359.33
376.925	365.88
377.305	360.68
377.686	336.05
378.066	370.85
378.447	366.78
378.827	351.87
379.208	348.71
379.588	354.81
379.968	378.08
380.349	345.09
380.729	364.75
381.109	378.54
381.489	372.89
381.87	369.95
382.25	384.41
382.63	386.9
383.01	387.57
383.39	385.54
383.77	372.66
384.15	393.68
384.53	386.44
384.91	400.68
385.29	391.64
385.67	401.36
386.049	407.69
386.429	397.97
386.809	381.47
387.189	399.33
387.568	394.35
387.948	424.86
388.328	411.53
388.707	410.17
389.087	429.16
389.466	427.8
389.846	428.03
390.225	414.47
390.605	443.62
390.984	454.92
391.363	439.1
391.743	451.08
392.122	452.88
392.501	464.63
392.881	487.91
393.26	462.15
393.639	491.75
394.018	482.04
394.397	494.01
394.776	505.99
395.155	513.22
395.534	532.43
395.913	505.09
396.292	497.85
396.671	569.26
397.05	537.63
397.429	563.16
397.808	540.34
398.186	571.3
398.565	562.26
398.944	581.47
399.323	597.51
399.701	600.22
400.08	613.78
400.458	626.44
400.837	651.75
401.215	637.74
401.594	657.17
401.972	681.8
402.351	643.39
402.729	663.95
403.107	701.01
403.486	712.54
403.864	729.26
404.242	720.22
404.62	744.63
404.999	740.79
405.377	749.6
405.755	769.26
406.133	798.41
406.511	807.22
406.889	804.29
407.267	831.4
407.645	843.16
408.023	856.26
408.401	907.11
408.779	879.31
409.156	905.53
409.534	916.37
409.912	940.33
410.29	959.08
410.667	975.36
411.045	975.58
411.422	974.9
411.8	992.3
412.178	1023.72
412.555	1044.96
412.933	1065.07
413.31	1084.73
413.687	1075.01
414.065	1098.29
414.442	1134.45
414.819	1132.19
415.197	1122.7
415.574	1159.08
415.951	1172.41
416.328	1181.23
416.705	1178.29
417.082	1225.07
417.46	1227.33
417.837	1252.86
418.214	1280.21
418.591	1251.96
418.967	1258.29
419.344	1311.39
419.721	1321.79
420.098	1329.7
420.475	1381.22
420.852	1351.62
421.228	1372.86
421.605	1381.9
421.982	1405.17
422.358	1425.51
422.735	1424.84
423.111	1433.2
423.488	1491.27
423.864	1481.56
424.241	1473.65
424.617	1497.83
424.994	1537.15
425.37	1554.32
425.746	1549.58
426.123	1575.79
426.499	1571.27
426.875	1603.14
427.251	1641.33
427.627	1648.56
428.003	1657.82
428.379	1720.87
428.756	1709.8
429.132	1735.34
429.507	1792.06
429.883	1791.61
430.259	1841.32
430.635	1830.02
431.011	1870.47
431.387	1900.3
431.763	1905.5
432.138	1939.4
432.514	1958.83
432.89	1997.7
433.265	2004.71
433.641	2033.86
434.016	2064.14
434.392	2085.38
434.767	2119.28
435.143	2130.58
435.518	2155.66
435.894	2174.19
436.269	2245.15
436.644	2251.48
437.02	2290.12
437.395	2298.71
437.77	2324.92
438.145	2319.73
438.52	2366.96
438.895	2398.37
439.271	2390.91
439.646	2454.64
440.021	2459.84
440.395	2500.74
440.77	2468.65
441.145	2486.05
441.52	2566.27
441.895	2602.66
442.27	2585.93
442.645	2568.99
443.019	2646.95
443.394	2632.49
443.769	2684.24
444.143	2667.51
444.518	2720.85
444.892	2660.51
445.267	2759.72
445.641	2752.94
446.016	2752.03
446.39	2803.1
446.764	2847.62
447.139	2831.13
447.513	2898.47
447.887	2870.22
448.262	2886.04
448.636	2903.67
449.01	2985.47
449.384	3014.85
449.758	3039.71
450.132	3019.14
450.506	3062.31
450.88	3130.1
451.254	3101.18
451.628	3138.24
452.002	3172.13
452.376	3192.7
452.75	3281.28
453.123	3271.34
453.497	3340.72
453.871	3382.3
454.244	3418.23
454.618	3430.21
454.992	3501.39
455.365	3504.33
455.739	3639.01
456.112	3642.18
456.486	3660.48
456.859	3709.3
457.232	3775.96
457.606	3725.34
457.979	3797.2
458.352	3906.8
458.725	3931.89
459.099	4014.15
459.472	4051.43
459.845	4075.16
460.218	4161.03
460.591	4147.25
460.964	4203.29
461.337	4269.28
461.71	4375.04
462.083	4407.13
462.456	4412.33
462.829	4451.2
463.201	4535.04
463.574	4620.01
463.947	4643.28
464.32	4743.84
464.692	4770.96
465.065	4799.89
465.438	4877.85
465.81	4904.29
466.183	5013.22
466.555	5085.98
466.928	5173.89
467.3	5154.45
467.672	5228.13
468.045	5352.87
468.417	5406.65
468.789	5478.06
469.161	5483.71
469.534	5592.18
469.906	5695.91
470.278	5782.23
470.65	5877.37
471.022	6004.38
471.394	6045.73
471.766	6179.74
472.138	6173.19
472.51	6359.39
472.882	6457.02
473.253	6518.26
473.625	6573.4
473.997	6745.37
474.369	6814.07
474.74	6881.19
475.112	7028.08
475.484	7166.38
475.855	7251.8
476.227	7342.87
476.598	7595.07
476.97	7621.28
477.341	7799.13
477.713	7933.82
478.084	8025.34
478.455	8219.46
478.827	8314.6
479.198	8547.13
479.569	8490.86
479.94	8789.16
480.311	8883.4
480.682	9066.67
481.053	9201.13
481.424	9482.7
481.795	9561.8
482.166	9616.26
482.537	9813.54
482.908	10030.71
483.279	10140.31
483.65	10432.28
484.021	10577.59
484.391	10585.95
484.762	10745.49
485.133	10871.14
485.503	11085.82
485.874	11292.82
486.244	11363.11
486.615	11622.08
486.985	11685.13
487.356	12046.25
487.726	12140.71
488.097	12336.19
488.467	12348.84
488.837	12664.31
489.207	12826.8
489.578	12975.72
489.948	13096.62
490.318	13319.44
490.688	13412.77
491.058	13588.36
491.428	13808.92
491.798	13947.44
492.168	14253.42
492.538	14242.58
492.908	14446.41
493.278	14693.87
493.648	14735.22
494.017	14972.5
494.387	15037.36
494.757	15215.89
495.126	15279.84
495.496	15396.22
495.866	15595.54
496.235	15730.22
496.605	15888.86
496.974	16035.75
497.344	16134.28
497.713	16262.41
498.082	16439.81
498.452	16637.99
498.821	16710.31
499.19	16758.22
499.559	17031.66
499.928	17123.41
500.298	17250.18
500.667	17379.44
501.036	17320.46
501.405	17585.09
501.774	17618.31
502.143	17800
502.512	17893.1
502.88	18125.19
503.249	18094.68
503.618	18377.61
503.987	18447.21
504.356	18529.24
504.724	18657.83
505.093	18810.59
505.462	18877.48
505.83	18944.6
506.199	19250.36
506.567	19460.29
506.936	19375.1
507.304	19604.47
507.672	19826.61
508.041	19945.93
508.409	20151.35
508.777	20253.04
509.145	20393.83
509.514	20380.27
509.882	20596.99
510.25	20720.6
510.618	20862.29
510.986	21057.99
511.354	21151.32
511.722	21410.3
512.09	21660.46
512.458	21583.63
512.826	21772.77
513.193	21860.91
513.561	22027.91
513.929	22237.17
514.297	22426.77
514.664	22612.75
515.032	22815.23
515.4	22987.43
515.767	22990.14
516.135	23243.92
516.502	23177.94
516.869	23607.08
517.237	23689.56
517.604	23668.54
517.972	24001.42
518.339	24258.13
518.706	24212.26
519.073	24345.81
519.44	24568.63
519.808	24900.15
520.175	24830.77
520.542	25230.54
520.909	25408.84
521.276	25351.66
521.643	25751.88
522.009	25932.44
522.376	26053.79
522.743	26194.35
523.11	26466.44
523.477	26599.99
523.843	26820.78
524.21	27078.17
524.577	27313.65
524.943	27383.02
525.31	27680.42
525.676	27819.85
526.043	27992.5
526.409	28084.02
526.776	28573.05
527.142	28498.47
527.508	28804.91
527.874	28873.61
528.241	29132.58
528.607	29186.14
528.973	29559.91
529.339	29496.19
529.705	29887.59
530.071	30095.95
530.437	30082.84
530.803	30324.41
531.169	30534.35
531.535	30501.81
531.901	30566.22
532.267	30820.9
532.632	31045.75
532.998	31208.91
533.364	31551.73
533.73	31488.23
534.095	31650.71
534.461	31796.01
534.826	31929.57
535.192	32122.11
535.557	32241.2
535.923	32275.1
536.288	32426.96
536.653	32705.59
537.019	32664.47
537.384	32833.5
537.749	33042.99
538.114	33101.29
538.479	33173.15
538.845	33360.04
539.21	33301.51
539.575	33537.89
539.94	33565.01
540.305	33915.73
540.67	33844.1
541.034	33971.78
541.399	34255.61
541.764	34269.62
542.129	34520.69
542.494	34596.62
542.858	34513.91
543.223	34767.24
543.587	35069.6
543.952	35031.86
544.316	35093.33
544.681	35171.07
545.045	35468.91
545.41	35537.61
545.774	35615.35
546.138	35744.61
546.503	35814.21
546.867	35924.04
547.231	36214.43
547.595	36236.12
547.959	36443.8
548.324	36558.37
548.688	36655.77
549.052	36843.11
549.416	36931.7
549.779	36987.97
550.143	37271.8
550.507	37564.68
550.871	37674.5
551.235	37645.13
551.599	37894.61
551.962	37892.13
552.326	38128.28
552.689	38425.22
553.053	38239.69
553.417	38551.54
553.78	38843.96
554.143	39003.06
554.507	39108.36
554.87	39257.06
555.234	39674.45
555.597	39463.38
555.96	39644.4
556.323	39910.15
556.686	39945.18
557.05	40279.63
557.413	40414.09
557.776	40396.92
558.139	40696.8
558.502	40731.6
558.865	40991.7
559.228	41346.5
559.59	41455.42
559.953	41578.58
560.316	41870.78
560.679	42019.93
561.041	42206.59
561.404	42453.59
561.767	42724.77
562.129	42629.63
562.492	43053.57
562.854	43045.89
563.217	43096.28
563.579	43149.16
563.941	43524.52
564.304	43696.49
564.666	44007.22
565.028	44026.88
565.39	44193.88
565.753	44389.81
566.115	44538.73
566.477	44615.79
566.839	44807.2
567.201	44934.88
567.563	45045.61
567.925	45321.31
568.287	45444.02
568.648	45476.11
569.01	45706.38
569.372	45889.43
569.734	45932.37
570.095	46268.4
570.457	46303.43
570.819	46365.8
571.18	46431.34
571.542	46685.79
571.903	46718.11
572.265	46866.35
572.626	47026.57
572.987	47046.46
573.349	47175.27
573.71	47470.4
574.071	47561.7
574.432	47524.19
574.794	47859.09
575.155	47776.84
575.516	47645.54
575.877	47919.21
576.238	48053.44
576.599	48151.97
576.96	48287.33
577.32	48215.7
577.681	48397.84
578.042	48359.42
578.403	48488.91
578.763	48524.16
579.124	48421.79
579.485	48563.93
579.845	48737.26
580.206	48656.36
580.566	48670.15
580.927	48718.28
581.287	48951.5
581.648	48788.11
582.008	48956.69
582.368	48883.47
582.728	48944.49
583.089	48903.81
583.449	48939.29
583.809	48952.17
584.169	48978.39
584.529	49025.62
584.889	49147.2
585.249	49099.97
585.609	49031.72
585.969	49276.01
586.329	49026.52
586.688	49180.64
587.048	49069.23
587.408	49097.71
587.768	49101.55
588.127	49110.81
588.487	49098.61
588.846	49310.13
589.206	49085.96
589.565	49149.23
589.925	49300.86
590.284	49238.49
590.643	49144.71
591.003	49380.64
591.362	49462.67
591.721	49326.4
592.08	49168.21
592.44	49380.64
592.799	49406.62
593.158	49199.4
593.517	49331.15
593.876	49381.99
594.235	49296.8
594.593	49307.64
594.952	49411.14
595.311	49276.91
595.67	49475.55
596.029	49669.89
596.387	49594.87
596.746	49588.77
597.104	49500.41
597.463	49518.03
597.822	49703.57
598.18	49529.56
598.538	49606.62
598.897	49784.92
599.255	49386.06
599.613	50065.82
599.972	49781.53
600.33	49804.81
600.688	49536.79
601.046	49829.89
601.404	49922.77
601.762	49768.65
602.12	50042.54
602.478	49907.63
602.836	50025.37
603.194	49909.44
603.552	49832.83
603.91	49878.48
604.268	50066.95
604.625	49876.22
604.983	50198.24
605.341	49939.72
605.698	50125.48
606.056	50212.48
606.413	50120.96
606.771	50356.88
607.128	50425.35
607.485	50267.84
607.843	50278.01
608.2	50402.3
608.557	50526.14
608.914	50292.7
609.272	50605.01
609.629	50592.36
609.986	50771.56
610.343	50583.99
610.7	50895.63
611.057	50784.22
611.414	50784.67
611.771	50789.41
612.127	50954.61
612.484	50912.35
612.841	51063.98
613.198	50886.81
613.554	50863.76
613.911	51106.01
614.267	51136.07
614.624	51033.93
614.98	51139.69
615.337	51245.45
615.693	51211.32
616.05	51128.84
616.406	51359.12
616.762	51171.55
617.118	51239.34
617.475	51361.38
617.831	51363.64
618.187	51430.98
618.543	51494.48
618.899	51631.88
619.255	51602.95
619.611	51575.83
619.967	51516.17
620.323	51609.05
620.678	51528.15
621.034	51521.15
621.39	51590.07
621.746	51584.42
622.101	51862.61
622.457	51569.28
622.812	51667.36
623.168	51734.47
623.523	51698.99
623.879	51780.57
624.234	51547.59
624.589	51702.84
624.945	51683.63
625.3	51777.41
625.655	51729.95
626.01	51734.47
626.365	51733.34
626.72	51701.25
627.075	51659.22
627.43	51661.25
627.785	51625.1
628.14	51715.72
628.495	51648.83
628.85	51748.94
629.205	51549.17
629.559	51751.87
629.914	51616.28
630.269	51536.51
630.623	51404.76
630.978	51397.98
631.332	51527.92
631.687	51651.54
632.041	51479.79
632.396	51535.38
632.75	51430.53
633.104	51549.85
633.459	51227.82
633.813	51206.8
634.167	51291.32
634.521	51280.47
634.875	51218.1
635.229	51211.32
635.583	51050.42
635.937	51075.96
636.291	51034.15
636.645	50986.47
636.999	50864.21
637.352	51103.08
637.706	50896.75
638.06	50962.97
638.413	50854.5
638.767	50764.1
639.121	50836.42
639.474	50681.39
639.828	50728.4
640.181	50740.83
640.534	50659.7
640.888	50585.58
641.241	50481.4
641.594	50484.34
641.947	50622.19
642.301	50502.19
642.654	50395.3
643.007	50428.29
643.36	50349.2
643.713	50288.41
644.066	50421.51
644.419	50257.22
644.771	50100.84
645.124	49603.23
645.477	49578.82
645.83	49466.74
646.182	49239.17
646.535	49142.22
646.888	49209.34
647.24	48810.71
647.593	49229.68
647.945	49115.56
648.298	48915.11
648.65	48881.21
649.002	48768.22
649.355	48958.5
649.707	48844.61
650.059	48915.11
650.411	49381.54
650.763	49356.23
651.115	49840.96
651.467	49643.91
651.819	49683
652.171	49469.9
652.523	49435.78
652.875	49366.4
653.227	49324.14
653.578	49646.39
653.93	49502.89
654.282	49327.76
654.633	49257.48
654.985	49185.39
655.337	49165.28
655.688	49234.43
656.039	49258.15
656.391	48978.39
656.742	49066.75
657.094	49078.27
657.445	49074.2
657.796	49077.82
658.147	48968.44
658.498	48877.6
658.849	49103.81
659.2	48884.6
659.551	48796.25
659.902	48974.77
660.253	48858.39
660.604	48987.2
660.955	48682.58
661.306	48863.14
661.656	48701.33
662.007	48837.37
662.358	48823.59
662.708	48685.29
663.059	48621.11
663.409	48525.97
663.76	48677.38
664.11	48683.93
664.461	48686.42
664.811	48736.13
665.161	48656.14
665.511	48448.91
665.862	48543.6
666.212	48665.18
666.562	48735.46
666.912	48475.12
667.262	48550.83
667.612	48519.87
667.962	48553.54
668.312	48434.9
668.662	48585.4
669.011	48449.36
669.361	48366.2
669.711	48405.97
670.06	48306.54
670.41	48215.24
670.76	48380.66
671.109	48247.33
671.459	48309.7
671.808	48208.69
672.157	48361
672.507	47982.26
672.856	48015.93
673.205	48111.74
673.554	48172.08
673.904	47945.65
674.253	48191.52
674.602	47980.67
674.951	47339.11
675.3	47257.3
675.649	47903.84
675.998	47838.3
676.346	47799.66
676.695	47961.69
677.044	47555.15
677.393	47737.29
677.741	47676.73
678.09	47566.45
678.438	47501.82
678.787	47655.03
679.135	47627.01
679.484	47343.4
679.832	47419.33
680.181	47194.25
680.529	47432.44
680.877	47382.72
681.225	47136.18
681.573	47433.8
681.922	47074.48
682.27	46968.72
682.618	47054.82
682.966	46756.07
683.314	46923.75
683.661	46746.36
684.009	46588.39
684.357	46526.93
684.705	46487.83
685.053	46413.03
685.4	46415.97
685.748	46072.25
686.095	46085.36
686.443	45967.39
686.79	45891.46
687.138	45964.91
687.485	45944.57
687.832	45873.61
688.18	45844.46
688.527	45579.15
688.874	45658.47
689.221	45508.2
689.568	45318.37
689.915	45310.01
690.262	45225.94
690.609	45103.91
690.956	44996.35
691.303	45023.46
691.65	44675.68
691.997	44786.41
692.344	44592.51
692.69	44475
693.037	44601.33
693.383	44181.45
693.73	44355.68
694.077	44109.14
694.423	44059.65
694.769	43860.1
695.116	43915.24
695.462	43789.15
695.808	43682.03
696.155	43725.42
696.501	43293.57
696.847	43420.12
697.193	43140.35
697.539	43262.38
697.885	42943.07
698.231	42728.83
698.577	42673.92
698.923	42774.26
699.269	42515.96
699.614	42403.42
699.96	42291.33
700.306	42382.4
700.651	41931.57
700.997	41891.79
701.342	41785.81
701.688	41769.09
702.033	41845.69
702.379	41665.81
702.724	41628.07
703.069	41620.61
703.415	41213.62
703.76	41288.19
704.105	41268.53
704.45	41099.5
704.795	40840.07
705.14	40861.54
705.485	40760.52
705.83	40633.97
706.175	40681.2
706.52	40382.23
706.865	40359.4
707.209	40257.03
707.554	40097.49
707.899	40339.29
708.243	40116.7
708.588	39991.5
708.932	39775.92
709.277	39765.75
709.621	39868.57
709.966	39464.29
710.31	39666.54
710.654	39342.93
710.998	39424.97
711.342	39464.51
711.687	39341.58
712.031	39136.16
712.375	38992.89
712.719	39087.35
713.063	38885.09
713.407	39149.95
713.75	38703.4
714.094	38777.53
714.438	38706.79
714.782	38621.82
715.125	38502.73
715.469	38489.85
715.812	38250.76
716.156	38085.34
716.499	38095.74
716.843	38126.47
717.186	37918.79
717.53	38139.58
717.873	38173.93
718.216	37894.38
718.559	37863.2
718.902	37441.97
719.246	37658.91
719.589	37512.47
719.932	37352.7
720.275	37411.46
720.617	37201.75
720.96	37312.48
721.303	37328.75
721.646	37115.2
721.989	36942.32
722.331	37055.31
722.674	36892.83
723.016	36997.69
723.359	36889.67
723.701	36928.31
724.044	36652.38
724.386	36586.4
724.729	36761.99
725.071	36705.26
725.413	36487.87
725.755	36584.14
726.097	36344.37
726.439	36154.54
726.782	36223.47
727.124	36281.77
727.465	36061.89
727.807	36070.93
728.149	35934.44
728.491	35997.94
728.833	36087.88
729.175	35837.26
729.516	35885.85
729.858	35772.41
730.199	35834.78
730.541	35646.99
730.882	35633.43
731.224	35750.49
731.565	35415.81
731.906	35432.98
732.248	35478.18
732.589	35318.18
732.93	35309.59
733.271	35128.13
733.612	35149.37
733.953	35245.19
734.294	35085.42
734.635	34934.69
734.976	34937.17
735.317	34786.44
735.658	34718.2
735.999	34793.22
736.339	34776.05
736.68	34796.61
737.021	34775.82
737.361	34427.81
737.702	34677.07
738.042	34707.8
738.383	34482.27
738.723	34552.33
739.063	34422.16
739.404	34387.36
739.744	34219.68
740.084	34242.05
740.424	34156.63
740.764	34203.86
741.104	34153.69
741.444	33936.75
741.784	34028.05
742.124	33983.98
742.464	34007.26
742.804	33803.42
743.143	33795.06
743.483	33831.44
743.823	33705.12
744.162	33566.59
744.502	33705.79
744.841	33511.45
745.181	33601.39
745.52	33543.09
745.86	33505.12
746.199	33521.17
746.538	33251.8
746.877	33386.93
747.216	33223.77
747.556	33073.49
747.895	33103.32
748.234	32998.24
748.573	32941.07
748.911	32857.46
749.25	32957.57
749.589	32728.65
749.928	32762.77
750.267	32784.46
750.605	32744.69
750.944	32548.08
751.283	32550.57
751.621	32577.24
751.96	32365.04
752.298	32303.8
752.636	32363.68
752.975	32180.64
753.313	32023.35
