Data from white_poster_card_FLMS001491_00041.txt Node
Date: Wed Feb 08 11:51:33 GMT 2017
User: dcchb
Spectrometer: FLMS00149
Trigger mode: 0
Integration Time (sec): 2.000000E-2
Scans to average: 10
Electric dark correction enabled: true
Nonlinearity correction enabled: false
Boxcar width: 0
XAxis mode: Wavelengths
Number of Pixels in Spectrum: 2048
>>>>>Begin Spectral Data<<<<<
341.393	-6.26
341.776	-6.26
342.16	-6.26
342.543	-53.94
342.927	-69.53
343.31	-87.16
343.693	-61.4
344.077	-74.96
344.46	-40.38
344.843	-58.91
345.226	-52.13
345.61	-37.89
345.993	-12.81
346.376	-3.55
346.759	27.87
347.142	35.78
347.525	44.82
347.908	47.08
348.291	85.27
348.674	79.84
349.057	108.54
349.44	148.54
349.823	158.71
350.206	173.63
350.588	202.78
350.971	187.64
351.354	209.56
351.737	242.55
352.119	244.13
352.502	272.38
352.884	281.19
353.267	290.23
353.65	299.27
354.032	308.31
354.414	295.88
354.797	308.31
355.179	325.03
355.562	328.2
355.944	332.49
356.326	334.07
356.709	331.81
357.091	330.91
357.473	358.71
357.855	330.23
358.238	343.11
358.62	350.57
359.002	344.24
359.384	337.46
359.766	343.11
360.148	337.46
360.53	353.28
360.912	348.76
361.294	333.62
361.676	328.88
362.057	334.07
362.439	328.88
362.821	333.17
363.203	321.19
363.584	345.6
363.966	334.98
364.348	334.98
364.729	330.23
365.111	306.28
365.493	334.98
365.874	333.62
366.256	329.1
366.637	323
367.019	323.9
367.4	307.63
367.781	318.71
368.163	319.16
368.544	335.2
368.925	328.42
369.306	315.99
369.688	329.55
370.069	323
370.45	312.83
370.831	310.12
371.212	316.9
371.593	329.1
371.974	316.22
372.355	318.03
372.736	322.32
373.117	319.38
373.498	320.97
373.879	335.2
374.26	316.45
374.641	327.29
375.021	301.98
375.402	320.06
375.783	332.27
376.163	325.94
376.544	311.93
376.925	317.58
377.305	330.91
377.686	332.94
378.066	317.35
378.447	328.88
378.827	336.56
379.208	332.94
379.588	337.69
379.968	349.67
380.349	347.18
380.729	329.1
381.109	345.15
381.489	333.85
381.87	348.99
382.25	345.37
382.63	342.21
383.01	365.94
383.39	348.54
383.77	360.06
384.15	350.57
384.53	356.9
384.91	363.22
385.29	349.89
385.67	365.94
386.049	373.39
386.429	361.19
386.809	390.57
387.189	373.17
387.568	381.98
387.948	365.26
388.328	368.2
388.707	381.98
389.087	400.29
389.466	395.31
389.846	395.54
390.225	380.85
390.605	377.46
390.984	396.9
391.363	383.34
391.743	402.09
392.122	398.7
392.501	394.41
392.881	423.11
393.26	402.55
393.639	408.65
394.018	410.68
394.397	406.39
394.776	412.04
395.155	404.58
395.534	421.75
395.913	419.72
396.292	414.3
396.671	417.91
397.05	404.35
397.429	447.06
397.808	430.57
398.186	420.62
398.565	429.21
398.944	438.93
399.323	424.69
399.701	452.04
400.08	438.93
400.458	443.67
400.837	451.58
401.215	456.1
401.594	453.84
401.972	447.97
402.351	444.8
402.729	479.15
403.107	444.8
403.486	487.74
403.864	476.67
404.242	494.29
404.62	462.43
404.999	489.55
405.377	481.64
405.755	503.11
406.133	503.33
406.511	521.86
406.889	515.31
407.267	535.65
407.645	536.78
408.023	541.53
408.401	560.73
408.779	551.69
409.156	555.76
409.534	586.95
409.912	575.42
410.29	578.36
410.667	601.41
411.045	615.42
411.422	622.2
411.8	653.84
412.178	640.96
412.555	645.93
412.933	642.99
413.31	673.05
413.687	692.71
414.065	707.17
414.442	743.1
414.819	725.25
415.197	727.51
415.574	745.36
415.951	768.19
416.328	800.28
416.705	799.15
417.082	805.25
417.46	837.11
417.837	839.14
418.214	871.46
418.591	884.79
418.967	859.94
419.344	898.58
419.721	906.04
420.098	906.49
420.475	928.41
420.852	965.92
421.228	961.63
421.605	981.97
421.982	1012.02
422.358	1014.96
422.735	1061.96
423.111	1030.78
423.488	1061.96
423.864	1073.71
424.241	1087.73
424.617	1124.33
424.994	1106.71
425.37	1116.2
425.746	1135.86
426.123	1145.8
426.499	1144
426.875	1190.1
427.251	1181.73
427.627	1231
428.003	1215.18
428.379	1240.94
428.756	1254.5
429.132	1301.28
429.507	1315.97
429.883	1314.84
430.259	1313.71
430.635	1343.09
431.011	1358.9
431.387	1402.52
431.763	1434.84
432.138	1458.79
432.514	1480.94
432.89	1449.75
433.265	1487.26
433.641	1496.3
434.016	1547.6
434.392	1565.23
434.767	1595.96
435.143	1593.93
435.518	1613.14
435.894	1639.35
436.269	1684.55
436.644	1697.88
437.02	1653.59
437.395	1661.5
437.77	1726.35
438.145	1743.75
438.52	1775.39
438.895	1763.87
439.271	1777.65
439.646	1829.18
440.021	1862.85
440.395	1841.6
440.77	1838.21
441.145	1859.68
441.52	1882.73
441.895	1879.57
442.27	1908.72
442.645	1912.79
443.019	1939.45
443.394	1986.91
443.769	1966.35
444.143	1950.98
444.518	2012.22
444.892	1987.36
445.267	2013.13
445.641	2016.97
446.016	2079.79
446.39	2050.64
446.764	2054.48
447.139	2059
447.513	2087.93
447.887	2090.19
448.262	2097.42
448.636	2126.12
449.01	2149.39
449.384	2163.86
449.758	2166.12
450.132	2236.4
450.506	2244.98
450.88	2217.87
451.254	2259.45
451.628	2275.49
452.002	2294.7
452.376	2301.48
452.75	2359.56
453.123	2343.06
453.497	2390.06
453.871	2397.75
454.244	2432.1
454.618	2422.83
454.992	2508.25
455.365	2498.76
455.739	2567.69
456.112	2563.39
456.486	2610.85
456.859	2604.3
457.232	2646.55
457.606	2659.21
457.979	2670.28
458.352	2735.37
458.725	2764.74
459.099	2796.83
459.472	2860.79
459.845	2865.08
460.218	2886.55
460.591	2899.2
460.964	2928.58
461.337	2968.35
461.71	3023.49
462.083	3061.69
462.456	3072.31
462.829	3082.02
463.201	3130.38
463.574	3160.67
463.947	3194.11
464.32	3230.95
464.692	3330.38
465.065	3312.75
465.438	3383.71
465.81	3390.49
466.183	3437.49
466.555	3496.02
466.928	3502.8
467.3	3512.97
467.672	3608.11
468.045	3647.66
468.417	3646.53
468.789	3693.31
469.161	3740.54
469.534	3815.79
469.906	3903.02
470.278	3911.38
470.65	3917.03
471.022	4003.58
471.394	4121.77
471.766	4149.11
472.138	4186.85
472.51	4256.68
472.882	4343.46
473.253	4358.37
473.625	4416.9
473.997	4546.62
474.369	4570.12
474.74	4556.33
475.112	4675.65
475.484	4718.36
475.855	4830.9
476.227	4850.56
476.598	4982.09
476.97	5024.57
477.341	5107.73
477.713	5225.7
478.084	5253.49
478.455	5322.64
478.827	5434.28
479.198	5530.32
479.569	5560.6
479.94	5725.12
480.311	5744.1
480.682	5857.09
481.053	6017.77
481.424	6134.6
481.795	6107.93
482.166	6257.99
482.537	6305.89
482.908	6484.87
483.279	6519.22
483.65	6674.92
484.021	6798.54
484.391	6810.51
484.762	6913.79
485.133	7009.6
485.503	7045.99
485.874	7204.17
486.244	7326.88
486.615	7423.6
486.985	7529.82
487.356	7584.5
487.726	7692.07
488.097	7881.9
488.467	7896.59
488.837	8142
489.207	8234.88
489.578	8288.44
489.948	8278.95
490.318	8481.66
490.688	8478.27
491.058	8653.63
491.428	8706.51
491.798	8820.63
492.168	9037.8
492.538	9062.88
492.908	9086.39
493.278	9259.71
493.648	9343.78
494.017	9420.84
494.387	9534.06
494.757	9619.25
495.126	9689.76
495.496	9746.03
495.866	9782.64
496.235	9937.21
496.605	10042.29
496.974	10088.39
497.344	10216.07
497.713	10173.59
498.082	10251.33
498.452	10404.99
498.821	10466.91
499.19	10480.02
499.559	10641.15
499.928	10753.23
500.298	10785.1
500.667	10891.99
501.036	10934.25
501.405	10971.31
501.774	11049.72
502.143	11171.98
502.512	11198.65
502.88	11344.86
503.249	11321.13
503.618	11393.9
503.987	11478.64
504.356	11482.71
504.724	11660.78
505.093	11682.48
505.462	11749.59
505.83	11872.75
506.199	11938.74
506.567	12152.75
506.936	12087.66
507.304	12263.03
507.672	12304.38
508.041	12394.77
508.409	12537.82
508.777	12657.59
509.145	12732.39
509.514	12756.12
509.882	12846.51
510.25	12778.27
510.618	13029.56
510.986	12947.75
511.354	13170.12
511.722	13314.75
512.09	13411.47
512.458	13429.32
512.826	13560.39
513.193	13591.35
513.561	13594.74
513.929	13856.2
514.297	13862.53
514.664	14033.37
515.032	14119.93
515.4	14239.7
515.767	14286.7
516.135	14410.09
516.502	14262.97
516.869	14583.64
517.237	14721.72
517.604	14675.16
517.972	14834.26
518.339	15036.96
518.706	15035.83
519.073	15074.25
519.44	15235.15
519.808	15411.42
520.175	15395.15
520.542	15664.74
520.909	15652.99
521.276	15753.55
521.643	15914.91
522.009	16021.8
522.376	16131.4
522.743	16220.66
523.11	16523.48
523.477	16570.48
523.843	16687.54
524.21	16850.93
524.577	16998.49
524.943	17105.38
525.31	17158.04
525.676	17342.21
526.043	17411.14
526.409	17578.37
526.776	17832.6
527.142	17846.16
527.508	17904.68
527.874	18094.74
528.241	18219.03
528.607	18246.37
528.973	18401.85
529.339	18496.08
529.705	18645.46
530.071	18753.7
530.437	18958.89
530.803	19013.36
531.169	19096.29
531.535	19104.65
531.901	19214.71
532.267	19365.89
532.632	19375.61
532.998	19462.61
533.364	19725.2
533.73	19698.99
534.095	19841.81
534.461	19965.42
534.826	20050.84
535.192	20113.44
535.557	20254.23
535.923	20317.05
536.288	20371.74
536.653	20514.11
537.019	20466.43
537.384	20606.76
537.749	20686.76
538.114	20888.56
538.479	20750.94
538.845	20990.93
539.21	20956.58
539.575	21002.91
539.94	21216.24
540.305	21274.99
540.67	21258.72
541.034	21399.73
541.399	21441.54
541.764	21477.02
542.129	21562.22
542.494	21652.83
542.858	21768.99
543.223	21862.77
543.587	21970.34
543.952	21966.27
544.316	22089.89
544.681	22107.74
545.045	22290.56
545.41	22305.25
545.774	22358.13
546.138	22312.48
546.503	22494.17
546.867	22487.39
547.231	22731.68
547.595	22765.12
547.959	22968.96
548.324	22882.63
548.688	22902.29
549.052	23011.22
549.416	23089.18
549.779	23033.82
550.143	23241.04
550.507	23342.28
550.871	23460.92
551.235	23520.58
551.599	23617.98
551.962	23752.21
552.326	23787.92
552.689	23840.57
553.053	23836.73
553.417	23894.13
553.78	24255.93
554.143	24231.75
554.507	24419.09
554.87	24449.82
555.234	24712.64
555.597	24596.03
555.96	24729.82
556.323	24910.38
556.686	24785.86
557.05	25158.73
557.413	25164.83
557.776	25238.96
558.139	25413.64
558.502	25400.31
558.865	25427.42
559.228	25760.3
559.59	25840.52
559.953	25824.93
560.316	26146.73
560.679	26082.55
561.041	26351.24
561.404	26404.57
561.767	26661.29
562.129	26516.66
562.492	26904.67
562.854	26846.6
563.217	26853.38
563.579	26942.19
563.941	27140.6
564.304	27331.78
564.666	27398.9
565.028	27487.48
565.39	27613.58
565.753	27814.03
566.115	27877.98
566.477	27965.66
566.839	28017.64
567.201	28228.25
567.563	28230.51
567.925	28375.82
568.287	28430.28
568.648	28550.73
569.01	28675.47
569.372	28953.43
569.734	28747.34
570.095	29020.55
570.457	29041.11
570.819	29166.54
571.18	29300.32
571.542	29376.7
571.903	29385.96
572.265	29576.24
572.626	29603.36
572.987	29739.4
573.349	29855.1
573.71	29969.9
574.071	30045.16
574.432	29982.33
574.794	30213.06
575.155	30306.84
575.516	30161.31
575.877	30300.29
576.238	30296.45
576.599	30543
576.96	30516.56
577.32	30500.51
577.681	30778.7
578.042	30810.11
578.403	30711.81
578.763	30743.67
579.124	30797.23
579.485	30905.02
579.845	31038.8
580.206	30846.27
580.566	31015.75
580.927	31124.9
581.287	31139.82
581.648	30999.26
582.008	31249.87
582.368	31251.23
582.728	31321.05
583.089	31312.02
583.449	31191.34
583.809	31288.06
584.169	31380.71
584.529	31309.98
584.889	31553.14
585.249	31300.04
585.609	31278.8
585.969	31510.2
586.329	31226.37
586.688	31480.82
587.048	31455.06
587.408	31247.16
587.768	31305.24
588.127	31391.79
588.487	31461.16
588.846	31548.62
589.206	31329.87
589.565	31358.34
589.925	31495.74
590.284	31260.72
590.643	31542.52
591.003	31596.08
591.362	31650.76
591.721	31545.23
592.08	31633.82
592.44	31742.06
592.799	31681.95
593.158	31585.68
593.517	31521.73
593.876	31671.33
594.235	31405.57
594.593	31615.28
594.952	31570.54
595.311	31561.5
595.67	31737.99
596.029	31716.98
596.387	31778.22
596.746	31928.72
597.104	31738.22
597.463	31728.5
597.822	31762.63
598.18	31741.83
598.538	31711.78
598.897	31848.5
599.255	31688.95
599.613	32187.02
599.972	31888.95
600.33	32049.62
600.688	31787.71
601.046	32084.2
601.404	32253.69
601.762	32103.63
602.12	32280.8
602.478	32278.32
602.836	32325.77
603.194	32118.77
603.552	32162.39
603.91	32241.71
604.268	32217.08
604.625	32145.89
604.983	32225.44
605.341	32173.01
605.698	32306.11
606.056	32379.56
606.413	32240.8
606.771	32477.18
607.128	32477.63
607.485	32433.57
607.843	32534.81
608.2	32587.01
608.557	32697.97
608.914	32707.69
609.272	32769.38
609.629	32813.45
609.986	32808.02
610.343	32683.05
610.7	33001.24
611.057	32863.39
611.414	32824.52
611.771	32840.56
612.127	33062.7
612.484	33113.32
612.841	33231.97
613.198	33027.9
613.554	32998.52
613.911	33211.63
614.267	33151.06
614.624	33252.53
614.98	33132.98
615.337	33481.22
615.693	33286.43
616.05	33250.04
616.406	33435.35
616.762	33324.39
617.118	33346.09
617.475	33286.88
617.831	33526.19
618.187	33567.78
618.543	33585.63
618.899	33705.4
619.255	33628.34
619.611	33554.89
619.967	33782.46
620.323	33697.04
620.678	33508.12
621.034	33608
621.39	33645.97
621.746	33590.37
622.101	33993.3
622.457	33609.81
622.812	33844.38
623.168	33698.17
623.523	33757.6
623.879	33909.46
624.234	33653.87
624.589	33730.94
624.945	33768.22
625.3	33773.65
625.655	33694.1
626.01	33793.53
626.365	33799.63
626.72	33760.99
627.075	33695.68
627.43	33560.54
627.785	33641.67
628.14	33545.63
628.495	33705.4
628.85	33663.59
629.205	33588.11
629.559	33695.23
629.914	33525.52
630.269	33606.64
630.623	33488.68
630.978	33402.36
631.332	33575.46
631.687	33467.89
632.041	33477.83
632.396	33396.93
632.75	33310.38
633.104	33320.55
633.459	33326.2
633.813	33168.69
634.167	33248.91
634.521	33108.58
634.875	33202.81
635.229	33215.24
635.583	32971.18
635.937	32964.4
636.291	33025.64
636.645	33109.26
636.999	32818.42
637.352	32922.59
637.706	32721.92
638.06	32787.23
638.413	32716.27
638.767	32608.03
639.121	32624.98
639.474	32488.48
639.828	32553.11
640.181	32480.35
640.534	32532.1
640.888	32318.99
641.241	32291.65
641.594	32318.32
641.947	32439.44
642.301	32209.85
642.654	32334.14
643.007	32281.71
643.36	32199.22
643.713	32107.25
644.066	32244.19
644.419	32077.42
644.771	31821.83
645.124	31525.8
645.477	31461.16
645.83	31282.19
646.182	31243.09
646.535	31109.08
646.888	31121.74
647.24	30990.67
647.593	31109.76
647.945	31057.11
648.298	30969.2
648.65	30817.11
649.002	30738.7
649.355	30852.37
649.707	30753.16
650.059	30906.6
650.411	31300.72
650.763	31277.21
651.115	31681.05
651.467	31507.72
651.819	31537.09
652.171	31427.94
652.523	31412.58
652.875	31329.87
653.227	31255.29
653.578	31515.85
653.93	31356.08
654.282	31185.01
654.633	31106.82
654.985	31113.83
655.337	31039.71
655.688	31103.66
656.039	31163.09
656.391	30848.98
656.742	31062.3
657.094	31066.37
657.445	31122.42
657.796	30943.44
658.147	30895.3
658.498	30841.29
658.849	30874.29
659.2	30861.86
659.551	30785.48
659.902	30954.96
660.253	30821.86
660.604	30764.91
660.955	30700.51
661.306	30794.29
661.656	30695.08
662.007	30684.01
662.358	30716.78
662.708	30683.33
663.059	30528.08
663.409	30438.82
663.76	30615.54
664.11	30616.44
664.461	30604.01
664.811	30703.67
665.161	30520.17
665.511	30568.53
665.862	30498.7
666.212	30600.17
666.562	30504.35
666.912	30462.77
667.262	30470.68
667.612	30432.72
667.962	30391.14
668.312	30517.23
668.662	30571.7
669.011	30471.81
669.361	30546.16
669.711	30332.38
670.06	30404.24
670.41	30191.59
670.76	30084.48
671.109	30303.68
671.459	30156.34
671.808	30132.61
672.157	30295.32
672.507	30003.12
672.856	30012.16
673.205	30170.58
673.554	30170.12
673.904	30033.86
674.253	30258.94
674.602	30073.86
674.951	29747.54
675.3	29541.44
675.649	30006.06
675.998	29884.26
676.346	29978.49
676.695	30009.23
677.044	29827.31
677.393	29904.82
677.741	29917.02
678.09	29809
678.438	29664.38
678.787	29729.01
679.135	29847.2
679.484	29552.74
679.832	29729.46
680.181	29568.78
680.529	29547.77
680.877	29493.31
681.225	29485.85
681.573	29613.08
681.922	29443.82
682.27	29331.95
682.618	29339.86
682.966	29195.69
683.314	29221.68
683.661	29142.36
684.009	28937.84
684.357	28982.13
684.705	29042.24
685.053	28851.06
685.4	28878.18
685.748	28737.85
686.095	28742.59
686.443	28668.47
686.79	28653.33
687.138	28752.53
687.485	28634.57
687.832	28528.81
688.18	28536.5
688.527	28359.55
688.874	28339.21
689.221	28205.88
689.568	28235.26
689.915	28116.39
690.262	28138.54
690.609	28005.44
690.956	27911.88
691.303	27990.07
691.65	27773.8
691.997	27873.91
692.344	27739.45
692.69	27754.6
693.037	27692.22
693.383	27441.61
693.73	27575.62
694.077	27295.4
694.423	27354.15
694.769	27205.01
695.116	27119.58
695.462	27207.04
695.808	26981.28
696.155	27077.32
696.501	26905.58
696.847	26883.88
697.193	26614.29
697.539	26646.38
697.885	26584
698.231	26511.46
698.577	26465.82
698.923	26469.88
699.269	26333.39
699.614	26112.6
699.96	26167.07
700.306	26071.7
700.651	26000.06
700.997	25878.03
701.342	25958.94
701.688	25751.03
702.033	25631.49
702.379	25703.12
702.724	25668.77
703.069	25634.65
703.415	25326.18
703.76	25403.24
704.105	25450.47
704.45	25243.25
704.795	25229.24
705.14	25221.1
705.485	25108.11
705.83	24956.7
706.175	25001.9
706.52	24967.1
706.865	24928.45
707.209	24828.34
707.554	24761.68
707.899	24799.19
708.243	24601.68
708.588	24566.66
708.932	24394.46
709.277	24424.51
709.621	24393.1
709.966	24258.19
710.31	24391.97
710.654	24155.14
710.998	24094.58
711.342	24172.99
711.687	24161.7
712.031	24005.77
712.375	23893.91
712.719	23921.7
713.063	23868.14
713.407	23886.67
713.75	23703.63
714.094	23736.62
714.438	23576.4
714.782	23554.03
715.125	23460.24
715.469	23521.94
715.812	23331.89
716.156	23287.59
716.499	23234.71
716.843	23368.27
717.186	23167.6
717.53	23313.36
717.873	23229.52
718.216	23181.38
718.559	23036.08
718.902	22940.48
719.246	23084.21
719.589	22832.92
719.932	22823.88
720.275	22837.66
720.617	22685.58
720.96	22797.89
721.303	22832.92
721.646	22657.33
721.989	22558.57
722.331	22722.41
722.674	22570.32
723.016	22607.84
723.359	22560.83
723.701	22595.86
724.044	22368.75
724.386	22277
724.729	22321.29
725.071	22341.4
725.413	22269.54
725.755	22255.76
726.097	22080.39
726.439	22110.68
726.782	22102.77
727.124	22173.5
727.465	21983.45
727.807	22071.81
728.149	21879.95
728.491	21808.31
728.833	21833.62
729.175	21867.52
729.516	21718.82
729.858	21660.52
730.199	21739.61
730.541	21637.69
730.882	21711.59
731.224	21645.15
731.565	21480.86
731.906	21537.81
732.248	21481.99
732.589	21446.29
732.93	21401.09
733.271	21316.8
733.612	21440.41
733.953	21311.15
734.294	21123.58
734.635	21234.99
734.976	21303.92
735.317	21142.57
735.658	20984.83
735.999	21067.09
736.339	21084.94
736.68	21185.95
737.021	20987.77
737.361	20933.98
737.702	21123.36
738.042	20882.23
738.383	20916.36
738.723	20944.83
739.063	20713.42
739.404	20852.86
739.744	20876.58
740.084	20722.69
740.424	20668.91
740.764	20643.6
741.104	20761.33
741.444	20591.39
741.784	20637.72
742.124	20524.73
742.464	20634.78
742.804	20407.9
743.143	20470.94
743.483	20441.79
743.823	20430.27
744.162	20362.7
744.502	20451.51
744.841	20292.19
745.181	20221.01
745.52	20107.56
745.86	20317.05
746.199	20232.98
746.538	20093.55
746.877	20129.71
747.216	20218.52
747.556	19979.66
747.895	19985.76
748.234	19984.18
748.573	19915.48
748.911	19857.18
749.25	19818.98
749.589	19743.28
749.928	19854.69
750.267	19844.52
750.605	19754.81
750.944	19660.34
751.283	19606.33
751.621	19645.66
751.96	19577.86
752.298	19511.42
752.636	19498.77
752.975	19546.45
753.313	19355.27
753.651	19391.65
753.989	19269.85
754.327	19323.86
754.666	19118.89
