Data from white_wall_FLMS001491_002.txt Node
Date: Tue Feb 07 11:03:11 GMT 2017
User: dcchb
Spectrometer: FLMS00149
Trigger mode: 0
Integration Time (sec): 2.000000E-2
Scans to average: 10
Electric dark correction enabled: true
Nonlinearity correction enabled: false
Boxcar width: 0
XAxis mode: Wavelengths
Number of Pixels in Spectrum: 2048
>>>>>Begin Spectral Data<<<<<
341.393	-18.67
341.776	-18.67
342.16	-18.67
342.543	-48.05
342.927	-74.94
343.31	-68.16
343.693	-78.33
344.077	-47.82
344.46	-38.11
344.843	-47.6
345.226	-41.72
345.61	-38.78
345.993	-15.73
346.376	3.47
346.759	-12.8
347.142	25.85
347.525	37.15
347.908	50.25
348.291	81.21
348.674	82.79
349.057	108.33
349.44	124.38
349.823	136.13
350.206	189.46
350.588	220.19
350.971	225.84
351.354	247.08
351.737	281.43
352.119	269.23
352.502	281.89
352.884	300.64
353.267	288.66
353.65	330.47
354.032	333.64
354.414	330.02
354.797	337.03
355.179	349.91
355.562	356.46
355.944	339.96
356.326	341.32
356.709	384.26
357.091	372.28
357.473	367.08
357.855	350.36
358.238	357.36
358.62	369.34
359.002	361.88
359.384	382.45
359.766	365.27
360.148	363.92
360.53	386.29
360.912	360.53
361.294	366.18
361.676	378.61
362.057	362.56
362.439	355.56
362.821	335.9
363.203	346.29
363.584	346.06
363.966	342.22
364.348	355.78
364.729	333.86
365.111	345.84
365.493	365.72
365.874	342.9
366.256	340.19
366.637	346.06
367.019	344.71
367.4	323.24
367.781	351.26
368.163	344.26
368.544	339.51
368.925	350.36
369.306	354.43
369.688	347.87
370.069	332.51
370.45	340.87
370.831	349
371.212	366.63
371.593	348.78
371.974	320.75
372.355	349.23
372.736	353.3
373.117	342.45
373.498	352.39
373.879	344.26
374.26	337.48
374.641	343.13
375.021	377.93
375.402	343.35
375.783	365.27
376.163	362.56
376.544	365.95
376.925	368.21
377.305	381.32
377.686	372.5
378.066	377.93
378.447	362.11
378.827	391.26
379.208	366.63
379.588	383.8
379.968	377.48
380.349	380.64
380.729	379.74
381.109	371.83
381.489	383.58
381.87	389
382.25	388.55
382.63	381.77
383.01	413.18
383.39	397.81
383.77	405.27
384.15	406.63
384.53	401.66
384.91	412.05
385.29	392.39
385.67	413.63
386.049	416.8
386.429	428.1
386.809	441.2
387.189	417.25
387.568	431.94
387.948	412.96
388.328	418.6
388.707	461.32
389.087	440.07
389.466	442.56
389.846	467.87
390.225	441.2
390.605	462.22
390.984	483.91
391.363	477.36
391.743	501.31
392.122	476.23
392.501	483.69
392.881	506.29
393.26	520.98
393.639	516.68
394.018	538.83
394.397	527.08
394.776	538.6
395.155	564.82
395.534	545.83
395.913	557.81
396.292	569.11
396.671	579.28
397.05	595.1
397.429	600.52
397.808	599.62
398.186	593.06
398.565	598.94
398.944	624.7
399.323	638.71
399.701	636.23
400.08	670.8
400.458	633.51
400.837	675.1
401.215	692.27
401.594	694.98
401.972	721.65
402.351	718.03
402.729	728.65
403.107	744.02
403.486	761.65
403.864	773.4
404.242	802.32
404.62	807.3
404.999	799.84
405.377	842.1
405.755	837.12
406.133	865.37
406.511	868.76
406.889	877.35
407.267	881.42
407.645	923.22
408.023	944.24
408.401	975.2
408.779	963.68
409.156	983.79
409.534	1027.4
409.912	1034.86
410.29	1040.74
410.667	1075.08
411.045	1108.76
411.422	1099.72
411.8	1129.09
412.178	1128.42
412.555	1181.3
412.933	1179.49
413.31	1196.44
413.687	1229.2
414.065	1208.41
414.442	1240.96
414.819	1277.11
415.197	1295.19
415.574	1289.54
415.951	1295.42
416.328	1334.96
416.705	1349.2
417.082	1333.38
417.46	1363.21
417.837	1362.76
418.214	1403.89
418.591	1424.91
418.967	1412.03
419.344	1450.44
419.721	1483.44
420.098	1464.45
420.475	1526.37
420.852	1515.53
421.228	1539.03
421.605	1538.58
421.982	1537.9
422.358	1579.93
422.735	1572.92
423.111	1611.57
423.488	1617.9
423.864	1642.08
424.241	1684.11
424.617	1671.23
424.994	1706.48
425.37	1729.98
425.746	1727.04
426.123	1739.02
426.499	1767.95
426.875	1809.75
427.251	1813.6
427.627	1870.54
428.003	1860.37
428.379	1901.73
428.756	1908.96
429.132	1979.02
429.507	2002.52
429.883	2008.39
430.259	2050.65
430.635	2059.24
431.011	2080.26
431.387	2126.81
431.763	2189.18
432.138	2201.83
432.514	2233.25
432.89	2202.74
433.265	2253.13
433.641	2315.5
434.016	2311.44
434.392	2393.02
434.767	2432.34
435.143	2415.16
435.518	2462.62
435.894	2467.14
436.269	2493.8
436.644	2555.72
437.02	2554.82
437.395	2544.2
437.77	2613.12
438.145	2630.3
438.52	2656.29
438.895	2674.82
439.271	2723.4
439.646	2802.27
440.021	2801.82
440.395	2800.24
440.77	2808.6
441.145	2859.44
441.52	2898.54
441.895	2872.1
442.27	2931.53
442.645	2940.12
443.019	2979.44
443.394	2981.7
443.769	3034.81
444.143	2990.51
444.518	3107.57
444.892	3071.87
445.267	3110.29
445.641	3150.74
446.016	3124.75
446.39	3149.15
446.764	3207.46
447.139	3209.04
447.513	3233.67
447.887	3282.94
448.262	3337.62
448.636	3301.47
449.01	3341.69
449.384	3420.11
449.758	3444.06
450.132	3490.61
450.506	3493.78
450.88	3497.62
451.254	3519.99
451.628	3553.66
452.002	3631.63
452.376	3663.72
452.75	3682.25
453.123	3728.12
453.497	3827.1
453.871	3809.25
454.244	3875.46
454.618	3913.43
454.992	3968.79
455.365	4000.43
455.739	4083.82
456.112	4136.7
456.486	4186.64
456.859	4182.8
457.232	4339.18
457.606	4274.77
457.979	4342.57
458.352	4446.52
458.725	4521.32
459.099	4511.15
459.472	4642.9
459.845	4668.89
460.218	4668.44
460.591	4759.51
460.964	4813.07
461.337	4933.74
461.71	4943.23
462.083	5001.31
462.456	5035.21
462.829	5072.72
463.201	5186.16
463.574	5206.73
463.947	5282.88
464.32	5414.18
464.692	5454.18
465.065	5489.43
465.438	5606.04
465.81	5625.93
466.183	5717.45
466.555	5811.91
466.928	5887.39
467.3	5936.88
467.672	6050.1
468.045	6186.14
468.417	6133.93
468.789	6242.41
469.161	6336.42
469.534	6424.1
469.906	6552.23
470.278	6652.11
470.65	6765.1
471.022	6873.12
471.394	6983.18
471.766	7047.58
472.138	7142.72
472.51	7286.67
472.882	7424.52
473.253	7474.46
473.625	7565.54
473.997	7798.52
474.369	7864.28
474.74	7931.63
475.112	8137.72
475.484	8242.13
475.855	8419.98
476.227	8452.52
476.598	8722.79
476.97	8788.1
477.341	8972.96
477.713	9125.04
478.084	9197.58
478.455	9454.3
478.827	9545.14
479.198	9833.27
479.569	9817.68
479.94	10094.51
480.311	10216.77
480.682	10467.15
481.053	10640.48
481.424	10893.58
481.795	10941.94
482.166	11172.67
482.537	11279.79
482.908	11568.82
483.279	11687.01
483.65	11844.97
484.021	12127.68
484.391	12264.62
484.762	12338.29
485.133	12500.1
485.503	12702.58
485.874	13008.78
486.244	13133.52
486.615	13361.77
486.985	13418.49
487.356	13805.37
487.726	13945.25
488.097	14239.71
488.467	14373.49
488.837	14633.15
489.207	14878.11
489.578	15005.79
489.948	15133.25
490.318	15393.58
490.688	15463.18
491.058	15710.18
491.428	15905.43
491.798	16043.96
492.168	16484.17
492.538	16504.28
492.908	16646.43
493.278	16909.7
493.648	16947.66
494.017	17243.02
494.387	17334.77
494.757	17611.83
495.126	17740.64
495.496	17695.89
495.866	17967.3
496.235	18182.88
496.605	18246.61
496.974	18433.27
497.344	18672.59
497.713	18756.43
498.082	18865.13
498.452	19063.09
498.821	19140.15
499.19	19331.1
499.559	19510.98
499.928	19625.56
500.298	19902.84
500.667	20012.44
501.036	19983.97
501.405	20277.07
501.774	20235.26
502.143	20555.7
502.512	20672.99
502.88	20927.44
503.249	20895.58
503.618	21089.93
503.987	21201.34
504.356	21408.34
504.724	21571.04
505.093	21666.18
505.462	21818.27
505.83	22007.42
506.199	22197.47
506.567	22472.04
506.936	22510
507.304	22728.3
507.672	22788.86
508.041	23049.2
508.409	23224.11
508.777	23388.4
509.145	23615.51
509.514	23567.15
509.882	23729.86
510.25	23843.3
510.618	24123.07
510.986	24222.72
511.354	24393.79
511.722	24665.2
512.09	24928.92
512.458	24855.48
512.826	25256.82
513.193	25334.56
513.561	25448.23
513.929	25669.92
514.297	25899.52
514.664	26133.63
515.032	26174.54
515.4	26417.92
515.767	26575.43
516.135	26779.72
516.502	26561.87
516.869	27063.78
517.237	27248.86
517.604	27163.44
517.972	27600.26
518.339	27816.08
518.706	27901.5
519.073	28097.43
519.44	28401.82
519.808	28623.96
520.175	28553.01
520.542	29014.92
520.909	29167
521.276	29202.93
521.643	29614.67
522.009	29767.66
522.376	30029.35
522.743	30181.44
523.11	30359.06
523.477	30697.81
523.843	30803.34
524.21	31208.98
524.577	31509.31
524.943	31427.51
525.31	31742.3
525.676	32015.74
526.043	32361.49
526.409	32389.06
526.776	32756.06
527.142	32778.66
527.508	33128.48
527.874	33343.84
528.241	33505.87
528.607	33577.05
528.973	33981.11
529.339	33963.26
529.705	34152.63
530.071	34530.02
530.437	34777.02
530.803	34987.87
531.169	35101.99
531.535	35140.63
531.901	35302.89
532.267	35544.46
532.632	35826.94
532.998	35871.01
533.364	36080.27
533.73	36155.07
534.095	36470.09
534.461	36579.69
534.826	36773.13
535.192	36900.13
535.557	37208.37
535.923	37125.89
536.288	37295.15
536.653	37529.95
537.019	37541.92
537.384	37723.16
537.749	37920.9
538.114	37952.99
538.479	38132.87
538.845	38396.59
539.21	38338.06
539.575	38599.75
539.94	38636.13
540.305	38929.91
540.67	38793.19
541.034	39067.31
541.399	39351.82
541.764	39350.69
542.129	39467.52
542.494	39690.11
542.858	39938.02
543.223	39835.42
543.587	40136.2
543.952	40210.1
544.316	40397.44
544.681	40522.41
545.045	40552.24
545.41	40915.39
545.774	40906.81
546.138	40941.38
546.503	41187.25
546.867	41114.03
547.231	41634.92
547.595	41788.14
547.959	41883.5
548.324	41955.59
548.688	42092.76
549.052	42212.08
549.416	42323.04
549.779	42435.13
550.143	42647.55
550.507	42972.97
550.871	43163.24
551.235	43042.79
551.599	43371.37
551.962	43429.68
552.326	43680.74
552.689	43815.43
553.053	43762.78
553.417	43906.05
553.78	44559.37
554.143	44305.13
554.507	44587.39
554.87	44854.05
555.234	45277.09
555.597	44994.61
555.96	45315.05
556.323	45521.6
556.686	45580.58
557.05	45862.61
557.413	45967.92
557.776	46302.14
558.139	46394.35
558.502	46456.49
558.865	46640.89
559.228	46882.02
559.59	47042.01
559.953	47299.18
560.316	47575.78
560.679	47650.81
561.041	47819.17
561.404	47998.37
561.767	48258.48
562.129	48141.87
562.492	48601.29
562.854	48687.39
563.217	48632.03
563.579	48983.88
563.941	49074.73
564.304	49263.2
564.666	49545
565.028	49527.37
565.39	49608.27
565.753	49840.13
566.115	49954.03
566.477	50132.33
566.839	50251.42
567.201	50426.56
567.563	50565.08
567.925	50757.62
568.287	50688.7
568.648	50896.15
569.01	50987.67
569.372	51248.68
569.734	51178.4
570.095	51466.08
570.457	51485.51
570.819	51656.35
571.18	51633.08
571.542	51862.68
571.903	51832.62
572.265	52075.55
572.626	52028.55
572.987	52071.48
573.349	52251.82
573.71	52340.18
574.071	52424.24
574.432	52504.47
574.794	52729.32
575.155	52666.72
575.516	52654.07
575.877	52814.74
576.238	52880.28
576.599	53060.38
576.96	53048.41
577.32	53111.68
577.681	53211.79
578.042	53205.92
578.403	53235.07
578.763	53274.16
579.124	53376.76
579.485	53457.66
579.845	53492.69
580.206	53420.83
580.566	53527.49
580.927	53533.59
581.287	53619.69
581.648	53558
582.008	53684.1
582.368	53611.1
582.728	53652.23
583.089	53609.52
583.449	53683.87
583.809	53687.03
584.169	53738.33
584.529	53607.49
584.889	53816.75
585.249	53749.86
585.609	53640.03
585.969	53828.73
586.329	53711.89
586.688	53816.75
587.048	53811.78
587.408	53797.54
587.768	53812.46
588.127	53821.49
588.487	53836.41
588.846	54057.87
589.206	53798.67
589.565	53849.52
589.925	54074.82
590.284	53916.63
590.643	53927.25
591.003	53988.95
591.362	54018.78
591.721	53994.82
592.08	53947.82
592.44	54041.83
592.799	54016.52
593.158	53996.86
593.517	53947.82
593.876	53996.86
594.235	53923.86
594.593	54086.57
594.952	54005.9
595.311	54000.02
595.67	54093.13
596.029	54183.52
596.387	54221.26
596.746	54187.36
597.104	54173.12
597.463	54059.91
597.822	54239.11
598.18	54194.14
598.538	54142.16
598.897	54352.33
599.255	54043.64
599.613	54460.12
599.972	54214.93
600.33	54377.19
600.688	54211.77
601.046	54427.13
601.404	54425.55
601.762	54390.97
602.12	54578.54
602.478	54505.09
602.836	54488.37
603.194	54390.07
603.552	54500.35
603.91	54359.56
604.268	54514.81
604.625	54493.57
604.983	54562.04
605.341	54458.99
605.698	54591.64
606.056	54681.58
606.413	54651.08
606.771	54727.23
607.128	54765.88
607.485	54707.8
607.843	54745.09
608.2	54827.34
608.557	54930.62
608.914	54844.74
609.272	55036.6
609.629	55051.29
609.986	55130.16
610.343	54939.88
610.7	55217.16
611.057	55108.47
611.414	55072.53
611.771	55123.38
612.127	55223.27
612.484	55185.75
612.841	55356.14
613.198	55212.19
613.554	55244.51
613.911	55411.96
614.267	55415.8
614.624	55395.46
614.98	55384.84
615.337	55490.15
615.693	55498.29
616.05	55503.48
616.406	55700.09
616.762	55554.33
617.118	55513.43
617.475	55626.42
617.831	55659.19
618.187	55679.3
618.543	55732.18
618.899	55850.59
619.255	55808.79
619.611	55799.75
619.967	55822.57
620.323	55919.97
620.678	55843.81
621.034	55806.08
621.39	55800.43
621.746	55729.24
622.101	56026.63
622.457	55775.12
622.812	55934.21
623.168	55920.42
623.523	55916.81
623.879	56052.85
624.234	55871.61
624.589	55964.04
624.945	55945.51
625.3	56048.1
625.655	56000.19
626.01	55950.48
626.365	55986.64
626.72	55964.26
627.075	55963.36
627.43	55858.05
627.785	55803.14
628.14	55898.95
628.495	55957.48
628.85	55865.28
629.205	55796.58
629.559	55957.48
629.914	55822.57
630.269	55808.56
630.623	55676.81
630.978	55706.42
631.332	55811.05
631.687	55772.18
632.041	55757.49
632.396	55844.94
632.75	55587.78
633.104	55712.52
633.459	55642.69
633.813	55581.22
634.167	55559.98
634.521	55501.45
634.875	55556.59
635.229	55501
635.583	55345.97
635.937	55431.4
636.291	55381.91
636.645	55407.44
636.999	55266.88
637.352	55402.24
637.706	55298.07
638.06	55336.48
638.413	55188.46
638.767	55135.58
639.121	55261.46
639.474	55052.42
639.828	55043.84
640.181	55084.96
640.534	55080.44
640.888	55001.12
641.241	54851.98
641.594	54936.95
641.947	54975.81
642.301	54935.14
642.654	54936.95
643.007	54880.9
643.36	54852.65
643.713	54816.95
644.066	54875.48
644.419	54694.92
644.771	54477.97
645.124	54188.26
645.477	54176.51
645.83	53996.18
646.182	53824.88
646.535	53819.23
646.888	53936.52
647.24	53754.38
647.593	53891.32
647.945	53765.9
648.298	53512.58
648.65	53603.65
649.002	53532.69
649.355	53596.42
649.707	53614.72
650.059	53635.51
650.411	54042.28
650.763	54021.94
651.115	54322.72
651.467	54184.42
651.819	54242.05
652.171	54087.48
652.523	54075.27
652.875	54132.9
653.227	53950.08
653.578	54163.41
653.93	54105.55
654.282	53944.43
654.633	53846.13
654.985	54015.61
655.337	53871.21
655.688	53904.2
656.039	54095.16
656.391	53688.16
656.742	53823.98
657.094	53898.78
657.445	53994.6
657.796	53761.83
658.147	53639.35
658.498	53713.7
658.849	53853.58
659.2	53791.21
659.551	53681.16
659.902	53717.99
660.253	53740.59
660.604	53745.11
660.955	53575.85
661.306	53636.87
661.656	53609.97
662.007	53661.95
662.358	53552.8
662.708	53601.61
663.059	53522.07
663.409	53394.84
663.76	53606.58
664.11	53573.59
664.461	53573.82
664.811	53543.54
665.161	53453.82
665.511	53419.25
665.862	53469.64
666.212	53510.54
666.562	53578.56
666.912	53441.62
667.262	53358.46
667.612	53386.48
667.962	53367.04
668.312	53291.34
668.662	53444.56
669.011	53288.18
669.361	53257.67
669.711	53241.17
670.06	53193.04
670.41	53224.9
670.76	53168.86
671.109	53236.65
671.459	53195.3
671.808	53068.29
672.157	53146.48
672.507	53009.31
672.856	52972.48
673.205	53045.24
673.554	53043.21
673.904	52917.11
674.253	53038.69
674.602	52844.57
674.951	52428.99
675.3	52294.08
675.649	52843.22
675.998	52697
676.346	52748.98
676.695	52774.74
677.044	52600.74
677.393	52753.73
677.741	52709.66
678.09	52596.67
678.438	52520.06
678.787	52676.67
679.135	52556.89
679.484	52341.31
679.832	52471.93
680.181	52283.46
680.529	52473.51
680.877	52232.61
681.225	52284.13
681.573	52354.41
681.922	52145.15
682.27	52025.38
682.618	52078.04
682.966	51975.22
683.314	52117.81
683.661	52026.06
684.009	51771.38
684.357	51698.16
684.705	51658.61
685.053	51727.99
685.4	51663.13
685.748	51469.24
686.095	51462.01
686.443	51328.68
686.79	51298.4
687.138	51362.8
687.485	51282.13
687.832	51235.57
688.18	51220.43
688.527	50938.41
688.874	50994.45
689.221	50843.95
689.568	50720.11
689.915	50649.15
690.262	50761.69
690.609	50534.58
690.956	50476.05
691.303	50438.31
691.65	50301.81
691.997	50188.6
692.344	50014.36
692.69	49982.73
693.037	49846.91
693.383	49653.69
693.73	49781.37
694.077	49575.05
694.423	49537.54
694.769	49489.4
695.116	49231.56
695.462	49313.82
695.808	49157.44
696.155	49168.96
696.501	48886.48
696.847	48846.48
697.193	48611.46
697.539	48770.1
697.885	48479.04
698.231	48415.08
698.577	48430.22
698.923	48306.61
699.269	48154.98
699.614	48019.39
699.96	47861.65
700.306	47923.57
700.651	47711.15
700.997	47540.76
701.342	47583.47
701.688	47512.51
702.033	47329.69
702.379	47387.09
702.724	47127.21
703.069	47326.98
703.415	46827.33
703.76	46822.81
704.105	46850.83
704.45	46839.31
704.795	46568.35
705.14	46464.85
705.485	46506.21
705.83	46156.16
706.175	46239.09
706.52	46199.55
706.865	45890.86
707.209	46078.2
707.554	45887.69
707.899	45847.24
708.243	45650.18
708.588	45692.22
708.932	45282.96
709.277	45412.22
709.621	45439.12
709.966	45236.41
710.31	45048.39
710.654	44872.8
710.998	44960.71
711.342	45028.96
711.687	44902.41
712.031	44679.59
712.375	44572.25
712.719	44697.89
713.063	44467.84
713.407	44613.37
713.75	44426.04
714.094	44299.03
714.438	44186.27
714.782	44224.23
715.125	44199.83
715.469	44108.76
715.812	43841.42
716.156	43588.54
716.499	43702.89
716.843	43675.77
717.186	43425.61
717.53	43510.13
717.873	43622.21
718.216	43443.69
718.559	43319.4
718.902	43078.5
719.246	43195.33
719.589	42980.88
719.932	42934.55
720.275	42840.54
720.617	42826.08
720.96	42956.02
721.303	42681
721.646	42756.93
721.989	42445.75
722.331	42576.59
722.674	42517.38
723.016	42555.8
723.359	42404.62
723.701	42454.11
724.044	42022.71
724.386	41870.17
724.729	42184.29
725.071	42137.73
725.413	41945.65
725.755	41991.97
726.097	41776.39
726.439	41539.56
726.782	41664.53
727.124	41895.71
727.465	41457.98
727.807	41394.48
728.149	41464.76
728.491	41261.82
728.833	41381.37
729.175	41198.78
729.516	41195.16
729.858	41054.6
730.199	41196.06
730.541	40949.06
730.882	41015.05
731.224	40967.37
731.565	40602.86
731.906	40744.78
732.248	40721.05
732.589	40600.6
732.93	40510.43
733.271	40611.9
733.612	40475.4
733.953	40603.31
734.294	40227.28
734.635	40195.86
734.976	40262.53
735.317	40160.38
735.658	40168.97
735.999	40088.3
736.339	40021.41
736.68	40059.6
737.021	40003.55
737.361	39799.49
737.702	39836.1
738.042	39813.73
738.383	39723.33
738.723	39768.3
739.063	39635.43
739.404	39667.06
739.744	39455.09
740.084	39315.44
740.424	39501.87
740.764	39168.77
741.104	39432.95
741.444	39082.9
741.784	38936.24
742.124	39170.13
742.464	39007.19
742.804	38910.02
743.143	38906.18
743.483	38813.08
743.823	38708.22
744.162	38663.7
744.502	38757.03
744.841	38659.63
745.181	38574.89
745.52	38314.78
745.86	38429.36
746.199	38346.42
746.538	38302.35
746.877	38308.23
747.216	38188.23
747.556	38044.06
747.895	38046.09
748.234	37978.75
748.573	37969.03
748.911	37900.33
749.25	37781.24
749.589	37645.65
749.928	37553
750.267	37595.71
750.605	37528.82
750.944	37437.29
751.283	37216.73
751.621	37322.95
751.96	37125.21
752.298	37216.28
752.636	37249.27
752.975	36969.06
