Data from white_wall_FLMS001491_005.txt Node
Date: Tue Feb 07 11:03:12 GMT 2017
User: dcchb
Spectrometer: FLMS00149
Trigger mode: 0
Integration Time (sec): 2.000000E-2
Scans to average: 10
Electric dark correction enabled: true
Nonlinearity correction enabled: false
Boxcar width: 0
XAxis mode: Wavelengths
Number of Pixels in Spectrum: 2048
>>>>>Begin Spectral Data<<<<<
341.393	-0.25
341.776	-0.25
342.16	-0.25
342.543	-47.26
342.927	-66.69
343.31	-73.92
343.693	-70.31
344.077	-72.57
344.46	-65.34
344.843	-55.39
345.226	-49.74
345.61	-41.16
345.993	-6.13
346.376	-30.54
346.759	23.7
347.142	27.32
347.525	51.5
347.908	61.89
348.291	82.91
348.674	93.08
349.057	124.71
349.44	117.71
349.823	145.5
350.206	177.82
350.588	216.24
350.971	235.45
351.354	244.03
351.737	272.51
352.119	281.55
352.502	312.28
352.884	296.46
353.267	306.4
353.65	307.99
354.032	312.96
354.414	328.1
354.797	321.55
355.179	332.84
355.562	352.5
355.944	353.18
356.326	353.63
356.709	376.46
357.091	352.5
357.473	370.58
357.855	356.57
358.238	348.44
358.62	359.51
359.002	362.45
359.384	350.25
359.766	338.72
360.148	367.65
360.53	352.5
360.912	352.5
361.294	350.25
361.676	370.13
362.057	359.96
362.439	369.45
362.821	368.32
363.203	342.56
363.584	348.44
363.966	355.22
364.348	347.08
364.729	350.25
365.111	362
365.493	338.27
365.874	350.02
366.256	363.35
366.637	339.85
367.019	354.09
367.4	343.01
367.781	343.92
368.163	329
368.544	340.98
368.925	347.99
369.306	327.42
369.688	360.87
370.069	340.75
370.45	338.72
370.831	361.77
371.212	352.5
371.593	357.25
371.974	372.62
372.355	329.45
372.736	341.21
373.117	346.18
373.498	351.15
373.879	363.58
374.26	350.02
374.641	341.66
375.021	336.01
375.402	349.79
375.783	359.28
376.163	366.52
376.544	365.84
376.925	352.28
377.305	363.35
377.686	361.32
378.066	379.17
378.447	357.02
378.827	375.56
379.208	386.4
379.588	373.3
379.968	393.63
380.349	381.43
380.729	368.78
381.109	379.4
381.489	374.88
381.87	375.56
382.25	385.27
382.63	383.46
383.01	397.25
383.39	403.58
383.77	411.49
384.15	396.35
384.53	380.3
384.91	411.03
385.29	413.75
385.67	425.72
386.049	408.55
386.429	436.34
386.809	427.08
387.189	420.07
387.568	421.66
387.948	425.27
388.328	420.3
388.707	445.16
389.087	440.19
389.466	435.44
389.846	474.31
390.225	460.52
390.605	460.52
390.984	474.99
391.363	487.64
391.743	480.64
392.122	503.01
392.501	484.93
392.881	504.59
393.26	497.13
393.639	506.85
394.018	531.71
394.397	525.83
394.776	513.86
395.155	553.18
395.534	556.12
395.913	568.32
396.292	575.78
396.671	574.19
397.05	594.31
397.429	595.21
397.808	577.81
398.186	616.23
398.565	620.52
398.944	617.58
399.323	606.28
399.701	653.06
400.08	669.11
400.458	672.04
400.837	675.66
401.215	681.54
401.594	698.26
401.972	716.56
402.351	721.76
402.729	741.42
403.107	773.06
403.486	780.29
403.864	771.02
404.242	796.11
404.62	783.23
404.999	825.26
405.377	823.23
405.755	829.33
406.133	868.65
406.511	853.51
406.889	893.51
407.267	908.42
407.645	937.8
408.023	959.49
408.401	958.14
408.779	986.84
409.156	975.31
409.534	1007.18
409.912	1031.81
410.29	1084.01
410.667	1078.36
411.045	1111.58
411.422	1083.33
411.8	1097.57
412.178	1141.41
412.555	1157.46
412.933	1162.65
413.31	1159.26
413.687	1228.87
414.065	1218.47
414.442	1229.32
414.819	1258.24
415.197	1271.8
415.574	1302.54
415.951	1307.28
416.328	1330.11
416.705	1354.96
417.082	1361.97
417.46	1373.04
417.837	1403.55
418.214	1390.9
418.591	1417.11
418.967	1418.92
419.344	1441.52
419.721	1462.31
420.098	1460.5
420.475	1499.14
420.852	1490.1
421.228	1529.88
421.605	1512.02
421.982	1544.79
422.358	1579.82
422.735	1594.05
423.111	1613.94
423.488	1629.76
423.864	1639.7
424.241	1663.88
424.617	1669.98
424.994	1698.46
425.37	1726.03
425.746	1715.18
426.123	1754.28
426.499	1789.76
426.875	1785.91
427.251	1820.94
427.627	1866.59
428.003	1874.27
428.379	1917.21
428.756	1939.58
429.132	1938.68
429.507	1986.13
429.883	1981.61
430.259	2058.67
430.635	2070.65
431.011	2070.65
431.387	2134.6
431.763	2168.73
432.138	2196.52
432.514	2223.42
432.89	2200.59
433.265	2297.31
433.641	2292.57
434.016	2328.95
434.392	2345.9
434.767	2425.67
435.143	2371.21
435.518	2388.84
435.894	2454.6
436.269	2468.38
436.644	2541.37
437.02	2559.68
437.395	2569.17
437.77	2607.13
438.145	2649.39
438.52	2707.02
438.895	2695.49
439.271	2704.99
439.646	2765.1
440.021	2808.03
440.395	2814.59
440.77	2808.71
441.145	2803.74
441.52	2893.45
441.895	2886.22
442.27	2941.82
442.645	2963.28
443.019	2954.7
443.394	3010.74
443.769	3063.85
444.143	2970.29
444.518	3064.75
444.892	3052.77
445.267	3074.92
445.641	3127.57
446.016	3186.55
446.39	3174.8
446.764	3186.78
447.139	3223.62
447.513	3258.64
447.887	3314.01
448.262	3284.41
448.636	3286.89
449.01	3361.92
449.384	3369.15
449.758	3403.05
450.132	3448.69
450.506	3484.85
450.88	3531.86
451.254	3493.89
451.628	3556.26
452.002	3614.11
452.376	3610.05
452.75	3676.49
453.123	3710.38
453.497	3771.4
453.871	3789.25
454.244	3855.24
454.618	3890.49
454.992	3978.62
455.365	3971.39
455.739	4105.4
456.112	4126.64
456.486	4133.87
456.859	4177.26
457.232	4313.98
457.606	4271.27
457.979	4318.95
458.352	4424.26
458.725	4478.5
459.099	4512.85
459.472	4604.14
459.845	4649.34
460.218	4694.99
460.591	4711.26
460.964	4750.13
461.337	4857.25
461.71	4971.14
462.083	5054.53
462.456	5012.95
462.829	5088.43
463.201	5151.47
463.574	5172.27
463.947	5224.02
464.32	5403.45
464.692	5428.76
465.065	5487.29
465.438	5520.96
465.81	5697.9
466.183	5677.79
466.555	5823.55
466.928	5882.98
467.3	5860.61
467.672	6035.07
468.045	6144.44
468.417	6192.35
468.789	6203.2
469.161	6315.74
469.534	6434.15
469.906	6620.81
470.278	6579.01
470.65	6745.78
471.022	6843.41
471.394	6977.64
471.766	7004.31
472.138	7093.12
472.51	7269.16
472.882	7356.84
473.253	7505.09
473.625	7653.1
473.997	7745.53
474.369	7811.07
474.74	7954.79
475.112	8084.05
475.484	8198.4
475.855	8359.07
476.227	8452.4
476.598	8700.76
476.97	8751.83
477.341	8946.18
477.713	9115.21
478.084	9166.28
478.455	9402.44
478.827	9472.49
479.198	9802.43
479.569	9771.47
479.94	10109.54
480.311	10149.99
480.682	10459.36
481.053	10648.28
481.424	10780.93
481.795	11021.83
482.166	11007.59
482.537	11190.64
482.908	11470.18
483.279	11561.7
483.65	11878.98
484.021	12044.63
484.391	12192.19
484.762	12279.2
485.133	12489.13
485.503	12760.99
485.874	12959.18
486.244	13144.03
486.615	13359.39
486.985	13481.88
487.356	13691.59
487.726	13823.11
488.097	14144.46
488.467	14244.12
488.837	14577.67
489.207	14741.73
489.578	14946.92
489.948	15120.25
490.318	15311.66
490.688	15382.84
491.058	15633.46
491.428	15833.23
491.798	16039.32
492.168	16391.41
492.538	16517.5
492.908	16696.26
493.278	16844.95
493.648	16897.83
494.017	17071.39
494.387	17368.1
494.757	17454.88
495.126	17658.94
495.496	17593.41
495.866	17905.04
496.235	18070.91
496.605	18289.89
496.974	18409.21
497.344	18606.26
497.713	18672.48
498.082	18875.18
498.452	19038.12
498.821	19120.6
499.19	19170.77
499.559	19455.73
499.928	19582.51
500.298	19702.05
500.667	19946.11
501.036	19958.99
501.405	20100.01
501.774	20185.43
502.143	20474.91
502.512	20636.94
502.88	20754.91
503.249	20831.51
503.618	21104.73
503.987	21169.13
504.356	21262.01
504.724	21495.9
505.093	21577.48
505.462	21760.08
505.83	21912.84
506.199	22097.02
506.567	22402.77
506.936	22457.01
507.304	22592.82
507.672	22783.55
508.041	22851.8
508.409	23091.57
508.777	23327.72
509.145	23417.21
509.514	23529.07
509.882	23785.34
510.25	23814.71
510.618	24111.43
510.986	24115.5
511.354	24474.36
511.722	24615.82
512.09	24720.9
512.458	24818.08
512.826	25116.37
513.193	25216.26
513.561	25336.25
513.929	25625.29
514.297	25799.29
514.664	26128.55
515.032	26156.12
515.4	26314.76
515.767	26455.55
516.135	26701.87
516.502	26587.97
516.869	27088.53
517.237	27316.32
517.604	27129.65
517.972	27566.03
518.339	27698.9
518.706	27815.51
519.073	28034.26
519.44	28236.74
519.808	28555.15
520.175	28438.32
520.542	28952.66
520.909	28919.21
521.276	29056.83
521.643	29428.12
522.009	29692.3
522.376	29803.03
522.743	29986.53
523.11	30323.02
523.477	30704.02
523.843	30744.25
524.21	31061.53
524.577	31433.95
524.943	31319.15
525.31	31585.36
525.676	31960.04
526.043	32130.88
526.409	32278.22
526.776	32614.48
527.142	32633.24
527.508	32884.08
527.874	33242.71
528.241	33428.25
528.607	33415.14
528.973	33791.4
529.339	33797.73
529.705	34110.26
530.071	34424.15
530.437	34528.33
530.803	34872.05
531.169	34999.96
531.535	35086.73
531.901	35152.72
532.267	35381.19
532.632	35733.72
532.998	35783.89
533.364	35958.8
533.73	36085.35
534.095	36323.54
534.461	36455.96
534.826	36742.51
535.192	36794.71
535.557	37101.6
535.923	37037.19
536.288	37284.87
536.653	37368.93
537.019	37325.09
537.384	37558.98
537.749	37829.49
538.114	37820.45
538.479	37990.16
538.845	38054.79
539.21	38289.59
539.575	38416.36
539.94	38436.93
540.305	38808.67
540.67	38705.62
541.034	38993.07
541.399	39186.74
541.764	39178.6
542.129	39369.33
542.494	39511.7
542.858	39564.58
543.223	39845.03
543.587	39987.85
543.952	39996.21
544.316	40377.44
544.681	40347.16
545.045	40431.45
545.41	40746.25
545.774	40813.81
546.138	40874.83
546.503	41024.43
546.867	41112.79
547.231	41460.58
547.595	41549.16
547.959	41592.32
548.324	41888.81
548.688	41957.29
549.052	42075.02
549.416	42279.31
549.779	42112.54
550.143	42396.37
550.507	42863.03
550.871	42805.17
551.235	42898.05
551.599	43239.74
551.962	43373.29
552.326	43487.64
552.689	43856.9
553.053	43705.49
553.417	43797.24
553.78	44421.63
554.143	44279.03
554.507	44545.02
554.87	44635.41
555.234	45098.9
555.597	44820.94
555.96	45176.19
556.323	45407.82
556.686	45334.37
557.05	45762.84
557.413	45908.37
557.776	45986.33
558.139	46210.28
558.502	46412.54
558.865	46526.43
559.228	46978.62
559.59	46881.68
559.953	47162.57
560.316	47513.52
560.679	47435.79
561.041	47665.16
561.404	47900.18
561.767	48211.81
562.129	48027.18
562.492	48553.5
562.854	48454.29
563.217	48605.25
563.579	48735.19
563.941	49102.18
564.304	49187.6
564.666	49314.38
565.028	49472.12
565.39	49515.28
565.753	49743.07
566.115	49851.77
566.477	50032.78
566.839	50214.7
567.201	50430.74
567.563	50499.89
567.925	50632.09
568.287	50696.27
568.648	50743.04
569.01	50998.4
569.372	51122.92
569.734	50996.6
570.095	51345.06
570.457	51415.79
570.819	51450.14
571.18	51463.93
571.542	51773.07
571.903	51764.26
572.265	51959.51
572.626	52001.09
572.987	52043.12
573.349	52113.4
573.71	52274.08
574.071	52276.11
574.432	52469.55
574.794	52697.12
575.155	52682.88
575.516	52527.63
575.877	52822.76
576.238	52764.91
576.599	52876.32
576.96	52952.48
577.32	52984.34
577.681	53023.21
578.042	53163.77
578.403	53246.93
578.763	53132.81
579.124	53232.92
579.485	53352.92
579.845	53337.78
580.206	53356.53
580.566	53378.68
580.927	53395.18
581.287	53488.06
581.648	53432.24
582.008	53490.32
582.368	53490.99
582.728	53668.62
583.089	53556.08
583.449	53596.08
583.809	53546.13
584.169	53687.83
584.529	53585.23
584.889	53742.74
585.249	53597.43
585.609	53508.62
585.969	53751.1
586.329	53606.7
586.688	53717.66
587.048	53746.81
587.408	53717.66
587.768	53683.76
588.127	53756.98
588.487	53604.89
588.846	53881.94
589.206	53758.56
589.565	53735.73
589.925	53894.37
590.284	53830.65
590.643	53775.73
591.003	53888.05
591.362	53906.12
591.721	53876.97
592.08	53915.62
592.44	53967.37
592.799	53932.11
593.158	53869.74
593.517	53884.43
593.876	53944.09
594.235	53833.81
594.593	53910.64
594.952	53955.84
595.311	53899.35
595.67	54012.11
596.029	54052.56
596.387	54090.53
596.746	54140.7
597.104	53968.95
597.463	54022.28
597.822	54086.01
598.18	54038.55
598.538	54015.05
598.897	54200.13
599.255	53876.07
599.613	54474.47
599.972	54269.73
600.33	54256.85
600.688	54195.61
601.046	54337.75
601.404	54393.34
601.762	54334.59
602.12	54413.23
602.478	54448.71
602.836	54377.75
603.194	54302.72
603.552	54416.85
603.91	54343.85
604.268	54480.35
604.625	54346.79
604.983	54507.47
605.341	54386.34
605.698	54436.96
606.056	54497.97
606.413	54582.94
606.771	54635.15
607.128	54687.12
607.485	54551.53
607.843	54723.05
608.2	54818.19
608.557	54827.91
608.914	54777.06
609.272	54960.79
609.629	54939.77
609.986	55022.71
610.343	54868.36
610.7	55056.83
611.057	54998.98
611.414	55036.94
611.771	55054.34
612.127	55144.74
612.484	55060.22
612.841	55198.97
613.198	55063.83
613.554	55183.83
613.911	55313.32
614.267	55283.04
614.624	55304.51
614.98	55344.28
615.337	55515.12
615.693	55442.36
616.05	55417.72
616.406	55566.65
616.762	55437.38
617.118	55440.55
617.475	55518.74
617.831	55573.43
618.187	55694.55
618.543	55668.56
618.899	55730.26
619.255	55669.92
619.611	55678.28
619.967	55745.17
620.323	55781.78
620.678	55741.78
621.034	55678.96
621.39	55695.46
621.746	55621.56
622.101	55951.04
622.457	55756.7
622.812	55878.95
623.168	55883.47
623.523	55818.17
623.879	55971.16
624.234	55724.16
624.589	55917.15
624.945	55883.02
625.3	55915.79
625.655	55879.18
626.01	55946.98
626.365	55946.75
626.72	55892.29
627.075	55879.86
627.43	55900.65
627.785	55795.57
628.14	55769.58
628.495	55866.75
628.85	55764.61
629.205	55741.78
629.559	55874.21
629.914	55788.34
630.269	55740.2
630.623	55642.58
630.978	55575.23
631.332	55737.26
631.687	55741.33
632.041	55600.09
632.396	55645.06
632.75	55584.05
633.104	55621.56
633.459	55483.71
633.813	55577.04
634.167	55524.16
634.521	55445.29
634.875	55478.51
635.229	55400.55
635.583	55298.86
635.937	55333.21
636.291	55274.9
636.645	55255.24
636.999	55237.62
637.352	55339.76
637.706	55163.95
638.06	55230.38
638.413	55118.3
638.767	55149.48
639.121	55134.12
639.474	55051.41
639.828	55026.77
640.181	55009.15
640.534	55039.88
640.888	54862.48
641.241	54890.73
641.594	54877.4
641.947	54916.27
642.301	54853.67
642.654	54835.59
643.007	54797.85
643.36	54766.89
643.713	54693.9
644.066	54844.18
644.419	54613.45
644.771	54429.95
645.124	54060.25
645.477	54049.62
645.83	53968.72
646.182	53872
646.535	53732.8
646.888	53767.6
647.24	53647.37
647.593	53792.23
647.945	53659.35
648.298	53565.34
648.65	53562.18
649.002	53488.73
649.355	53489.86
649.707	53515.85
650.059	53566.02
650.411	53873.58
650.763	53942.06
651.115	54267.02
651.467	54133.92
651.819	54104.09
652.171	54046.23
652.523	53976.86
652.875	54061.15
653.227	53935.5
653.578	54155.16
653.93	53944.09
654.282	53843.08
654.633	53807.37
654.985	53763.53
655.337	53816.18
655.688	53850.53
656.039	53940.02
656.391	53695.28
656.742	53743.87
657.094	53783.87
657.445	53812.12
657.796	53654.15
658.147	53715.17
658.498	53604.89
658.849	53703.42
659.2	53598.11
659.551	53659.35
659.902	53734.38
660.253	53615.51
660.604	53650.09
660.955	53559.24
661.306	53648.96
661.656	53570.09
662.007	53503.88
662.358	53485.8
662.708	53485.35
663.059	53361.05
663.409	53256.65
663.76	53437.44
664.11	53448.28
664.461	53437.21
664.811	53394.05
665.161	53403.54
665.511	53229.08
665.862	53337.78
666.212	53472.24
666.562	53396.53
666.912	53414.61
667.262	53291.45
667.612	53305.46
667.962	53278.8
668.312	53166.26
668.662	53465.91
669.011	53172.81
669.361	53224.33
669.711	53143.66
670.06	53072.47
670.41	52997.22
670.76	53088.75
671.109	53227.95
671.459	53088.29
671.808	53076.09
672.157	53031.57
672.507	52887.17
672.856	52936.88
673.205	52889.2
673.554	52996.32
673.904	52838.36
674.253	52906.38
674.602	52849.2
674.951	52241.76
675.3	52241.99
675.649	52692.6
675.998	52627.74
676.346	52685.14
676.695	52688.53
677.044	52532.6
677.393	52703.22
677.741	52652.6
678.09	52500.96
678.438	52345.49
678.787	52486.28
679.135	52498.7
679.484	52326.28
679.832	52493.73
680.181	52217.36
680.529	52299.61
680.877	52255.77
681.225	52038.6
681.573	52296.9
681.922	52019.39
682.27	51995.67
682.618	52088.55
682.966	51893.3
683.314	52050.81
683.661	51891.04
684.009	51700.53
684.357	51675
684.705	51673.42
685.053	51655.56
685.4	51517.49
685.748	51436.36
686.095	51448.79
686.443	51173.77
686.79	51143.49
687.138	51143.26
687.485	51108.91
687.832	51048.8
688.18	51129.02
688.527	50926.32
688.874	50871.63
689.221	50794.57
689.568	50628.25
689.915	50559.55
690.262	50590.28
690.609	50437.97
690.956	50402.26
691.303	50315.48
691.65	50096.51
691.997	50156.62
692.344	49899.9
692.69	49871.43
693.037	49871.43
693.383	49630.53
693.73	49742.17
694.077	49483.19
694.423	49470.76
694.769	49305.79
695.116	49333.14
695.462	49169.98
695.808	49003.2
696.155	49123.2
696.501	48834.85
696.847	48828.97
697.193	48529.54
697.539	48729.31
697.885	48453.39
698.231	48224.24
698.577	48273.96
698.923	48155.99
699.269	48052.27
699.614	47863.8
699.96	47836.68
700.306	47735.21
700.651	47645.27
700.997	47469.46
701.342	47486.63
701.688	47413.41
702.033	47217.04
702.379	47201.22
702.724	47191.5
703.069	47177.71
703.415	46860.89
703.76	46736.14
704.105	46798.52
704.45	46631.74
704.795	46381.8
705.14	46180.68
705.485	46264.52
705.83	45989.5
706.175	46182.49
706.52	45993.79
706.865	45820.46
707.209	45810.97
707.554	45681.26
707.899	45836.28
708.243	45544.76
708.588	45711.99
708.932	45261.61
709.277	45286.46
709.621	45189.52
709.966	45038.11
710.31	45213.7
710.654	44645.13
710.998	44854.84
711.342	44948.62
711.687	44776.65
712.031	44589.53
712.375	44618.46
712.719	44444.9
713.063	44298.24
713.407	44480.61
713.75	44198.58
714.094	44367.62
714.438	44001.98
714.782	44164.69
715.125	43891.47
715.469	43972.6
715.812	43766.96
716.156	43569
716.499	43512.27
716.843	43626.17
717.186	43224.15
717.53	43472.05
717.873	43508.43
718.216	43380.3
718.559	43162.9
718.902	43054.88
719.246	43050.59
719.589	42896.47
719.932	42742.12
720.275	42777.6
720.617	42600.66
720.96	42613.09
721.303	42565.18
721.646	42757.49
721.989	42418.29
722.331	42563.82
722.674	42526.09
723.016	42454
723.359	42350.5
723.701	42202.48
724.044	41994.57
724.386	41917.29
724.729	42088.36
725.071	41877.74
725.413	41874.35
725.755	41912.77
726.097	41531.99
726.439	41457.64
726.782	41570.63
727.124	41611.31
727.465	41442.5
727.807	41302.84
728.149	41139.46
728.491	41223.52
728.833	41249.51
729.175	41103.52
729.516	40975.17
729.858	40891.55
730.199	40986.46
730.541	40954.38
730.882	40846.36
731.224	40863.53
731.565	40672.57
731.906	40670.77
732.248	40680.26
732.589	40536.98
732.93	40313.04
733.271	40441.17
733.612	40529.08
733.953	40437.33
734.294	40215.41
734.635	40117.56
734.976	40319.14
735.317	40009.09
735.658	39995.3
735.999	40023.1
736.339	39812.26
736.68	39886.61
737.021	39738.36
737.361	39633.28
737.702	39863.78
738.042	39626.05
738.383	39578.59
738.723	39603
739.063	39518.71
739.404	39545.82
739.744	39360.97
740.084	39198.49
740.424	39252.5
740.764	39170.92
741.104	39339.28
741.444	39072.84
741.784	38964.14
742.124	38879.18
742.464	38921.21
742.804	38858.84
743.143	38835.79
743.483	38723.93
743.823	38574.55
744.162	38491.84
744.502	38626.75
744.841	38238.97
745.181	38502.69
745.52	38266.31
745.86	38255.24
746.199	38206.42
746.538	38239.64
746.877	38219.31
747.216	38205.29
747.556	37960.33
747.895	38095.24
748.234	37832.88
748.573	37743.84
748.911	37618.64
749.25	37624.97
749.589	37419.55
749.928	37467.69
750.267	37569.61
750.605	37423.62
750.944	37500.23
751.283	37311.99
751.621	37273.12
751.96	36992.45
752.298	37178.88
752.636	37033.12
752.975	36845.33
