Data from white_steel_sheet_FLMS001491_008.txt Node
Date: Tue Feb 07 10:57:19 GMT 2017
User: dcchb
Spectrometer: FLMS00149
Trigger mode: 0
Integration Time (sec): 2.000000E-2
Scans to average: 10
Electric dark correction enabled: true
Nonlinearity correction enabled: false
Boxcar width: 0
XAxis mode: Wavelengths
Number of Pixels in Spectrum: 2048
>>>>>Begin Spectral Data<<<<<
341.393	9.22
341.776	9.22
342.16	9.22
342.543	-45.01
342.927	-63.09
343.31	-55.41
343.693	-70.55
344.077	-56.54
344.46	-55.86
344.843	-30.78
345.226	-46.37
345.61	-38.46
345.993	-20.38
346.376	-30.1
346.759	26.4
347.142	31.6
347.525	34.76
347.908	35.66
348.291	84.25
348.674	84.48
349.057	107.3
349.44	135.32
349.823	136.45
350.206	179.39
350.588	204.02
350.971	219.61
351.354	220.29
351.737	248.54
352.119	272.72
352.502	251.48
352.884	288.76
353.267	294.19
353.65	284.92
354.032	304.81
354.414	316.79
354.797	308.2
355.179	317.01
355.562	343.45
355.944	336.45
356.326	326.95
356.709	328.31
357.091	333.96
357.473	334.64
357.855	342.1
358.238	333.96
358.62	350.91
359.002	343.9
359.384	350.68
359.766	339.16
360.148	341.87
360.53	338.25
360.912	352.04
361.294	341.64
361.676	354.52
362.057	343.45
362.439	337.8
362.821	342.55
363.203	309.78
363.584	307.29
363.966	337.12
364.348	335.09
364.729	323.11
365.111	322.89
365.493	331.93
365.874	333.51
366.256	328.31
366.637	364.69
367.019	319.05
367.4	354.3
367.781	343.45
368.163	323.11
368.544	336.9
368.925	345.49
369.306	349.1
369.688	319.72
370.069	329.44
370.45	320.85
370.831	307.97
371.212	321.98
371.593	333.28
371.974	323.34
372.355	327.18
372.736	317.69
373.117	317.69
373.498	335.54
373.879	332.6
374.26	322.66
374.641	310.01
375.021	320.63
375.402	361.08
375.783	350.46
376.163	328.08
376.544	336.22
376.925	341.87
377.305	351.81
377.686	332.83
378.066	354.3
378.447	357.69
378.827	367.63
379.208	368.76
379.588	354.52
379.968	370.8
380.349	359.27
380.729	358.14
381.109	331.93
381.489	358.14
381.87	352.26
382.25	361.98
382.63	373.28
383.01	379.83
383.39	360.4
383.77	376.9
384.15	352.72
384.53	390.68
384.91	365.6
385.29	384.13
385.67	359.04
386.049	394.3
386.429	390.23
386.809	389.1
387.189	387.29
387.568	391.36
387.948	411.7
388.328	408.99
388.707	406.73
389.087	403.56
389.466	407.63
389.846	424.58
390.225	431.58
390.605	415.54
390.984	428.65
391.363	436.56
391.743	432.71
392.122	428.42
392.501	433.84
392.881	446.95
393.26	463.67
393.639	451.7
394.018	465.03
394.397	485.14
394.776	489.21
395.155	472.49
395.534	451.25
395.913	481.07
396.292	484.46
396.671	499.83
397.05	499.83
397.429	514.75
397.808	518.81
398.186	507.74
398.565	517.01
398.944	529.44
399.323	494.86
399.701	531.47
400.08	557.23
400.458	554.29
400.837	554.97
401.215	566.5
401.594	583.9
401.972	581.86
402.351	590.22
402.729	602.2
403.107	596.55
403.486	626.61
403.864	617.79
404.242	623.67
404.62	631.58
404.999	619.38
405.377	660.51
405.755	657.12
406.133	686.49
406.511	685.36
406.889	709.54
407.267	715.65
407.645	728.75
408.023	736.21
408.401	759.49
408.779	731.01
409.156	764.68
409.534	763.1
409.912	797.45
410.29	767.62
410.667	811.91
411.045	827.73
411.422	843.55
411.8	831.8
412.178	868.41
412.555	884
412.933	921.97
413.31	878.8
413.687	901.4
414.065	944.79
414.442	940.72
414.819	924.68
415.197	916.54
415.574	952.02
415.951	983.89
416.328	984.34
416.705	976.66
417.082	1007.39
417.46	1036.77
417.837	1000.16
418.214	1029.99
418.591	1022.98
418.967	1079.7
419.344	1071.12
419.721	1081.06
420.098	1064.34
420.475	1071.57
420.852	1116.54
421.228	1131.91
421.605	1129.42
421.982	1158.12
422.358	1164.9
422.735	1175.52
423.111	1164.45
423.488	1202.86
423.864	1179.14
424.241	1227.04
424.617	1244.22
424.994	1234.95
425.37	1272.69
425.746	1253.26
426.123	1285.35
426.499	1305.69
426.875	1321.73
427.251	1330.09
427.627	1361.28
428.003	1376.42
428.379	1394.27
428.756	1382.52
429.132	1406.7
429.507	1422.07
429.883	1439.92
430.259	1462.97
430.635	1483.31
431.011	1505
431.387	1539.8
431.763	1542.06
432.138	1571.44
432.514	1610.54
432.89	1594.27
433.265	1636.75
433.641	1653.7
434.016	1651.89
434.392	1689.63
434.767	1733.7
435.143	1719.01
435.518	1730.53
435.894	1777.09
436.269	1788.39
436.644	1812.79
437.02	1845.33
437.395	1838.55
437.77	1864.09
438.145	1916.74
438.52	1916.07
438.895	1930.08
439.271	1931.66
439.646	2023.86
440.021	1995.39
440.395	1988.61
440.77	2024.99
441.145	2024.99
441.52	2069.28
441.895	2053.46
442.27	2084.2
442.645	2070.86
443.019	2111.09
443.394	2154.7
443.769	2135.72
444.143	2148.6
444.518	2184.98
444.892	2153.57
445.267	2220.01
445.641	2221.82
446.016	2240.12
446.39	2271.54
446.764	2257.75
447.139	2301.82
447.513	2299.11
447.887	2307.02
448.262	2337.75
448.636	2362.38
449.01	2430.85
449.384	2418.2
449.758	2460.23
450.132	2497.07
450.506	2473.56
450.88	2517.18
451.254	2477.86
451.628	2560.34
452.002	2558.31
452.376	2598.31
452.75	2596.05
453.123	2590.85
453.497	2688.7
453.871	2672.2
454.244	2763.05
454.618	2773.22
454.992	2821.8
455.365	2836.72
455.739	2877.17
456.112	2871.75
456.486	2920.78
456.859	2987.9
457.232	3031.74
457.606	2989.71
457.979	3092.08
458.352	3093.44
458.725	3163.04
459.099	3167.33
459.472	3203.26
459.845	3272.19
460.218	3283.94
460.591	3295.46
460.964	3325.52
461.337	3412.75
461.71	3451.62
462.083	3499.75
462.456	3539.75
462.829	3536.14
463.201	3611.61
463.574	3617.04
463.947	3655
464.32	3738.84
464.692	3783.81
465.065	3814.55
465.438	3857.48
465.81	3930.93
466.183	4014.09
466.555	4055.22
466.928	4048.44
467.3	4023.13
467.672	4166.18
468.045	4222.9
468.417	4264.7
468.789	4279.62
469.161	4343.8
469.534	4362.33
469.906	4527.52
470.278	4476
470.65	4571.59
471.022	4675.54
471.394	4736.33
471.766	4831.47
472.138	4812.94
472.51	4937.45
472.882	5024.46
473.253	5057.9
473.625	5110.11
473.997	5266.49
474.369	5265.58
474.74	5291.8
475.112	5437.55
475.484	5514.84
475.855	5594.61
476.227	5675.29
476.598	5787.15
476.97	5843.87
477.341	6024.88
477.713	6083.87
478.084	6124.77
478.455	6272.11
478.827	6351.43
479.198	6513.01
479.569	6498.32
479.94	6697.18
480.311	6769.95
480.682	6913.67
481.053	7086.78
481.424	7181.69
481.795	7245.42
482.166	7335.58
482.537	7531.74
482.908	7605.18
483.279	7686.31
483.65	7921.33
484.021	8013.31
484.391	8128.56
484.762	8194.77
485.133	8249.01
485.503	8406.29
485.874	8573.97
486.244	8651.26
486.615	8858.93
486.985	8896.45
487.356	9060.51
487.726	9145.71
488.097	9385.47
488.467	9361.75
488.837	9586.15
489.207	9782.75
489.578	9805.8
489.948	9987.04
490.318	10058.68
490.688	10135.51
491.058	10253.7
491.428	10415.5
491.798	10541.6
492.168	10759.9
492.538	10822.95
492.908	10865.66
493.278	11076.95
493.648	11049.38
494.017	11212.77
494.387	11356.95
494.757	11421.8
495.126	11586.77
495.496	11609.82
495.866	11755.35
496.235	11876.26
496.605	11962.35
496.974	12046.87
497.344	12141.11
497.713	12333.42
498.082	12361.21
498.452	12392.63
498.821	12448.67
499.19	12615.67
499.559	12772.28
499.928	12765.95
500.298	12868.77
500.667	13035.77
501.036	13001.65
501.405	13156.9
501.774	13169.33
502.143	13275.09
502.512	13354.41
502.88	13460.85
503.249	13542.43
503.618	13706.04
503.987	13767.73
504.356	13874.17
504.724	13937.22
505.093	14001.4
505.462	14057.89
505.83	14159.59
506.199	14366.81
506.567	14566.13
506.936	14604.32
507.304	14754.37
507.672	14756.63
508.041	14790.53
508.409	14971.32
508.777	15123.63
509.145	15299.67
509.514	15246.79
509.882	15355.71
510.25	15469.38
510.618	15661.01
510.986	15659.21
511.354	15798.64
511.722	16022.14
512.09	16127.9
512.458	16030.27
512.826	16237.5
513.193	16465.06
513.561	16468.45
513.929	16630.93
514.297	16787.54
514.664	16876.58
515.032	17050.36
515.4	17099.4
515.767	17217.36
516.135	17369.44
516.502	17257.81
516.869	17660.06
517.237	17692.83
517.604	17733.5
517.972	17876.78
518.339	18105.47
518.706	18105.92
519.073	18189.54
519.44	18380.72
519.808	18649.41
520.175	18660.26
520.542	18795.62
520.909	19005.33
521.276	19026.35
521.643	19261.15
522.009	19357.41
522.376	19519.22
522.743	19684.86
523.11	19829.49
523.477	20033.78
523.843	20120.11
524.21	20354.68
524.577	20406.43
524.943	20659.53
525.31	20816.36
525.676	20984.04
526.043	21049.12
526.409	21131.61
526.776	21427.19
527.142	21540.63
527.508	21672.61
527.874	21862.66
528.241	21944.47
528.607	21974.52
528.973	22231.01
529.339	22328.86
529.705	22523.21
530.071	22750.09
530.437	22902.63
530.803	22928.85
531.169	23120.03
531.535	23120.48
531.901	23249.52
532.267	23389.17
532.632	23463.52
532.998	23664.65
533.364	23684.08
533.73	23819.9
534.095	24051.75
534.461	24129.27
534.826	24285.65
535.192	24319.09
535.557	24500.1
535.923	24524.74
536.288	24625.98
536.653	24799.76
537.019	24743.26
537.384	24821.23
537.749	24952.07
538.114	25125.85
538.479	25232.97
538.845	25305.73
539.21	25397.93
539.575	25494.43
539.94	25482
540.305	25660.98
540.67	25611.94
541.034	25719.73
541.399	25907.75
541.764	26093.51
542.129	26088.09
542.494	26208.53
542.858	26338.02
543.223	26246.27
543.587	26513.38
543.952	26628.86
544.316	26576.89
544.681	26631.57
545.045	26848.74
545.41	26940.72
545.774	27051.9
546.138	26974.84
546.503	27068.17
546.867	27259.13
547.231	27413.93
547.595	27495.05
547.959	27613.69
548.324	27639.91
548.688	27677.42
549.052	27787.7
549.416	27878.55
549.779	27844.88
550.143	27930.97
550.507	28149.95
550.871	28335.94
551.235	28319.66
551.599	28623.61
551.962	28566.21
552.326	28639.88
552.689	28840.56
553.053	28681.92
553.417	28824.51
553.78	29276.48
554.143	29163.03
554.507	29281
554.87	29398.28
555.234	29645.96
555.597	29592.63
555.96	29605.28
556.323	29803.92
556.686	29872.84
557.05	30072.84
557.413	30208.88
557.776	30183.34
558.139	30492.26
558.502	30600.96
558.865	30665.59
559.228	30888.64
559.59	30909.43
559.953	31009.09
560.316	31352.58
560.679	31355.52
561.041	31369.53
561.404	31675.28
561.767	31772
562.129	31714.6
562.492	32089.51
562.854	32109.17
563.217	32133.58
563.579	32228.94
563.941	32427.58
564.304	32596.39
564.666	32854.24
565.028	32891.97
565.39	32981.69
565.753	33066.66
566.115	33162.48
566.477	33513.43
566.839	33492.41
567.201	33616.7
567.563	33608.79
567.925	33904.6
568.287	33955.45
568.648	33920.42
569.01	34261.88
569.372	34352.5
569.734	34321.09
570.095	34518.6
570.457	34785.26
570.819	34816.22
571.18	34858.25
571.542	35055.08
571.903	35035.65
572.265	35119.03
572.626	35273.38
572.987	35365.58
573.349	35447.39
573.71	35636.99
574.071	35639.47
574.432	35745.23
574.794	35980.93
575.155	35899.13
575.516	35911.33
575.877	36003.98
576.238	36110.87
576.599	36284.43
576.96	36104.09
577.32	36296.63
577.681	36412.79
578.042	36367.36
578.403	36392.45
578.763	36517.19
579.124	36595.83
579.485	36709.5
579.845	36688.03
580.206	36682.83
580.566	36570.3
580.927	36653.46
581.287	36947.91
581.648	36880.57
582.008	36929.16
582.368	36787.69
582.728	37015.48
583.089	36916.28
583.449	36979.55
583.809	37022.71
584.169	36957.4
584.529	36940.23
584.889	37141.35
585.249	36909.72
585.609	36908.37
585.969	37078.08
586.329	36935.48
586.688	37014.58
587.048	36981.81
587.408	36892.77
587.768	36982.04
588.127	36965.54
588.487	36788.14
588.846	37126.44
589.206	36899.55
589.565	36873.79
589.925	37144.74
590.284	37021.58
590.643	37078.08
591.003	37191.52
591.362	37241.24
591.721	37116.27
592.08	37090.96
592.44	37196.27
592.799	37207.34
593.158	36950.17
593.517	37070.85
593.876	37141.13
594.235	37040.79
594.593	36962.15
594.952	37132.09
595.311	36981.36
595.67	37155.59
596.029	37248.7
596.387	37360.56
596.746	37368.69
597.104	37292.54
597.463	37237.17
597.822	37372.31
598.18	37259.99
598.538	37240.11
598.897	37398.97
599.255	37100
599.613	37557.61
599.972	37474.9
600.33	37475.36
600.688	37266.1
601.046	37480.33
601.404	37492.53
601.762	37330.73
602.12	37633.09
602.478	37603.71
602.836	37542.02
603.194	37508.8
603.552	37587.67
603.91	37324.17
604.268	37545.64
604.625	37379.54
604.983	37598.52
605.341	37355.36
605.698	37667.67
606.056	37628.35
606.413	37655.24
606.771	37802.35
607.128	37739.98
607.485	37654.79
607.843	37760.77
608.2	37784.05
608.557	37993.53
608.914	37963.25
609.272	38008.45
609.629	38045.96
609.986	38163.93
610.343	37949.24
610.7	38371.6
611.057	38229.46
611.414	38193.53
611.771	38342.45
612.127	38433.07
612.484	38396.46
612.841	38490.7
613.198	38334.32
613.554	38319.63
613.911	38656.57
614.267	38512.17
614.624	38536.8
614.98	38622.67
615.337	38730.24
615.693	38566.63
616.05	38535.67
616.406	38867.86
616.762	38725.72
617.118	38778.37
617.475	38854.08
617.831	38838.71
618.187	38800.29
618.543	38951.02
618.899	39052.94
619.255	38928.88
619.611	38968.65
619.967	39038.71
620.323	39268.53
620.678	39046.61
621.034	38934.75
621.39	38959.84
621.746	39083.22
622.101	39368.64
622.457	39293.61
622.812	39202.99
623.168	39369.54
623.523	39245.48
623.879	39442.76
624.234	39014.75
624.589	39160.06
624.945	39292.03
625.3	39310.34
625.655	39255.87
626.01	39202.77
626.365	39247.97
626.72	39223.79
627.075	39122.77
627.43	39063.34
627.785	39008.88
628.14	39179.27
628.495	39127.74
628.85	39043.9
629.205	39001.87
629.559	39318.7
629.914	38932.72
630.269	39087.52
630.623	38950.35
630.978	39008.2
631.332	39138.59
631.687	39197.35
632.041	38876.68
632.396	39018.59
632.75	38743.57
633.104	38976.11
633.459	38748.77
633.813	38575.44
634.167	38736.11
634.521	38694.99
634.875	38751.93
635.229	38643.24
635.583	38482.79
635.937	38409.8
636.291	38404.6
636.645	38340.87
636.999	38305.17
637.352	38452.05
637.706	38148.56
638.06	38288.44
638.413	38222.23
638.767	38114.66
639.121	38111.95
639.474	37774.11
639.828	37932.52
640.181	37988.79
640.534	37915.34
640.888	37764.84
641.241	37675.8
641.594	37722.36
641.947	37656.37
642.301	37655.46
642.654	37680.1
643.007	37604.17
643.36	37605.07
643.713	37514.45
644.066	37610.27
644.419	37414.12
644.771	37105.65
645.124	36891.64
645.477	36626.11
645.83	36500.24
646.182	36370.75
646.535	36173.92
646.888	36367.59
647.24	36095.51
647.593	36392.22
647.945	36337.31
648.298	36107.26
648.65	36036.07
649.002	36142.51
649.355	36097.99
649.707	35856.64
650.059	36025.23
650.411	36475.61
650.763	36465.21
651.115	36876.5
651.467	36758.99
651.819	36797.86
652.171	36683.96
652.523	36640.12
652.875	36581.14
653.227	36455.27
653.578	36767.58
653.93	36546.12
654.282	36434.48
654.633	36289.85
654.985	36344.76
655.337	36289.17
655.688	36284.2
656.039	36402.62
656.391	36014.38
656.742	36095.73
657.094	36171.89
657.445	36320.81
657.796	36073.36
658.147	36222.06
658.498	36091.89
658.849	36278.1
659.2	36086.24
659.551	35827.72
659.902	36110.65
660.253	35846.7
660.604	35921.5
660.955	35581.39
661.306	35858.45
661.656	35756.53
662.007	35708.4
662.358	35650.55
662.708	35657.55
663.059	35703.65
663.409	35422.98
663.76	35586.37
664.11	35528.51
664.461	35407.39
664.811	35405.81
665.161	35382.53
665.511	35181.63
665.862	35247.84
666.212	35220.95
666.562	35149.77
666.912	35087.17
667.262	34955.65
667.612	34972.37
667.962	34851.47
668.312	34724.24
668.662	34775.99
669.011	34740.29
669.361	34677.46
669.711	34653.96
670.06	34576.22
670.41	34281.99
670.76	34254.65
671.109	34273.18
671.459	34256.46
671.808	34020.98
672.157	34188.21
672.507	33865.96
672.856	33900.54
673.205	33816.24
673.554	33865.06
673.904	33767.88
674.253	33827.99
674.602	33560.88
674.951	33162.02
675.3	33014.46
675.649	33472.75
675.998	33476.14
676.346	33478.63
676.695	33473.88
677.044	33281.12
677.393	33358.63
677.741	33324.28
678.09	33297.61
678.438	33159.09
678.787	33235.02
679.135	33290.16
679.484	33133.1
679.832	33175.13
680.181	33061.24
680.529	33186.2
680.877	33014.68
681.225	33015.59
681.573	33169.03
681.922	33028.24
682.27	33022.37
682.618	33046.09
682.966	32957.28
683.314	33014.23
683.661	33008.36
684.009	32875.93
684.357	32892.43
684.705	32911.86
685.053	32959.77
685.4	32970.84
685.748	32816.95
686.095	32819.66
686.443	32710.28
686.79	32789.83
687.138	32854.01
687.485	32913.22
687.832	32880.22
688.18	32932.65
688.527	32721.36
688.874	32755.71
689.221	32823.05
689.568	32734.46
689.915	32646.78
690.262	32726.78
690.609	32681.13
690.956	32497.63
691.303	32581.02
691.65	32343.51
691.997	32552.55
692.344	32325.66
692.69	32359.11
693.037	32353.68
693.383	32202.95
693.73	32309.62
694.077	32064.88
694.423	32073.69
694.769	32096.74
695.116	32124.76
695.462	31995.5
695.808	31928.16
696.155	31949.17
696.501	31795.51
696.847	31808.16
697.193	31619.92
697.539	31836.86
697.885	31513.25
698.231	31407.95
698.577	31399.36
698.923	31298.34
699.269	31258.34
699.614	31086.37
699.96	31162.98
700.306	31180.83
700.651	30958.24
700.997	30884.8
701.342	30865.81
701.688	30912.14
702.033	30686.61
702.379	30687.51
702.724	30592.37
703.069	30692.48
703.415	30259.5
703.76	30358.26
704.105	30247.07
704.45	30208.65
704.795	30022.9
705.14	30021.54
705.485	30006.63
705.83	29824.26
706.175	29925.5
706.52	29782
706.865	29736.12
707.209	29672.62
707.554	29560.54
707.899	29711.49
708.243	29407.77
708.588	29450.71
708.932	29215.91
709.277	29195.57
709.621	29221.11
709.966	29158.74
710.31	29029.02
710.654	28993.55
710.998	29038.29
711.342	28960.55
711.687	28792.19
712.031	28700.45
712.375	28650.05
712.719	28621.13
713.063	28551.07
713.407	28580.22
713.75	28471.75
714.094	28447.12
714.438	28438.98
714.782	28403.96
715.125	28178.2
715.469	28301.36
715.812	28034.02
716.156	28018.2
716.499	28075.38
716.843	28075.38
717.186	27893.46
717.53	27940.24
717.873	27906.79
718.216	27856.17
718.559	27735.95
718.902	27555.62
719.246	27696.18
719.589	27674.03
719.932	27464.55
720.275	27501.83
720.617	27467.03
720.96	27363.98
721.303	27444.89
721.646	27401.72
721.989	27216.64
722.331	27283.31
722.674	27158.11
723.016	27163.31
723.359	27162.86
723.701	27002.19
724.044	26839.93
724.386	26768.29
724.729	26928.97
725.071	26742.31
725.413	26914.05
725.755	26808.97
726.097	26702.98
726.439	26508.64
726.782	26523.55
727.124	26751.34
727.465	26445.14
727.807	26475.19
728.149	26423.67
728.491	26381.86
728.833	26474.74
729.175	26398.59
729.516	26323.79
729.858	26305.48
730.199	26168.31
730.541	26167.41
730.882	26144.13
731.224	26080.63
731.565	26028.43
731.906	26022.78
732.248	26112.72
732.589	25932.84
732.93	25704.37
733.271	25886.06
733.612	25735.33
733.953	25788.21
734.294	25625.27
734.635	25624.14
734.976	25621.2
735.317	25540.08
735.658	25512.96
735.999	25653.97
736.339	25384.15
736.68	25554.31
737.021	25428.22
737.361	25347.77
737.702	25425.05
738.042	25323.13
738.383	25169.47
738.723	25321.78
739.063	25252.85
739.404	25327.88
739.744	25188.45
740.084	25053.99
740.424	25177.83
740.764	25058.96
741.104	25053.31
741.444	24986.65
741.784	24814.67
742.124	24884.28
742.464	24880.89
742.804	24706.43
743.143	24730.15
743.483	24710.04
743.823	24565.19
744.162	24753.43
744.502	24669.37
744.841	24402.25
745.181	24643.83
745.52	24475.02
745.86	24472.31
746.199	24414.91
746.538	24421.69
746.877	24367.45
747.216	24382.14
747.556	24312.54
747.895	24200.45
748.234	24112.09
748.573	24065.09
748.911	24058.08
749.25	24024.86
749.589	23924.3
749.928	23941.93
750.267	23968.82
750.605	23936.05
750.944	23836.17
751.283	23739.67
751.621	23812.89
751.96	23596.63
752.298	23605.44
752.636	23680.01
752.975	23411.32
753.313	23428.49
753.651	23568.83
