Data from white_wall_FLMS001491_090.txt Node
Date: Tue Feb 07 11:06:03 GMT 2017
User: dcchb
Spectrometer: FLMS00149
Trigger mode: 0
Integration Time (sec): 2.000000E-2
Scans to average: 10
Electric dark correction enabled: true
Nonlinearity correction enabled: false
Boxcar width: 0
XAxis mode: Wavelengths
Number of Pixels in Spectrum: 2048
>>>>>Begin Spectral Data<<<<<
341.393	-21.54
341.776	-21.54
342.16	-21.54
342.543	-62.67
342.927	-57.02
343.31	-64.93
343.693	-83.91
344.077	-82.55
344.46	-57.24
344.843	-58.37
345.226	-41.65
345.61	-17.92
345.993	-5.95
346.376	4
346.759	13.71
347.142	15.07
347.525	54.39
347.908	47.61
348.291	76.99
348.674	90.1
349.057	110.66
349.44	133.49
349.823	144.11
350.206	154.28
350.588	234.73
350.971	226.59
351.354	242.41
351.737	242.86
352.119	264.1
352.502	300.49
352.884	320.15
353.267	296.87
353.65	310.43
354.032	301.16
354.414	359.02
354.797	334.61
355.179	345.01
355.562	349.75
355.944	339.36
356.326	366.25
356.709	369.41
357.091	379.35
357.473	353.37
357.855	344.1
358.238	352.46
358.62	371.9
359.002	353.59
359.384	369.64
359.766	363.54
360.148	357.66
360.53	366.7
360.912	366.93
361.294	358.11
361.676	372.8
362.057	377.09
362.439	352.69
362.821	338.9
363.203	352.46
363.584	368.51
363.966	358.34
364.348	348.39
364.729	361.28
365.111	352.01
365.493	349.3
365.874	315.85
366.256	348.17
366.637	351.11
367.019	351.33
367.4	356.3
367.781	333.25
368.163	333.93
368.544	349.98
368.925	343.88
369.306	364.67
369.688	341.39
370.069	353.82
370.45	325.34
370.831	327.38
371.212	336.42
371.593	342.97
371.974	346.36
372.355	335.06
372.736	341.84
373.117	350.88
373.498	355.85
373.879	362.63
374.26	356.98
374.641	348.85
375.021	366.7
375.402	349.75
375.783	367.15
376.163	369.64
376.544	370.54
376.925	363.54
377.305	358.34
377.686	373.03
378.066	379.81
378.447	369.86
378.827	369.41
379.208	392.46
379.588	370.99
379.968	386.13
380.349	365.8
380.729	387.49
381.109	405.79
381.489	403.31
381.87	391.11
382.25	372.12
382.63	402.63
383.01	375.06
383.39	394.72
383.77	407.38
384.15	429.75
384.53	393.14
384.91	427.71
385.29	425.45
385.67	410.09
386.049	415.29
386.429	430.43
386.809	438.34
387.189	448.96
387.568	446.7
387.948	423.42
388.328	461.61
388.707	462.97
389.087	455.51
389.466	472.69
389.846	448.05
390.225	444.44
390.605	450.99
390.984	461.84
391.363	490.31
391.743	487.37
392.122	506.13
392.501	505.9
392.881	516.98
393.26	519.92
393.639	535.51
394.018	532.8
394.397	552.23
394.776	568.28
395.155	544.1
395.534	548.16
395.913	571.44
396.292	565.56
396.671	567.37
397.05	595.39
397.429	623.42
397.808	620.48
398.186	638.33
398.565	638.1
398.944	636.52
399.323	643.98
399.701	667.03
400.08	666.13
400.458	689.4
400.837	701.83
401.215	715.84
401.594	705
401.972	726.24
402.351	757.2
402.729	780.93
403.107	762.85
403.486	772.56
403.864	799.23
404.242	814.15
404.62	810.76
404.999	833.35
405.377	857.53
405.755	872.45
406.133	883.97
406.511	901.83
406.889	932.79
407.267	935.95
407.645	945.44
408.023	988.15
408.401	966.68
408.779	996.97
409.156	1025.21
409.534	1021.15
409.912	1061.14
410.29	1094.82
410.667	1101.82
411.045	1135.04
411.422	1132.33
411.8	1163.06
412.178	1200.35
412.555	1169.16
412.933	1205.32
413.31	1239.22
413.687	1265.66
414.065	1297.07
414.442	1258.88
414.819	1282.83
415.197	1326
415.574	1346.56
415.951	1358.54
416.328	1353.57
416.705	1375.03
417.082	1395.37
417.46	1409.84
417.837	1462.94
418.214	1465.43
418.591	1439.67
418.967	1489.16
419.344	1494.58
419.721	1525.09
420.098	1531.19
420.475	1553.79
420.852	1555.14
421.228	1600.79
421.605	1582.49
421.982	1626.55
422.358	1622.26
422.735	1636.5
423.111	1658.42
423.488	1711.3
423.864	1725.76
424.241	1751.3
424.617	1756.49
424.994	1808.92
425.37	1799.66
425.746	1787
426.123	1819.54
426.499	1871.29
426.875	1879.43
427.251	1904.74
427.627	1920.33
428.003	1955.36
428.379	1967.11
428.756	2010.95
429.132	2040.55
429.507	2066.09
429.883	2076.71
430.259	2119.42
430.635	2133.21
431.011	2180.21
431.387	2230.38
431.763	2250.49
432.138	2266.54
432.514	2276.48
432.89	2304.73
433.265	2380.21
433.641	2419.98
434.016	2412.97
434.392	2465.4
434.767	2495.23
435.143	2513.31
435.518	2543.59
435.894	2590.6
436.269	2615.23
436.644	2634.21
437.02	2683.7
437.395	2699.52
437.77	2724.15
438.145	2790.82
438.52	2801.66
438.895	2851.83
439.271	2863.81
439.646	2895.67
440.021	2899.29
440.395	2922.56
440.77	2922.56
441.145	2939.74
441.52	2988.78
441.895	3040.3
442.27	3046.63
442.645	3038.49
443.019	3112.16
443.394	3112.84
443.769	3149
444.143	3120.07
444.518	3227.42
444.892	3210.69
445.267	3274.65
445.641	3286.62
446.016	3293.63
446.39	3298.15
446.764	3361.42
447.139	3360.29
447.513	3382.44
447.887	3409.33
448.262	3433.74
448.636	3425.6
449.01	3511.7
449.384	3529.33
449.758	3552.38
450.132	3625.14
450.506	3618.82
450.88	3680.06
451.254	3707.63
451.628	3720.06
452.002	3745.37
452.376	3821.3
452.75	3798.7
453.123	3901.75
453.497	3985.59
453.871	3944.46
454.244	4089.31
454.618	4146.94
454.992	4153.94
455.365	4158.92
455.739	4289.53
456.112	4293.38
456.486	4326.14
456.859	4369.53
457.232	4492.47
457.606	4462.64
457.979	4531.34
458.352	4684.78
458.725	4699.24
459.099	4712.12
459.472	4862.63
459.845	4805.9
460.218	4972
460.591	4999.57
460.964	5000.25
461.337	5137.2
461.71	5216.97
462.083	5266.23
462.456	5266.01
462.829	5278.66
463.201	5433.01
463.574	5433.23
463.947	5514.81
464.32	5660.8
464.692	5716.16
465.065	5776.73
465.438	5878.19
465.81	5946.21
466.183	6044.29
466.555	6133.55
466.928	6176.04
467.3	6194.79
467.672	6294
468.045	6453.77
468.417	6432.98
468.789	6559.53
469.161	6689.7
469.534	6791.16
469.906	6936.92
470.278	7008.11
470.65	7023.7
471.022	7171.27
471.394	7306.63
471.766	7443.58
472.138	7500.75
472.51	7677.69
472.882	7814.64
473.253	7887.18
473.625	7971.92
473.997	8107.51
474.369	8264.8
474.74	8309.54
475.112	8466.15
475.484	8621.4
475.855	8768.29
476.227	8887.83
476.598	9217.54
476.97	9204.21
477.341	9407.37
477.713	9539.57
478.084	9643.74
478.455	9900.23
478.827	10010.06
479.198	10260
479.569	10316.49
479.94	10604.17
480.311	10668.35
480.682	10958.51
481.053	11193.99
481.424	11325.96
481.795	11483.7
482.166	11711.49
482.537	11826.96
482.908	12212.26
483.279	12218.37
483.65	12591.01
484.021	12719.37
484.391	12968.4
484.762	13072.81
485.133	13206.81
485.503	13356.41
485.874	13692.22
486.244	13805.67
486.615	14035.72
486.985	14224.41
487.356	14511.64
487.726	14618.53
488.097	14923.83
488.467	15010.16
488.837	15406.53
489.207	15458.28
489.578	15754.77
489.948	15850.59
490.318	16180.52
490.688	16288.31
491.058	16534.86
491.428	16787.28
491.798	16957.68
492.168	17305.46
492.538	17349.08
492.908	17483.54
493.278	17717.43
493.648	17815.96
494.017	18028.38
494.387	18274.48
494.757	18473.79
495.126	18651.19
495.496	18734.13
495.866	18851.86
496.235	19104.96
496.605	19314.9
496.974	19340.44
497.344	19589.92
497.713	19678.06
498.082	19896.81
498.452	20224.71
498.821	20171.15
499.19	20313.75
499.559	20476.68
499.928	20750.34
500.298	20859.72
500.667	21066.72
501.036	21034.4
501.405	21327.28
501.774	21394.85
502.143	21608.4
502.512	21789.64
502.88	21970.43
503.249	22019.46
503.618	22154.15
503.987	22338.33
504.356	22579
504.724	22674.36
505.093	22725.43
505.462	22851.98
505.83	23012.21
506.199	23366.77
506.567	23663.49
506.936	23557.5
507.304	23921.56
507.672	23882.69
508.041	24086.08
508.409	24407.2
508.777	24543.46
509.145	24723.35
509.514	24794.76
509.882	24827.98
510.25	25090.57
510.618	25258.25
510.986	25393.61
511.354	25761.96
511.722	25911.56
512.09	26195.17
512.458	26212.35
512.826	26504.77
513.193	26539.34
513.561	26772.78
513.929	26948.37
514.297	27182.72
514.664	27477.62
515.032	27402.15
515.4	27775.47
515.767	27870.16
516.135	28092.75
516.502	27949.48
516.869	28515.56
517.237	28604.15
517.604	28578.61
517.972	29027.87
518.339	29257.92
518.706	29380.85
519.073	29487.97
519.44	29722.54
519.808	30057.9
520.175	30036.65
520.542	30393.71
520.909	30605.68
521.276	30796.86
521.643	30857.2
522.009	31332.44
522.376	31405.66
522.743	31634.8
523.11	31942.82
523.477	32276.14
523.843	32405.41
524.21	32709.35
524.577	33014.43
524.943	33131.04
525.31	33364.93
525.676	33655.32
526.043	33897.8
526.409	33935.76
526.776	34340.95
527.142	34491.45
527.508	34666.36
527.874	34897.32
528.241	35173.02
528.607	35297.31
528.973	35664.75
529.339	35577.98
529.705	36008.93
530.071	36391.51
530.437	36437.16
530.803	36691.39
531.169	36861.79
531.535	36801.9
531.901	37011.61
532.267	37272.85
532.632	37615.66
532.998	37601.65
533.364	37960.06
533.73	37944.92
534.095	38304.01
534.461	38450.22
534.826	38581.29
535.192	38740.61
535.557	39056.08
535.923	38999.36
536.288	39080.26
536.653	39249.29
537.019	39223.08
537.384	39604.09
537.749	39757.08
538.114	39831.42
538.479	39948.94
538.845	40185.77
539.21	40152.09
539.575	40449.26
539.94	40575.59
540.305	40828.69
540.67	40883.83
541.034	40963.37
541.399	41186.64
541.764	41383.25
542.129	41534.88
542.494	41629.12
542.858	41781.2
543.223	41806.97
543.587	42178.71
543.952	42174.87
544.316	42319.72
544.681	42275.88
545.045	42541.41
545.41	42802.65
545.774	42924
546.138	43101.85
546.503	43091.45
546.867	43212.8
547.231	43619.57
547.595	43795.61
547.959	43770.08
548.324	43938.89
548.688	43940.47
549.052	44372.77
549.416	44417.52
549.779	44433.34
550.143	44650.96
550.507	45011.4
550.871	45105.64
551.235	45142.02
551.599	45419.98
551.962	45488.68
552.326	45652.97
552.689	45983.13
553.053	45807.76
553.417	45938.16
553.78	46648.87
554.143	46417.47
554.507	46614.07
554.87	46736.55
555.234	47294.05
555.597	47134.28
555.96	47312.81
556.323	47463.54
556.686	47555.29
557.05	47895.17
557.413	47987.59
557.776	48127.93
558.139	48364.31
558.502	48467.13
558.865	48501.25
559.228	48808.14
559.59	49031.63
559.953	49066.21
560.316	49350.04
560.679	49502.13
561.041	49738.96
561.404	49861.9
561.767	50032.29
562.129	49983.47
562.492	50311.83
562.854	50345.5
563.217	50456
563.579	50633.85
563.941	50824.13
564.304	50981.41
564.666	51257.34
565.028	51332.82
565.39	51442.19
565.753	51540.95
566.115	51715.86
566.477	51817.1
566.839	51944.1
567.201	52143.42
567.563	52186.35
567.925	52315.16
568.287	52425.44
568.648	52516.29
569.01	52781.82
569.372	52935.49
569.734	52899.56
570.095	53013.9
570.457	53180.45
570.819	53206.44
571.18	53241.02
571.542	53319.21
571.903	53445.98
572.265	53578.18
572.626	53653.66
572.987	53712.87
573.349	53846.2
573.71	53928.91
574.071	53938.85
574.432	54125.06
574.794	54289.35
575.155	54210.26
575.516	54193.53
575.877	54272.63
576.238	54405.05
576.599	54489.12
576.96	54426.07
577.32	54552.17
577.681	54565.05
578.042	54626.29
578.403	54645.95
578.763	54767.98
579.124	54791.71
579.485	54789.22
579.845	54986.73
580.206	54850.24
580.566	54835.32
580.927	54886.62
581.287	54984.92
581.648	54905.83
582.008	55133.62
582.368	54972.27
582.728	55081.42
583.089	55085.03
583.449	55084.13
583.809	55158.93
584.169	55166.61
584.529	55120.97
584.889	55256.78
585.249	55178.14
585.609	55069.44
585.969	55265.14
586.329	55177.69
586.688	55278.25
587.048	55234.41
587.408	55202.32
587.768	55138.14
588.127	55217.46
588.487	55184.69
588.846	55309.21
589.206	55189.66
589.565	55255.2
589.925	55322.32
590.284	55323.45
590.643	55372.03
591.003	55309.21
591.362	55409.09
591.721	55327.29
592.08	55346.27
592.44	55424.01
592.799	55460.17
593.158	55301.53
593.517	55369.09
593.876	55458.81
594.235	55403.44
594.593	55399.83
594.952	55452.71
595.311	55367.06
595.67	55471.24
596.029	55541.52
596.387	55629.88
596.746	55602.54
597.104	55495.42
597.463	55485.25
597.822	55608.64
598.18	55529.99
598.538	55464.69
598.897	55708.97
599.255	55465.59
599.613	55887.05
599.972	55629.43
600.33	55750.1
600.688	55641.18
601.046	55798.46
601.404	55843.88
601.762	55809.76
602.12	55884.11
602.478	55925.92
602.836	55875.52
603.194	55722.31
603.552	55829.65
603.91	55822.64
604.268	55945.58
604.625	55861.51
604.983	55979.7
605.341	55907.84
605.698	56031.9
606.056	56124.56
606.413	56128.62
606.771	56144.22
607.128	56165.23
607.485	56064.9
607.843	56089.08
608.2	56287.26
608.557	56316.41
608.914	56259.02
609.272	56284.55
609.629	56365.68
609.986	56467.6
610.343	56396.19
610.7	56511.44
611.057	56566.8
611.414	56499.91
611.771	56508.05
612.127	56595.28
612.484	56618.55
612.841	56735.16
613.198	56619.01
613.554	56576.29
613.911	56825.55
614.267	56687.25
614.624	56701.26
614.98	56744.43
615.337	56866
615.693	56757.99
616.05	56780.13
616.406	56893.8
616.762	56826.68
617.118	56859.23
617.475	56860.58
617.831	56909.62
618.187	57006.11
618.543	57015.83
618.899	57093.57
619.255	57078.65
619.611	57089.95
619.967	57141.25
620.323	57224.64
620.678	57099.44
621.034	57000.01
621.39	57103.06
621.746	57042.72
622.101	57284.07
622.457	57104.42
622.812	57179.44
623.168	57126.11
623.523	57237.75
623.879	57332.43
624.234	57197.52
624.589	57255.6
624.945	57219.89
625.3	57251.76
625.655	57261.7
626.01	57258.31
626.365	57264.41
626.72	57238.42
627.075	57233.23
627.43	57143.06
627.785	57150.97
628.14	57201.82
628.495	57243.85
628.85	57196.17
629.205	57103.74
629.559	57246.33
629.914	57104.87
630.269	57209.5
630.623	57067.81
630.978	56996.85
631.332	57129.5
631.687	57217.41
632.041	57086.11
632.396	57093.57
632.75	57020.13
633.104	57024.64
633.459	56863.52
633.813	56843.86
634.167	56862.84
634.521	56809.74
634.875	56918.66
635.229	56768.15
635.583	56706.23
635.937	56746.01
636.291	56712.34
636.645	56690.19
636.999	56684.77
637.352	56760.47
637.706	56574.49
638.06	56698.78
638.413	56730.42
638.767	56521.16
639.121	56596.18
639.474	56447.03
639.828	56465.79
640.181	56529.52
640.534	56551.21
640.888	56358.45
641.241	56303.76
641.594	56314.15
641.947	56364.78
642.301	56288.84
642.654	56290.88
643.007	56294.04
643.36	56257.21
643.713	56208.85
644.066	56280.03
644.419	56047.27
644.771	55858.35
645.124	55652.7
645.477	55645.7
645.83	55457.23
646.182	55381.52
646.535	55333.39
646.888	55342.43
647.24	55141.3
647.593	55296.1
647.945	55262.21
648.298	55062.89
648.65	55039.39
649.002	55007.3
649.355	55122.55
649.707	55023.34
650.059	55128.2
650.411	55482.31
650.763	55539.26
651.115	55750.1
651.467	55620.61
651.819	55619.48
652.171	55557.34
652.523	55520.73
652.875	55527.28
653.227	55360.28
653.578	55558.69
653.93	55445.03
654.282	55334.75
654.633	55302.2
654.985	55302.43
655.337	55358.93
655.688	55304.69
656.039	55377.46
656.391	55167.97
656.742	55232.6
657.094	55237.57
657.445	55254.97
657.796	55165.94
658.147	55081.19
658.498	55148.76
658.849	55116.45
659.2	55102.89
659.551	55141.53
659.902	55197.57
660.253	55109.21
660.604	55083.45
660.955	54994.42
661.306	55075.32
661.656	55046.84
662.007	55033.51
662.358	55010.46
662.708	55071.48
663.059	54890.24
663.409	54746.51
663.76	54983.57
664.11	54930.01
664.461	54910.12
664.811	54926.39
665.161	54907.86
665.511	54776.79
665.862	54871.93
666.212	54877.81
666.562	54947.19
666.912	54776.57
667.262	54771.14
667.612	54723.91
667.962	54837.58
668.312	54739.28
668.662	54921.42
669.011	54763.46
669.361	54745.83
669.711	54765.04
670.06	54648.89
670.41	54614.54
670.76	54598.95
671.109	54701.54
671.459	54619.96
671.808	54542.45
672.157	54537.93
672.507	54358.27
672.856	54304.26
673.205	54349.91
673.554	54380.42
673.904	54337.94
674.253	54466.07
674.602	54380.65
674.951	53978.4
675.3	53835.58
675.649	54223.81
675.998	54243.47
676.346	54276.24
676.695	54326.41
677.044	54137.26
677.393	54183.59
677.741	54168.45
678.09	54044.16
678.438	53989.02
678.787	54044.16
679.135	54069.24
679.484	53922.81
679.832	53958.06
680.181	53808.01
680.529	53974.33
680.877	53821.11
681.225	53778.18
681.573	53926.65
681.922	53672.87
682.27	53589.03
682.618	53664.06
682.966	53583.38
683.314	53573.44
683.661	53482.82
684.009	53297.74
684.357	53253.44
684.705	53259.77
685.053	53239.89
685.4	53195.82
685.748	53034.24
686.095	53058.42
686.443	52881.02
686.79	52794.47
687.138	52830.63
687.485	52870.86
687.832	52663.18
688.18	52708.83
688.527	52573.24
688.874	52466.57
689.221	52441.49
689.568	52348.61
689.915	52343.41
690.262	52240.59
690.609	52160.14
690.956	52060.03
691.303	51953.14
691.65	51816.65
691.997	51890.32
692.344	51573.71
692.69	51668.85
693.037	51684.45
693.383	51416.66
693.73	51613.94
694.077	51289.88
694.423	51318.81
694.769	51272.03
695.116	51155.65
695.462	51077.46
695.808	50949.55
696.155	50942.32
696.501	50743.68
696.847	50790.46
697.193	50446.74
697.539	50734.87
697.885	50435.67
698.231	50152.51
698.577	50247.42
698.923	50180.98
699.269	50036.35
699.614	49852.63
699.96	49705.29
700.306	49782.8
700.651	49491.06
700.997	49449.48
701.342	49484.28
701.688	49279.76
702.033	49288.12
702.379	49172.87
702.724	49098.53
703.069	49158.64
703.415	48600.23
703.76	48647.01
704.105	48742.15
704.45	48529.95
704.795	48387.81
705.14	48371.54
705.485	48371.31
705.83	48172.9
706.175	48175.39
706.52	48169.51
706.865	47945.56
707.209	47934.94
707.554	47767.26
707.899	47844.32
708.243	47668.51
708.588	47565.46
708.932	47484.78
709.277	47302.19
709.621	47283.43
709.966	47053.38
710.31	47133.38
710.654	46816.78
710.998	47000.05
711.342	46946.72
711.687	46761.19
712.031	46682.09
712.375	46522.1
712.719	46557.58
713.063	46469.44
713.407	46536.11
713.75	46348.77
714.094	46283.46
714.438	46127.3
714.782	46190.58
715.125	46056.8
715.469	46096.12
715.812	45822
716.156	45594.21
716.499	45548.11
716.843	45639.41
717.186	45363.93
717.53	45479.86
717.873	45322.13
718.216	45384.5
718.559	45184.05
718.902	44884.4
719.246	45042.59
719.589	44907.22
719.932	44599.43
720.275	44654.12
720.617	44577.74
720.96	44541.81
721.303	44726.66
721.646	44534.35
721.989	44330.97
722.331	44436.5
722.674	44297.97
723.016	44225.43
723.359	44145.21
723.701	44291.19
724.044	44040.35
724.386	43899.57
724.729	44026.79
725.071	43876.06
725.413	43839.91
725.755	43737.99
726.097	43545.45
726.439	43420.26
726.782	43595.62
727.124	43655.28
727.465	43338
727.807	43360.6
728.149	43337.32
728.491	43222.3
728.833	43262.52
729.175	43095.07
729.516	42970.55
729.858	42926.03
730.199	42859.14
730.541	42867.95
730.882	42854.85
731.224	42796.32
731.565	42597.23
731.906	42605.81
732.248	42545.03
732.589	42181.87
732.93	42405.37
733.271	42102.1
733.612	42255.99
733.953	42292.15
734.294	41969.22
734.635	41960.63
734.976	42036.56
735.317	41814.2
735.658	41863.69
735.999	41748.21
736.339	41742.79
736.68	41891.48
737.021	41525.84
737.361	41421.67
737.702	41595.9
738.042	41501.89
738.383	41330.82
738.723	41411.04
739.063	41335.57
739.404	41369.92
739.744	41061.67
740.084	41034.56
740.424	41047.44
740.764	40955.91
741.104	40916.59
741.444	40825.97
741.784	40849.7
742.124	40832.3
742.464	40688.58
742.804	40583.04
743.143	40712.08
743.483	40508.92
743.823	40383.27
744.162	40282.71
744.502	40340.79
744.841	40277.29
745.181	40318.19
745.52	40080.46
745.86	40061.93
746.199	39964.75
746.538	40016.28
746.877	40080.68
747.216	39950.74
747.556	39873.46
747.895	39871.88
748.234	39548.49
748.573	39656.97
748.911	39518.66
749.25	39518.21
749.589	39351.21
749.928	39498.33
750.267	39511.88
750.605	39209.52
750.944	39203.87
751.283	39013.82
751.621	39166.58
751.96	38920.26
752.298	38782.19
752.636	38822.41
752.975	38586.26
