Data from White_reflection_standard_FLMS001491_006.txt Node
Date: Tue Feb 07 10:31:56 GMT 2017
User: dcchb
Spectrometer: FLMS00149
Trigger mode: 0
Integration Time (sec): 2.000000E-2
Scans to average: 10
Electric dark correction enabled: true
Nonlinearity correction enabled: false
Boxcar width: 0
XAxis mode: Wavelengths
Number of Pixels in Spectrum: 2048
>>>>>Begin Spectral Data<<<<<
341.393	-15.58
341.776	-15.58
342.16	-15.58
342.543	-59.87
342.927	-61.91
343.31	-94.22
343.693	-55.58
344.077	-59.87
344.46	-55.58
344.843	-30.49
345.226	-49.25
345.61	-31.4
345.993	-8.35
346.376	8.38
346.759	11.09
347.142	31.2
347.525	24.65
347.908	54.93
348.291	79.56
348.674	76.4
349.057	98.54
349.44	136.73
349.823	136.06
350.206	157.52
350.588	210.63
350.971	229.84
351.354	258.09
351.737	265.09
352.119	275.71
352.502	291.53
352.884	319.55
353.267	322.27
353.65	330.4
354.032	348.93
354.414	352.77
354.797	368.37
355.179	360.91
355.562	364.75
355.944	372.21
356.326	382.15
356.709	376.28
357.091	388.25
357.473	397.29
357.855	376.5
358.238	393
358.62	404.52
359.002	408.59
359.384	407.69
359.766	413.11
360.148	418.08
360.53	382.38
360.912	405.2
361.294	395.94
361.676	402.04
362.057	402.49
362.439	408.36
362.821	415.37
363.203	401.59
363.584	406.78
363.966	393.22
364.348	419.44
364.729	405.2
365.111	387.8
365.493	414.01
365.874	414.47
366.256	418.08
366.637	427.12
367.019	406.56
367.4	416.5
367.781	419.44
368.163	430.96
368.544	424.64
368.925	411.08
369.306	413.11
369.688	394.35
370.069	427.12
370.45	429.16
370.831	468.25
371.212	436.16
371.593	428.7
371.974	448.36
372.355	431.87
372.736	436.16
373.117	443.84
373.498	456.73
373.879	466.22
374.26	430.29
374.641	427.8
375.021	431.87
375.402	462.83
375.783	476.39
376.163	506.44
376.544	483.84
376.925	489.72
377.305	482.71
377.686	481.36
378.066	492.88
378.447	492.66
378.827	505.31
379.208	509.38
379.588	511.87
379.968	497.85
380.349	518.64
380.729	541.02
381.109	538.31
381.489	547.12
381.87	534.92
382.25	562.26
382.63	529.94
383.01	541.24
383.39	551.19
383.77	575.14
384.15	576.72
384.53	571.07
384.91	570.85
385.29	606.55
385.67	565.87
386.049	616.95
386.429	621.69
386.809	622.14
387.189	649.71
387.568	626.44
387.948	641.35
388.328	640.45
388.707	665.76
389.087	664.4
389.466	672.54
389.846	676.38
390.225	665.31
390.605	694.91
390.984	682.26
391.363	689.94
391.743	714.12
392.122	732.42
392.501	720.45
392.881	733.33
393.26	742.14
393.639	749.15
394.018	753.89
394.397	762.25
394.776	770.16
395.155	800.9
395.534	793.67
395.913	799.54
396.292	822.59
396.671	810.84
397.05	812.87
397.429	837.73
397.808	847.22
398.186	842.93
398.565	839.99
398.944	861.46
399.323	889.71
399.701	873.66
400.08	889.03
400.458	891.52
400.837	901.69
401.215	927.45
401.594	931.06
401.972	956.37
402.351	974.9
402.729	973.1
403.107	957.73
403.486	990.95
403.864	967.22
404.242	1018.52
404.62	1016.71
404.999	1026.65
405.377	1028.69
405.755	1050.83
406.133	1049.93
406.511	1091.96
406.889	1085.86
407.267	1103.26
407.645	1127.22
408.023	1133.54
408.401	1148.68
408.779	1158.63
409.156	1188.46
409.534	1201.56
409.912	1214.9
410.29	1230.94
410.667	1281.56
411.045	1273.88
411.422	1296.48
411.8	1291.73
412.178	1313.2
412.555	1348.68
412.933	1370.15
413.31	1372.18
413.687	1406.08
414.065	1402.46
414.442	1416.47
414.819	1449.24
415.197	1470.26
415.574	1492.63
415.951	1506.64
416.328	1524.95
416.705	1531.27
417.082	1543.02
417.46	1534.44
417.837	1562.68
418.214	1570.59
418.591	1604.72
418.967	1619.63
419.344	1600.88
419.721	1672.96
420.098	1659.18
420.475	1691.95
420.852	1724.26
421.228	1735.11
421.605	1725.17
421.982	1744.38
422.358	1781.21
422.735	1812.62
423.111	1819.63
423.488	1857.82
423.864	1846.29
424.241	1856.91
424.617	1939.17
424.994	1930.81
425.37	1935.78
425.746	1962.22
426.123	1959.28
426.499	1979.85
426.875	2026.63
427.251	2039.06
427.627	2104.59
428.003	2116.34
428.379	2169
428.756	2169.45
429.132	2211.93
429.507	2254.19
429.883	2276.56
430.259	2336.22
430.635	2330.57
431.011	2357.01
431.387	2403.57
431.763	2421.65
432.138	2474.53
432.514	2492.6
432.89	2517.69
433.265	2572.38
433.641	2611.47
434.016	2651.02
434.392	2680.85
434.767	2737.12
435.143	2713.62
435.518	2757.91
435.894	2787.96
436.269	2812.14
436.644	2876.32
437.02	2912.93
437.395	2910.67
437.77	2965.81
438.145	3004
438.52	2977.34
438.895	3093.04
439.271	3082.19
439.646	3114.28
440.021	3183.21
440.395	3148.18
440.77	3175.75
441.145	3198.12
441.52	3267.27
441.895	3266.59
442.27	3315.41
442.645	3295.07
443.019	3328.51
443.394	3378.46
443.769	3423.2
444.143	3417.78
444.518	3458.68
444.892	3430.66
445.267	3514.05
445.641	3518.34
446.016	3550.88
446.39	3606.25
446.764	3616.64
447.139	3546.14
447.513	3653.03
447.887	3700.03
448.262	3721.5
448.636	3737.54
449.01	3766.02
449.384	3794.94
449.758	3791.1
450.132	3896.63
450.506	3899.12
450.88	3932.57
451.254	3984.77
451.628	3997.2
452.002	4054.6
452.376	4102.51
452.75	4162.62
453.123	4189.73
453.497	4279.45
453.871	4258.21
454.244	4331.88
454.618	4348.6
454.992	4481.7
455.365	4440.12
455.739	4551.76
456.112	4623.17
456.486	4641.02
456.859	4723.73
457.232	4819.1
457.606	4822.03
457.979	4870.39
458.352	4963.73
458.725	5052.99
459.099	5069.49
459.472	5190.61
459.845	5236.26
460.218	5231.74
460.591	5342.7
460.964	5363.71
461.337	5491.62
461.71	5590.83
462.083	5643.26
462.456	5639.19
462.829	5687.77
463.201	5777.94
463.574	5798.73
463.947	5901.33
464.32	6011.83
464.692	6073.07
465.065	6179.74
465.438	6212.73
465.81	6356.46
466.183	6385.38
466.555	6543.8
466.928	6576.79
467.3	6547.19
467.672	6658.6
468.045	6805.26
468.417	6873.28
468.789	6953.96
469.161	7023.33
469.534	7122.31
469.906	7302.65
470.278	7361.63
470.65	7427.62
471.022	7541.06
471.394	7737.89
471.766	7779.02
472.138	7902.18
472.51	8032.8
472.882	8191.21
473.253	8320.02
473.625	8403.41
473.997	8583.07
474.369	8616.96
474.74	8720.69
475.112	8926.79
475.484	9067.12
475.855	9256.49
476.227	9315.48
476.598	9625.52
476.97	9630.5
477.341	9879.98
477.713	10086.75
478.084	10145.28
478.455	10420.98
478.827	10434.99
479.198	10826.4
479.569	10848.99
479.94	11153.17
480.311	11237.01
480.682	11536.89
481.053	11771.68
481.424	11952.69
481.795	11980.94
482.166	12178.45
482.537	12342.06
482.908	12700.02
483.279	12803.75
483.65	13062.04
484.021	13255.26
484.391	13435.82
484.762	13525.53
485.133	13609.15
485.503	13864.73
485.874	14230.15
486.244	14360.09
486.615	14598.27
486.985	14845.27
487.356	15042.56
487.726	15129.79
488.097	15467.4
488.467	15541.3
488.837	15902.65
489.207	15995.53
489.578	16265.35
489.948	16484.55
490.318	16714.38
490.688	16739.01
491.058	17139.22
491.428	17260.13
491.798	17452.44
492.168	17843.16
492.538	17847.23
492.908	18071.4
493.278	18376.25
493.648	18359.53
494.017	18562.46
494.387	18801.78
494.757	18889.69
495.126	19142.79
495.496	19196.12
495.866	19277.02
496.235	19585.04
496.605	19809.66
496.974	19830.23
497.344	20036.1
497.713	20129.43
498.082	20353.83
498.452	20584.78
498.821	20683.54
499.19	20647.61
499.559	20984.77
499.928	21131.21
500.298	21347.25
500.667	21462.27
501.036	21470.18
501.405	21693.91
501.774	21746.79
502.143	21992.2
502.512	22074.46
502.88	22334.12
503.249	22333.66
503.618	22583.83
503.987	22711.96
504.356	22854.55
504.724	22951.73
505.093	23035.11
505.462	23241.21
505.83	23413.18
506.199	23535.21
506.567	23848.65
506.936	23867.64
507.304	24217.91
507.672	24287.51
508.041	24433.27
508.409	24653.15
508.777	24822.41
509.145	24967.27
509.514	25026.02
509.882	25292.46
510.25	25291.33
510.618	25597.76
510.986	25596.18
511.354	25968.14
511.722	26156.84
512.09	26296.05
512.458	26364.52
512.826	26625.98
513.193	26692.87
513.561	26940.77
513.929	27176.47
514.297	27329.01
514.664	27692.17
515.032	27729
515.4	27797.7
515.767	28029.79
516.135	28308.42
516.502	28252.6
516.869	28676.77
517.237	28761.74
517.604	28792.7
517.972	29203.99
518.339	29437.66
518.706	29499.13
519.073	29557.43
519.44	29909.28
519.808	30152.67
520.175	30279.9
520.542	30560.79
520.909	30956.71
521.276	30897.05
521.643	31249.14
522.009	31490.03
522.376	31636.7
522.743	31991.94
523.11	32218.83
523.477	32558.48
523.843	32656.56
524.21	33081.86
524.577	33361.85
524.943	33387.61
525.31	33588.51
525.676	33903.98
526.043	34268.04
526.409	34338.55
526.776	34775.82
527.142	34744.64
527.508	34983.05
527.874	35258.52
528.241	35478.86
528.607	35542.13
528.973	35997.03
529.339	35946.19
529.705	36387.53
530.071	36469.79
530.437	36691.48
530.803	37021.41
531.169	37123.56
531.535	37197.23
531.901	37356.32
532.267	37566.94
532.632	37808.29
532.998	37907.27
533.364	38119.92
533.73	38196.52
534.095	38559.68
534.461	38729.84
534.826	38911.31
535.192	39006.45
535.557	39387.23
535.923	39393.55
536.288	39530.73
536.653	39764.17
537.019	39743.83
537.384	40061.11
537.749	40015.23
538.114	40150.6
538.479	40268.11
538.845	40518.72
539.21	40367.77
539.575	40637.82
539.94	40879.17
540.305	41076.67
540.67	41047.75
541.034	41261.53
541.399	41400.96
541.764	41603.67
542.129	41761.63
542.494	41863.32
542.858	41964.11
543.223	42176.53
543.587	42277.77
543.952	42346.7
544.316	42518.44
544.681	42474.6
545.045	42670.76
545.41	43033.46
545.774	42964.76
546.138	43173.79
546.503	43253.34
546.867	43233.91
547.231	43718.64
547.595	43791.63
547.959	43880.89
548.324	43851.97
548.688	44107.1
549.052	44297.83
549.416	44359.53
549.779	44506.19
550.143	44583.25
550.507	44847.87
550.871	45037.93
551.235	45059.39
551.599	45271.37
551.962	45373.74
552.326	45446.05
552.689	45667.06
553.053	45628.87
553.417	45750.22
553.78	46359.47
554.143	46007.62
554.507	46387.49
554.87	46480.6
555.234	46918.55
555.597	46574.83
555.96	46957.42
556.323	47164.2
556.686	47135.72
557.05	47463.17
557.413	47530.29
557.776	47633.79
558.139	47929.6
558.502	48048.02
558.865	48155.13
559.228	48345.86
559.59	48568.45
559.953	48555.35
560.316	49172.51
560.679	48998.05
561.041	49311.71
561.404	49337.25
561.767	49725.03
562.129	49532.05
562.492	49855.65
562.854	49979.94
563.217	49928.19
563.579	50059.26
563.941	50357.79
564.304	50560.04
564.666	50666.48
565.028	50677.78
565.39	50907.83
565.753	51101.72
566.115	51274.82
566.477	51362.28
566.839	51480.24
567.201	51673.01
567.563	51670.97
567.925	51963.39
568.287	51887.24
568.648	52051.07
569.01	52288.36
569.372	52402.25
569.734	52298.75
570.095	52587.11
570.457	52784.39
570.819	52777.16
571.18	52791.85
571.542	52946.87
571.903	53065.51
572.265	53148.67
572.626	53225.73
572.987	53299.63
573.349	53391.6
573.71	53537.82
574.071	53439.74
574.432	53638.83
574.794	53840.86
575.155	53747.08
575.516	53777.81
575.877	53951.82
576.238	54001.08
576.599	54124.47
576.96	54173.73
577.32	54074.07
577.681	54235.65
578.042	54298.93
578.403	54320.85
578.763	54333.95
579.124	54392.03
579.485	54539.6
579.845	54541.63
580.206	54553.16
580.566	54530.33
580.927	54510.9
581.287	54661.63
581.648	54505.7
582.008	54706.15
582.368	54631.57
582.728	54698.24
583.089	54611.23
583.449	54701.85
583.809	54767.39
584.169	54742.3
584.529	54719.71
584.889	54972.81
585.249	54676.99
585.609	54632.48
585.969	54868.4
586.329	54767.16
586.688	54782.75
587.048	54779.82
587.408	54792.47
587.768	54767.84
588.127	54758.8
588.487	54739.37
588.846	54945.24
589.206	54775.3
589.565	54757.44
589.925	54973.71
590.284	54749.76
590.643	54896.42
591.003	54909.53
591.362	54964.9
591.721	54861.62
592.08	54956.54
592.44	54913.37
592.799	55008.29
593.158	54969.87
593.517	54967.38
593.876	54987.72
594.235	54961.28
594.593	55061.62
594.952	55020.26
595.311	54936.65
595.67	54969.64
596.029	55108.17
596.387	55195.85
596.746	55218.9
597.104	55074.72
597.463	55065.01
597.822	55195.17
598.18	55100.94
598.538	55115.4
598.897	55218.68
599.255	55014.84
599.613	55400.37
599.972	55269.3
600.33	55279.24
600.688	55191.78
601.046	55348.62
601.404	55459.35
601.762	55323.76
602.12	55406.69
602.478	55503.64
602.836	55465.9
603.194	55353.59
603.552	55429.52
603.91	55340.48
604.268	55508.16
604.625	55450.76
604.983	55565.78
605.341	55492.79
605.698	55584.54
606.056	55659.34
606.413	55676.74
606.771	55619.12
607.128	55766.23
607.485	55642.84
607.843	55639
608.2	55683.75
608.557	55865.66
608.914	55763.97
609.272	55958.32
609.629	55907.47
609.986	56039.22
610.343	55880.8
610.7	56051.87
611.057	56019.33
611.414	56026.34
611.771	56059.11
612.127	56120.35
612.484	56116.28
612.841	56208.25
613.198	56151.98
613.554	56176.84
613.911	56275.82
614.267	56254.58
614.624	56166.22
614.98	56245.77
615.337	56378.42
615.693	56354.46
616.05	56306.78
616.406	56467
616.762	56392.66
617.118	56359.21
617.475	56403.95
617.831	56377.97
618.187	56455.03
618.543	56404.86
618.899	56625.19
619.255	56557.85
619.611	56516.27
619.967	56570.73
620.323	56719.2
620.678	56579.09
621.034	56537.51
621.39	56513.1
621.746	56481.69
622.101	56796.49
622.457	56458.19
622.812	56573.44
623.168	56614.34
623.523	56602.37
623.879	56661.8
624.234	56561.92
624.589	56544.52
624.945	56630.62
625.3	56610.95
625.655	56642.14
626.01	56635.14
626.365	56675.81
626.72	56542.48
627.075	56626.32
627.43	56517.85
627.785	56538.64
628.14	56566.89
628.495	56540.67
628.85	56592.88
629.205	56455.25
629.559	56647.56
629.914	56423.16
630.269	56456.38
630.623	56431.75
630.978	56327.35
631.332	56481.92
631.687	56502.94
632.041	56324.18
632.396	56369.83
632.75	56251.87
633.104	56385.42
633.459	56175.49
633.813	56201.25
634.167	56179.33
634.521	56102.95
634.875	56124.64
635.229	56116.96
635.583	55947.47
635.937	55985.89
636.291	55960.58
636.645	55992.89
636.999	55859.11
637.352	55934.36
637.706	55800.58
638.06	55897.3
638.413	55814.59
638.767	55623.18
639.121	55819.56
639.474	55623.86
639.828	55635.84
640.181	55694.14
640.534	55604.43
640.888	55586.8
641.241	55406.69
641.594	55527.37
641.947	55530.08
642.301	55440.36
642.654	55433.13
643.007	55364.66
643.36	55270.2
643.713	55267.04
644.066	55365.56
644.419	55161.95
644.771	54944.56
645.124	54659.59
645.477	54719.93
645.83	54487.17
646.182	54366.72
646.535	54343.9
646.888	54346.83
647.24	54152.49
647.593	54259.15
647.945	54252.6
648.298	54129.44
648.65	54018.03
649.002	53999.72
649.355	54121.53
649.707	54089.44
650.059	54140.96
650.411	54505.7
650.763	54465.25
651.115	54776.43
651.467	54606.49
651.819	54586.38
652.171	54514.29
652.523	54551.8
652.875	54396.1
653.227	54383.44
653.578	54489.2
653.93	54441.29
654.282	54308.42
654.633	54221.41
654.985	54310.68
655.337	54300.96
655.688	54218.25
656.039	54364.01
656.391	54109.78
656.742	54155.43
657.094	54107.07
657.445	54160.17
657.796	54177.57
658.147	54081.53
658.498	54063.68
658.849	54063.9
659.2	54015.54
659.551	53934.64
659.902	53977.58
660.253	53921.08
660.604	54017.8
660.955	53849.45
661.306	54057.8
661.656	53922.89
662.007	53893.06
662.358	53961.08
662.708	53862.78
663.059	53796.11
663.409	53558.61
663.76	53854.64
664.11	53829.33
664.461	53785.94
664.811	53793.4
665.161	53651.94
665.511	53719.96
665.862	53736
666.212	53791.59
666.562	53721.99
666.912	53758.83
667.262	53621.66
667.612	53629.11
667.962	53630.47
668.312	53527.42
668.662	53680.41
669.011	53570.58
669.361	53503.92
669.711	53397.48
670.06	53399.51
670.41	53374.2
670.76	53328.78
671.109	53510.47
671.459	53484.94
671.808	53281.33
672.157	53413.98
672.507	53176.02
672.856	53232.96
673.205	53219.63
673.554	53271.61
673.904	53210.59
674.253	53340.08
674.602	53247.43
674.951	52786.2
675.3	52619.65
675.649	53014.89
675.998	53025.06
676.346	52987.55
676.695	53172.4
677.044	52915.46
677.393	52966.98
677.741	52989.36
678.09	52904.61
678.438	52771.28
678.787	52843.37
679.135	52891.5
679.484	52715.69
679.832	52802.24
680.181	52516.15
680.529	52562.93
680.877	52509.14
681.225	52529.71
681.573	52703.71
681.922	52367.9
682.27	52383.27
682.618	52463.04
682.966	52297.17
683.314	52307.34
683.661	52172.65
684.009	52013.34
684.357	51939.44
684.705	51921.81
685.053	52013.56
685.4	51926.56
685.748	51776.96
686.095	51822.15
686.443	51576.74
686.79	51576.29
687.138	51639.11
687.485	51534.25
687.832	51466.23
688.18	51427.14
688.527	51316.63
688.874	51388.27
689.221	51133.58
689.568	51028.28
689.915	50939.92
690.262	51030.54
690.609	50748.51
690.956	50723.88
691.303	50674.39
691.65	50525.47
691.997	50485.24
692.344	50283.66
692.69	50245.47
693.037	50286.15
693.383	49925.48
693.73	50114.85
694.077	49841.19
694.423	49885.48
694.769	49799.61
695.116	49679.84
695.462	49608.2
695.808	49479.17
696.155	49476.23
696.501	49285.95
696.847	49180.64
697.193	48930.03
697.539	49135.22
697.885	48761.44
698.231	48763.25
698.577	48587.89
698.923	48572.07
699.269	48384.73
699.614	48239.42
699.96	48147.9
700.306	48217.05
700.651	48082.82
700.997	47887.57
701.342	47829.04
701.688	47840.56
702.033	47641.25
702.379	47675.14
702.724	47564.64
703.069	47589.27
703.415	47078.78
703.76	47087.14
704.105	47146.12
704.45	46839.91
704.795	46872.91
705.14	46679.01
705.485	46679.01
705.83	46312.24
706.175	46412.13
706.52	46334.84
706.865	46292.13
707.209	46168.07
707.554	46013.72
707.899	46010.33
708.243	45921.07
708.588	45639.27
708.932	45571.7
709.277	45461.19
709.621	45552.49
709.966	45258.49
710.31	45331.25
710.654	44926.52
710.998	45065.04
711.342	45005.38
711.687	44908.21
712.031	44745.96
712.375	44470.48
712.719	44646.98
713.063	44596.58
713.407	44675.45
713.75	44383.03
714.094	44397.94
714.438	44135.35
714.782	44228.68
715.125	43939.2
715.469	44115.01
715.812	43805.42
716.156	43615.14
716.499	43691.07
716.843	43691.97
717.186	43390.29
717.53	43584.63
717.873	43613.33
718.216	43399.32
718.559	43254.24
718.902	42974.48
719.246	43058.77
719.589	42925.67
719.932	42839.57
720.275	42746.69
720.617	42727.03
720.96	42678.21
721.303	42660.36
721.646	42633.02
721.989	42321.39
722.331	42424.21
722.674	42443.87
723.016	42405.45
723.359	42159.81
723.701	42276.19
724.044	41945.8
724.386	41824.23
724.729	42130.43
725.071	41915.3
725.413	41766.83
725.755	41730.22
726.097	41580.16
726.439	41419.04
726.782	41558.24
727.124	41409.32
727.465	41335.88
727.807	41278.93
728.149	41064.25
728.491	41121.42
728.833	41145.82
729.175	41029.67
729.516	40884.36
729.858	40793.07
730.199	40797.13
730.541	40816.79
730.882	40690.24
731.224	40801.43
731.565	40410.93
731.906	40417.03
732.248	40563.92
732.589	40267.43
732.93	40234.66
733.271	40275.11
733.612	40179.3
733.953	40202.8
734.294	40001.67
734.635	39931.39
734.976	40028.57
735.317	39675.58
735.658	39815.01
735.999	39681.23
736.339	39687.11
736.68	39660.89
737.021	39510.39
737.361	39349.49
737.702	39436.27
738.042	39339.54
738.383	39299.32
738.723	39232.43
739.063	39139.55
739.404	39265.42
739.744	39190.85
740.084	38842.83
740.424	39024.98
740.764	38840.8
741.104	38989.5
741.444	38691.43
741.784	38596.74
742.124	38670.64
742.464	38723.52
742.804	38448.27
743.143	38476.29
743.483	38386.35
743.823	38173.02
744.162	38046.25
744.502	38370.76
744.841	38043.53
745.181	38272.68
745.52	37935.51
745.86	38095.06
746.199	37929.19
746.538	37833.6
746.877	37899.36
747.216	37941.84
747.556	37798.79
747.895	37702.75
748.234	37470.67
748.573	37330.11
748.911	37513.38
749.25	37324
749.589	37225.25
749.928	37251.24
750.267	37222.09
750.605	37155.87
750.944	37022.09
751.283	37018.93
751.621	37024.13
751.96	36671.59
