Data from whiteboard_FLMS001491_00072.txt Node
Date: Wed Feb 08 11:28:02 GMT 2017
User: dcchb
Spectrometer: FLMS00149
Trigger mode: 0
Integration Time (sec): 2.000000E-2
Scans to average: 10
Electric dark correction enabled: true
Nonlinearity correction enabled: false
Boxcar width: 0
XAxis mode: Wavelengths
Number of Pixels in Spectrum: 2048
>>>>>Begin Spectral Data<<<<<
341.393	7.46
341.776	7.46
342.16	7.46
342.543	-73.9
342.927	-62.15
343.31	-67.34
343.693	-49.26
344.077	-60.11
344.46	-68.02
344.843	-39.1
345.226	-44.29
345.61	-33.45
345.993	-36.16
346.376	3.84
346.759	-0.45
347.142	16.27
347.525	33.45
347.908	66.21
348.291	73.9
348.674	75.7
349.057	128.81
349.44	139.88
349.823	141.47
350.206	186.44
350.588	230.5
350.971	248.81
351.354	242.03
351.737	260.56
352.119	287.45
352.502	285.64
352.884	313.66
353.267	304.62
353.65	308.01
354.032	334.45
354.414	346.66
354.797	358.41
355.179	337.84
355.562	342.82
355.944	375.58
356.326	382.36
356.709	358.86
357.091	368.8
357.473	352.99
357.855	367.22
358.238	370.16
358.62	376.04
359.002	365.19
359.384	387.79
359.766	369.93
360.148	369.71
360.53	375.13
360.912	374.68
361.294	362.93
361.676	359.54
362.057	369.71
362.439	350.05
362.821	366.32
363.203	361.12
363.584	362.02
363.966	368.8
364.348	355.02
364.729	368.8
365.111	353.89
365.493	346.88
365.874	353.66
366.256	362.48
366.637	358.18
367.019	355.47
367.4	339.43
367.781	362.7
368.163	352.53
368.544	347.79
368.925	366.77
369.306	348.01
369.688	352.31
370.069	352.08
370.45	359.54
370.831	338.07
371.212	362.25
371.593	350.95
371.974	352.08
372.355	365.64
372.736	365.64
373.117	374.45
373.498	374.45
373.879	370.84
374.26	395.92
374.641	354.57
375.021	373.55
375.402	370.84
375.783	379.43
376.163	388.46
376.544	382.36
376.925	367.45
377.305	397.96
377.686	406.54
378.066	395.7
378.447	401.8
378.827	415.36
379.208	404.96
379.588	387.33
379.968	406.54
380.349	397.05
380.729	414.9
381.109	420.78
381.489	433.43
381.87	404.51
382.25	395.92
382.63	398.18
383.01	431.4
383.39	433.21
383.77	408.58
384.15	409.25
384.53	428.24
384.91	416.71
385.29	428.46
385.67	425.53
386.049	431.18
386.429	451.97
386.809	431.63
387.189	456.94
387.568	438.41
387.948	489.25
388.328	461.46
388.707	479.08
389.087	477.05
389.466	469.14
389.846	482.7
390.225	477.5
390.605	497.39
390.984	489.25
391.363	482.25
391.743	509.37
392.122	534.45
392.501	510.95
392.881	520.89
393.26	542.13
393.639	553.21
394.018	571.96
394.397	537.16
394.776	560.21
395.155	556.82
395.534	596.82
395.913	591.85
396.292	621.45
396.671	616.25
397.05	611.28
397.429	628.91
397.808	639.31
398.186	643.37
398.565	637.5
398.944	658.97
399.323	635.01
399.701	668.91
400.08	672.52
400.458	702.58
400.837	693.77
401.215	710.94
401.594	720.66
401.972	730.83
402.351	750.94
402.729	741.9
403.107	771.96
403.486	790.94
403.864	811.05
404.242	785.74
404.62	831.84
404.999	881.11
405.377	874.78
405.755	858.28
406.133	876.59
406.511	900.09
406.889	902.8
407.267	965.85
407.645	970.82
408.023	973.99
408.401	1009.01
408.779	1007.88
409.156	1028.45
409.534	1052.4
409.912	1064.6
410.29	1120.65
410.667	1123.13
411.045	1130.14
411.422	1169.46
411.8	1214.88
412.178	1222.34
412.555	1251.49
412.933	1257.37
413.31	1275.22
413.687	1292.85
414.065	1307.08
414.442	1344.82
414.819	1407.65
415.197	1358.16
415.574	1430.92
415.951	1424.6
416.328	1472.5
416.705	1475.67
417.082	1464.59
417.46	1526.74
417.837	1495.78
418.214	1517.25
418.591	1570.81
418.967	1601.77
419.344	1587.53
419.721	1606.06
420.098	1630.01
420.475	1677.47
420.852	1649.22
421.228	1671.59
421.605	1706.4
421.982	1744.59
422.358	1773.74
422.735	1801.76
423.111	1783.23
423.488	1836.11
423.864	1873.85
424.241	1876.56
424.617	1908.42
424.994	1903
425.37	1913.62
425.746	1928.31
426.123	1945.26
426.499	1997.69
426.875	2002.66
427.251	2068.65
427.627	2141.86
428.003	2116.33
428.379	2153.62
428.756	2180.06
429.132	2175.31
429.507	2278.58
429.883	2225.25
430.259	2279.49
430.635	2321.52
431.011	2352.71
431.387	2371.92
431.763	2464.34
432.138	2429.31
432.514	2484.91
432.89	2488.3
433.265	2557.67
433.641	2608.07
434.016	2618.01
434.392	2696.88
434.767	2720.61
435.143	2726.26
435.518	2781.17
435.894	2813.26
436.269	2804.9
436.644	2851.22
437.02	2879.02
437.395	2962.18
437.77	2931.9
438.145	3039.69
438.52	3025.01
438.895	3050.09
439.271	3093.48
439.646	3129.86
440.021	3165.34
440.395	3174.61
440.77	3161.72
441.145	3181.61
441.52	3296.41
441.895	3280.82
442.27	3313.13
442.645	3313.59
443.019	3343.87
443.394	3374.37
443.769	3401.94
444.143	3337.09
444.518	3438.78
444.892	3427.03
445.267	3491.43
445.641	3507.03
446.016	3564.2
446.39	3600.36
446.764	3639.45
447.139	3603.07
447.513	3667.02
447.887	3650.3
448.262	3653.01
448.636	3726
449.01	3754.03
449.384	3775.04
449.758	3817.75
450.132	3873.8
450.506	3917.41
450.88	3894.81
451.254	3956.96
451.628	3999.44
452.002	4025.2
452.376	4037.18
452.75	4116.95
453.123	4121.47
453.497	4237.63
453.871	4266.33
454.244	4352.43
454.618	4359.43
454.992	4379.77
455.365	4404.18
455.739	4549.48
456.112	4566.89
456.486	4653.89
456.859	4673.78
457.232	4753.77
457.606	4731.85
457.979	4847.56
458.352	4986.76
458.725	5068.12
459.099	5028.12
459.472	5149.47
459.845	5175.01
460.218	5209.81
460.591	5270.82
460.964	5299.97
461.337	5454.09
461.71	5513.08
462.083	5604.82
462.456	5573.41
462.829	5609.34
463.201	5672.85
463.574	5726.86
463.947	5874.65
464.32	5953.97
464.692	6035.1
465.065	6036.68
465.438	6127.3
465.81	6272.38
466.183	6332.04
466.555	6492.03
466.928	6504.01
467.3	6492.03
467.672	6593.5
468.045	6751.01
468.417	6852.93
468.789	6839.59
469.161	6968.4
469.534	7095.41
469.906	7237.1
470.278	7301.5
470.65	7364.55
471.022	7511.44
471.394	7647.71
471.766	7706.01
472.138	7814.71
472.51	8049.73
472.882	8096.28
473.253	8218.99
473.625	8346.45
473.997	8515.71
474.369	8520
474.74	8617.85
475.112	8749.6
475.484	8944.17
475.855	9086.31
476.227	9125.18
476.598	9422.58
476.97	9511.16
477.341	9759.52
477.713	9878.16
478.084	9912.06
478.455	10187.53
478.827	10297.13
479.198	10596.11
479.569	10637.23
479.94	10843.56
480.311	10951.35
480.682	11211.91
481.053	11563.99
481.424	11752.01
481.795	11783.64
482.166	11940.7
482.537	12134.6
482.908	12327.36
483.279	12514.02
483.65	12726.9
484.021	12983.16
484.391	13177.73
484.762	13256.6
485.133	13462.47
485.503	13615.46
485.874	13925.74
486.244	14007.09
486.615	14324.82
486.985	14504.25
487.356	14741.31
487.726	14830.57
488.097	15125.25
488.467	15222.42
488.837	15528.18
489.207	15658.57
489.578	15870.77
489.948	16100.59
490.318	16210.2
490.688	16329.97
491.058	16697.64
491.428	16802.72
491.798	17006.11
492.168	17345.31
492.538	17422.82
492.908	17571.74
493.278	17924.95
493.648	17877.5
494.017	18106.19
494.387	18232.97
494.757	18327.65
495.126	18559.74
495.496	18704.59
495.866	18774.42
496.235	19058.71
496.605	19084.24
496.974	19352.26
497.344	19462.31
497.713	19562.88
498.082	19724.23
498.452	19816.43
498.821	20032.24
499.19	20091.9
499.559	20327.38
499.928	20461.16
500.298	20710.19
500.667	20813.69
501.036	20778.66
501.405	21016.4
501.774	21052.33
502.143	21317.86
502.512	21376.16
502.88	21536.38
503.249	21582.26
503.618	21766.21
503.987	21858.86
504.356	22019.99
504.724	22184.5
505.093	22218.17
505.462	22449.35
505.83	22592.63
506.199	22683.47
506.567	23075.1
506.936	23004.59
507.304	23234.64
507.672	23355.32
508.041	23597.35
508.409	23713.95
508.777	23875.3
509.145	24003.89
509.514	24086.6
509.882	24367.49
510.25	24426.25
510.618	24527.94
510.986	24744.89
511.354	24880.48
511.722	25134.93
512.09	25258.54
512.458	25387.81
512.826	25629.61
513.193	25653.34
513.561	25802.94
513.929	26128.35
514.297	26208.58
514.664	26390.27
515.032	26657.83
515.4	26754.1
515.767	26877.71
516.135	27182.11
516.502	26969.69
516.869	27515.21
517.237	27618.26
517.604	27507.53
517.972	27885.14
518.339	28050.79
518.706	28126.27
519.073	28377.78
519.44	28570.77
519.808	28828.85
520.175	28848.96
520.542	29188.84
520.909	29454.59
521.276	29300.02
521.643	29651.65
522.009	29917.86
522.376	30127.12
522.743	30375.7
523.11	30668.57
523.477	30940.88
523.843	31069.01
524.21	31377.48
524.577	31711.48
524.943	31704.48
525.31	32000.29
525.676	32266.04
526.043	32554.62
526.409	32424.23
526.776	32932.69
527.142	33085.01
527.508	33295.4
527.874	33587.82
528.241	33661.04
528.607	33821.94
528.973	34114.81
529.339	34239.78
529.705	34554.35
530.071	34681.8
530.437	34963.37
530.803	35129.25
531.169	35239.07
531.535	35229.81
531.901	35438.39
532.267	35632.06
532.632	35930.58
532.998	36045.38
533.364	36288.54
533.73	36263.23
534.095	36689.43
534.461	36788.86
534.826	36786.15
535.192	37067.95
535.557	37305.69
535.923	37356.76
536.288	37494.16
536.653	37710.87
537.019	37591.1
537.384	37779.35
537.749	37983.18
538.114	37990.87
538.479	38001.03
538.845	38349.5
539.21	38321.93
539.575	38528.25
539.94	38707
540.305	38936.83
540.67	38797.17
541.034	38981.35
541.399	39248.69
541.764	39321.23
542.129	39577.49
542.494	39577.04
542.858	39703.14
543.223	39742.68
543.587	40050.47
543.952	40027.42
544.316	40179.51
544.681	40233.52
545.045	40537.69
545.41	40721.42
545.774	40807.51
546.138	40802.54
546.503	40954.86
546.867	40956.66
547.231	41305.58
547.595	41381.51
547.959	41722.97
548.324	41677.55
548.688	41819.24
549.052	41999.12
549.416	42225.56
549.779	42140.36
550.143	42183.52
550.507	42515.94
550.871	42637.75
551.235	42683.17
551.599	42966.1
551.962	42994.12
552.326	43249.03
552.689	43466.65
553.053	43240.22
553.417	43378.97
553.78	43783.93
554.143	43833.65
554.507	43927.43
554.87	44145.05
555.234	44478.15
555.597	44301.89
555.96	44484.25
556.323	44660.75
556.686	44790.69
557.05	44906.62
557.413	45140.96
557.776	45241.3
558.139	45536.2
558.502	45597.9
558.865	45644.9
559.228	45926.48
559.59	46081.27
559.953	46217.54
560.316	46645.78
560.679	46552.9
561.041	46930.74
561.404	47139.55
561.767	47250.06
562.129	47129.38
562.492	47563.04
562.854	47613.44
563.217	47736.37
563.579	47822.47
563.941	48061.56
564.304	48155.8
564.666	48405.51
565.028	48563.69
565.39	48680.3
565.753	48788.55
566.115	48886.62
566.477	49120.29
566.839	49202.55
567.201	49419.72
567.563	49417.01
567.925	49691.12
568.287	49796.2
568.648	49773.15
569.01	49987.16
569.372	50228.74
569.734	50081.85
570.095	50393.7
570.457	50542.63
570.819	50573.36
571.18	50687.25
571.542	50912.33
571.903	50909.85
572.265	51016.29
572.626	51058.32
572.987	51265.77
573.349	51347.35
573.71	51375.82
574.071	51489.72
574.432	51622.6
574.794	51731.3
575.155	51710.73
575.516	51774.91
575.877	51903.04
576.238	51891.74
576.599	52086.54
576.96	52057.16
577.32	52109.59
577.681	52168.8
578.042	52340.32
578.403	52364.27
578.763	52358.85
579.124	52365.63
579.485	52505.51
579.845	52587.09
580.206	52528.56
580.566	52526.3
580.927	52602.91
581.287	52725.39
581.648	52577.6
582.008	52728.11
582.368	52705.73
582.728	52829.8
583.089	52757.71
583.449	52754.55
583.809	52846.75
584.169	52949.12
584.529	52811.72
584.889	53036.57
585.249	52841.77
585.609	52802.91
585.969	52988.44
586.329	52917.03
586.688	52991.6
587.048	52966.97
587.408	52937.82
587.768	52925.84
588.127	52983.01
588.487	52942.11
588.846	53089.9
589.206	52904.82
589.565	52877.71
589.925	53020.75
590.284	52918.38
590.643	53064.14
591.003	53055.33
591.362	53127.87
591.721	53189.56
592.08	53137.59
592.44	53188.21
592.799	53219.17
593.158	53139.85
593.517	53178.71
593.876	53206.74
594.235	53106.4
594.593	53195.44
594.952	53247.87
595.311	53119.73
595.67	53164.7
596.029	53345.49
596.387	53274.08
596.746	53287.41
597.104	53166.29
597.463	53187.3
597.822	53274.76
598.18	53186.62
598.538	53246.06
598.897	53293.97
599.255	53149.79
599.613	53497.35
599.972	53376.45
600.33	53411.48
600.688	53333.74
601.046	53464.13
601.404	53535.54
601.762	53498.25
602.12	53649.89
602.478	53663
602.836	53632.71
603.194	53473.85
603.552	53488.54
603.91	53389.1
604.268	53587.29
604.625	53431.36
604.983	53677.23
605.341	53494.41
605.698	53634.07
606.056	53632.26
606.413	53658.48
606.771	53703.45
607.128	53762.65
607.485	53672.94
607.843	53703.45
608.2	53901.18
608.557	53930.56
608.914	53902.99
609.272	53984.57
609.629	54017.79
609.986	54015.98
610.343	53903.44
610.7	54098.92
611.057	54078.13
611.414	54047.17
611.771	54155.64
612.127	54260.95
612.484	54104.34
612.841	54338.46
613.198	54168.52
613.554	54113.83
613.911	54297.78
614.267	54300.72
614.624	54228.18
614.98	54346.14
615.337	54395.18
615.693	54415.07
616.05	54384.11
616.406	54594.04
616.762	54434.27
617.118	54404.45
617.475	54410.55
617.831	54518.57
618.187	54551.33
618.543	54549.98
618.899	54636.76
619.255	54602.63
619.611	54536.42
619.967	54712.23
620.323	54670.2
620.678	54647.15
621.034	54463.2
621.39	54505.91
621.746	54377.1
622.101	54786.81
622.457	54506.82
622.812	54536.19
623.168	54584.1
623.523	54559.92
623.879	54732.35
624.234	54481.96
624.589	54532.35
624.945	54619.35
625.3	54601.28
625.655	54572.58
626.01	54571.45
626.365	54589.3
626.72	54621.84
627.075	54539.13
627.43	54568.73
627.785	54528.96
628.14	54543.65
628.495	54517.66
628.85	54541.62
629.205	54324.45
629.559	54520.6
629.914	54361.73
630.269	54369.42
630.623	54297.56
630.978	54239.03
631.332	54257.1
631.687	54260.04
632.041	54199.93
632.396	54232.02
632.75	54155.64
633.104	54197.67
633.459	54015.08
633.813	53954.51
634.167	53966.94
634.521	54000.61
634.875	54033.38
635.229	53975.08
635.583	53866.15
635.937	53805.36
636.291	53808.08
636.645	53879.49
636.999	53673.84
637.352	53726.04
637.706	53512.49
638.06	53645.6
638.413	53591.36
638.767	53557.46
639.121	53613.96
639.474	53427.97
639.828	53541.19
640.181	53559.72
640.534	53436.11
640.888	53261.65
641.241	53240.41
641.594	53291.48
641.947	53341.87
642.301	53237.7
642.654	53181.88
643.007	53205.15
643.36	53164.25
643.713	53130.81
644.066	53273.63
644.419	53047.19
644.771	52833.19
645.124	52439.3
645.477	52388.45
645.83	52245.86
646.182	52069.82
646.535	52000.89
646.888	52030.5
647.24	51916.38
647.593	52137.16
647.945	52039.54
648.298	51864.17
648.65	51832.31
649.002	51737.85
649.355	51824.4
649.707	51736.49
650.059	51832.08
650.411	52200.21
650.763	52214.22
651.115	52518.39
651.467	52435.46
651.819	52476.36
652.171	52280.43
652.523	52408.57
652.875	52311.17
653.227	52174.9
653.578	52296.48
653.93	52234.56
654.282	52074.56
654.633	52050.61
654.985	52097.16
655.337	52116.6
655.688	52112.3
656.039	52116.6
656.391	51879.77
656.742	51809.71
657.094	51806.77
657.445	51891.29
657.796	51818.3
658.147	51623.95
658.498	51773.78
658.849	51764.06
659.2	51697.17
659.551	51583.05
659.902	51652.88
660.253	51600.9
660.604	51699.43
660.955	51462.6
661.306	51606.1
661.656	51565.65
662.007	51565.42
662.358	51513.45
662.708	51420.79
663.059	51496.27
663.409	51200.01
663.76	51400.91
664.11	51544.63
664.461	51489.27
664.811	51448.14
665.161	51402.04
665.511	51305.54
665.862	51284.08
666.212	51343.51
666.562	51358.88
666.912	51275.26
667.262	51279.78
667.612	51218.77
667.962	51273.45
668.312	51149.39
668.662	51268.48
669.011	51152.55
669.361	51091.31
669.711	51055.38
670.06	51064.65
670.41	51063.06
670.76	50854.48
671.109	51040.01
671.459	50954.37
671.808	50812.9
672.157	50903.75
672.507	50659.46
672.856	50782.39
673.205	50794.6
673.554	50933.12
673.904	50676.63
674.253	50909.62
674.602	50742.17
674.951	50294.95
675.3	50121.39
675.649	50613.58
675.998	50609.74
676.346	50463.98
676.695	50601.61
677.044	50453.36
677.393	50507.15
677.741	50490.88
678.09	50270.77
678.438	50238.23
678.787	50311.45
679.135	50304.21
679.484	50125.91
679.832	50188.51
680.181	49922.76
680.529	50093.15
680.877	49936.31
681.225	49938.57
681.573	50036.88
681.922	49749.2
682.27	49797.56
682.618	49659.71
682.966	49602.09
683.314	49554.4
683.661	49474.41
684.009	49342.66
684.357	49320.74
684.705	49142.89
685.053	49214.53
685.4	49135.66
685.748	49042.55
686.095	48945.38
686.443	48746.06
686.79	48804.37
687.138	48840.3
687.485	48780.86
687.832	48633.52
688.18	48607.54
688.527	48380.87
688.874	48422.46
689.221	48206.19
689.568	48003.94
689.915	48066.76
690.262	48089.13
690.609	47872.19
690.956	47687.11
691.303	47673.1
691.65	47386.1
691.997	47370.28
692.344	47198.76
692.69	47195.14
693.037	47271.07
693.383	46825.66
693.73	46940.69
694.077	46616.85
694.423	46703.63
694.769	46495.95
695.116	46422.06
695.462	46465.44
695.808	46276.98
696.155	46320.36
696.501	46097.09
696.847	46114.27
697.193	45776.2
697.539	45962.86
697.885	45663.21
698.231	45366.49
698.577	45368.52
698.923	45319.03
699.269	45221.86
699.614	45043.56
699.96	44825.04
700.306	44863.45
700.651	44682.21
700.997	44680.41
701.342	44413.07
701.688	44362.22
702.033	44261.21
702.379	44227.31
702.724	44107.09
703.069	44084.04
703.415	43682.47
703.76	43792.52
704.105	43729.7
704.45	43574.67
704.795	43302.59
705.14	43131.3
705.485	43130.84
705.83	42918.65
706.175	43061.24
706.52	42853.11
706.865	42816.73
707.209	42652.21
707.554	42710.06
707.899	42755.71
708.243	42417.42
708.588	42258.55
708.932	42134.49
709.277	42267.14
709.621	42190.98
709.966	41852.68
710.31	42004.32
710.654	41622.18
710.998	41735.85
711.342	41729.75
711.687	41527.72
712.031	41330.89
712.375	41138.13
712.719	41250.67
713.063	41319.82
713.407	41302.87
713.75	40965.93
714.094	41109.88
714.438	40990.11
714.782	40878.7
715.125	40699.04
715.469	40856.1
715.812	40572.49
716.156	40312.84
716.499	40320.75
716.843	40365.49
717.186	40121.88
717.53	40329.34
717.873	40214.54
718.216	40054.09
718.559	39914.43
718.902	39768.9
719.246	39745.62
719.589	39539.53
719.932	39458.17
720.275	39424.27
720.617	39438.06
720.96	39351.28
721.303	39292.75
721.646	39254.11
721.989	38947.9
722.331	39139.08
722.674	38987.22
723.016	38874.01
723.359	38846.44
723.701	38776.83
724.044	38512.89
724.386	38467.46
724.729	38533.68
725.071	38369.84
725.413	38344.53
725.755	38323.74
726.097	38176.4
726.439	37990.64
726.782	38064.08
727.124	38102.5
727.465	37797.42
727.807	37802.62
728.149	37728.27
728.491	37623.42
728.833	37615.96
729.175	37519.69
729.516	37323.76
729.858	37403.99
730.199	37341.84
730.541	37307.49
730.882	37122.19
731.224	37206.25
731.565	36826.83
731.906	37024.56
732.248	37037.44
732.589	36729.88
732.93	36616.66
733.271	36576.67
733.612	36618.02
733.953	36669.09
734.294	36463.22
734.635	36362.43
734.976	36522.88
735.317	36236.79
735.658	36240.18
735.999	36178.71
736.339	36124.02
736.68	36135.1
737.021	36042.22
737.361	35928.32
737.702	36075.89
738.042	35857.36
738.383	35769.45
738.723	35802.22
739.063	35676.8
739.404	35687.88
739.744	35458.95
740.084	35379.41
740.424	35416.02
740.764	35339.64
741.104	35486.98
741.444	35198.85
741.784	35155.46
742.124	35038.17
742.464	34869.59
742.804	34881.12
743.143	34829.82
743.483	34902.13
743.823	34719.99
744.162	34698.3
744.502	34600.45
744.841	34563.38
745.181	34719.31
745.52	34460.79
745.86	34665.3
746.199	34522.03
746.538	34369.72
746.877	34472.77
747.216	34451.07
747.556	34340.57
747.895	34295.6
748.234	33917.53
748.573	33916.62
748.911	33988.26
749.25	33989.16
749.589	33819
749.928	33981.93
750.267	33887.7
750.605	33760.69
750.944	33509.4
751.283	33611.32
751.621	33594.82
751.96	33297.66
752.298	33285.45
752.636	33375.85
752.975	33097.66
