Data from White_paper_FLMS001491_084.txt Node
Date: Tue Feb 07 10:35:40 GMT 2017
User: dcchb
Spectrometer: FLMS00149
Trigger mode: 0
Integration Time (sec): 2.000000E-2
Scans to average: 10
Electric dark correction enabled: true
Nonlinearity correction enabled: false
Boxcar width: 0
XAxis mode: Wavelengths
Number of Pixels in Spectrum: 2048
>>>>>Begin Spectral Data<<<<<
341.393	-1.44
341.776	-1.44
342.16	-1.44
342.543	-62
342.927	-62.23
343.31	-89.35
343.693	-92.51
344.077	-72.85
344.46	-57.71
344.843	-62.46
345.226	-31.95
345.61	-5.28
345.993	-22.23
346.376	22.06
346.759	16.19
347.142	14.15
347.525	36.3
347.908	77.43
348.291	86.01
348.674	82.62
349.057	99.57
349.44	135.73
349.823	136.18
350.206	168.72
350.588	232.45
350.971	232
351.354	238.33
351.737	253.92
352.119	289.63
352.502	290.98
352.884	302.05
353.267	321.71
353.65	328.49
354.032	318.78
354.414	324.2
354.797	350.64
355.179	343.86
355.562	348.38
355.944	358.78
356.326	354.71
356.709	363.07
357.091	376.4
357.473	358.55
357.855	357.65
358.238	366.91
358.62	371.2
359.002	374.37
359.384	375.72
359.766	364.43
360.148	402.62
360.53	373.69
360.912	366.01
361.294	394.03
361.676	373.01
362.057	375.27
362.439	381.6
362.821	380.02
363.203	368.95
363.584	369.62
363.966	389.06
364.348	366.23
364.729	354.48
365.111	378.21
365.493	345.44
365.874	363.3
366.256	365.33
366.637	368.04
367.019	349.96
367.4	344.09
367.781	355.16
368.163	362.17
368.544	382.28
368.925	364.2
369.306	385.44
369.688	373.46
370.069	387.7
370.45	366.01
370.831	374.59
371.212	363.3
371.593	364.43
371.974	363.75
372.355	373.01
372.736	366.23
373.117	361.49
373.498	386.12
373.879	379.79
374.26	375.5
374.641	390.41
375.021	384.76
375.402	384.99
375.783	396.97
376.163	401.26
376.544	413.69
376.925	404.88
377.305	406.91
377.686	391.32
378.066	411.2
378.447	396.06
378.827	408.27
379.208	410.3
379.588	416.85
379.968	407.14
380.349	404.65
380.729	418.89
381.109	402.39
381.489	434.03
381.87	435.38
382.25	438.1
382.63	409.17
383.01	423.41
383.39	422.28
383.77	437.19
384.15	437.42
384.53	455.5
384.91	441.49
385.29	448.72
385.67	460.92
386.049	466.8
386.429	461.6
386.809	465.67
387.189	474.48
387.568	456.63
387.948	469.28
388.328	474.48
388.707	489.39
389.087	472.67
389.466	509.73
389.846	498.66
390.225	498.89
390.605	504.99
390.984	486.46
391.363	505.66
391.743	515.38
392.122	516.74
392.501	518.55
392.881	526.46
393.26	532.33
393.639	546.57
394.018	541.14
394.397	573.23
394.776	559.45
395.155	569.39
395.534	566
395.913	584.98
396.292	586.34
396.671	586.34
397.05	594.25
397.429	589.73
397.808	594.48
398.186	609.62
398.565	631.54
398.944	614.59
399.323	622.5
399.701	629.28
400.08	660.91
400.458	660.01
400.837	646.23
401.215	681.03
401.594	671.54
401.972	681.25
402.351	681.93
402.729	719.44
403.107	706.34
403.486	714.47
403.864	720.57
404.242	726.22
404.62	766.9
404.999	747.69
405.377	792.66
405.755	779.1
406.133	820.01
406.511	843.51
406.889	855.49
407.267	878.08
407.645	890.29
408.023	914.47
408.401	897.52
408.779	923.96
409.156	947.69
409.534	971.19
409.912	996.5
410.29	1031.75
410.667	1021.13
411.045	1068.59
411.422	1074.69
411.8	1104.29
412.178	1125.76
412.555	1189.26
412.933	1191.97
413.31	1234.46
413.687	1272.42
414.065	1295.93
414.442	1336.6
414.819	1326.43
415.197	1379.54
415.574	1380.22
415.951	1408.24
416.328	1449.82
416.705	1471.74
417.082	1503.15
417.46	1556.48
417.837	1564.85
418.214	1574.56
418.591	1593.32
418.967	1653.21
419.344	1623.83
419.721	1646.2
420.098	1687.78
420.475	1762.13
420.852	1750.38
421.228	1791.28
421.605	1803.71
421.982	1843.71
422.358	1883.93
422.735	1898.85
423.111	1885.97
423.488	1926.42
423.864	1935.68
424.241	1994.67
424.617	2016.13
424.994	2035.12
425.37	2041.67
425.746	2098.17
426.123	2125.28
426.499	2103.59
426.875	2168.9
427.251	2218.61
427.627	2242.79
428.003	2312.4
428.379	2330.25
428.756	2330.48
429.132	2421.55
429.507	2408.21
429.883	2451.15
430.259	2449.57
430.635	2515.78
431.011	2542.67
431.387	2628.55
431.763	2639.62
432.138	2715.78
432.514	2729.79
432.89	2741.09
433.265	2833.06
433.641	2807.75
434.016	2851.37
434.392	2933.62
434.767	2988.99
435.143	3017.24
435.518	3064.69
435.894	3031.93
436.269	3121.64
436.644	3150.34
437.02	3186.5
437.395	3197.57
437.77	3226.95
438.145	3305.37
438.52	3337
438.895	3385.81
439.271	3402.76
439.646	3449.99
440.021	3458.13
440.395	3506.04
440.77	3483.44
441.145	3517.56
441.52	3580.84
441.895	3577.22
442.27	3643.89
442.645	3593.95
443.019	3714.39
443.394	3716.65
443.769	3736.09
444.143	3707.61
444.518	3783.09
444.892	3775.64
445.267	3827.84
445.641	3834.16
446.016	3859.25
446.39	3878.46
446.764	3897.21
447.139	3949.19
447.513	4012.47
447.887	3973.82
448.262	4000.49
448.636	4025.12
449.01	4103.54
449.384	4080.26
449.758	4165.68
450.132	4209.52
450.506	4217.21
450.88	4249.07
451.254	4219.92
451.628	4301.95
452.002	4319.8
452.376	4395.51
452.75	4441.15
453.123	4466.69
453.497	4548.27
453.871	4535.16
454.244	4667.59
454.618	4650.41
454.992	4737.42
455.365	4780.58
455.739	4920.46
456.112	4933.57
456.486	4951.65
456.859	4977.64
457.232	5031.87
457.606	5072.32
457.979	5095.15
458.352	5307.8
458.725	5330.62
459.099	5384.63
459.472	5455.37
459.845	5523.84
460.218	5578.98
460.591	5645.87
460.964	5654.23
461.337	5782.14
461.71	5841.8
462.083	5968.35
462.456	5964.96
462.829	5980.1
463.201	6079.76
463.574	6175.8
463.947	6232.07
464.32	6353.87
464.692	6422.8
465.065	6472.97
465.438	6531.27
465.81	6657.59
466.183	6714.09
466.555	6832.73
466.928	6857.14
467.3	6876.57
467.672	7051.03
468.045	7253.96
468.417	7208.09
468.789	7236.34
469.161	7347.97
469.534	7510.68
469.906	7705.93
470.278	7740.05
470.65	7841.97
471.022	7961.06
471.394	8138.01
471.766	8189.08
472.138	8244.67
472.51	8364.44
472.882	8583.19
473.253	8652.12
473.625	8822.73
473.997	8986.35
474.369	9067.25
474.74	9148.83
475.112	9339.78
475.484	9461.81
475.855	9639.21
476.227	9766.66
476.598	9964.85
476.97	10069.03
477.341	10275.58
477.713	10445.74
478.084	10447.32
478.455	10824.04
478.827	10920.08
479.198	11258.38
479.569	11201.88
479.94	11475.55
480.311	11550.8
480.682	11909.43
481.053	12082.99
481.424	12289.76
481.795	12473.49
482.166	12600.49
482.537	12870.99
482.908	13096.97
483.279	13183.07
483.65	13475.95
484.021	13714.58
484.391	13807.01
484.762	13995.25
485.133	14091.97
485.503	14317.05
485.874	14556.59
486.244	14687.66
486.615	15072.06
486.985	15180.08
487.356	15374.88
487.726	15526.51
488.097	15857.8
488.467	15889.89
488.837	16206.95
489.207	16515.87
489.578	16633.83
489.948	16742.75
490.318	17040.6
490.688	17114.72
491.058	17334.15
491.428	17521.94
491.798	17761.26
492.168	18029.27
492.538	18295.03
492.908	18321.02
493.278	18552.42
493.648	18561.24
494.017	18870.61
494.387	18968.23
494.757	19210.26
495.126	19309.69
495.496	19393.76
495.866	19581.77
496.235	19796.91
496.605	20010.24
496.974	20066.28
497.344	20280.74
497.713	20305.6
498.082	20575.19
498.452	20723.21
498.821	20806.37
499.19	20977.44
499.559	21061.73
499.928	21212.92
500.298	21396.64
500.667	21538.78
501.036	21556.86
501.405	21805.9
501.774	21797.99
502.143	22085.44
502.512	22144.19
502.88	22416.73
503.249	22362.72
503.618	22600.45
503.987	22669.38
504.356	22750.28
504.724	22937.39
505.093	23086.09
505.462	23206.54
505.83	23343.48
506.199	23456.7
506.567	23826.41
506.936	23869.34
507.304	24185.72
507.672	24181.65
508.041	24303.01
508.409	24470.68
508.777	24690.34
509.145	24770.56
509.514	24820.96
509.882	25114.28
510.25	25098.01
510.618	25435.18
510.986	25387.5
511.354	25726.7
511.722	25802.63
512.09	26078.1
512.458	26024.99
512.826	26376.62
513.193	26491.65
513.561	26600.35
513.929	26883.73
514.297	27090.5
514.664	27285.07
515.032	27299.08
515.4	27636.93
515.767	27704.27
516.135	27784.04
516.502	27662.46
516.869	28184.94
517.237	28240.98
517.604	28169.34
517.972	28603.68
518.339	28714.64
518.706	28872.15
519.073	29017.46
519.44	29216.1
519.808	29440.27
520.175	29497.67
520.542	29962.29
520.909	30069.86
521.276	30058.11
521.643	30288.16
522.009	30513.69
522.376	30917.29
522.743	30983.73
523.11	31324.06
523.477	31609.25
523.843	31718.4
524.21	31984.38
524.577	32220.99
524.943	32357.93
525.31	32472.06
525.676	32846.51
526.043	32944.59
526.409	33100.29
526.776	33497.57
527.142	33605.36
527.508	33768.07
527.874	34096.87
528.241	34284.21
528.607	34328.28
528.973	34641.94
529.339	34771.66
529.705	35018.43
530.071	35225.88
530.437	35408.48
530.803	35593.78
531.169	35871.29
531.535	35752.42
531.901	35966.43
532.267	36061.11
532.632	36417.49
532.998	36506.75
533.364	36694.77
533.73	36892.28
534.095	37109.22
534.461	37218.6
534.826	37477.35
535.192	37473.51
535.557	37764.35
535.923	37791.69
536.288	38077.33
536.653	38145.35
537.019	38101.74
537.384	38357.78
537.749	38568.17
538.114	38725.45
538.479	38717.77
538.845	38969.06
539.21	38889.51
539.575	39090.19
539.94	39180.81
540.305	39378.09
540.67	39407.69
541.034	39647.69
541.399	39915.93
541.764	39942.37
542.129	40111.63
542.494	40197.95
542.858	40395.24
543.223	40434.78
543.587	40646.98
543.952	40657.38
544.316	40906.64
544.681	40917.48
545.045	41144.82
545.41	41221.88
545.774	41374.65
546.138	41397.92
546.503	41545.49
546.867	41555.66
547.231	41886.95
547.595	42077.23
547.959	42225.25
548.324	42146.38
548.688	42354.06
549.052	42567.61
549.416	42571.23
549.779	42579.36
550.143	42720.15
550.507	43104.09
550.871	43125.33
551.235	43367.59
551.599	43469.51
551.962	43531.65
552.326	43853.45
552.689	44072.43
553.053	43701.82
553.417	43975.26
553.78	44425.41
554.143	44251.63
554.507	44403.04
554.87	44502.25
555.234	44918.73
555.597	44665.86
555.96	45055.45
556.323	45096.36
556.686	45240.76
557.05	45528.21
557.413	45649.11
557.776	45679.62
558.139	45928.65
558.502	46013.39
558.865	46146.72
559.228	46373.39
559.59	46461.97
559.953	46559.82
560.316	46948.06
560.679	46976.08
561.041	47215.4
561.404	47310.76
561.767	47508.04
562.129	47482.06
562.492	47873.01
562.854	47894.02
563.217	47931.99
563.579	48037.07
563.941	48327.46
564.304	48514.12
564.666	48743.72
565.028	48803.83
565.39	48965.18
565.753	49154.1
566.115	49363.82
566.477	49407.2
566.839	49486.07
567.201	49689.23
567.563	49867.08
567.925	50059.84
568.287	50070.46
568.648	50158.14
569.01	50313.62
569.372	50603.33
569.734	50559.26
570.095	50731.01
570.457	50927.62
570.819	51060.04
571.18	51015.52
571.542	51164.45
571.903	51333.48
572.265	51361.95
572.626	51552.46
572.987	51635.85
573.349	51753.36
573.71	51899.79
574.071	51966.23
574.432	52071.99
574.794	52301.82
575.155	52192.67
575.516	52237.64
575.877	52302.27
576.238	52355.6
576.599	52508.59
576.96	52546.78
577.32	52551.53
577.681	52699.55
578.042	52806.66
578.403	52823.39
578.763	52916.72
579.124	52936.38
579.485	53077.16
579.845	53127.33
580.206	53136.15
580.566	53139.31
580.927	53142.25
581.287	53381.34
581.648	53255.92
582.008	53410.26
582.368	53330.26
582.728	53429.02
583.089	53360.55
583.449	53356.25
583.809	53511.05
584.169	53556.47
584.529	53524.84
584.889	53769.12
585.249	53599.41
585.609	53513.08
585.969	53655.68
586.329	53645.96
586.688	53713.76
587.048	53693.19
587.408	53717.82
587.768	53715.34
588.127	53676.02
588.487	53741.33
588.846	53950.81
589.206	53716.47
589.565	53826.97
589.925	53905.62
590.284	53791.27
590.643	53941.32
591.003	53920.98
591.362	54121.88
591.721	53965.95
592.08	53955.11
592.44	54047.99
592.799	54001.43
593.158	54076.01
593.517	54047.99
593.876	54107.19
594.235	54112.62
594.593	54192.16
594.952	54171.37
595.311	54118.94
595.67	54117.81
596.029	54376.11
596.387	54303.35
596.746	54358.94
597.104	54275.55
597.463	54293.18
597.822	54424.02
598.18	54376.79
598.538	54336.79
598.897	54481.42
599.255	54250.24
599.613	54654.3
599.972	54527.3
600.33	54539.95
600.688	54475.32
601.046	54569.33
601.404	54731.36
601.762	54571.36
602.12	54813.16
602.478	54679.38
602.836	54687.52
603.194	54600.29
603.552	54753.28
603.91	54516.22
604.268	54829.43
604.625	54715.31
604.983	54795.31
605.341	54682.77
605.698	54844.35
606.056	54936.55
606.413	54813.39
606.771	54936.55
607.128	55050.45
607.485	54854.97
607.843	54831.92
608.2	55054.06
608.557	55131.8
608.914	55037.34
609.272	55158.69
609.629	55197.56
609.986	55272.59
610.343	55186.49
610.7	55292.25
611.057	55336.54
611.414	55303.77
611.771	55285.02
612.127	55427.38
612.484	55386.71
612.841	55469.19
613.198	55341.74
613.554	55335.41
613.911	55542.41
614.267	55518.68
614.624	55525.91
614.98	55539.92
615.337	55645.68
615.693	55560.49
616.05	55493.37
616.406	55690.65
616.762	55621.05
617.118	55625.12
617.475	55610.66
617.831	55675.74
618.187	55715.51
618.543	55721.39
618.899	55909.41
619.255	55801.39
619.611	55859.01
619.967	55933.13
620.323	55948.27
620.678	55756.19
621.034	55814.94
621.39	55831.22
621.746	55847.26
622.101	56117.31
622.457	55823.08
622.812	55885.45
623.168	55924.09
623.523	55985.34
623.879	56041.61
624.234	55828.96
624.589	55886.58
624.945	55945.11
625.3	55973.81
625.655	55942.63
626.01	55945.34
626.365	56056.97
626.72	55943.08
627.075	55935.85
627.43	55916.19
627.785	55869.18
628.14	56053.81
628.495	55948.27
628.85	55902.63
629.205	55910.54
629.559	56037.31
629.914	55892
630.269	55934.94
630.623	55874.6
630.978	55857.43
631.332	55958.9
631.687	56007.48
632.041	55788.73
632.396	55892.23
632.75	55826.7
633.104	55845.23
633.459	55726.59
633.813	55735.85
634.167	55784.44
634.521	55735.17
634.875	55809.75
635.229	55744.44
635.583	55626.48
635.937	55607.27
636.291	55671.9
636.645	55562.97
636.999	55637.1
637.352	55661.95
637.706	55573.14
638.06	55636.19
638.413	55551.67
638.767	55536.99
639.121	55553.93
639.474	55458.12
639.828	55468.97
640.181	55536.08
640.534	55458.57
640.888	55421.06
641.241	55289.31
641.594	55399.81
641.947	55532.01
642.301	55457.21
642.654	55425.8
643.007	55364.34
643.36	55358.91
643.713	55302.19
644.066	55415.41
644.419	55255.41
644.771	55065.81
645.124	54740.4
645.477	54806.16
645.83	54529.33
646.182	54538.37
646.535	54491.36
646.888	54529.33
647.24	54391.93
647.593	54516
647.945	54442.33
648.298	54311.03
648.65	54372.95
649.002	54320.07
649.355	54364.36
649.707	54385.83
650.059	54436.45
650.411	54775.42
650.763	54802.77
651.115	55063.78
651.467	54953.95
651.819	54979.94
652.171	54913.5
652.523	54979.03
652.875	54890.68
653.227	54754.41
653.578	54872.37
653.93	54903.1
654.282	54709.44
654.633	54699.72
654.985	54725.48
655.337	54720.74
655.688	54803.45
656.039	54819.04
656.391	54640.74
656.742	54549.44
657.094	54628.31
657.445	54762.77
657.796	54676.9
658.147	54641.19
658.498	54615.88
658.849	54766.61
659.2	54721.87
659.551	54577.24
659.902	54656.56
660.253	54575.66
660.604	54597.8
660.955	54440.74
661.306	54686.61
661.656	54598.25
662.007	54571.14
662.358	54471.93
662.708	54556.9
663.059	54516.67
663.409	54407.07
663.76	54549.22
664.11	54534.3
664.461	54556.9
664.811	54504.47
665.161	54461.08
665.511	54399.61
665.862	54454.98
666.212	54460.63
666.562	54447.75
666.912	54436.9
667.262	54409.78
667.612	54357.36
667.962	54386.28
668.312	54255.66
668.662	54477.58
669.011	54374.53
669.361	54278.94
669.711	54301.31
670.06	54195.78
670.41	54234.42
670.76	54125.95
671.109	54230.81
671.459	54196.23
671.808	54160.98
672.157	54185.16
672.507	53981.55
672.856	54038.49
673.205	54006.86
673.554	54078.04
673.904	53966.18
674.253	54090.24
674.602	53981.09
674.951	53609.35
675.3	53365.97
675.649	53887.09
675.998	53762.8
676.346	53911.94
676.695	53979.29
677.044	53767.99
677.393	53753.76
677.741	53776.13
678.09	53681.67
678.438	53636.7
678.787	53688
679.135	53687.09
679.484	53385.63
679.832	53624.04
680.181	53338.4
680.529	53463.59
680.877	53343.15
681.225	53273.99
681.573	53488.45
681.922	53319.64
682.27	53162.81
682.618	53208.01
682.966	53151.96
683.314	53130.5
683.661	52948.13
684.009	52810.05
684.357	52807.79
684.705	52780.45
685.053	52729.6
685.4	52712.65
685.748	52640.11
686.095	52510.85
686.443	52402.38
686.79	52400.12
687.138	52343.85
687.485	52435.15
687.832	52256.62
688.18	52188.37
688.527	52059.11
688.874	52108.38
689.221	51932.79
689.568	51838.78
689.915	51798.1
690.262	51763.07
690.609	51639.01
690.956	51583.19
691.303	51565.34
691.65	51278.11
691.997	51281.05
692.344	51215.07
692.69	51146.37
693.037	51104.11
693.383	50836.09
693.73	50928.52
694.077	50692.82
694.423	50740.05
694.769	50652.14
695.116	50472.71
695.462	50438.82
695.808	50250.12
696.155	50301.64
696.501	50074.76
696.847	50049.67
697.193	49797.93
697.539	50061.88
697.885	49757.25
698.231	49683.35
698.577	49761.32
698.923	49542.57
699.269	49419.63
699.614	49292.18
699.96	49178.96
700.306	49212.63
700.651	49089.25
700.997	48942.81
701.342	48854
701.688	48838.18
702.033	48686.54
702.379	48740.78
702.724	48656.94
703.069	48589.82
703.415	48136.05
703.76	48271.64
704.105	48209.27
704.45	47966.11
704.795	47849.05
705.14	47746.46
705.485	47786.91
705.83	47601.83
706.175	47676.18
706.52	47480.47
706.865	47403.41
707.209	47443.41
707.554	47241.61
707.899	47309.18
708.243	47128.39
708.588	47022.86
708.932	46732.7
709.277	46750.32
709.621	46826.93
709.966	46497.68
710.31	46619.93
710.654	46280.96
710.998	46299.04
711.342	46320.51
711.687	46194.63
712.031	46029.67
712.375	45902.66
712.719	45942.44
713.063	45748.77
713.407	45995.32
713.75	45816.11
714.094	45749.9
714.438	45573.18
714.782	45470.13
715.125	45323.02
715.469	45394.88
715.812	45168.67
716.156	44921.9
716.499	45024.27
716.843	45174.32
717.186	44951.95
717.53	45034.44
717.873	44937.94
718.216	44877.15
718.559	44638.29
718.902	44341.8
719.246	44490.27
719.589	44355.13
719.932	44255.93
720.275	44238.07
720.617	44144.29
720.96	44015.26
721.303	44050.73
721.646	44126.21
721.989	43705.66
722.331	44038.08
722.674	43785.43
723.016	43922.83
723.359	43708.82
723.701	43705.43
724.044	43476.96
724.386	43290.08
724.729	43546.79
725.071	43441.48
725.413	43332.34
725.755	43247.14
726.097	43088.95
726.439	43011.89
726.782	43116.3
727.124	43150.42
727.465	42812.12
727.807	42785.46
728.149	42644.67
728.491	42634.73
728.833	42735.51
729.175	42466.82
729.516	42402.64
729.858	42374.17
730.199	42483.09
730.541	42324.23
730.882	42293.94
731.224	42510.21
731.565	42162.42
731.906	42119.94
732.248	42127.85
732.589	41986.61
732.93	41867.29
733.271	41815.99
733.612	41990
733.953	41953.84
734.294	41752.04
734.635	41610.35
734.976	41553.4
735.317	41486.51
735.658	41483.34
735.999	41428.43
736.339	41342.11
736.68	41334.42
737.021	41193.86
737.361	41157.25
737.702	41416.91
738.042	41204.26
738.383	41042.45
738.723	41086.07
739.063	40906.64
739.404	41126.74
739.744	40907.99
740.084	40724.95
740.424	40704.61
740.764	40637.72
741.104	40778.05
741.444	40488.79
741.784	40420.55
742.124	40695.12
742.464	40437.04
742.804	40475.69
743.143	40372.41
743.483	40399.76
743.823	40149.37
744.162	40197.28
744.502	40215.58
744.841	40035.7
745.181	40095.58
745.52	39990.95
745.86	39958.86
746.199	39820.56
746.538	39798.64
746.877	39814.01
747.216	39848.13
747.556	39741.47
747.895	39693.11
748.234	39506
748.573	39417.64
748.911	39459.67
749.25	39348.03
749.589	39197.53
749.928	39226
750.267	39261.03
750.605	39181.48
750.944	39052.9
751.283	38787.37
751.621	39003.64
751.96	38669.18
752.298	38822.85
752.636	38743.08
