Data from white_poster_card_FLMS001491_00015.txt Node
Date: Wed Feb 08 11:51:09 GMT 2017
User: dcchb
Spectrometer: FLMS00149
Trigger mode: 0
Integration Time (sec): 2.000000E-2
Scans to average: 10
Electric dark correction enabled: true
Nonlinearity correction enabled: false
Boxcar width: 0
XAxis mode: Wavelengths
Number of Pixels in Spectrum: 2048
>>>>>Begin Spectral Data<<<<<
341.393	-19.53
341.776	-19.53
342.16	-19.53
342.543	-65.18
342.927	-55.01
343.31	-61.11
343.693	-62.7
344.077	-78.74
344.46	-58.85
344.843	-60.44
345.226	-43.49
345.61	-26.31
345.993	-12.75
346.376	-7.78
346.759	0.58
347.142	22.95
347.525	25.44
347.908	73.57
348.291	78.77
348.674	98.66
349.057	112.21
349.44	118.77
349.823	147.02
350.206	168.48
350.588	182.5
350.971	188.6
351.354	219.56
351.737	231.53
352.119	252.1
352.502	238.99
352.884	280.35
353.267	283.96
353.65	283.51
354.032	297.52
354.414	304.98
354.797	319.67
355.179	324.86
355.562	311.53
355.944	313.57
356.326	323.51
356.709	349.72
357.091	320.57
357.473	356.05
357.855	342.49
358.238	349.95
358.62	336.62
359.002	340.01
359.384	360.34
359.766	326.9
360.148	345.65
360.53	339.78
360.912	323.73
361.294	319.21
361.676	340.23
362.057	340.68
362.439	320.57
362.821	322.6
363.203	330.51
363.584	339.33
363.966	311.76
364.348	326.67
364.729	324.64
365.111	326.22
365.493	325.77
365.874	324.19
366.256	316.95
366.637	311.53
367.019	302.49
367.4	316.73
367.781	319.67
368.163	326.67
368.544	333
368.925	305.43
369.306	312.44
369.688	328.93
370.069	294.81
370.45	306.79
370.831	301.14
371.212	315.15
371.593	319.44
371.974	296.84
372.355	317.41
372.736	328.93
373.117	317.18
373.498	316.5
373.879	324.64
374.26	325.54
374.641	290.06
375.021	315.37
375.402	330.51
375.783	339.33
376.163	335.94
376.544	337.52
376.925	337.75
377.305	337.07
377.686	325.32
378.066	317.86
378.447	338.88
378.827	332.1
379.208	338.88
379.588	335.94
379.968	339.1
380.349	350.63
380.729	328.71
381.109	336.39
381.489	357.18
381.87	342.27
382.25	339.78
382.63	344.75
383.01	355.6
383.39	361.02
383.77	359.44
384.15	336.39
384.53	365.09
384.91	356.5
385.29	365.09
385.67	370.51
386.049	355.37
386.429	361.25
386.809	349.04
387.189	363.96
387.568	382.26
387.948	374.58
388.328	379.55
388.707	361.25
389.087	376.61
389.466	370.74
389.846	388.14
390.225	385.2
390.605	389.04
390.984	394.92
391.363	392.21
391.743	395.14
392.122	357.86
392.501	389.04
392.881	394.69
393.26	380.46
393.639	399.89
394.018	420.46
394.397	395.82
394.776	368.7
395.155	394.47
395.534	403.28
395.913	424.3
396.292	432.43
396.671	413.45
397.05	425.65
397.429	448.7
397.808	414.81
398.186	438.31
398.565	429.49
398.944	429.72
399.323	439.89
399.701	442.83
400.08	426.56
400.458	432.66
400.837	451.19
401.215	462.94
401.594	441.25
401.972	456.61
402.351	463.84
402.729	453.45
403.107	471.53
403.486	458.65
403.864	460.45
404.242	478.31
404.62	464.75
404.999	482.6
405.377	488.25
405.755	495.93
406.133	471.53
406.511	487.8
406.889	514.24
407.267	520.34
407.645	522.37
408.023	535.93
408.401	547.91
408.779	537.97
409.156	574.8
409.534	572.54
409.912	554.24
410.29	586.33
410.667	582.71
411.045	598.98
411.422	594.46
411.8	605.99
412.178	620.9
412.555	658.64
412.933	648.02
413.31	659.54
413.687	676.27
414.065	684.85
414.442	676.04
414.819	719.2
415.197	713.1
415.574	717.4
415.951	756.04
416.328	782.03
416.705	786.1
417.082	785.87
417.46	811.86
417.837	829.26
418.214	853.89
418.591	833.33
418.967	852.76
419.344	891.86
419.721	885.98
420.098	907.45
420.475	918.3
420.852	946.09
421.228	951.06
421.605	935.02
421.982	967.33
422.358	987.45
422.735	972.98
423.111	1003.94
423.488	1037.61
423.864	1026.31
424.241	1035.81
424.617	1037.16
424.994	1062.7
425.37	1082.58
425.746	1089.82
426.123	1106.76
426.499	1130.27
426.875	1123.94
427.251	1173.88
427.627	1170.27
428.003	1170.49
428.379	1184.73
428.756	1228.34
429.132	1262.92
429.507	1259.08
429.883	1275.57
430.259	1322.58
430.635	1319.19
431.011	1301.79
431.387	1320.77
431.763	1380.88
432.138	1382.24
432.514	1409.58
432.89	1412.07
433.265	1462.46
433.641	1458.85
434.016	1471.05
434.392	1516.7
434.767	1528.9
435.143	1552.4
435.518	1544.27
435.894	1572.29
436.269	1583.81
436.644	1608.22
437.02	1650.93
437.395	1626.07
437.77	1640.08
438.145	1700.65
438.52	1699.52
438.895	1695.45
439.271	1731.16
439.646	1762.79
440.021	1774.77
440.395	1797.14
440.77	1772.96
441.145	1813.41
441.52	1841.66
441.895	1834.2
442.27	1844.82
442.645	1843.24
443.019	1886.18
443.394	1868.55
443.769	1886.18
444.143	1845.05
444.518	1951.04
444.892	1909.46
445.267	1958.95
445.641	1959.17
446.016	1983.13
446.39	1974.76
446.764	2001.2
447.139	2009.79
447.513	2055.44
447.887	2051.15
448.262	2055.44
448.636	2057.02
449.01	2078.49
449.384	2108.32
449.758	2133.18
450.132	2149
450.506	2131.82
450.88	2138.6
451.254	2198.49
451.628	2201.43
452.002	2252.72
452.376	2247.75
452.75	2242.1
453.123	2265.15
453.497	2299.28
453.871	2325.94
454.244	2371.59
454.618	2376.56
454.992	2408.2
455.365	2400.97
455.739	2460.85
456.112	2511.93
456.486	2518.48
456.859	2554.86
457.232	2563.45
457.606	2582.21
457.979	2605.48
458.352	2674.41
458.725	2691.58
459.099	2714.63
459.472	2748.76
459.845	2757.12
460.218	2768.19
460.591	2767.96
460.964	2806.38
461.337	2906.49
461.71	2894.97
462.083	2948.07
462.456	2980.61
462.829	3010.67
463.201	3044.11
463.574	3017.9
463.947	3060.61
464.32	3133.83
464.692	3173.38
465.065	3218.12
465.438	3271
465.81	3299.02
466.183	3336.99
466.555	3380.15
466.928	3422.41
467.3	3407.27
467.672	3494.05
468.045	3552.12
468.417	3583.54
468.789	3572.69
469.161	3622.63
469.534	3671.44
469.906	3752.34
470.278	3765.68
470.65	3813.36
471.022	3871.21
471.394	3946.46
471.766	4002.51
472.138	4015.61
472.51	4112.79
472.882	4159.57
473.253	4223.97
473.625	4248.38
473.997	4322.73
474.369	4368.83
474.74	4450.86
475.112	4482.72
475.484	4588.26
475.855	4661.7
476.227	4680.23
476.598	4810.85
476.97	4885.87
477.341	4964.52
477.713	5023.5
478.084	4992.76
478.455	5231.4
478.827	5257.84
479.198	5394.34
479.569	5348.69
479.94	5503.03
480.311	5543.26
480.682	5640.2
481.053	5813.53
481.424	5888.33
481.795	5895.57
482.166	6020.76
482.537	6098.27
482.908	6249.45
483.279	6293.75
483.65	6388.89
484.021	6530.8
484.391	6628.65
484.762	6642.44
485.133	6761.53
485.503	6783.68
485.874	7017.57
486.244	7032.94
486.615	7128.3
486.985	7211.46
487.356	7354.28
487.726	7507.95
488.097	7541.4
488.467	7626.37
488.837	7815.51
489.207	7902.29
489.578	8082.4
489.948	8057.32
490.318	8194.04
490.688	8241.94
491.058	8356.07
491.428	8461.83
491.798	8537.3
492.168	8754.93
492.538	8668.37
492.908	8808.94
493.278	8911.31
493.648	9051.64
494.017	9080.11
494.387	9234.91
494.757	9259.32
495.126	9386.55
495.496	9412.76
495.866	9486.88
496.235	9623.38
496.605	9647.78
496.974	9774.56
497.344	9789.47
497.713	9905.86
498.082	9974.1
498.452	10085.96
498.821	10136.36
499.19	10184.27
499.559	10269.46
499.928	10390.14
500.298	10438.95
500.667	10477.59
501.036	10495.67
501.405	10674.65
501.774	10651.15
502.143	10784.48
502.512	10843.68
502.88	10956.45
503.249	10937.69
503.618	11048.2
503.987	11127.74
504.356	11186.27
504.724	11183.56
505.093	11312.6
505.462	11391.24
505.83	11404.12
506.199	11598.69
506.567	11701.06
506.936	11685.7
507.304	11868.29
507.672	11866.03
508.041	12022.64
508.409	12093.59
508.777	12166.36
509.145	12269.86
509.514	12318.22
509.882	12517.76
510.25	12455.39
510.618	12571.55
510.986	12597.54
511.354	12741.04
511.722	12929.28
512.09	12972.44
512.458	13016.73
512.826	13067.58
513.193	13177.63
513.561	13204.98
513.929	13362.49
514.297	13450.17
514.664	13648.81
515.032	13574.91
515.4	13799.31
515.767	13787.34
516.135	13889.71
516.502	13952.08
516.869	14132.41
517.237	14240.66
517.604	14244.27
517.972	14398.62
518.339	14476.81
518.706	14495.34
519.073	14525.62
519.44	14763.13
519.808	14857.36
520.175	14838.83
520.542	15106.62
520.909	15172.61
521.276	15302.32
521.643	15428.2
522.009	15477.91
522.376	15611.02
522.743	15783.67
523.11	15865.47
523.477	16037.9
523.843	16190.66
524.21	16330.32
524.577	16392.92
524.943	16476.3
525.31	16578.45
525.676	16756.52
526.043	16871.55
526.409	16991.09
526.776	17121.26
527.142	17231.76
527.508	17334.13
527.874	17447.35
528.241	17577.97
528.607	17662.04
528.973	17809.6
529.339	17822.26
529.705	18109.71
530.071	18205.07
530.437	18250.04
530.803	18345.18
531.169	18412.52
531.535	18455.01
531.901	18589.24
532.267	18748.79
532.632	18728.9
532.998	18942.45
533.364	18900.87
533.73	18998.27
534.095	19264.93
534.461	19231.26
534.826	19444.14
535.192	19519.16
535.557	19614.53
535.923	19653.62
536.288	19684.13
536.653	19890.45
537.019	19863.33
537.384	19918.93
537.749	20027.85
538.114	20058.81
538.479	20158.02
538.845	20281.18
539.21	20281.63
539.575	20414.73
539.94	20433.49
540.305	20590.32
540.67	20545.58
541.034	20667.83
541.399	20738.34
541.764	20844.32
542.129	20904.21
542.494	20943.76
542.858	21066.92
543.223	21096.3
543.587	21178.78
543.952	21248.61
544.316	21359.57
544.681	21322.73
545.045	21459.9
545.41	21656.28
545.774	21562.5
546.138	21595.27
546.503	21739.22
546.867	21785.99
547.231	21905.99
547.595	21985.54
547.959	22070.06
548.324	22153.67
548.688	22122.26
549.052	22263.27
549.416	22329.71
549.779	22398.18
550.143	22500.33
550.507	22605.86
550.871	22680.43
551.235	22723.6
551.599	22831.62
551.962	22851.05
552.326	22988.68
552.689	23123.81
553.053	23105.73
553.417	23199.74
553.78	23428.44
554.143	23358.38
554.507	23437.48
554.87	23568.55
555.234	23688.32
555.597	23753.17
555.96	23890.35
556.323	23907.75
556.686	23971.7
557.05	24203.11
557.413	24331.46
557.776	24280.84
558.139	24594.06
558.502	24602.87
558.865	24700.72
559.228	24740.72
559.59	24947.95
559.953	25084.44
560.316	25248.5
560.679	25263.87
561.041	25385
561.404	25606.23
561.767	25660.92
562.129	25550.19
562.492	25745.44
562.854	25894.14
563.217	25872.44
563.579	26012.32
563.941	26210.06
564.304	26365.31
564.666	26497.74
565.028	26392.2
565.39	26669.03
565.753	26769.14
566.115	26853.66
566.477	27104.73
566.839	27082.35
567.201	27252.97
567.563	27267.43
567.925	27502.23
568.287	27539.52
568.648	27548.78
569.01	27728.21
569.372	27925.49
569.734	27751.49
570.095	28049.79
570.457	28131.82
570.819	28205.49
571.18	28198.71
571.542	28458.36
571.903	28406.61
572.265	28546.95
572.626	28678.24
572.987	28679.6
573.349	28779.48
573.71	28927.05
574.071	28978.35
574.432	29020.38
574.794	29253.14
575.155	29296.76
575.516	29197.1
575.877	29424.89
576.238	29457.43
576.599	29477.54
576.96	29436.19
577.32	29495.4
577.681	29644.77
578.042	29687.26
578.403	29720.7
578.763	29803.41
579.124	29798.44
579.485	29883.41
579.845	30056.74
580.206	29787.59
580.566	30042.95
580.927	29930.64
581.287	30068.26
581.648	29840.92
582.008	30227.58
582.368	30140.35
582.728	30160.46
583.089	30217.86
583.449	30178.77
583.809	30197.3
584.169	30191.65
584.529	30203.4
584.889	30426.45
585.249	30202.27
585.609	30261.93
585.969	30413.56
586.329	30040.69
586.688	30492.88
587.048	30322.95
587.408	30245.66
587.768	30340.8
588.127	30334.7
588.487	30036.4
588.846	30390.74
589.206	30280.46
589.565	30359.55
589.925	30449.04
590.284	30326.34
590.643	30308.03
591.003	30406.33
591.362	30410.17
591.721	30442.94
592.08	30386.67
592.44	30511.64
592.799	30483.39
593.158	30324.98
593.517	30543.28
593.876	30538.76
594.235	30444.75
594.593	30654.69
594.952	30501.7
595.311	30470.51
595.67	30614.69
596.029	30731.97
596.387	30690.39
596.746	30814.46
597.104	30710.73
597.463	30622.15
597.822	30816.49
598.18	30599.32
598.538	30651.07
598.897	30856.04
599.255	30543.73
599.613	31016.94
599.972	30913.89
600.33	31039.99
600.688	30732.65
601.046	30877.28
601.404	31031.63
601.762	31016.94
602.12	31085.41
602.478	31093.77
602.836	31053.77
603.194	31033.44
603.552	31057.16
603.91	31110.95
604.268	31132.64
604.625	31077.28
604.983	31192.08
605.341	30990.95
605.698	31255.12
606.056	31284.05
606.413	31139.2
606.771	31327.44
607.128	31377.38
607.485	31208.12
607.843	31271.17
608.2	31477.27
608.557	31657.15
608.914	31518.85
609.272	31693.98
609.629	31693.31
609.986	31816.92
610.343	31651.5
610.7	31971.94
611.057	31724.94
611.414	31703.25
611.771	31792.06
612.127	31829.12
612.484	31783.02
612.841	31924.49
613.198	31807.88
613.554	31859.85
613.911	32101.2
614.267	31960.87
614.624	31966.29
614.98	31979.17
615.337	32152.28
615.693	32106.18
616.05	32154.31
616.406	32356.11
616.762	32114.99
617.118	32071.37
617.475	32155.67
617.831	32233.18
618.187	32283.57
618.543	32333.51
618.899	32523.34
619.255	32310.92
619.611	32459.39
619.967	32499.39
620.323	32512.94
620.678	32472.95
621.034	32295.32
621.39	32256.91
621.746	32357.69
622.101	32647.63
622.457	32326.73
622.812	32489.67
623.168	32588.42
623.523	32638.59
623.879	32535.09
624.234	32334.19
624.589	32564.02
624.945	32434.3
625.3	32665.26
625.655	32521.53
626.01	32583.9
626.365	32418.94
626.72	32490.57
627.075	32553.17
627.43	32503.91
627.785	32391.59
628.14	32489.22
628.495	32608.08
628.85	32380.97
629.205	32406.73
629.559	32458.93
629.914	32347.53
630.269	32416.68
630.623	32320.63
630.978	32196.34
631.332	32393.85
631.687	32388.65
632.041	32260.75
632.396	32345.49
632.75	32214.87
633.104	32231.82
633.459	32085.16
633.813	31946.86
634.167	31939.17
634.521	31941.66
634.875	32065.27
635.229	31993.86
635.583	31685.17
635.937	31874.77
636.291	31864.37
636.645	31819.63
636.999	31733.76
637.352	31761.1
637.706	31663.48
638.06	31609.69
638.413	31498.51
638.767	31607.21
639.121	31646.07
639.474	31424.16
639.828	31404.73
640.181	31436.14
640.534	31425.52
640.888	31405.4
641.241	31178.52
641.594	31244.5
641.947	31401.56
642.301	31222.58
642.654	31246.31
643.007	31115.69
643.36	31158.86
643.713	31031.85
644.066	31085.19
644.419	30878.19
644.771	30712.54
645.124	30376.05
645.477	30384.19
645.83	30157.75
646.182	29932.45
646.535	29922.28
646.888	30009.51
647.24	29779.01
647.593	30103.74
647.945	29907.82
648.298	29763.86
648.65	29586.92
649.002	29542.85
649.355	29741.04
649.707	29662.85
650.059	29847.7
650.411	30198.66
650.763	30268.03
651.115	30497.4
651.467	30350.29
651.819	30199.79
652.171	30218.99
652.523	30229.16
652.875	30197.75
653.227	29958.66
653.578	30287.92
653.93	30210.18
654.282	30031.43
654.633	30003.86
654.985	30051.54
655.337	30028.49
655.688	30008.83
656.039	30028.49
656.391	29795.73
656.742	29851.77
657.094	30033.01
657.445	29989.4
657.796	29887.93
658.147	29779.46
658.498	29629.18
658.849	29746.46
659.2	29768.61
659.551	29623.3
659.902	29809.96
660.253	29787.82
660.604	29624.43
660.955	29554.6
661.306	29679.8
661.656	29610.42
662.007	29583.53
662.358	29605
662.708	29536.98
663.059	29614.49
663.409	29378.34
663.76	29630.08
664.11	29487.71
664.461	29575.62
664.811	29489.97
665.161	29490.2
665.511	29245.91
665.862	29505.34
666.212	29466.47
666.562	29578.56
666.912	29426.25
667.262	29370.65
667.612	29279.13
667.962	29396.19
668.312	29254.27
668.662	29456.53
669.011	29298.79
669.361	29252.69
669.711	29220.6
670.06	29059.93
670.41	29124.56
670.76	29120.94
671.109	29247.95
671.459	29151.9
671.808	29043.21
672.157	29143.54
672.507	28878.92
672.856	28836.66
673.205	28964.56
673.554	28998.23
673.904	28979.48
674.253	29018.57
674.602	28998.69
674.951	28530.45
675.3	28327.29
675.649	28838.46
675.998	28763.44
676.346	28834.4
676.695	28829.88
677.044	28758.92
677.393	28782.65
677.741	28847.96
678.09	28686.15
678.438	28581.3
678.787	28686.38
679.135	28729.54
679.484	28635.76
679.832	28754.17
680.181	28427.4
680.529	28531.35
680.877	28481.19
681.225	28425.14
681.573	28507.4
681.922	28417.23
682.27	28294.98
682.618	28292.49
682.966	28143.79
683.314	28309.67
683.661	28168.65
684.009	27978.15
684.357	28025.6
684.705	27838.04
685.053	27939.96
685.4	27803.69
685.748	27782
686.095	27858.15
686.443	27608.67
686.79	27676.69
687.138	27690.47
687.485	27684.37
687.832	27569.35
688.18	27427.65
688.527	27401.89
688.874	27464.26
689.221	27241.9
689.568	27153.99
689.915	27116.25
690.262	26992.19
690.609	26992.86
690.956	26937.95
691.303	26906.54
691.65	26739.99
691.997	26761.23
692.344	26594.46
692.69	26569.15
693.037	26538.64
693.383	26384.52
693.73	26483.95
694.077	26253.67
694.423	26196.05
694.769	26138.2
695.116	26150.63
695.462	26046.67
695.808	26025.43
696.155	26052.78
696.501	25756.96
696.847	25718.32
697.193	25663.41
697.539	25675.38
697.885	25486.69
698.231	25518.33
698.577	25450.53
698.923	25389.06
699.269	25275.62
699.614	25166.02
699.96	25122.4
700.306	25072.46
700.651	25081.28
700.997	24910.43
701.342	24989.53
701.688	24914.05
702.033	24833.37
702.379	24838.8
702.724	24655.75
703.069	24751.34
703.415	24461.18
703.76	24520.39
704.105	24435.19
704.45	24497.79
704.795	24168.31
705.14	24235.2
705.485	24167.4
705.83	24038.37
706.175	24179.6
706.52	23985.03
706.865	23934.87
707.209	23884.02
707.554	23860.74
707.899	23940.51
708.243	23667.53
708.588	23664.14
708.932	23483.58
709.277	23458.04
709.621	23526.51
709.966	23401.77
710.31	23449.68
710.654	23172.17
710.998	23241.32
711.342	23263.92
711.687	23096.24
712.031	22984.83
712.375	23002.46
712.719	23018.5
713.063	22955
713.407	23026.19
713.75	22810.83
714.094	22819.19
714.438	22673.43
714.782	22762.47
715.125	22566.77
715.469	22623.04
715.812	22539.65
716.156	22411.74
716.499	22330.39
716.843	22369.03
717.186	22314.79
717.53	22519.76
717.873	22425.07
718.216	22337.17
718.559	22121.58
718.902	22065.54
719.246	22079.09
719.589	22066.21
719.932	21944.18
720.275	21966.1
720.617	21949.38
720.96	21863.73
721.303	21873.22
721.646	21753.91
721.989	21673.46
722.331	21779.44
722.674	21752.55
723.016	21696.51
723.359	21657.86
723.701	21647.47
724.044	21505.78
724.386	21418.55
724.729	21450.64
725.071	21463.97
725.413	21412.45
725.755	21466.46
726.097	21347.81
726.439	21244.09
726.782	21238.44
727.124	21268.49
727.465	21197.99
727.807	21165.22
728.149	21074.6
728.491	20962.29
728.833	21083.64
729.175	20917.32
729.516	20959.58
729.858	20896.98
730.199	20927.94
730.541	20928.39
730.882	20852.46
731.224	20863.08
731.565	20743.08
731.906	20649.3
732.248	20641.17
732.589	20736.53
732.93	20583.77
733.271	20514.84
733.612	20578.57
733.953	20544.9
734.294	20479.36
734.635	20489.31
734.976	20452.02
735.317	20406.37
735.658	20244.57
735.999	20294.51
736.339	20260.16
736.68	20368.86
737.021	20237.79
737.361	20104.91
737.702	20234.4
738.042	20009.54
738.383	20080.28
738.723	20068.53
739.063	19981.07
739.404	20067.17
739.744	19945.82
740.084	19936.1
740.424	19875.31
740.764	19791.92
741.104	19893.16
741.444	19868.53
741.784	19772.04
742.124	19793.73
742.464	19776.1
742.804	19720.06
743.143	19572.72
743.483	19678.93
743.823	19677.58
744.162	19589.67
744.502	19518.03
744.841	19471.03
745.181	19615.66
745.52	19468.09
745.86	19573.17
746.199	19441.88
746.538	19343.35
746.877	19476.23
747.216	19335.89
747.556	19250.47
747.895	19221.54
748.234	19223.35
748.573	19147.65
748.911	19090.25
749.25	19048.21
749.589	19027.42
749.928	18973.87
750.267	19150.81
750.605	18923.47
750.944	18893.64
751.283	18780.2
751.621	18865.85
751.96	18795.57
752.298	18729.58
752.636	18641.22
752.975	18660.2
753.313	18599.41
753.651	18671.05
753.989	18555.57
754.327	18506.99
