Data from White_paper_FLMS001491_036.txt Node
Date: Tue Feb 07 10:35:00 GMT 2017
User: dcchb
Spectrometer: FLMS00149
Trigger mode: 0
Integration Time (sec): 2.000000E-2
Scans to average: 10
Electric dark correction enabled: true
Nonlinearity correction enabled: false
Boxcar width: 0
XAxis mode: Wavelengths
Number of Pixels in Spectrum: 2048
>>>>>Begin Spectral Data<<<<<
341.393	-20.41
341.776	-20.41
342.16	-20.41
342.543	-40.52
342.927	-51.37
343.31	-85.04
343.693	-65.83
344.077	-74.42
344.46	-44.59
344.843	-62.89
345.226	-51.37
345.61	-28.09
345.993	-11.37
346.376	-4.14
346.759	31.12
347.142	28.63
347.525	34.73
347.908	39.93
348.291	83.32
348.674	95.75
349.057	114.28
349.44	129.42
349.823	144.78
350.206	182.98
350.588	223.88
350.971	235.86
351.354	263.65
351.737	238.34
352.119	277.66
352.502	302.97
352.884	310.43
353.267	305.01
353.65	329.19
354.032	343.42
354.414	335.06
354.797	355.63
355.179	333.71
355.562	350.65
355.944	363.08
356.326	363.76
356.709	360.82
357.091	355.85
357.473	375.51
357.855	370.32
358.238	361.05
358.62	368.96
359.002	359.47
359.384	385.91
359.766	365.57
360.148	383.42
360.53	385.46
360.912	368.96
361.294	383.65
361.676	367.38
362.057	375.29
362.439	362.18
362.821	378.22
363.203	368.73
363.584	393.14
363.966	379.13
364.348	356.53
364.729	348.39
365.111	357.89
365.493	374.38
365.874	357.66
366.256	375.74
366.637	370.09
367.019	340.71
367.4	352.69
367.781	356.76
368.163	379.13
368.544	356.3
368.925	365.8
369.306	365.57
369.688	361.95
370.069	371.22
370.45	362.18
370.831	372.35
371.212	353.59
371.593	369.19
371.974	361.5
372.355	374.83
372.736	384.78
373.117	368.51
373.498	390.2
373.879	353.82
374.26	364.67
374.641	347.49
375.021	388.62
375.402	385
375.783	386.13
376.163	388.62
376.544	405.12
376.925	393.82
377.305	392.91
377.686	400.14
378.066	399.47
378.447	373.03
378.827	389.98
379.208	385.23
379.588	428.17
379.968	410.77
380.349	398.79
380.729	388.85
381.109	424.78
381.489	431.56
381.87	421.39
382.25	418
382.63	411.22
383.01	422.07
383.39	419.58
383.77	407.83
384.15	450.09
384.53	449.41
384.91	431.1
385.29	440.82
385.67	440.6
386.049	450.31
386.429	471.33
386.809	449.86
387.189	456.41
387.568	473.14
387.948	473.36
388.328	474.72
388.707	501.84
389.087	490.09
389.466	494.15
389.846	500.26
390.225	488.28
390.605	489.63
390.984	513.59
391.363	511.55
391.743	532.34
392.122	524.66
392.501	536.19
392.881	516.3
393.26	516.07
393.639	548.16
394.018	563.53
394.397	554.49
394.776	566.24
395.155	568.95
395.534	573.93
395.913	575.96
396.292	593.13
396.671	596.52
397.05	606.47
397.429	632.91
397.808	602.17
398.186	603.76
398.565	620.7
398.944	632.46
399.323	619.57
399.701	634.49
400.08	639.46
400.458	649.86
400.837	671.55
401.215	670.65
401.594	702.06
401.972	686.01
402.351	690.98
402.729	717.42
403.107	717.42
403.486	734.15
403.864	726.46
404.242	745.67
404.62	775.95
404.999	769.85
405.377	774.15
405.755	797.87
406.133	813.47
406.511	824.09
406.889	816.41
407.267	865.22
407.645	884.2
408.023	902.5
408.401	893.47
408.779	926.23
409.156	951.99
409.534	994.48
409.912	988.83
410.29	1011.2
410.667	1032.9
411.045	1095.27
411.422	1110.86
411.8	1139.33
412.178	1176.17
412.555	1221.59
412.933	1194.93
413.31	1265.66
413.687	1282.38
414.065	1280.35
414.442	1315.15
414.819	1374.81
415.197	1381.36
415.574	1418.2
415.951	1430.17
416.328	1465.2
416.705	1481.02
417.082	1511.98
417.46	1554.69
417.837	1551.53
418.214	1570.06
418.591	1629.94
418.967	1634.46
419.344	1672.65
419.721	1708.81
420.098	1723.73
420.475	1753.33
420.852	1751.52
421.228	1821.58
421.605	1838.75
421.982	1815.93
422.358	1867.22
422.735	1899.09
423.111	1914
423.488	1967.34
423.864	1956.71
424.241	1966.88
424.617	2019.76
424.994	2069.25
425.37	2044.85
425.746	2089.14
426.123	2144.28
426.499	2110.16
426.875	2201.91
427.251	2205.07
427.627	2251.85
428.003	2278.29
428.379	2309.02
428.756	2322.58
429.132	2401.67
429.507	2442.8
429.883	2421.33
430.259	2478.51
430.635	2498.62
431.011	2583.82
431.387	2646.87
431.763	2653.42
432.138	2654.77
432.514	2716.02
432.89	2699.75
433.265	2805.51
433.641	2845.96
434.016	2861.32
434.392	2924.82
434.767	3008.21
435.143	3001.88
435.518	3011.83
435.894	3060.19
436.269	3152.16
436.644	3183.8
437.02	3222.9
437.395	3227.19
437.77	3244.82
438.145	3297.92
438.52	3356.45
438.895	3380.18
439.271	3402.33
439.646	3461.08
440.021	3490.01
440.395	3532.72
440.77	3470.8
441.145	3496.79
441.52	3607.97
441.895	3570.46
442.27	3630.57
442.645	3625.82
443.019	3714.86
443.394	3672.38
443.769	3730.9
444.143	3728.42
444.518	3789.21
444.892	3735.42
445.267	3819.72
445.641	3817.46
446.016	3851.81
446.39	3873.5
446.764	3909.66
447.139	3919.37
447.513	3965.25
447.887	3948.75
448.262	3986.49
448.636	4020.61
449.01	4063.55
449.384	4099.03
449.758	4186.94
450.132	4169.76
450.506	4176.32
450.88	4238.01
451.254	4238.01
451.628	4305.8
452.002	4318.01
452.376	4393.71
452.75	4416.99
453.123	4484.11
453.497	4519.36
453.871	4548.96
454.244	4643.88
454.618	4676.19
454.992	4740.37
455.365	4744.21
455.739	4858.78
456.112	4919.57
456.486	4948.95
456.859	5011.32
457.232	5087.93
457.606	5030.98
457.979	5096.52
458.352	5259.68
458.725	5303.97
459.099	5363.63
459.472	5494.7
459.845	5575.83
460.218	5567.01
460.591	5627.35
460.964	5591.42
461.337	5775.14
461.71	5858.98
462.083	5948.47
462.456	5993.9
462.829	5986.44
463.201	6059.43
463.574	6111.18
463.947	6214.68
464.32	6326.54
464.692	6387.33
465.065	6493.77
465.438	6541.68
465.81	6585.97
466.183	6675.46
466.555	6823.48
466.928	6853.76
467.3	6920.2
467.672	6996.58
468.045	7173.07
468.417	7169.68
468.789	7242.22
469.161	7373.29
469.534	7470.02
469.906	7657.58
470.278	7668.2
470.65	7794.3
471.022	7928.08
471.394	8042.2
471.766	8181.41
472.138	8271.58
472.51	8461.85
472.882	8586.14
473.253	8690.32
473.625	8749.76
473.997	8962.86
474.369	8975.74
474.74	9119.69
475.112	9239.01
475.484	9439.23
475.855	9599.9
476.227	9699.11
476.598	9894.13
476.97	10021.36
477.341	10275.14
477.713	10431.75
478.084	10456.38
478.455	10712.42
478.827	10835.35
479.198	11152.18
479.569	11136.81
479.94	11482.57
480.311	11596.23
480.682	11766.85
481.053	12043
481.424	12220.63
481.795	12448.19
482.166	12528.41
482.537	12769.76
482.908	12970.44
483.279	13006.37
483.65	13339.24
484.021	13652.9
484.391	13769.74
484.762	13894.71
485.133	14022.16
485.503	14266.22
485.874	14581.24
486.244	14578.53
486.615	14930.61
486.985	15042.47
487.356	15416.02
487.726	15464.16
488.097	15799.97
488.467	15800.64
488.837	16226.17
489.207	16326.96
489.578	16605.59
489.948	16695.08
490.318	16930.78
490.688	16961.07
491.058	17310.21
491.428	17477.89
491.798	17574.38
492.168	17966.69
492.538	17949.97
492.908	18208.49
493.278	18559.22
493.648	18465.43
494.017	18880.56
494.387	18975.93
494.757	18978.19
495.126	19212.53
495.496	19258.41
495.866	19536.14
496.235	19681.45
496.605	19925.51
496.974	19948.11
497.344	20105.39
497.713	20253.63
498.082	20436.45
498.452	20706.96
498.821	20763.23
499.19	20783.79
499.559	20955.31
499.928	21169.32
500.298	21197.11
500.667	21503.09
501.036	21498.8
501.405	21687.27
501.774	21703.77
502.143	21972.91
502.512	21992.8
502.88	22277.31
503.249	22240.7
503.618	22422.62
503.987	22454.03
504.356	22642.5
504.724	22875.94
505.093	22993.22
505.462	23005.65
505.83	23281.8
506.199	23452.87
506.567	23624.84
506.936	23709.14
507.304	24006.53
507.672	24131.27
508.041	24129.01
508.409	24317.48
508.777	24463.69
509.145	24724.48
509.514	24681.77
509.882	24864.13
510.25	25027.75
510.618	25202.2
510.986	25312.94
511.354	25519.71
511.722	25652.36
512.09	25886.03
512.458	25865.69
512.826	26091.22
513.193	26268.39
513.561	26453.92
513.929	26653.01
514.297	26850.52
514.664	27080.12
515.032	27121.02
515.4	27261.36
515.767	27558.98
516.135	27603.05
516.502	27499.55
516.869	28049.36
517.237	28129.81
517.604	28055.01
517.972	28461.78
518.339	28620.42
518.706	28725.5
519.073	28834.2
519.44	28998.94
519.808	29365.71
520.175	29422.21
520.542	29723.89
520.909	29810.44
521.276	29829.43
521.643	30184.45
522.009	30523.65
522.376	30646.58
522.743	30940.58
523.11	31153.01
523.477	31453.79
523.843	31536.73
524.21	31867.57
524.577	32031.86
524.943	32156.15
525.31	32249.02
525.676	32690.82
526.043	32822.57
526.409	32869.12
526.776	33274.08
527.142	33418.03
527.508	33511.36
527.874	33887.85
528.241	34069.77
528.607	34219.37
528.973	34564.67
529.339	34421.4
529.705	34973.25
530.071	35085.33
530.437	35138.21
530.803	35436.51
531.169	35684.41
531.535	35667.92
531.901	35813.9
532.267	36018.64
532.632	36269.03
532.998	36347
533.364	36551.51
533.73	36635.12
534.095	36928.68
534.461	36927.09
534.826	37209.8
535.192	37311.04
535.557	37611.82
535.923	37662.44
536.288	37817.01
536.653	38042.32
537.019	37983.11
537.384	38143.33
537.749	38325.93
538.114	38423.55
538.479	38546.94
538.845	38733.6
539.21	38701.74
539.575	38994.38
539.94	39091.1
540.305	39333.13
540.67	39286.81
541.034	39461.94
541.399	39621.26
541.764	39839.56
542.129	39830.07
542.494	40070.06
542.858	40169.72
543.223	40231.87
543.587	40557.28
543.952	40516.38
544.316	40584.17
544.681	40635.25
545.045	40870.72
545.41	41098.28
545.774	41168.11
546.138	41235.91
546.503	41490.14
546.867	41479.74
547.231	41714.54
547.595	41743.24
547.959	42122.44
548.324	41980.97
548.688	42129.22
549.052	42308.87
549.416	42386.61
549.779	42466.84
550.143	42592.26
550.507	42958.12
550.871	43018.01
551.235	42992.02
551.599	43283.54
551.962	43392.91
552.326	43516.07
552.689	43680.14
553.053	43637.43
553.417	43761.94
553.78	44203.29
554.143	44148.15
554.507	44302.72
554.87	44442.15
555.234	44809.37
555.597	44641.69
555.96	44877.62
556.323	44951.97
556.686	44973.44
557.05	45385.85
557.413	45429.24
557.776	45508.56
558.139	45809.12
558.502	45767.77
558.865	45975.67
559.228	46352.61
559.59	46428.31
559.953	46521.19
560.316	46828.08
560.679	46793.28
561.041	47052.93
561.404	47105.81
561.767	47508.74
562.129	47303.32
562.492	47770.42
562.854	47761.84
563.217	47790.09
563.579	48001.61
563.941	48259
564.304	48349.84
564.666	48634.36
565.028	48650.85
565.39	48835.03
565.753	48921.35
566.115	49105.53
566.477	49255.36
566.839	49463.04
567.201	49565.63
567.563	49667.32
567.925	49817.15
568.287	49872.29
568.648	49996.35
569.01	50258.49
569.372	50512.95
569.734	50352.28
570.095	50683.57
570.457	50763.79
570.819	50793.4
571.18	50834.98
571.542	51045.37
571.903	51112.94
572.265	51316.55
572.626	51376.88
572.987	51489.42
573.349	51575.07
573.71	51742.98
574.071	51795.4
574.432	51920.15
574.794	52024.32
575.155	52037.66
575.516	51997.66
575.877	52234.04
576.238	52264.77
576.599	52395.61
576.96	52425.67
577.32	52503.41
577.681	52646.68
578.042	52805.32
578.403	52713.8
578.763	52765.32
579.124	52831.76
579.485	52993.56
579.845	53063.62
580.206	53003.28
580.566	53002.38
580.927	53114.69
581.287	53230.85
581.648	53103.39
582.008	53238.53
582.368	53236.95
582.728	53295.25
583.089	53294.57
583.449	53255.03
583.809	53360.11
584.169	53462.93
584.529	53416.38
584.889	53657.95
585.249	53380.45
585.609	53382.48
585.969	53635.36
586.329	53517.17
586.688	53570.95
587.048	53557.39
587.408	53528.24
587.768	53534.11
588.127	53649.59
588.487	53565.98
588.846	53791.28
589.206	53574.57
589.565	53721.45
589.925	53765.52
590.284	53663.15
590.643	53765.3
591.003	53842.81
591.362	53953.09
591.721	53937.04
592.08	53788.8
592.44	53911.05
592.799	53993.31
593.158	53885.07
593.517	53930.94
593.876	54052.97
594.235	54022.46
594.593	53967.55
594.952	54040.09
595.311	53976.82
595.67	54029.7
596.029	54177.26
596.387	54239.41
596.746	54353.08
597.104	54085.51
597.463	54156.92
597.822	54377.03
598.18	54099.52
598.538	54213.87
598.897	54330.93
599.255	54151.73
599.613	54574.99
599.972	54346.07
600.33	54388.78
600.688	54299.52
601.046	54485.05
601.404	54549.23
601.762	54446.18
602.12	54556.01
602.478	54551.04
602.836	54579.74
603.194	54424.49
603.552	54599.62
603.91	54561.66
604.268	54563.24
604.625	54568.44
604.983	54699.73
605.341	54654.31
605.698	54746.29
606.056	54683.92
606.413	54706.06
606.771	54876.45
607.128	54856.79
607.485	54778.38
607.843	54757.36
608.2	54932.72
608.557	55020.4
608.914	54915.1
609.272	55059.95
609.629	55063.79
609.986	55172.04
610.343	55013.4
610.7	55247.74
611.057	55173.85
611.414	55149.67
611.771	55223.56
612.127	55254.75
612.484	55256.1
612.841	55261.3
613.198	55264.01
613.554	55262.66
613.911	55476.66
614.267	55444.8
614.624	55370.45
614.98	55351.69
615.337	55541.29
615.693	55478.24
616.05	55412.94
616.406	55604.8
616.762	55498.81
617.118	55476.89
617.475	55515.98
617.831	55605.7
618.187	55568.86
618.543	55559.37
618.899	55741.06
619.255	55682.08
619.611	55695.19
619.967	55755.53
620.323	55822.19
620.678	55699.26
621.034	55666.26
621.39	55636.88
621.746	55652.25
622.101	55933.15
622.457	55708.3
622.812	55738.58
623.168	55812.7
623.523	55910.78
623.879	55905.8
624.234	55701.06
624.589	55851.57
624.945	55861.96
625.3	55861.51
625.655	55793.72
626.01	55794.62
626.365	55883.43
626.72	55805.47
627.075	55851.57
627.43	55800.04
627.785	55738.35
628.14	55823.77
628.495	55799.37
628.85	55899.48
629.205	55714.85
629.559	55875.3
629.914	55742.64
630.269	55861.74
630.623	55731.57
630.978	55747.62
631.332	55869.42
631.687	55817.9
632.041	55755.07
632.396	55777.22
632.75	55686.37
633.104	55589.65
633.459	55647.96
633.813	55636.66
634.167	55743.55
634.521	55672.36
634.875	55630.33
635.229	55617
635.583	55505.36
635.937	55512.14
636.291	55524.35
636.645	55548.75
636.999	55466.27
637.352	55558.02
637.706	55364.12
638.06	55509.2
638.413	55425.14
638.767	55341.98
639.121	55402.99
639.474	55232.15
639.828	55281.19
640.181	55361.86
640.534	55428.3
640.888	55284.58
641.241	55144.92
641.594	55231.25
641.947	55376.1
642.301	55172.49
642.654	55207.74
643.007	55228.99
643.36	55166.84
643.713	55135.65
644.066	55208.65
644.419	54991.7
644.771	54892.95
645.124	54582.45
645.477	54530.02
645.83	54433.98
646.182	54371.16
646.535	54189.46
646.888	54324.15
647.24	54190.82
647.593	54412.96
647.945	54297.48
648.298	54168.22
648.65	54120.54
649.002	54014.55
649.355	54141.1
649.707	54117.83
650.059	54226.98
650.411	54602.11
650.763	54567.53
651.115	54835.55
651.467	54789.9
651.819	54789.68
652.171	54680.07
652.523	54758.49
652.875	54677.81
653.227	54628.1
653.578	54801.65
653.93	54680.07
654.282	54604.14
654.633	54551.94
654.985	54591.26
655.337	54551.72
655.688	54504.03
656.039	54621.54
656.391	54422.68
656.742	54487.31
657.094	54459.74
657.445	54587.19
657.796	54546.97
658.147	54523.02
658.498	54499.97
658.849	54521.43
659.2	54488.89
659.551	54393.98
659.902	54443.02
660.253	54444.6
660.604	54475.79
660.955	54344.04
661.306	54494.77
661.656	54357.6
662.007	54361.66
662.358	54410.25
662.708	54362.79
663.059	54301.1
663.409	54153.76
663.76	54281.67
664.11	54355.56
664.461	54331.83
664.811	54365.73
665.161	54334.09
665.511	54258.16
665.862	54240.09
666.212	54279.86
666.562	54251.61
666.912	54178.39
667.262	54079.86
667.612	54129.13
667.962	54161.9
668.312	54121.22
668.662	54214.78
669.011	54140.2
669.361	54113.31
669.711	54117.6
670.06	54044.38
670.41	53985.4
670.76	53987.89
671.109	54090.71
671.459	54022.01
671.808	53880.55
672.157	53978.85
672.507	53756.48
672.856	53772.07
673.205	53862.69
673.554	53829.7
673.904	53846.42
674.253	53939.3
674.602	53820.89
674.951	53346.32
675.3	53183.39
675.649	53652.3
675.998	53622.93
676.346	53596.26
676.695	53757.39
677.044	53452.99
677.393	53604.62
677.741	53627.22
678.09	53546.77
678.438	53430.61
678.787	53470.61
679.135	53468.58
679.484	53258.64
679.832	53295.7
680.181	53062.94
680.529	53296.38
680.877	53154.92
681.225	53113.34
681.573	53248.25
681.922	52978.88
682.27	52990.17
682.618	52978.42
682.966	52949.95
683.314	52879.22
683.661	52788.37
684.009	52754.25
684.357	52648.04
684.705	52614.82
685.053	52598.32
685.4	52516.74
685.748	52476.74
686.095	52356.74
686.443	52279.68
686.79	52153.36
687.138	52182.96
687.485	52099.58
687.832	52060.03
688.18	52121.95
688.527	51779.81
688.874	51845.35
689.221	51785.69
689.568	51729.64
689.915	51533.94
690.262	51551.34
690.609	51442.87
690.956	51388.86
691.303	51422.76
691.65	51123.33
691.997	51115.42
692.344	50905.03
692.69	50894.18
693.037	50889.89
693.383	50620.07
693.73	50726.28
694.077	50527.41
694.423	50519.73
694.769	50449.22
695.116	50301.88
695.462	50290.58
695.808	50118.16
696.155	50178.5
696.501	49839.75
696.847	49839.3
697.193	49719.98
697.539	49750.71
697.885	49542.13
698.231	49524.5
698.577	49468.23
698.923	49359.08
699.269	49087.68
699.614	48950.28
699.96	48934.69
700.306	48880.23
700.651	48666.9
700.997	48590.74
701.342	48644.07
701.688	48580.12
702.033	48406.11
702.379	48381.26
702.724	48245.67
703.069	48459.45
703.415	47883.42
703.76	47823.98
704.105	47925.9
704.45	47757.09
704.795	47564.78
705.14	47536.08
705.485	47444.11
705.83	47350.1
706.175	47425.35
706.52	47225.13
706.865	46983.1
707.209	47014.51
707.554	46854.52
707.899	47033.49
708.243	46687.29
708.588	46702.2
708.932	46439.39
709.277	46417.92
709.621	46477.8
709.966	46109.9
710.31	46210.01
710.654	45908.55
710.998	45955.78
711.342	46035.1
711.687	45869.46
712.031	45726.18
712.375	45595.57
712.719	45722.12
713.063	45486.64
713.407	45670.82
713.75	45386.08
714.094	45409.81
714.438	45197.16
714.782	45221.11
715.125	44958.07
715.469	45035.58
715.812	44920.56
716.156	44774.57
716.499	44686.66
716.843	44713.1
717.186	44517.63
717.53	44684.18
717.873	44574.35
718.216	44410.51
718.559	44306.79
718.902	43967.36
719.246	44205.32
719.589	43941.15
719.932	43935.95
720.275	44014.82
720.617	43858.44
720.96	43750.19
721.303	43695.5
721.646	43863.86
721.989	43501.84
722.331	43656.41
722.674	43462.29
723.016	43555.85
723.359	43372.12
723.701	43445.34
724.044	43034.96
724.386	43038.12
724.729	43172.58
725.071	42992.25
725.413	43077.44
725.755	42940.95
726.097	42810.33
726.439	42475.87
726.782	42645.81
727.124	42784.12
727.465	42533.5
727.807	42449.89
728.149	42460.96
728.491	42278.37
728.833	42424.12
729.175	42256.67
729.516	42161.53
729.858	42122.21
730.199	42183.23
730.541	42092.83
730.882	41844.48
731.224	42067.07
731.565	41804.93
731.906	41784.82
732.248	41874.99
732.589	41671.15
732.93	41469.35
733.271	41511.61
733.612	41602
733.953	41526.3
734.294	41412.4
734.635	41255.57
734.976	41356.13
735.317	41161.33
735.658	41134.44
735.999	41082.69
736.339	41053.09
736.68	41061.22
737.021	40873.43
737.361	40781.91
737.702	40934.45
738.042	40828.46
738.383	40619.43
738.723	40783.26
739.063	40644.06
739.404	40666.66
739.744	40556.38
740.084	40410.84
740.424	40506.66
740.764	40310.51
741.104	40317.74
741.444	40219.66
741.784	40203.62
742.124	40158.87
742.464	40227.57
742.804	40104.64
743.143	40033.45
743.483	40045.66
743.823	39697.87
744.162	39797.98
744.502	39949.84
744.841	39774.48
745.181	39822.16
745.52	39636.4
745.86	39837.07
746.199	39483.19
746.538	39562.5
746.877	39767.47
747.216	39543.97
747.556	39386.69
747.895	39404.77
748.234	39237.54
748.573	39161.16
748.911	39192.35
749.25	39015.4
749.589	39041.16
749.928	38943.09
750.267	39043.65
750.605	38930.43
750.944	38715.3
751.283	38607.5
751.621	38713.71
751.96	38436.21
752.298	38445.02
752.636	38400.28
