Data from whiteboard_FLMS001491_00064.txt Node
Date: Wed Feb 08 11:27:29 GMT 2017
User: dcchb
Spectrometer: FLMS00149
Trigger mode: 0
Integration Time (sec): 2.000000E-2
Scans to average: 10
Electric dark correction enabled: true
Nonlinearity correction enabled: false
Boxcar width: 0
XAxis mode: Wavelengths
Number of Pixels in Spectrum: 2048
>>>>>Begin Spectral Data<<<<<
341.393	-17.6
341.776	-17.6
342.16	-17.6
342.543	-55.11
342.927	-67.09
343.31	-60.08
343.693	-82.68
344.077	-89.01
344.46	-42
344.843	-59.86
345.226	-38.84
345.61	-27.99
345.993	-6.3
346.376	14.94
346.759	9.97
347.142	21.72
347.525	33.47
347.908	67.15
348.291	60.14
348.674	80.7
349.057	118.67
349.44	109.63
349.823	141.04
350.206	160.48
350.588	235.95
350.971	249.29
351.354	264.65
351.737	277.54
352.119	271.89
352.502	269.85
352.884	297.65
353.267	296.97
353.65	336.52
354.032	338.78
354.414	348.04
354.797	345.56
355.179	361.37
355.562	350.98
355.944	355.95
356.326	353.92
356.709	358.66
357.091	363.86
357.473	356.86
357.855	378.78
358.238	383.3
358.62	389.62
359.002	383.75
359.384	390.98
359.766	362.05
360.148	383.97
360.53	365.89
360.912	381.94
361.294	385.1
361.676	360.7
362.057	368.38
362.439	363.63
362.821	383.07
363.203	363.18
363.584	360.47
363.966	361.6
364.348	364.09
364.729	370.19
365.111	381.26
365.493	372
365.874	360.7
366.256	373.8
366.637	369.06
367.019	367.93
367.4	355.95
367.781	370.87
368.163	372.22
368.544	369.28
368.925	361.15
369.306	366.35
369.688	382.39
370.069	364.76
370.45	350.08
370.831	359.79
371.212	376.97
371.593	379.23
371.974	381.71
372.355	387.36
372.736	381.26
373.117	394.59
373.498	392.79
373.879	381.94
374.26	377.19
374.641	376.97
375.021	376.97
375.402	385.78
375.783	386.46
376.163	433.24
376.544	388.27
376.925	383.3
377.305	391.88
377.686	430.07
378.066	409.28
378.447	409.28
378.827	406.12
379.208	430.98
379.588	405.67
379.968	420.36
380.349	429.4
380.729	400.24
381.109	406.8
381.489	433.92
381.87	451.32
382.25	430.3
382.63	459.68
383.01	441.37
383.39	440.47
383.77	446.8
384.15	472.11
384.53	479.56
384.91	451.54
385.29	500.58
385.67	470.98
386.049	472.33
386.429	475.5
386.809	494.03
387.189	505.55
387.568	498.77
387.948	518.66
388.328	536.96
388.707	515.72
389.087	544.87
389.466	541.71
389.846	538.09
390.225	563.4
390.605	550.75
390.984	568.83
391.363	555.72
391.743	581.26
392.122	582.16
392.501	597.75
392.881	593.91
393.26	590.75
393.639	619.9
394.018	632.1
394.397	623.97
394.776	621.03
395.155	633.46
395.534	633.68
395.913	677.98
396.292	656.28
396.671	697.86
397.05	687.02
397.429	689.05
397.808	699.67
398.186	714.59
398.565	725.66
398.944	722.04
399.323	755.94
399.701	705.77
400.08	766.56
400.458	787.35
400.837	783.96
401.215	811.53
401.594	804.3
401.972	815.15
402.351	833
402.729	844.3
403.107	865.99
403.486	889.27
403.864	882.26
404.242	896.95
404.62	908.48
404.999	914.58
405.377	943.51
405.755	1005.2
406.133	977.86
406.511	1007.69
406.889	1029.83
407.267	1039.1
407.645	1068.47
408.023	1088.59
408.401	1111.41
408.779	1126.33
409.156	1151.41
409.534	1176.95
409.912	1194.12
410.29	1213.33
410.667	1251.07
411.045	1246.1
411.422	1305.76
411.8	1298.07
412.178	1324.97
412.555	1352.76
412.933	1372.65
413.31	1385.3
413.687	1446.54
414.065	1439.76
414.442	1453.78
414.819	1477.28
415.197	1523.6
415.574	1565.64
415.951	1571.06
416.328	1608.8
416.705	1597.95
417.082	1627.78
417.46	1676.14
417.837	1679.76
418.214	1694.22
418.591	1742.13
418.967	1721.79
419.344	1758.85
419.721	1793.43
420.098	1784.16
420.475	1822.35
420.852	1816.25
421.228	1833.43
421.605	1895.57
421.982	1930.82
422.358	1900.54
422.735	2000.88
423.111	1972.63
423.488	2004.95
423.864	2029.81
424.241	2064.61
424.617	2110.71
424.994	2136.02
425.37	2135.57
425.746	2160.2
426.123	2188.67
426.499	2216.24
426.875	2266.41
427.251	2284.49
427.627	2346.41
428.003	2383.24
428.379	2368.55
428.756	2446.52
429.132	2439.74
429.507	2529.45
429.883	2524.03
430.259	2587.53
430.635	2601.99
431.011	2634.76
431.387	2707.3
431.763	2731.03
432.138	2745.49
432.514	2822.55
432.89	2830.01
433.265	2848.09
433.641	2918.14
434.016	2978.03
434.392	3002.89
434.767	3047.18
435.143	3055.99
435.518	3124.69
435.894	3179.83
436.269	3196.78
436.644	3259.38
437.02	3259.6
437.395	3314.07
437.77	3319.49
438.145	3386.61
438.52	3441.07
438.895	3432.71
439.271	3474.06
439.646	3617.33
440.021	3575.53
440.395	3647.16
440.77	3642.64
441.145	3649.42
441.52	3737.56
441.895	3737.33
442.27	3749.99
442.645	3784.34
443.019	3887.38
443.394	3863.88
443.769	3938.46
444.143	3890.1
444.518	3982.75
444.892	3925.57
445.267	4021.17
445.641	4044.67
446.016	4029.07
446.39	4117.21
446.764	4169.64
447.139	4112.01
447.513	4177.09
447.887	4180.03
448.262	4242.4
448.636	4249.63
449.01	4299.8
449.384	4359.24
449.758	4417.77
450.132	4432.91
450.506	4487.14
450.88	4526.46
451.254	4511.32
451.628	4633.8
452.002	4696.18
452.376	4704.76
452.75	4802.84
453.123	4839.22
453.497	4943.4
453.871	4943.4
454.244	5046.45
454.618	5051.65
454.992	5141.59
455.365	5186.78
455.739	5342.26
456.112	5407.12
456.486	5447.12
456.859	5494.12
457.232	5648.47
457.606	5548.81
457.979	5648.92
458.352	5795.58
458.725	5827.9
459.099	5898.63
459.472	6022.47
459.845	6063.6
460.218	6124.61
460.591	6170.49
460.964	6189.02
461.337	6390.82
461.71	6452.97
462.083	6588.56
462.456	6600.53
462.829	6572.51
463.201	6762.79
463.574	6784.03
463.947	6847.53
464.32	7124.81
464.692	7121.87
465.065	7186.96
465.438	7284.13
465.81	7479.83
466.183	7511.7
466.555	7736.32
466.928	7833.49
467.3	7775.19
467.672	7928.18
468.045	8090.66
468.417	8149.64
468.789	8228.96
469.161	8431.9
469.534	8498.11
469.906	8731.32
470.278	8690.65
470.65	8791.44
471.022	9013.12
471.394	9160.92
471.766	9281.37
472.138	9381.48
472.51	9520
472.882	9669.83
473.253	9788.47
473.625	9907.11
473.997	10173.55
474.369	10151.63
474.74	10324.28
475.112	10549.81
475.484	10712.29
475.855	10969.23
476.227	11001.55
476.598	11336.23
476.97	11410.8
477.341	11704.81
477.713	11871.13
478.084	11994.74
478.455	12358.12
478.827	12458.68
479.198	12845.79
479.569	12885.57
479.94	13234.71
480.311	13394.25
480.682	13716.28
481.053	13836.95
481.424	14236.49
481.795	14351.74
482.166	14585.41
482.537	14823.59
482.908	15127.99
483.279	15272.85
483.65	15508.77
484.021	15892.27
484.391	16116.21
484.762	16278.92
485.133	16427.84
485.503	16576.09
485.874	16899.47
486.244	17198.45
486.615	17401.6
486.985	17690.64
487.356	18035.94
487.726	18098.76
488.097	18531.74
488.467	18514.34
488.837	19014.9
489.207	19243.36
489.578	19420.99
489.948	19565.84
490.318	20008.32
490.688	19974.42
491.058	20305.03
491.428	20554.74
491.798	20836.32
492.168	21256.19
492.538	21342.07
492.908	21643.07
493.278	21969.85
493.648	21967.36
494.017	22253.23
494.387	22446.67
494.757	22734.35
495.126	22914.23
495.496	23002.59
495.866	23105.41
496.235	23481.22
496.605	23699.74
496.974	23862.23
497.344	24011.6
497.713	24184.48
498.082	24288.88
498.452	24643.45
498.821	24805.7
499.19	24893.84
499.559	25023.78
499.928	25257.44
500.298	25455.63
500.667	25698.56
501.036	25698.11
501.405	26018.55
501.774	26136.29
502.143	26339
502.512	26476.85
502.88	26793.22
503.249	26799.78
503.618	27009.26
503.987	27246.54
504.356	27398.18
504.724	27484.96
505.093	27630.94
505.462	27786.87
505.83	28073.87
506.199	28307.31
506.567	28703.23
506.936	28677.24
507.304	28951.58
507.672	29077.23
508.041	29113.39
508.409	29541.62
508.777	29693.48
509.145	30088.95
509.514	30027.71
509.882	30267.71
510.25	30339.34
510.618	30561.26
510.986	30779.78
511.354	31019.33
511.722	31176.84
512.09	31639.65
512.458	31556.03
512.826	32002.35
513.193	32075.57
513.561	32138.62
513.929	32426.97
514.297	32763.46
514.664	32959.16
515.032	33070.12
515.4	33339.72
515.767	33514.18
516.135	33570.9
516.502	33533.61
516.869	34300.6
517.237	34354.38
517.604	34321.39
517.972	34805.89
518.339	35152.78
518.706	35194.13
519.073	35468.7
519.44	35659.66
519.808	36098.74
520.175	36101.68
520.542	36553.64
520.909	36677.03
521.276	36867.76
521.643	37263.46
522.009	37493.73
522.376	37740.73
522.743	37922.65
523.11	38464.33
523.477	38740.93
523.843	38899.12
524.21	39339.33
524.577	39737.06
524.943	39808.93
525.31	40109.26
525.676	40495.91
526.043	40637.38
526.409	40978.39
526.776	41307.19
527.142	41334.53
527.508	41643.23
527.874	42024.69
528.241	42064.91
528.607	42098.58
528.973	42622.64
529.339	42654.05
529.705	43015.39
530.071	43242.51
530.437	43414.93
530.803	43597.53
531.169	43875.94
531.535	43849.5
531.901	44119.09
532.267	44354.79
532.632	44542.81
532.998	44638.18
533.364	44874.78
533.73	44973.08
534.095	45386.18
534.461	45491.94
534.826	45784.81
535.192	45876.79
535.557	46198.81
535.923	46143.9
536.288	46347.06
536.653	46552.48
537.019	46540.05
537.384	46673.15
537.749	46968.74
538.114	46963.31
538.479	47148.62
538.845	47336.86
539.21	47399.91
539.575	47677.42
539.94	47829.96
540.305	47927.81
540.67	48030.18
541.034	48233.34
541.399	48377.51
541.764	48441.01
542.129	48607.79
542.494	48798.75
542.858	48880.78
543.223	49103.37
543.587	49354.44
543.952	49231.28
544.316	49452.74
544.681	49384.04
545.045	49638.95
545.41	49924.59
545.774	49913.52
546.138	49937.7
546.503	50170.23
546.867	50192.61
547.231	50456.78
547.595	50508.76
547.959	50575.65
548.324	50786.72
548.688	50814.06
549.052	50862.87
549.416	51019.93
549.779	50940.38
550.143	51111.45
550.507	51220.6
550.871	51391.9
551.235	51341.96
551.599	51534.04
551.962	51646.58
552.326	51796.86
552.689	51919.12
553.053	51694.26
553.417	51869.62
553.78	52277.52
554.143	52173.8
554.507	52315.94
554.87	52364.75
555.234	52787.34
555.597	52522.72
555.96	52709.6
556.323	52882.48
556.686	52924.29
557.05	53037.73
557.413	53138.74
557.776	53196.82
558.139	53399.98
558.502	53508.45
558.865	53581.22
559.228	53727.66
559.59	53816.47
559.953	53976.46
560.316	54272.05
560.679	54149.34
561.041	54415.77
561.404	54511.82
561.767	54714.3
562.129	54659.61
562.492	54975.76
562.854	54987.73
563.217	55077.45
563.579	55275.41
563.941	55465.91
564.304	55501.85
564.666	55790.2
565.028	55776.41
565.39	55942.74
565.753	56039.01
566.115	56177.08
566.477	56275.84
566.839	56426.12
567.201	56476.06
567.563	56551.31
567.925	56722.15
568.287	56753.79
568.648	56866.33
569.01	56978.19
569.372	57124.4
569.734	57044.18
570.095	57254.12
570.457	57312.87
570.819	57335.24
571.18	57300.67
571.542	57470.83
571.903	57395.36
572.265	57551.28
572.626	57668.79
572.987	57660.21
573.349	57763.48
573.71	57811.39
574.071	57914.89
574.432	57935
574.794	58055
575.155	58000.76
575.516	57946.53
575.877	58067.88
576.238	58102
576.599	58113.53
576.96	58137.71
577.32	58193.53
577.681	58309.46
578.042	58313.52
578.403	58317.36
578.763	58340.42
579.124	58377.93
579.485	58479.39
579.845	58481.88
580.206	58437.81
580.566	58471.49
580.927	58448.43
581.287	58543.57
581.648	58503.35
582.008	58620.41
582.368	58610.01
582.728	58618.83
583.089	58661.76
583.449	58660.63
583.809	58667.86
584.169	58779.27
584.529	58773.17
584.889	58932.26
585.249	58843.68
585.609	58767.75
585.969	58985.37
586.329	58970.46
586.688	58995.99
587.048	59024.46
587.408	59015.43
587.768	59030.11
588.127	59106.27
588.487	59109.43
588.846	59220.39
589.206	59090.23
589.565	59168.64
589.925	59273.5
590.284	59283.67
590.643	59362.54
591.003	59279.83
591.362	59385.81
591.721	59366.15
592.08	59375.42
592.44	59391.23
592.799	59454.51
593.158	59364.34
593.517	59410.22
593.876	59402.31
594.235	59243.67
594.593	59329.77
594.952	59409.99
595.311	59299.26
595.67	59358.92
596.029	59492.48
596.387	59337.9
596.746	59403.89
597.104	59212.93
597.463	59273.27
597.822	59353.5
598.18	59185.59
598.538	59094.75
598.897	59254.29
599.255	59088.42
599.613	59416.55
599.972	59199.38
600.33	59199.15
600.688	59004.13
601.046	59181.75
601.404	59294.51
601.762	59169.55
602.12	59272.37
602.478	59227.17
602.836	59234.4
603.194	59103.78
603.552	59168.64
603.91	59067.85
604.268	59186.27
604.625	59213.84
604.983	59259.94
605.341	59134.52
605.698	59339.94
606.056	59437.56
606.413	59323.89
606.771	59423.1
607.128	59458.58
607.485	59402.53
607.843	59503.1
608.2	59612.7
608.557	59693.83
608.914	59647.05
609.272	59771.79
609.629	59856.76
609.986	59941.5
610.343	59812.92
610.7	59999.81
611.057	59912.8
611.414	59980.37
611.771	60001.16
612.127	60159.35
612.484	60146.92
612.841	60260.36
613.198	60187.37
613.554	60274.83
613.911	60363.41
614.267	60361.15
614.624	60402.28
614.98	60448.16
615.337	60547.81
615.693	60501.26
616.05	60488.61
616.406	60624.87
616.762	60554.37
617.118	60581.71
617.475	60543.97
617.831	60675.95
618.187	60579
618.543	60624.87
618.899	60754.14
619.255	60702.16
619.611	60661.26
619.967	60694.03
620.323	60741.03
620.678	60609.51
621.034	60530.64
621.39	60513.01
621.746	60489.96
622.101	60685.89
622.457	60495.39
622.812	60501.49
623.168	60555.5
623.523	60492.67
623.879	60588.72
624.234	60372.23
624.589	60411.1
624.945	60401.83
625.3	60418.55
625.655	60302.4
626.01	60232.79
626.365	60299.23
626.72	60218.78
627.075	60192.34
627.43	60159.8
627.785	60132.01
628.14	60147.37
628.495	60155.28
628.85	60101.05
629.205	60013.82
629.559	60209.07
629.914	60039.58
630.269	60127.49
630.623	59967.72
630.978	59935.63
631.332	60078.67
631.687	60128.39
632.041	59986.25
632.396	60034.61
632.75	59899.92
633.104	59977.66
633.459	59838.91
633.813	59853.14
634.167	59838.23
634.521	59858.57
634.875	59831.68
635.229	59824.44
635.583	59731.57
635.937	59855.63
636.291	59859.92
636.645	59810.43
636.999	59801.39
637.352	59917.32
637.706	59759.13
638.06	59852.92
638.413	59870.32
638.767	59690.89
639.121	59838.68
639.474	59712.81
639.828	59755.97
640.181	59781.06
640.534	59792.35
640.888	59728.85
641.241	59633.49
641.594	59782.41
641.947	59828.51
642.301	59728.63
642.654	59768.4
643.007	59741.28
643.36	59720.27
643.713	59630.32
644.066	59739.47
644.419	59579.48
644.771	59455.41
645.124	59258.36
645.477	59212.48
645.83	58983.56
646.182	58913.96
646.535	58715.55
646.888	58699.05
647.24	58622.22
647.593	58736.79
647.945	58597.36
648.298	58572.27
648.65	58397.36
649.002	58308.1
649.355	58465.61
649.707	58404.82
650.059	58502.44
650.411	58759.84
650.763	58607.53
651.115	58894.3
651.467	58794.87
651.819	58724.59
652.171	58691.82
652.523	58601.2
652.875	58563.01
653.227	58433.07
653.578	58636
653.93	58488.21
654.282	58440.07
654.633	58304.94
654.985	58352.39
655.337	58333.64
655.688	58329.57
656.039	58364.6
656.391	58170.02
656.742	58106.3
657.094	58127.99
657.445	58226.29
657.796	58150.14
658.147	58091.38
658.498	58056.81
658.849	58087.31
659.2	58067.2
659.551	57944.95
659.902	58074.66
660.253	57982.23
660.604	58141.78
660.955	57872.4
661.306	57961.22
661.656	57944.72
662.007	58058.16
662.358	58118.27
662.708	57912.63
663.059	58016.13
663.409	57835.34
663.76	58031.27
664.11	58020.42
664.461	58076.47
664.811	58016.13
665.161	57955.11
665.511	57978.39
665.862	58058.39
666.212	58081.89
666.562	58062.91
666.912	57994.89
667.262	58045.96
667.612	58070.14
667.962	58010.93
668.312	58003.47
668.662	58158.95
669.011	58077.15
669.361	58061.1
669.711	58009.58
670.06	57954.66
670.41	57963.02
670.76	57944.49
671.109	57973.87
671.459	57905.85
671.808	57863.37
672.157	57967.32
672.507	57792.41
672.856	57726.87
673.205	57788.11
673.554	57889.58
673.904	57758.51
674.253	57900.2
674.602	57772.07
674.951	57337.28
675.3	57248.92
675.649	57615.69
675.998	57680.09
676.346	57669.02
676.695	57754.89
677.044	57490.95
677.393	57513.54
677.741	57626.76
678.09	57434.68
678.438	57441.91
678.787	57381.12
679.135	57345.41
679.484	57147
679.832	57170.05
680.181	57100.22
680.529	57133.67
680.877	57094.57
681.225	56992.65
681.573	57067.68
681.922	56884.63
682.27	56748.14
682.618	56779.78
682.966	56578.65
683.314	56602.61
683.661	56516.06
684.009	56403.06
684.357	56292.56
684.705	56386.34
685.053	56352.22
685.4	56279.23
685.748	56173.01
686.095	56137.31
686.443	56079.91
686.79	55971.44
687.138	55980.93
687.485	55931.89
687.832	55861.16
688.18	55939.8
688.527	55827.03
688.874	55784.1
689.221	55661.16
689.568	55550.66
689.915	55546.36
690.262	55564.44
690.609	55482.64
690.956	55365.58
691.303	55338.69
691.65	55194.96
691.997	55215.53
692.344	55073.61
692.69	55075.19
693.037	55029.09
693.383	54857.12
693.73	54876.33
694.077	54820.96
694.423	54808.76
694.769	54710.23
695.116	54681.53
695.462	54596.33
695.808	54584.58
696.155	54679.49
696.501	54458.26
696.847	54382.33
697.193	54201.54
697.539	54420.52
697.885	54174.65
698.231	54020.3
698.577	54050.81
698.923	54070.47
699.269	53948.89
699.614	53832.06
699.96	53745.51
700.306	53702.35
700.651	53494.21
700.997	53465.52
701.342	53372.41
701.688	53387.55
702.033	53274.79
702.379	53165.64
702.724	53136.71
703.069	53216.03
703.415	52861.69
703.76	52924.74
704.105	52797.74
704.45	52656.72
704.795	52622.83
705.14	52572.21
705.485	52454.69
705.83	52237.52
706.175	52303.06
706.52	52302.38
706.865	52050.86
707.209	52102.39
707.554	51955.5
707.899	51999.56
708.243	51781.72
708.588	51647.48
708.932	51412.69
709.277	51346.7
709.621	51324.1
709.966	51118.23
710.31	51245.46
710.654	50864.91
710.998	50889.09
711.342	50777.22
711.687	50699.26
712.031	50565.48
712.375	50354.64
712.719	50433.73
713.063	50340.17
713.407	50421.3
713.75	50169.1
714.094	50192.38
714.438	49929.34
714.782	49996.23
715.125	49817.48
715.469	49865.84
715.812	49705.84
716.156	49511.95
716.499	49452.29
716.843	49478.05
717.186	49149.47
717.53	49314.44
717.873	49219.3
718.216	49193.09
718.559	49015.01
718.902	48764.62
719.246	48828.57
719.589	48749.71
719.932	48586.1
720.275	48575.47
720.617	48487.34
720.96	48367.57
721.303	48458.42
721.646	48466.32
721.989	48150.63
722.331	48290.28
722.674	48277.63
723.016	48217.97
723.359	48028.14
723.701	48187.91
724.044	47893.68
724.386	47730.07
724.729	47890.52
725.071	47734.14
725.413	47766.46
725.755	47702.28
726.097	47601.49
726.439	47353.13
726.782	47461.38
727.124	47676.74
727.465	47444.43
727.807	47349.52
728.149	47392.23
728.491	47168.51
728.833	47273.59
729.175	47120.6
729.516	47222.06
729.858	47150.65
730.199	46999.92
730.541	47079.24
730.882	46906.59
731.224	47088.51
731.565	46772.13
731.906	46856.2
732.248	46967.61
732.589	46690.55
732.93	46598.58
733.271	46617.56
733.612	46688.07
733.953	46609.88
734.294	46478.58
734.635	46345.02
734.976	46458.24
735.317	46157.91
735.658	46313.84
735.999	46292.6
736.339	46003.11
736.68	46160.4
737.021	45955.88
737.361	45859.39
737.702	46004.02
738.042	45768.09
738.383	45549.79
738.723	45637.02
739.063	45493.52
739.404	45547.76
739.744	45362.45
740.084	45100.31
740.424	45276.35
740.764	45013.53
741.104	45125.62
741.444	44861
741.784	44653.77
742.124	44684.28
742.464	44578.74
742.804	44477.05
743.143	44375.13
743.483	44375.81
743.823	44118.64
744.162	44021.47
744.502	44240.9
744.841	43801.14
745.181	43873
745.52	43614.7
745.86	43756.84
746.199	43500.13
746.538	43487.25
746.877	43436.17
747.216	43281.15
747.556	43047.71
747.895	43099.46
748.234	42885.91
748.573	42822.18
748.911	42795.51
749.25	42739.02
749.589	42389.87
749.928	42350.1
750.267	42494.5
750.605	42328.18
750.944	42178.58
751.283	42012.71
751.621	41938.81
751.96	41806.84
752.298	41813.17
752.636	41833.5
