Data from White_reflection_standard_FLMS001491_066.txt Node
Date: Tue Feb 07 10:32:08 GMT 2017
User: dcchb
Spectrometer: FLMS00149
Trigger mode: 0
Integration Time (sec): 2.000000E-2
Scans to average: 10
Electric dark correction enabled: true
Nonlinearity correction enabled: false
Boxcar width: 0
XAxis mode: Wavelengths
Number of Pixels in Spectrum: 2048
>>>>>Begin Spectral Data<<<<<
341.393	7.53
341.776	7.53
342.16	7.53
342.543	-58.68
342.927	-77.44
343.31	-57.78
343.693	-52.13
344.077	-79.02
344.46	-81.74
344.843	-52.36
345.226	-36.99
345.61	-23.66
345.993	-6.03
346.376	-13.04
346.759	19.28
347.142	29.22
347.525	16.57
347.908	57.7
348.291	76.23
348.674	103.57
349.057	100.18
349.44	141.54
349.823	154.19
350.206	169.33
350.588	255.66
350.971	243.91
351.354	294.98
351.737	272.38
352.119	300.85
352.502	317.58
352.884	312.38
353.267	300.85
353.65	345.37
354.032	358.25
354.414	332.94
354.797	363.9
355.179	355.32
355.562	386.95
355.944	384.47
356.326	380.17
356.709	393.73
357.091	383.56
357.473	414.07
357.855	402.55
358.238	386.95
358.62	408.2
359.002	413.85
359.384	416.56
359.766	406.84
360.148	412.26
360.53	400.06
360.912	403.68
361.294	406.61
361.676	407.74
362.057	393.51
362.439	402.55
362.821	393.73
363.203	415.88
363.584	407.97
363.966	414.3
364.348	431.02
364.729	408.2
365.111	422.66
365.493	433.96
365.874	427.63
366.256	424.69
366.637	400.74
367.019	410
367.4	407.29
367.781	412.94
368.163	437.57
368.544	428.76
368.925	421.53
369.306	416.78
369.688	429.66
370.069	435.77
370.45	448.65
370.831	419.49
371.212	438.93
371.593	447.74
371.974	450.23
372.355	432.38
372.736	460.4
373.117	449.1
373.498	441.41
373.879	447.74
374.26	460.17
374.641	435.54
375.021	431.92
375.402	458.82
375.783	471.24
376.163	522.54
376.544	510.34
376.925	503.33
377.305	485.93
377.686	494.52
378.066	484.58
378.447	494.29
378.827	511.47
379.208	502.88
379.588	526.16
379.968	521.19
380.349	542.43
380.729	532.71
381.109	541.53
381.489	520.51
381.87	534.29
382.25	561.41
382.63	543.11
383.01	577.68
383.39	559.15
383.77	560.96
384.15	584.46
384.53	575.65
384.91	603.44
385.29	598.92
385.67	582.65
386.049	608.87
386.429	617.23
386.809	633.5
387.189	608.64
387.568	639.83
387.948	653.39
388.328	657.45
388.707	654.74
389.087	666.95
389.466	676.66
389.846	675.99
390.225	670.11
390.605	683.44
390.984	694.29
391.363	707.4
391.743	711.46
392.122	708.53
392.501	734.06
392.881	735.19
393.26	743.1
393.639	754.85
394.018	779.03
394.397	781.07
394.776	786.26
395.155	772.25
395.534	765.47
395.913	784.23
396.292	809.99
396.671	843.44
397.05	829.43
397.429	861.06
397.808	833.72
398.186	851.12
398.565	869.2
398.944	850.67
399.323	875.3
399.701	904.23
400.08	905.36
400.458	887.5
400.837	917.11
401.215	937.22
401.594	943.1
401.972	934.74
402.351	942.87
402.729	970.44
403.107	996.43
403.486	1005.24
403.864	1003.21
404.242	988.75
404.62	1010.44
404.999	1022.19
405.377	1049.08
405.755	1053.15
406.133	1061.06
406.511	1092.92
406.889	1121.85
407.267	1120.72
407.645	1129.31
408.023	1134.73
408.401	1143.54
408.779	1198.68
409.156	1202.07
409.534	1185.35
409.912	1222.19
410.29	1244.33
410.667	1252.24
411.045	1296.99
411.422	1288.4
411.8	1305.35
412.178	1336.31
412.555	1346.48
412.933	1363.42
413.31	1369.07
413.687	1418.11
414.065	1421.28
414.442	1442.29
414.819	1430.54
415.197	1446.36
415.574	1506.92
415.951	1496.75
416.328	1523.87
416.705	1531.1
417.082	1514.38
417.46	1533.14
417.837	1571.33
418.214	1621.27
418.591	1602.06
418.967	1623.98
419.344	1662.63
419.721	1631.44
420.098	1670.31
420.475	1686.35
420.852	1710.99
421.228	1734.94
421.605	1743.08
421.982	1753.92
422.358	1792.11
422.735	1793.92
423.111	1824.88
423.488	1851.55
423.864	1835.05
424.241	1896.74
424.617	1889.51
424.994	1908.95
425.37	1979.23
425.746	1983.52
426.123	1994.14
426.499	2027.81
426.875	2027.81
427.251	2063.52
427.627	2111.43
428.003	2132.44
428.379	2119.11
428.756	2194.59
429.132	2230.07
429.507	2250.41
429.883	2223.97
430.259	2305.55
430.635	2338.31
431.011	2353.23
431.387	2359.78
431.763	2449.5
432.138	2460.12
432.514	2494.02
432.89	2516.16
433.265	2578.76
433.641	2592.77
434.016	2628.25
434.392	2650.62
434.767	2718.42
435.143	2748.92
435.518	2804.74
435.894	2822.6
436.269	2787.57
436.644	2856.04
437.02	2871.41
437.395	2875.02
437.77	2944.4
438.145	2998.86
438.52	3040.89
438.895	3076.83
439.271	3091.97
439.646	3126.32
440.021	3145.3
440.395	3211.96
440.77	3175.58
441.145	3198.4
441.52	3248.57
441.895	3268.91
442.27	3330.15
442.645	3298.06
443.019	3351.85
443.394	3378.06
443.769	3388.46
444.143	3375.58
444.518	3510.26
444.892	3437.95
445.267	3505.97
445.641	3543.71
446.016	3582.58
446.39	3548.45
446.764	3637.04
447.139	3605.85
447.513	3683.59
447.887	3701.67
448.262	3692.85
448.636	3717.71
449.01	3795.68
449.384	3807.65
449.758	3819.18
450.132	3890.82
450.506	3919.29
450.88	3919.74
451.254	3941.89
451.628	4023.47
452.002	4035.22
452.376	4047.65
452.75	4163.8
453.123	4178.72
453.497	4289.9
453.871	4303.23
454.244	4383.23
454.618	4410.8
454.992	4491.48
455.365	4500.07
455.739	4586.16
456.112	4640.85
456.486	4689.89
456.859	4726.05
457.232	4837.46
457.606	4803.56
457.979	4912.26
458.352	4985.02
458.725	5100.95
459.099	5092.14
459.472	5215.75
459.845	5239.03
460.218	5324.9
460.591	5364.45
460.964	5347.95
461.337	5436.54
461.71	5553.37
462.083	5658.9
462.456	5654.39
462.829	5712.24
463.201	5803.53
463.574	5805.34
463.947	5920.37
464.32	6042.62
464.692	6073.58
465.065	6106.35
465.438	6242.62
465.81	6287.14
466.183	6395.38
466.555	6555.15
466.928	6588.37
467.3	6554.47
467.672	6685.32
468.045	6862.04
468.417	6896.61
468.789	6928.7
469.161	7065.2
469.534	7168.7
469.906	7327.79
470.278	7361.68
470.65	7488.24
471.022	7564.39
471.394	7793.76
471.766	7863.82
472.138	7923.7
472.51	8104.72
472.882	8226.07
473.253	8280.3
473.625	8439.85
473.997	8645.04
474.369	8657.7
474.74	8781.53
475.112	8949.21
475.484	9135.65
475.855	9277.57
476.227	9309.88
476.598	9608.41
476.97	9669.19
477.341	9943.54
477.713	10070.31
478.084	10086.13
478.455	10392.57
478.827	10484.31
479.198	10800.01
479.569	10816.51
479.94	11103.06
480.311	11268.47
480.682	11421.24
481.053	11753.21
481.424	11909.36
481.795	12092.18
482.166	12268.67
482.537	12383.47
482.908	12680.87
483.279	12735.1
483.65	13033.17
484.021	13253.28
484.391	13443.78
484.762	13585.7
485.133	13688.07
485.503	13900.27
485.874	14253.71
486.244	14292.35
486.615	14623.64
486.985	14779.79
487.356	15015.5
487.726	15173
488.097	15530.06
488.467	15581.36
488.837	15921.01
489.207	16168.01
489.578	16358.51
489.948	16472.63
490.318	16695
490.688	16758.5
491.058	17045.27
491.428	17332.95
491.798	17402.32
492.168	17853.39
492.538	17838.25
492.908	18054.96
493.278	18351.23
493.648	18397.33
494.017	18646.81
494.387	18803.64
494.757	18894.72
495.126	19078.89
495.496	19168.38
495.866	19314.59
496.235	19564.75
496.605	19798.42
496.974	19825.54
497.344	20086.55
497.713	20242.02
498.082	20264.17
498.452	20690.15
498.821	20693.31
499.19	20733.08
499.559	20902.35
499.928	21150.47
500.298	21287.65
500.667	21493.29
501.036	21451.71
501.405	21752.94
501.774	21771.7
502.143	21973.5
502.512	22062.32
502.88	22257.34
503.249	22316.32
503.618	22435.64
503.987	22748.85
504.356	22793.6
504.724	22923.76
505.093	23080.82
505.462	23192.91
505.83	23369.17
506.199	23547.7
506.567	23946.33
506.936	23861.36
507.304	24180.9
507.672	24357.17
508.041	24451.18
508.409	24657.95
508.777	24825.86
509.145	24993.99
509.514	24907.21
509.882	25343.13
510.25	25259.75
510.618	25548.55
510.986	25604.14
511.354	25964.81
511.722	26294.97
512.09	26325.93
512.458	26380.85
512.826	26607.73
513.193	26872.81
513.561	27002.98
513.929	27210.43
514.297	27570.87
514.664	27579.91
515.032	27670.76
515.4	27933.8
515.767	28172.89
516.135	28308.48
516.502	28155.04
516.869	28632.09
517.237	28855.81
517.604	28718.19
517.972	29092.86
518.339	29413.53
518.706	29435.23
519.073	29657.37
519.44	29907.53
519.808	30297.35
520.175	30250.12
520.542	30700.05
520.909	30825.47
521.276	30967.39
521.643	31345.91
522.009	31520.82
522.376	31640.14
522.743	31954.71
523.11	32121.03
523.477	32435.83
523.843	32765.31
524.21	32972.31
524.577	33409.59
524.943	33342.92
525.31	33646.64
525.676	33903.36
526.043	34260.64
526.409	34376.57
526.776	34661.08
527.142	34887.74
527.508	34989.43
527.874	35399.59
528.241	35260.84
528.607	35591.68
528.973	35918.45
529.339	36015.39
529.705	36325.44
530.071	36576.51
530.437	36768.14
530.803	36973.11
531.169	37214.46
531.535	37189.83
531.901	37453.78
532.267	37475.02
532.632	37909.36
532.998	37992.29
533.364	38202.46
533.73	38310.25
534.095	38680.41
534.461	38790.92
534.826	38980.06
535.192	38980.51
535.557	39373.95
535.923	39405.14
536.288	39674.28
536.653	39744.79
537.019	39685.81
537.384	39887.16
537.749	40176.87
538.114	40256.64
538.479	40339.57
538.845	40503.86
539.21	40462.96
539.575	40693.24
539.94	41019.78
540.305	41059.56
540.67	40972.55
541.034	41327.57
541.399	41459.09
541.764	41550.62
542.129	41745.64
542.494	41865.64
542.858	41956.03
543.223	42011.62
543.587	42415.68
543.952	42294.33
544.316	42495.68
544.681	42560.53
545.045	42732.96
545.41	42939.05
545.774	43023.12
546.138	43072.38
546.503	43399.16
546.867	43300.4
547.231	43769.54
547.595	43699.49
547.959	43934.51
548.324	43918.46
548.688	44109.19
549.052	44316.19
549.416	44311.22
549.779	44550.31
550.143	44491.56
550.507	44802.28
550.871	44953.92
551.235	44914.37
551.599	45360.69
551.962	45485.65
552.326	45543.73
552.689	45731.07
553.053	45702.15
553.417	45767
553.78	46274.79
554.143	46012.87
554.507	46289.47
554.87	46466.42
555.234	46828.44
555.597	46631.39
555.96	46872.96
556.323	47020.08
556.686	47138.04
557.05	47538.48
557.413	47658.93
557.776	47625.03
558.139	48097.34
558.502	48019.37
558.865	48184.11
559.228	48388.63
559.59	48526.03
559.953	48701.84
560.316	49060.25
560.679	49021.38
561.041	49266.12
561.404	49424.31
561.767	49562.61
562.129	49609.84
562.492	49896.16
562.854	50003.73
563.217	49962.37
563.579	50119.66
563.941	50381.8
564.304	50608.46
564.666	50748.57
565.028	50770.49
565.39	50926.42
565.753	51080.08
566.115	51217.03
566.477	51370.7
566.839	51599.17
567.201	51764.81
567.563	51648.88
567.925	51971.81
568.287	51911.93
568.648	52057.46
569.01	52206.83
569.372	52436.88
569.734	52399.37
570.095	52630.78
570.457	52766.14
570.819	52804.11
571.18	52795.07
571.542	53026.7
571.903	53005.46
572.265	53112.57
572.626	53207.94
572.987	53276.86
573.349	53354.83
573.71	53423.07
574.071	53546.23
574.432	53665.55
574.794	53931.99
575.155	53833.68
575.516	53805.44
575.877	53909.39
576.238	54010.18
576.599	54092.21
576.96	54194.35
577.32	54112.32
577.681	54261.47
578.042	54289.72
578.403	54288.13
578.763	54280.9
579.124	54422.37
579.485	54473.89
579.845	54548.01
580.206	54494.68
580.566	54547.79
580.927	54572.42
581.287	54732.19
581.648	54576.71
582.008	54781.46
582.368	54650.16
582.728	54739.87
583.089	54710.95
583.449	54751.4
583.809	54682.02
584.169	54816.48
584.529	54740.55
584.889	54918.17
585.249	54738.07
585.609	54703.94
585.969	54890.38
586.329	54733.55
586.688	54911.62
587.048	54792.53
587.408	54774.22
587.768	54806.31
588.127	54847.89
588.487	54668.24
588.846	54973.54
589.206	54739.2
589.565	54841.57
589.925	54954.78
590.284	54804.28
590.643	54830.27
591.003	54916.14
591.362	54979.42
591.721	54940.55
592.08	54982.81
592.44	54926.08
592.799	55064.16
593.158	54969.25
593.517	54881.34
593.876	54969.7
594.235	55060.77
594.593	55014.9
594.952	55070.94
595.311	54922.92
595.67	55000.66
596.029	55207.43
596.387	55161.33
596.746	55213.53
597.104	55100.77
597.463	55070.04
597.822	55206.08
598.18	55141.22
598.538	55130.37
598.897	55248.11
599.255	55023.03
599.613	55487.43
599.972	55260.76
600.33	55325.17
600.688	55197.04
601.046	55340.54
601.404	55408.33
601.762	55416.47
602.12	55476.35
602.478	55537.82
602.836	55502.34
603.194	55394.77
603.552	55457.37
603.91	55332.85
604.268	55548.67
604.625	55451.27
604.983	55562
605.341	55496.01
605.698	55641.77
606.056	55658.49
606.413	55583.92
606.771	55690.36
607.128	55766.06
607.485	55604.03
607.843	55665.95
608.2	55814.42
608.557	55839.28
608.914	55807.19
609.272	55929.9
609.629	55959.05
609.986	56073.85
610.343	55929.67
610.7	56061.87
611.057	56066.62
611.414	56000.86
611.771	56074.98
612.127	56174.64
612.484	56156.56
612.841	56218.25
613.198	56141.65
613.554	56144.81
613.911	56334.63
614.267	56242.89
614.624	56211.7
614.98	56322.21
615.337	56407.85
615.693	56390
616.05	56356.55
616.406	56473.39
616.762	56374.86
617.118	56357.23
617.475	56386.84
617.831	56452.37
618.187	56463.9
618.543	56497.34
618.899	56680.61
619.255	56583.22
619.611	56535.99
619.967	56650.33
620.323	56653.72
620.678	56546.83
621.034	56549.09
621.39	56517
621.746	56544.35
622.101	56798.58
622.457	56445.14
622.812	56602.2
623.168	56589.77
623.523	56577.34
623.879	56734.4
624.234	56518.36
624.589	56598.13
624.945	56653.72
625.3	56694.85
625.655	56575.08
626.01	56644.91
626.365	56688.52
626.72	56585.25
627.075	56573.95
627.43	56582.76
627.785	56518.81
628.14	56577.11
628.495	56562.2
628.85	56617.34
629.205	56484.69
629.559	56634.29
629.914	56517.45
630.269	56497.57
630.623	56421.64
630.978	56382.32
631.332	56531.24
631.687	56533.05
632.041	56381.86
632.396	56394.97
632.75	56304.35
633.104	56309.78
633.459	56203.79
633.813	56223.45
634.167	56150.46
634.521	56141.65
634.875	56198.82
635.229	56079.95
635.583	55928.54
635.937	56010.8
636.291	55950.01
636.645	56001.76
636.999	55959.5
637.352	56001.99
637.706	55784.37
638.06	55898.04
638.413	55872.27
638.767	55753.63
639.121	55771.49
639.474	55624.6
639.828	55679.51
640.181	55661.66
640.534	55599.96
640.888	55460.99
641.241	55439.52
641.594	55464.83
641.947	55586.63
642.301	55366.52
642.654	55487.65
643.007	55397.48
643.36	55377.82
643.713	55291.72
644.066	55346.64
644.419	55223.93
644.771	54975.12
645.124	54714.56
645.477	54714.11
645.83	54516.15
646.182	54414.01
646.535	54318.64
646.888	54344.4
647.24	54087.69
647.593	54320.45
647.945	54272.99
648.298	54153
648.65	54041.36
649.002	53909.84
649.355	54139.66
649.707	53976.96
650.059	54071.64
650.411	54520.44
650.763	54530.84
651.115	54771.06
651.467	54575.58
651.819	54630.27
652.171	54553.89
652.523	54534.91
652.875	54505.08
653.227	54456.49
653.578	54570.16
653.93	54433.89
654.282	54290.62
654.633	54229.15
654.985	54309.15
655.337	54363.39
655.688	54260.34
656.039	54283.16
656.391	54092.43
656.742	54222.6
657.094	54207.68
657.445	54293.11
657.796	54054.24
658.147	54060.8
658.498	54075.71
658.849	54127.23
659.2	54106.67
659.551	53934.92
659.902	54096.5
660.253	54001.36
660.604	53972.89
660.955	53904.87
661.306	53958.43
661.656	53913
662.007	53942.16
662.358	53903.51
662.708	53887.92
663.059	53867.13
663.409	53677.76
663.76	53877.3
664.11	53822.61
664.461	53847.47
664.811	53923.62
665.161	53780.35
665.511	53628.27
665.862	53657.87
666.212	53765.44
666.562	53739
666.912	53667.13
667.262	53573.13
667.612	53570.19
667.962	53716.62
668.312	53603.18
668.662	53737.41
669.011	53629.85
669.361	53584.42
669.711	53569.96
670.06	53515.27
670.41	53460.59
670.76	53359.57
671.109	53491.32
671.459	53395.95
671.808	53342.62
672.157	53426.69
672.507	53151.89
672.856	53254.94
673.205	53314.37
673.554	53305.79
673.904	53229.86
674.253	53360.02
674.602	53191.67
674.951	52718.46
675.3	52571.57
675.649	53013.14
675.998	53046.13
676.346	53004.78
676.695	53195.06
677.044	52863.54
677.393	52963.88
677.741	53015.4
678.09	52921.62
678.438	52784.45
678.787	52889.08
679.135	52913.48
679.484	52700.38
679.832	52775.63
680.181	52584.45
680.529	52653.15
680.877	52482.53
681.225	52639.82
681.573	52567.5
681.922	52502.19
682.27	52447.28
682.618	52363.67
682.966	52322.99
683.314	52397.34
683.661	52223.33
684.009	52079.83
684.357	52086.61
684.705	51883.45
685.053	52115.99
685.4	51983.56
685.748	51834.41
686.095	51708.54
686.443	51668.54
686.79	51559.39
687.138	51624.48
687.485	51488.89
687.832	51361.88
688.18	51441.2
688.527	51290.25
688.874	51305.16
689.221	51175.45
689.568	51133.42
689.915	50930.71
690.262	50861.11
690.609	50876.7
690.956	50748.34
691.303	50710.38
691.65	50511.74
691.997	50595.12
692.344	50227
692.69	50290.27
693.037	50253.66
693.383	50070.84
693.73	50083.5
694.077	49896.61
694.423	49853.9
694.769	49755.6
695.116	49718.76
695.462	49606
695.808	49367.13
696.155	49488.26
696.501	49202.17
696.847	49232.67
697.193	48918.56
697.539	49206.69
697.885	48841.5
698.231	48712.46
698.577	48672.01
698.923	48552.24
699.269	48493.03
699.614	48248.75
699.96	48168.52
700.306	48289.42
700.651	47954.74
700.997	47880.17
701.342	47933.5
701.688	47803.56
702.033	47600.63
702.379	47570.57
702.724	47520.86
703.069	47510.46
703.415	47044.94
703.76	47122.9
704.105	47240.18
704.45	47101.43
704.795	46782.8
705.14	46602.69
705.485	46642.69
705.83	46435.01
706.175	46430.04
706.52	46246.09
706.865	46105.3
707.209	46186.2
707.554	45911.63
707.899	46133.77
708.243	45750.51
708.588	45862.82
708.932	45469.84
709.277	45578.76
709.621	45585.09
709.966	45295.6
710.31	45361.82
710.654	44964.09
710.998	45003.63
711.342	45037.3
711.687	44997.76
712.031	44878.89
712.375	44528.84
712.719	44696.52
713.063	44562.06
713.407	44596.64
713.75	44362.29
714.094	44500.37
714.438	44165.46
714.782	44231.9
715.125	43824
715.469	44060.83
715.812	43843.44
716.156	43690.22
716.499	43631.01
716.843	43679.83
717.186	43405.71
717.53	43657
717.873	43508.08
718.216	43415.88
718.559	43250.46
718.902	43077.81
719.246	42987.64
719.589	42858.15
719.932	42715.78
720.275	42798.72
720.617	42708.1
720.96	42761.88
721.303	42665.84
721.646	42575.45
721.989	42354.21
722.331	42571.38
722.674	42298.85
723.016	42413.64
723.359	42236.47
723.701	42193.76
724.044	42102.47
724.386	41770.72
724.729	42010.49
725.071	41869.93
725.413	41761.23
725.755	41851.85
726.097	41558.07
726.439	41346.33
726.782	41468.58
727.124	41664.06
727.465	41363.05
727.807	41302.94
728.149	41207.12
728.491	41154.24
728.833	41182.72
729.175	41007.58
729.516	40965.77
729.858	40805.33
730.199	40871.76
730.541	40746.8
730.882	40706.34
731.224	40824.53
731.565	40429.97
731.906	40548.38
732.248	40613.47
732.589	40275.85
732.93	40182.97
733.271	40329.41
733.612	40344.77
733.953	40243.08
734.294	39924.44
734.635	39934.16
734.976	39997.66
735.317	39844.67
735.658	39754.96
735.999	39655.07
736.339	39716.99
736.68	39637.22
737.021	39418.7
737.361	39433.61
737.702	39611.01
738.042	39381.41
738.383	39295.31
738.723	39354.74
739.063	39167.85
739.404	39195.65
739.744	39002.89
740.084	38914.75
740.424	38874.75
740.764	38785.27
741.104	38776.23
741.444	38663.01
741.784	38601.09
742.124	38687.19
742.464	38725.83
742.804	38562.9
743.143	38270.48
743.483	38472.73
743.823	38177.37
744.162	38160.2
744.502	38272.51
744.841	38062.8
745.181	38171.27
745.52	38005.17
745.86	38099.41
746.199	37925.4
746.538	37885.85
746.877	37940.99
747.216	37753.43
747.556	37760.43
747.895	37721.56
748.234	37607.44
748.573	37494.45
748.911	37424.4
749.25	37428.92
749.589	37375.36
749.928	37220.33
750.267	37226.89
750.605	37128.13
750.944	37093.33
751.283	36929.27
751.621	37005.65
751.96	36649.95
752.298	36703.06
