Data from white_poster_card_FLMS001491_00004.txt Node
Date: Wed Feb 08 11:50:57 GMT 2017
User: dcchb
Spectrometer: FLMS00149
Trigger mode: 0
Integration Time (sec): 2.000000E-2
Scans to average: 10
Electric dark correction enabled: true
Nonlinearity correction enabled: false
Boxcar width: 0
XAxis mode: Wavelengths
Number of Pixels in Spectrum: 2048
>>>>>Begin Spectral Data<<<<<
341.393	-12.51
341.776	-12.51
342.16	-12.51
342.543	-84.6
342.927	-72.63
343.31	-77.6
343.693	-64.49
344.077	-90.03
344.46	-62.91
344.843	-65.17
345.226	-35.56
345.61	-35.34
345.993	-15
346.376	-5.06
346.759	24.77
347.142	13.47
347.525	40.59
347.908	64.77
348.291	86.24
348.674	93.7
349.057	127.6
349.44	133.92
349.823	126.24
350.206	153.36
350.588	210.31
350.971	208.27
351.354	217.76
351.737	254.6
352.119	250.76
352.502	276.52
352.884	295.95
353.267	274.71
353.65	283.75
354.032	297.99
354.414	333.69
354.797	323.97
355.179	297.08
355.562	330.08
355.944	322.84
356.326	327.14
356.709	353.13
357.091	336.63
357.473	343.64
357.855	319.91
358.238	356.74
358.62	335.05
359.002	342.28
359.384	358.32
359.766	350.19
360.148	350.41
360.53	342.73
360.912	331.88
361.294	345.67
361.676	359.45
362.057	329.62
362.439	342.05
362.821	324.88
363.203	335.95
363.584	318.32
363.966	349.06
364.348	333.01
364.729	328.04
365.111	305.22
365.493	313.58
365.874	316.74
366.256	341.6
366.637	326.23
367.019	314.71
367.4	319.45
367.781	328.04
368.163	346.57
368.544	326.91
368.925	328.04
369.306	370.53
369.688	321.26
370.069	318.32
370.45	320.13
370.831	334.6
371.212	321.71
371.593	338.21
371.974	310.87
372.355	340.25
372.736	317.65
373.117	333.01
373.498	326.91
373.879	326.01
374.26	326.91
374.641	337.99
375.021	335.95
375.402	316.29
375.783	340.02
376.163	332.79
376.544	347.48
376.925	343.41
377.305	351.77
377.686	332.79
378.066	354.26
378.447	334.82
378.827	334.82
379.208	348.38
379.588	344.76
379.968	335.95
380.349	345.22
380.729	352.67
381.109	370.98
381.489	367.14
381.87	351.09
382.25	378.21
382.63	360.13
383.01	379.11
383.39	354.93
383.77	385.44
384.15	366.46
384.53	371.66
384.91	368.95
385.29	382.73
385.67	376.63
386.049	364.65
386.429	371.66
386.809	397.19
387.189	376.4
387.568	375.27
387.948	383.41
388.328	417.53
388.707	405.1
389.087	402.62
389.466	387.25
389.846	400.36
390.225	396.29
390.605	416.4
390.984	385.44
391.363	409.17
391.743	414.37
392.122	408.72
392.501	414.59
392.881	421.37
393.26	433.8
393.639	426.34
394.018	403.29
394.397	422.95
394.776	436.97
395.155	437.87
395.534	438.55
395.913	426.34
396.292	450.98
396.671	430.41
397.05	447.14
397.429	442.84
397.808	448.94
398.186	456.4
398.565	459.34
398.944	461.82
399.323	445.78
399.701	450.98
400.08	469.06
400.458	472.22
400.837	480.13
401.215	473.12
401.594	469.51
401.972	487.36
402.351	474.25
402.729	487.81
403.107	503.86
403.486	487.59
403.864	512.9
404.242	509.73
404.62	517.19
404.999	507.7
405.377	528.49
405.755	537.53
406.133	536.17
406.511	539.11
406.889	561.71
407.267	569.84
407.645	544.99
408.023	587.02
408.401	603.52
408.779	600.58
409.156	606.9
409.534	638.77
409.912	633.8
410.29	631.54
410.667	635.38
411.045	640.8
411.422	647.13
411.8	671.08
412.178	702.27
412.555	716.05
412.933	731.65
413.31	748.82
413.687	743.4
414.065	773.91
414.442	782.95
414.819	809.39
415.197	828.82
415.574	855.49
415.951	857.52
416.328	873.34
416.705	884.86
417.082	888.71
417.46	918.54
417.837	941.13
418.214	929.61
418.591	973.9
418.967	980.23
419.344	999.21
419.721	1032.2
420.098	1030.17
420.475	1009.83
420.852	1061.13
421.228	1086.67
421.605	1071.3
421.982	1107.68
422.358	1118.53
422.735	1118.53
423.111	1134.57
423.488	1165.99
423.864	1174.57
424.241	1209.37
424.617	1226.55
424.994	1219.54
425.37	1252.99
425.746	1273.33
426.123	1301.12
426.499	1316.04
426.875	1325.53
427.251	1349.48
427.627	1386.77
428.003	1396.71
428.379	1402.36
428.756	1440.33
429.132	1432.42
429.507	1503.83
429.883	1461.8
430.259	1537.73
430.635	1543.38
431.011	1519.88
431.387	1575.92
431.763	1624.96
432.138	1640.78
432.514	1673.09
432.89	1660.66
433.265	1721
433.641	1737.27
434.016	1748.12
434.392	1773.88
434.767	1790.15
435.143	1819.98
435.518	1841
435.894	1836.25
436.269	1854.33
436.644	1904.27
437.02	1923.03
437.395	1920.54
437.77	1933.88
438.145	1984.04
438.52	2000.54
438.895	2013.87
439.271	2014.33
439.646	2082.57
440.021	2078.96
440.395	2094.32
440.77	2102.68
441.145	2126.64
441.52	2137.71
441.895	2194.43
442.27	2177.49
442.645	2199.41
443.019	2177.26
443.394	2217.48
443.769	2243.47
444.143	2259.06
444.518	2267.65
444.892	2242.34
445.267	2241.44
445.641	2285.5
446.016	2322.57
446.39	2349.46
446.764	2346.29
447.139	2347.2
447.513	2388.78
447.887	2372.28
448.262	2398.72
448.636	2393.3
449.01	2424.26
449.384	2452.73
449.758	2481.88
450.132	2519.85
450.506	2552.62
450.88	2546.29
451.254	2541.09
451.628	2569.34
452.002	2595.55
452.376	2633.29
452.75	2627.87
453.123	2677.36
453.497	2712.84
453.871	2709
454.244	2790.8
454.618	2803.68
454.992	2823.34
455.365	2840.07
455.739	2927.97
456.112	2904.7
456.486	2950.57
456.859	2942.89
457.232	3034.19
457.606	3019.5
457.979	3056.78
458.352	3093.17
458.725	3115.99
459.099	3160.06
459.472	3244.35
459.845	3255.2
460.218	3265.59
460.591	3346.49
460.964	3336.78
461.337	3426.94
461.71	3489.32
462.083	3537.45
462.456	3534.51
462.829	3509.65
463.201	3628.97
463.574	3597.79
463.947	3658.35
464.32	3742.42
464.692	3782.41
465.065	3822.41
465.438	3831.23
465.81	3906.25
466.183	3962.07
466.555	4059.02
466.928	4067.15
467.3	4026.02
467.672	4111.45
468.045	4207.94
468.417	4252.46
468.789	4262.18
469.161	4315.73
469.534	4420.36
469.906	4470.98
470.278	4487.71
470.65	4554.15
471.022	4670.3
471.394	4680.47
471.766	4755.72
472.138	4802.73
472.51	4900.8
472.882	4993.68
473.253	5012.44
473.625	5082.72
473.997	5177.86
474.369	5196.84
474.74	5312.09
475.112	5360.45
475.484	5460.11
475.855	5526.78
476.227	5600.22
476.598	5792.53
476.97	5819.88
477.341	5920.21
477.713	5964.96
478.084	6031.62
478.455	6179.19
478.827	6216.47
479.198	6452.85
479.569	6445.85
479.94	6564.94
480.311	6670.7
480.682	6786.63
481.053	6948.43
481.424	7068.88
481.795	7094.42
482.166	7227.75
482.537	7332.38
482.908	7459.15
483.279	7540.73
483.65	7714.97
484.021	7825.92
484.391	7899.82
484.762	7967.62
485.133	8021.4
485.503	8253.48
485.874	8386.59
486.244	8524.89
486.615	8596.07
486.985	8725.56
487.356	8861.38
487.726	8944.54
488.097	9158.32
488.467	9119.45
488.837	9379.33
489.207	9410.29
489.578	9586.33
489.948	9622.49
490.318	9810.5
490.688	9857.06
491.058	10032.87
491.428	10102.7
491.798	10228.8
492.168	10485.97
492.538	10465.18
492.908	10660.2
493.278	10751.72
493.648	10797.82
494.017	10948.55
494.387	11010.02
494.757	11151.49
495.126	11338.15
495.496	11286.4
495.866	11386.06
496.235	11499.73
496.605	11586.28
496.974	11746.73
497.344	11789.89
497.713	11873.28
498.082	11978.58
498.452	12135.19
498.821	12176.09
499.19	12225.36
499.559	12432.58
499.928	12465.12
500.298	12509.42
500.667	12604.56
501.036	12620.15
501.405	12812.91
501.774	12767.72
502.143	12942.17
502.512	13036.41
502.88	13166.12
503.249	13114.37
503.618	13326.12
503.987	13288.38
504.356	13364.54
504.724	13574.25
505.093	13559.56
505.462	13668.48
505.83	13842.04
506.199	13919.78
506.567	14037.74
506.936	14116.38
507.304	14223.04
507.672	14352.31
508.041	14420.33
508.409	14545.07
508.777	14635.46
509.145	14760.88
509.514	14687.89
509.882	14951.61
510.25	14950.48
510.618	15132.62
510.986	15163.36
511.354	15347.99
511.722	15386.4
512.09	15608.54
512.458	15565.16
512.826	15750.69
513.193	15865.94
513.561	15960.17
513.929	16054.63
514.297	16114.52
514.664	16362.2
515.032	16373.04
515.4	16497.79
515.767	16592.7
516.135	16641.74
516.502	16730.77
516.869	17025.46
517.237	17006.93
517.604	16997.66
517.972	17260.03
518.339	17386.58
518.706	17471.32
519.073	17533.47
519.44	17711.99
519.808	18008.03
520.175	17959.89
520.542	18160.34
520.909	18295.71
521.276	18293.22
521.643	18549.71
522.009	18670.61
522.376	18838.52
522.743	18885.29
523.11	19084.61
523.477	19266.08
523.843	19364.15
524.21	19611.15
524.577	19685.73
524.943	19857.47
525.31	19947.64
525.676	20176.56
526.043	20296.1
526.409	20382.43
526.776	20630.56
527.142	20688.41
527.508	20856.99
527.874	21000.49
528.241	21086.82
528.607	21174.27
528.973	21368.84
529.339	21404.1
529.705	21546.02
530.071	21728.16
530.437	21953.69
530.803	22030.07
531.169	22132.89
531.535	22234.58
531.901	22270.06
532.267	22554.58
532.632	22612.65
532.998	22674.57
533.364	22912.76
533.73	22899.88
534.095	23023.94
534.461	23238.4
534.826	23175.8
535.192	23400.2
535.557	23574.21
535.923	23555.91
536.288	23575.79
536.653	23763.13
537.019	23813.3
537.384	23867.08
537.749	23992.05
538.114	24049.68
538.479	24188.88
538.845	24314.53
539.21	24292.16
539.575	24479.72
539.94	24598.36
540.305	24731.24
540.67	24674.52
541.034	24765.14
541.399	24938.02
541.764	24960.61
542.129	25114.51
542.494	25205.13
542.858	25271.12
543.223	25347.95
543.587	25553.82
543.952	25440.83
544.316	25591.11
544.681	25593.59
545.045	25806.24
545.41	25972.11
545.774	26010.98
546.138	25921.72
546.503	26100.25
546.867	26115.39
547.231	26317.42
547.595	26342.27
547.959	26517.86
548.324	26476.51
548.688	26624.07
549.052	26798.08
549.416	26796.95
549.779	26790.4
550.143	26966.66
550.507	27070.16
550.871	27175.47
551.235	27158.52
551.599	27347.9
551.962	27524.62
552.326	27538.4
552.689	27779.3
553.053	27638.51
553.417	27867.88
553.78	28134.77
554.143	28018.16
554.507	28194.88
554.87	28261.55
555.234	28565.49
555.597	28452.95
555.96	28568.66
556.323	28762.77
556.686	28815.88
557.05	29054.29
557.413	29091.81
557.776	29175.87
558.139	29398.69
558.502	29471.68
558.865	29394.62
559.228	29743.31
559.59	29830.54
559.953	29900.15
560.316	30186.69
560.679	30245.45
561.041	30326.12
561.404	30529.96
561.767	30709.62
562.129	30518.21
562.492	31077.52
562.854	31005.2
563.217	31085.43
563.579	31127.91
563.941	31341.46
564.304	31571.51
564.666	31842.92
565.028	31769.02
565.39	31819.87
565.753	32070.48
566.115	32307.54
566.477	32408.55
566.839	32458.04
567.201	32663.46
567.563	32732.39
567.925	32890.35
568.287	32975.09
568.648	33098.03
569.01	33307.06
569.372	33408.3
569.734	33291.92
570.095	33605.59
570.457	33887.39
570.819	33738.92
571.18	33855.52
571.542	34059.58
571.903	33988.85
572.265	34181.62
572.626	34327.83
572.987	34484.21
573.349	34438.78
573.71	34608.72
574.071	34722.17
574.432	34686.91
574.794	35121.25
575.155	35035.83
575.516	34846
575.877	35158.76
576.238	35164.19
576.599	35276.95
576.96	35368.7
577.32	35387.46
577.681	35397.63
578.042	35613.89
578.403	35522.82
578.763	35579.32
579.124	35714.46
579.485	35876.71
579.845	35869.03
580.206	35884.62
580.566	35846.66
580.927	35887.11
581.287	36083.26
581.648	35895.02
582.008	36144.95
582.368	36113.09
582.728	36084.16
583.089	36050.27
583.449	36038.06
583.809	36095.46
584.169	36194.9
584.529	36182.01
584.889	36355.57
585.249	36147.89
585.609	35930.95
585.969	36305.85
586.329	36230.38
586.688	36169.59
587.048	36288.23
587.408	36309.24
587.768	36361.22
588.127	36286.42
588.487	36283.71
588.846	36340.43
589.206	36106.54
589.565	36241
589.925	36479.41
590.284	36333.2
590.643	36364.61
591.003	36432.4
591.362	36391.95
591.721	36470.59
592.08	36445.28
592.44	36575.22
592.799	36583.81
593.158	36523.47
593.517	36490.71
593.876	36485.51
594.235	36472.18
594.593	36535.68
594.952	36604.83
595.311	36490.71
595.67	36473.76
596.029	36733.19
596.387	36692.74
596.746	36794.2
597.104	36444.83
597.463	36503.81
597.822	36758.72
598.18	36666.07
598.538	36610.48
598.897	36943.35
599.255	36585.39
599.613	37047.08
599.972	36894.31
600.33	36892.05
600.688	36839.62
601.046	37021.09
601.404	37170.69
601.762	37136.11
602.12	37162.33
602.478	37196.68
602.836	37228.09
603.194	37048.66
603.552	37259.73
603.91	37102.44
604.268	37295.88
604.625	37077.58
604.983	37266.51
605.341	37173.4
605.698	37306.05
606.056	37406.39
606.413	37332.94
606.771	37470.12
607.128	37471.92
607.485	37356.9
607.843	37441.64
608.2	37636.44
608.557	37829.66
608.914	37673.5
609.272	37857.45
609.629	37728.87
609.986	38026.03
610.343	37809.54
610.7	38074.39
611.057	37952.36
611.414	37912.14
611.771	37890.67
612.127	38085.02
612.484	38009.99
612.841	38271.23
613.198	38102.64
613.554	37934.74
613.911	38361.84
614.267	38288.85
614.624	38318.23
614.98	38283.88
615.337	38412.24
615.693	38355.29
616.05	38473.71
616.406	38646.36
616.762	38434.38
617.118	38525.68
617.475	38393.26
617.831	38654.94
618.187	38733.59
618.543	38609.07
618.899	38784.66
619.255	38749.86
619.611	38659.24
619.967	38794.83
620.323	38906.46
620.678	38767.03
621.034	38693.81
621.39	38769.97
621.746	38653.36
622.101	39057.65
622.457	38672.8
622.812	38909.63
623.168	38910.76
623.523	38930.64
623.879	38987.59
624.234	38714.6
624.589	38929.29
624.945	38857.88
625.3	38930.19
625.655	38894.94
626.01	38974.48
626.365	38956.18
626.72	38820.82
627.075	38837.54
627.43	38722.29
627.785	38729.74
628.14	38920.93
628.495	38862.17
628.85	38823.75
629.205	38653.59
629.559	38797.09
629.914	38558.22
630.269	38587.6
630.623	38623.76
630.978	38378.79
631.332	38639.35
631.687	38702.17
632.041	38560.48
632.396	38503.54
632.75	38343.99
633.104	38509.41
633.459	38307.38
633.813	38220.15
634.167	38375.86
634.521	38233.71
634.875	38207.95
635.229	38168.4
635.583	38049.99
635.937	38030.55
636.291	37989.42
636.645	37933.16
636.999	37855.64
637.352	37938.58
637.706	37833.95
638.06	37873.95
638.413	37805.47
638.767	37658.36
639.121	37664.91
639.474	37524.8
639.828	37433.28
640.181	37644.58
640.534	37611.13
640.888	37493.84
641.241	37282.78
641.594	37310.35
641.947	37444.81
642.301	37252.5
642.654	37374.98
643.007	37429.21
643.36	37230.57
643.713	37177.24
644.066	37161.2
644.419	37066.06
644.771	36839.85
645.124	36405.29
645.477	36444.15
645.83	36175.69
646.182	36075.35
646.535	35934.34
646.888	35964.17
647.24	35812.98
647.593	35979.31
647.945	35844.62
648.298	35643.5
648.65	35488.93
649.002	35488.25
649.355	35595.36
649.707	35486.89
650.059	35727.56
650.411	36038.52
650.763	36132.3
651.115	36448.22
651.467	36335.23
651.819	36286.19
652.171	36161.45
652.523	36044.62
652.875	36115.58
653.227	35878.52
653.578	36271.05
653.93	36073.32
654.282	35898.41
654.633	35803.04
654.985	35923.49
655.337	35875.58
655.688	35866.54
656.039	35975.69
656.391	35642.59
656.742	35780.22
657.094	35700.22
657.445	35781.57
657.796	35705.19
658.147	35615.7
658.498	35608.24
658.849	35659.09
659.2	35481.92
659.551	35418.19
659.902	35635.59
660.253	35388.59
660.604	35599.88
660.955	35341.58
661.306	35447.8
661.656	35474.24
662.007	35382.71
662.358	35453.45
662.708	35367.12
663.059	35330.96
663.409	35135.26
663.76	35278.99
664.11	35352.21
664.461	35419.77
664.811	35345.88
665.161	35371.19
665.511	35187.92
665.862	35213.23
666.212	35408.25
666.562	35271.08
666.912	35181.14
667.262	35219.78
667.612	35177.07
667.962	35231.98
668.312	35226.79
668.662	35377.52
669.011	35281.02
669.361	35195.15
669.711	35012.1
670.06	34899.79
670.41	34780.24
670.76	34838.32
671.109	34849.85
671.459	34790.64
671.808	34810.98
672.157	34893.01
672.507	34819.56
672.856	34692.56
673.205	34752.67
673.554	34827.02
673.904	34619.34
674.253	34903.63
674.602	34636.97
674.951	34132.13
675.3	34081.96
675.649	34615.95
675.998	34415.73
676.346	34526.47
676.695	34556.29
677.044	34404.66
677.393	34408.05
677.741	34403.98
678.09	34291.67
678.438	34258
678.787	34357.88
679.135	34313.82
679.484	34095.29
679.832	34226.36
680.181	34053.94
680.529	34146.59
680.877	33971.45
681.225	33985.91
681.573	34136.19
681.922	33953.15
682.27	33825.92
682.618	33799.03
682.966	33668.41
683.314	33751.34
683.661	33708.41
684.009	33568.75
684.357	33506.6
684.705	33442.65
685.053	33366.5
685.4	33463.67
685.748	33356.55
686.095	33265.26
686.443	32985.04
686.79	33098.48
687.138	33086.73
687.485	33056.45
687.832	33013.51
688.18	33107.29
688.527	32800.63
688.874	32714.99
689.221	32640.19
689.568	32417.14
689.915	32485.61
690.262	32431.38
690.609	32355.45
690.956	32289.46
691.303	32106.64
691.65	32111.16
691.997	32025.29
692.344	31759.76
692.69	31839.53
693.037	31926.99
693.383	31548.46
693.73	31627.78
694.077	31523.83
694.423	31476.83
694.769	31399.09
695.116	31442.03
695.462	31361.58
695.808	31060.79
696.155	31220.11
696.501	30931.53
696.847	30928.37
697.193	30701.48
697.539	30869.16
697.885	30669.62
698.231	30466.91
698.577	30586.46
698.923	30505.78
699.269	30267.14
699.614	30296.97
699.96	30226.01
700.306	30184.66
700.651	29939.47
700.997	29923.2
701.342	29906.93
701.688	29756.19
702.033	29756.42
702.379	29680.72
702.724	29541.06
703.069	29539.25
703.415	29265.59
703.76	29344.45
704.105	29392.14
704.45	29225.14
704.795	29054.07
705.14	28963.45
705.485	29042.32
705.83	28743.79
706.175	28841.19
706.52	28731.82
706.865	28688.65
707.209	28551.48
707.554	28516.45
707.899	28479.17
708.243	28411.15
708.588	28259.74
708.932	28083.24
709.277	28148.78
709.621	28134.99
709.966	27908.33
710.31	28017.94
710.654	27854.55
710.998	27834.21
711.342	27820.88
711.687	27671.05
712.031	27652.97
712.375	27525.07
712.719	27565.74
713.063	27516.03
713.407	27638.06
713.75	27362.81
714.094	27326.43
714.438	27312.87
714.782	27292.98
715.125	27125.08
715.469	27149.03
715.812	27062.71
716.156	26962.14
716.499	26918.76
716.843	26823.16
717.186	26792.66
717.53	26822.03
717.873	26830.4
718.216	26752.66
718.559	26644.86
718.902	26480.8
719.246	26567.58
719.589	26472.67
719.932	26313.8
720.275	26376.4
720.617	26272.9
720.96	26196.06
721.303	26168.04
721.646	26332.78
721.989	26095.95
722.331	26163.75
722.674	25945.45
723.016	26043.52
723.359	25999.68
723.701	25922.4
724.044	25842.85
724.386	25763.53
724.729	25890.53
725.071	25699.8
725.413	25615.74
725.755	25583.42
726.097	25655.96
726.439	25365.58
726.782	25396.76
727.124	25532.13
727.465	25247.61
727.807	25420.49
728.149	25343.66
728.491	25264.34
728.833	25336.42
729.175	25061.86
729.516	25052.36
729.858	25117.9
730.199	25046.26
730.541	24957.68
730.882	24981.63
731.224	24957.23
731.565	24812.14
731.906	24769.43
732.248	24870.67
732.589	24695.31
732.93	24735.31
733.271	24593.62
733.612	24672.49
733.953	24565.6
734.294	24509.78
734.635	24427.97
734.976	24630
735.317	24345.49
735.658	24469.55
735.999	24390.91
736.339	24378.26
736.68	24284.02
737.021	24330.35
737.361	24144.82
737.702	24190.47
738.042	24107.76
738.383	24109.11
738.723	24107.98
739.063	24040.19
739.404	24067.53
739.744	23896.69
740.084	23848.33
740.424	23862.34
740.764	23816.01
741.104	23872.28
741.444	23720.87
741.784	23757.03
742.124	23702.12
742.464	23546.87
742.804	23619.63
743.143	23607.2
743.483	23573.31
743.823	23450.15
744.162	23459.19
744.502	23402.92
744.841	23348.45
745.181	23477.94
745.52	23183.94
745.86	23251.51
746.199	23203.37
746.538	23159.98
746.877	23296.7
747.216	23124.28
747.556	23094.45
747.895	23127.22
748.234	22988.69
748.573	22975.81
748.911	22884.51
749.25	22880.22
749.589	22827.79
749.928	22747.57
750.267	22822.14
750.605	22697.85
750.944	22647.91
751.283	22510.74
751.621	22627.57
751.96	22405.43
752.298	22499.89
752.636	22503.28
752.975	22367.69
753.313	22217.64
