Data from white_poster_card_FLMS001491_00001.txt Node
Date: Wed Feb 08 11:50:56 GMT 2017
User: dcchb
Spectrometer: FLMS00149
Trigger mode: 0
Integration Time (sec): 2.000000E-2
Scans to average: 10
Electric dark correction enabled: true
Nonlinearity correction enabled: false
Boxcar width: 0
XAxis mode: Wavelengths
Number of Pixels in Spectrum: 2048
>>>>>Begin Spectral Data<<<<<
341.393	1.99
341.776	1.99
342.16	1.99
342.543	-59.25
342.927	-64.67
343.31	-57.67
343.693	-51.57
344.077	-66.93
344.46	-63.32
344.843	-45.46
345.226	-64.67
345.61	-39.14
345.993	-20.38
346.376	-6.82
346.759	25.95
347.142	24.36
347.525	42.44
347.908	61.88
348.291	73.63
348.674	80.86
349.057	106.85
349.44	124.7
349.823	138.71
350.206	168.99
350.588	191.82
350.971	223.91
351.354	231.82
351.737	226.17
352.119	262.55
352.502	267.52
352.884	282.66
353.267	296.22
353.65	293.74
354.032	335.09
354.414	320.63
354.797	315.43
355.179	333.96
355.562	314.98
355.944	318.59
356.326	335.09
356.709	333.06
357.091	357.01
357.473	352.72
357.855	357.91
358.238	361.53
358.62	341.42
359.002	341.42
359.384	352.72
359.766	351.13
360.148	352.94
360.53	350.46
360.912	344.36
361.294	357.01
361.676	336.9
362.057	347.97
362.439	310.01
362.821	355.65
363.203	345.26
363.584	337.8
363.966	320.18
364.348	314.98
364.729	301.64
365.111	339.84
365.493	326.73
365.874	312.27
366.256	323.11
366.637	315.43
367.019	331.7
367.4	317.01
367.781	316.11
368.163	328.31
368.544	313.85
368.925	311.81
369.306	342.1
369.688	306.84
370.069	315.88
370.45	323.56
370.831	326.28
371.212	340.97
371.593	337.58
371.974	325.6
372.355	313.85
372.736	309.1
373.117	304.58
373.498	341.87
373.879	341.64
374.26	326.05
374.641	343
375.021	341.64
375.402	339.38
375.783	337.35
376.163	347.75
376.544	331.93
376.925	336.67
377.305	350.91
377.686	358.59
378.066	349.55
378.447	339.84
378.827	341.64
379.208	341.19
379.588	360.4
379.968	338.03
380.349	347.29
380.729	357.01
381.109	347.07
381.489	352.72
381.87	372.83
382.25	366.05
382.63	345.94
383.01	374.41
383.39	352.04
383.77	370.34
384.15	368.08
384.53	368.99
384.91	362.66
385.29	364.92
385.67	374.64
386.049	392.26
386.429	359.5
386.809	373.96
387.189	385.26
387.568	381.19
387.948	391.59
388.328	373.73
388.707	379.83
389.087	414.64
389.466	393.62
389.846	407.18
390.225	381.87
390.605	397.69
390.984	404.47
391.363	408.76
391.743	436.1
392.122	427.97
392.501	406.27
392.881	425.48
393.26	434.3
393.639	415.77
394.018	434.07
394.397	408.76
394.776	436.56
395.155	431.36
395.534	412.38
395.913	413.05
396.292	448.76
396.671	437.23
397.05	469.55
397.429	441.53
397.808	442.43
398.186	438.59
398.565	479.27
398.944	462.77
399.323	481.75
399.701	484.24
400.08	471.81
400.458	463.67
400.837	477.46
401.215	475.65
401.594	479.95
401.972	484.46
402.351	494.86
402.729	495.54
403.107	492.6
403.486	493.05
403.864	532.82
404.242	501.19
404.62	532.15
404.999	512.49
405.377	518.36
405.755	543.22
406.133	523.56
406.511	557.46
406.889	580.51
407.267	553.16
407.645	588.19
408.023	592.94
408.401	593.84
408.779	570.34
409.156	610.11
409.534	602.65
409.912	618.25
410.29	633.84
410.667	645.14
411.045	644.69
411.422	671.13
411.8	693.27
412.178	683.56
412.555	715.87
412.933	751.8
413.31	703.67
413.687	757.45
414.065	756.77
414.442	791.58
414.819	794.74
415.197	823.21
415.574	836.77
415.951	876.32
416.328	870.22
416.705	879.93
417.082	895.53
417.46	932.81
417.837	925.36
418.214	948.18
418.591	947.5
418.967	990.67
419.344	985.92
419.721	1004.45
420.098	1027.95
420.475	1059.82
420.852	1075.18
421.228	1082.64
421.605	1097.1
421.982	1104.11
422.358	1117.67
422.735	1153.6
423.111	1145.92
423.488	1166.03
423.864	1209.42
424.241	1203.32
424.617	1215.29
424.994	1235.86
425.37	1268.4
425.746	1276.53
426.123	1277.44
426.499	1316.76
426.875	1315.86
427.251	1351.56
427.627	1387.27
428.003	1368.51
428.379	1384.55
428.756	1415.74
429.132	1444.67
429.507	1479.24
429.883	1496.64
430.259	1511.33
430.635	1532.8
431.011	1556.98
431.387	1558.56
431.763	1601.27
432.138	1624.55
432.514	1636.98
432.89	1653.25
433.265	1699.57
433.641	1715.17
434.016	1738.44
434.392	1775.73
434.767	1804.66
435.143	1792.45
435.518	1823.64
435.894	1859.8
436.269	1872.22
436.644	1906.35
437.02	1904.09
437.395	1912.45
437.77	1956.29
438.145	1983.63
438.52	1974.82
438.895	2023.63
439.271	2006.46
439.646	2093.24
440.021	2077.87
440.395	2112.67
440.77	2062.05
441.145	2119.22
441.52	2169.84
441.895	2160.35
442.27	2160.13
442.645	2168.71
443.019	2181.6
443.394	2182.73
443.769	2212.78
444.143	2219.11
444.518	2281.25
444.892	2298.65
445.267	2253.01
445.641	2287.81
446.016	2289.39
446.39	2325.77
446.764	2327.58
447.139	2301.37
447.513	2383.85
447.887	2369.61
448.262	2396.73
448.636	2396.73
449.01	2445.09
449.384	2490.97
449.758	2466.11
450.132	2482.83
450.506	2501.36
450.88	2538.42
451.254	2542.72
451.628	2584.75
452.002	2576.84
452.376	2606.89
452.75	2628.59
453.123	2671.98
453.497	2691.86
453.871	2685.76
454.244	2787.91
454.618	2789.94
454.992	2835.59
455.365	2812.77
455.739	2872.88
456.112	2907.45
456.486	2910.16
456.859	2953.33
457.232	3045.75
457.606	3038.3
457.979	3070.84
458.352	3138.18
458.725	3171.4
459.099	3141.57
459.472	3219.99
459.845	3243.04
460.218	3253.21
460.591	3290.27
460.964	3311.96
461.337	3377.27
461.71	3451.17
462.083	3482.13
462.456	3503.37
462.829	3532.07
463.201	3600.99
463.574	3611.61
463.947	3640.77
464.32	3723.25
464.692	3762.8
465.065	3776.58
465.438	3821.33
465.81	3863.13
466.183	3955.11
466.555	4006.86
466.928	4041.21
467.3	4021.32
467.672	4111.04
468.045	4192.16
468.417	4227.64
468.789	4256.34
469.161	4291.6
469.534	4389.22
469.906	4448.2
470.278	4503.12
470.65	4562.55
471.022	4592.38
471.394	4674.19
471.766	4756.67
472.138	4748.08
472.51	4877.34
472.882	4922.54
473.253	5004.35
473.625	5059.26
473.997	5182.19
474.369	5181.74
474.74	5232.59
475.112	5345.35
475.484	5429.65
475.855	5555.74
476.227	5558.68
476.598	5721.62
476.97	5773.59
477.341	5873.7
477.713	6001.83
478.084	5976.52
478.455	6190.08
478.827	6226.01
479.198	6331.54
479.569	6459.22
479.94	6535.15
480.311	6655.38
480.682	6789.61
481.053	6960.68
481.424	7047
481.795	7052.65
482.166	7260.56
482.537	7320.67
482.908	7440.44
483.279	7555.92
483.65	7673.2
484.021	7828.9
484.391	7905.29
484.762	7966.75
485.133	8095.56
485.503	8178.73
485.874	8350.47
486.244	8399.74
486.615	8535.78
486.985	8748.65
487.356	8792.27
487.726	8842.44
488.097	9065.03
488.467	9131.24
488.837	9294.63
489.207	9381.18
489.578	9551.12
489.948	9608.29
490.318	9786.14
490.688	9837.21
491.058	9966.7
491.428	10140.48
491.798	10171.44
492.168	10384.09
492.538	10469.74
492.908	10615.05
493.278	10738.66
493.648	10779.34
494.017	10880.58
494.387	10997.18
494.757	11084.41
495.126	11276.5
495.496	11229.72
495.866	11379.32
496.235	11467.23
496.605	11591.52
496.974	11610.73
497.344	11735.47
497.713	11858.63
498.082	11941.34
498.452	12100.88
498.821	12015.01
499.19	12193.99
499.559	12317.37
499.928	12432.4
500.298	12420.65
500.667	12620.42
501.036	12603.24
501.405	12684.6
501.774	12797.81
502.143	12955.78
502.512	12902.67
502.88	13114.64
503.249	13077.13
503.618	13190.35
503.987	13359.83
504.356	13451.36
504.724	13464.69
505.093	13594.18
505.462	13665.36
505.83	13692.25
506.199	13927.95
506.567	13943.77
506.936	13979.25
507.304	14178.57
507.672	14268.51
508.041	14331.56
508.409	14453.14
508.777	14516.41
509.145	14673.92
509.514	14736.29
509.882	14848.15
510.25	14918.44
510.618	14998.21
510.986	15143.97
511.354	15217.86
511.722	15374.69
512.09	15514.35
512.458	15494.69
512.826	15710.28
513.193	15760.67
513.561	15725.87
513.929	15955.02
514.297	16079.31
514.664	16312.3
515.032	16311.39
515.4	16399.3
515.767	16567.88
516.135	16672.74
516.502	16631.16
516.869	16888.78
517.237	16991.38
517.604	16991.83
517.972	17138.49
518.339	17354.98
518.706	17420.74
519.073	17466.39
519.44	17676.55
519.808	17797
520.175	17822.09
520.542	18136.2
520.909	18139.37
521.276	18127.39
521.643	18435.86
522.009	18580.03
522.376	18670.2
522.743	18694.38
523.11	18970.53
523.477	19146.12
523.843	19318.55
524.21	19414.81
524.577	19683.06
524.943	19652.77
525.31	19835.82
525.676	20044.18
526.043	20225.19
526.409	20291.18
526.776	20606.87
527.142	20507.67
527.508	20700.66
527.874	20879.18
528.241	20945.4
528.607	21151.04
528.973	21346.06
529.339	21312.17
529.705	21665.38
530.071	21758.48
530.437	21856.11
530.803	22018.81
531.169	22015.2
531.535	22144.91
531.901	22255.19
532.267	22379.03
532.632	22541.29
532.998	22588.52
533.364	22626.48
533.73	22860.37
534.095	23006.13
534.461	23117.77
534.826	23296.07
535.192	23283.87
535.557	23428.95
535.923	23356.86
536.288	23486.12
536.653	23696.28
537.019	23645.89
537.384	23861.7
537.749	23921.59
538.114	23873.91
538.479	24129.27
538.845	24220.79
539.21	24166.1
539.575	24280.9
539.94	24485.64
540.305	24576.03
540.67	24534.91
541.034	24627.33
541.399	24741.68
541.764	24825.52
542.129	24976.93
542.494	25118.85
542.858	25151.84
543.223	25251.05
543.587	25407.43
543.952	25399.74
544.316	25479.29
544.681	25445.84
545.045	25645.16
545.41	25725.83
545.774	25838.6
546.138	25890.58
546.503	25910.24
546.867	25936.9
547.231	26367.85
547.595	26177.12
547.959	26269.1
548.324	26407.4
548.688	26462.99
549.052	26520.62
549.416	26660.73
549.779	26681.74
550.143	26748.41
550.507	26963.09
550.871	27098.91
551.235	26966.71
551.599	27314.72
551.962	27383.42
552.326	27427.03
552.689	27597.88
553.053	27567.14
553.417	27689.4
553.78	27965.32
554.143	27926.45
554.507	28036.73
554.87	28257.07
555.234	28438.08
555.597	28374.58
555.96	28461.58
556.323	28615.02
556.686	28656.61
557.05	28901.57
557.413	28987.44
557.776	29054.11
558.139	29332.07
558.502	29345.63
558.865	29367.77
559.228	29682.79
559.59	29610.03
559.953	29799.63
560.316	30117.36
560.679	30155.77
561.041	30228.09
561.404	30387.63
561.767	30554.18
562.129	30584.01
562.492	30889.77
562.854	30907.85
563.217	30882.76
563.579	31144.68
563.941	31353.03
564.304	31390.54
564.666	31586.92
565.028	31603.87
565.39	31786.69
565.753	31964.09
566.115	32087.02
566.477	32205.89
566.839	32191.2
567.201	32460.12
567.563	32480.01
567.925	32741.47
568.287	32816.04
568.648	32925.87
569.01	33066.66
569.372	33347.78
569.734	33264.39
570.095	33546.42
570.457	33563.82
570.819	33571.73
571.18	33669.58
571.542	33856.69
571.903	33871.61
572.265	34110.47
572.626	34093.3
572.987	34208.32
573.349	34176.01
573.71	34371.71
574.071	34632.72
574.432	34564.7
574.794	34853.05
575.155	34863.45
575.516	34859.38
575.877	34904.58
576.238	35106.15
576.599	35156.32
576.96	35202.87
577.32	35294.17
577.681	35319.25
578.042	35486.71
578.403	35451.68
578.763	35571.9
579.124	35719.92
579.485	35730.09
579.845	35722.18
580.206	35646.25
580.566	35755.18
580.927	35760.83
581.287	35848.51
581.648	35778.9
582.008	36079.46
582.368	35956.53
582.728	36008.05
583.089	35892.57
583.449	35993.14
583.809	36082.17
584.169	36090.76
584.529	36009.86
584.889	36220.02
585.249	35867.04
585.609	35967.15
585.969	36171.21
586.329	36068.84
586.688	36014.83
587.048	36135.05
587.408	35963.31
587.768	36039.91
588.127	36114.71
588.487	35935.96
588.846	36174.6
589.206	35990.2
589.565	36091.44
589.925	36344.76
590.284	36168.05
590.643	36241.26
591.003	36186.35
591.362	36236.74
591.721	36251.21
592.08	36301.15
592.44	36419.34
592.799	36337.53
593.158	36385.44
593.517	36299.34
593.876	36433.35
594.235	36371.66
594.593	36378.89
594.952	36332.56
595.311	36335.05
595.67	36486.46
596.029	36663.85
596.387	36636.51
596.746	36688.71
597.104	36386.57
597.463	36471.77
597.822	36695.72
598.18	36538.88
598.538	36447.13
598.897	36651.88
599.255	36405.33
599.613	36956.27
599.972	36770.97
600.33	36763.28
600.688	36817.97
601.046	36759.9
601.404	36923.51
601.762	36844.64
602.12	37164.4
602.478	37044.86
602.836	37175.03
603.194	36817.52
603.552	37108.13
603.91	36850.51
604.268	37160.56
604.625	37003.5
604.983	37148.59
605.341	37070.85
605.698	37317.62
606.056	37270.39
606.413	37192.88
606.771	37361.24
607.128	37345.64
607.485	37178.42
607.843	37346.55
608.2	37620.21
608.557	37585.86
608.914	37472.64
609.272	37684.16
609.629	37651.85
609.986	37749.93
610.343	37676.03
610.7	37903.14
611.057	37824.73
611.414	37889.13
611.771	37819.98
612.127	38034.66
612.484	37935.46
612.841	37973.87
613.198	37871.73
613.554	38036.47
613.911	38111.72
614.267	38156.69
614.624	38115.34
614.98	38176.81
615.337	38272.85
615.693	38285.73
616.05	38173.19
616.406	38480.08
616.762	38403.92
617.118	38401.89
617.475	38494.31
617.831	38429
618.187	38443.69
618.543	38538.61
618.899	38654.53
619.255	38583.58
619.611	38551.26
619.967	38647.75
620.323	38814.98
620.678	38448.89
621.034	38559.17
621.39	38509.91
621.746	38441.43
622.101	38876.9
622.457	38585.38
622.812	38601.43
623.168	38714.42
623.523	38888.88
623.879	38878.94
624.234	38531.6
624.589	38682.1
624.945	38791.71
625.3	38728.2
625.655	38671.71
626.01	38697.02
626.365	38702.22
626.72	38666.96
627.075	38682.56
627.43	38695.44
627.785	38486.63
628.14	38617.25
628.495	38669.9
628.85	38601.88
629.205	38573.86
629.559	38622.44
629.914	38501.54
630.269	38495.67
630.623	38337.03
630.978	38453.86
631.332	38558.72
631.687	38459.51
632.041	38306.52
632.396	38438.95
632.75	38275.56
633.104	38351.49
633.459	38113.31
633.813	38180.87
634.167	37991.5
634.521	38033.99
634.875	38111.05
635.229	38158.95
635.583	37791.51
635.937	37918.73
636.291	37690.94
636.645	37845.29
636.999	37741.79
637.352	37843.48
637.706	37472.87
638.06	37716.03
638.413	37584.28
638.767	37588.35
639.121	37455.02
639.474	37306.1
639.828	37434.45
640.181	37384.29
640.534	37450.27
640.888	37271.52
641.241	37205.08
641.594	37266.55
641.947	37248.47
642.301	37243.5
642.654	37148.59
643.007	37179.32
643.36	37127.34
643.713	37078.08
644.066	37199.21
644.419	36803.06
644.771	36715.6
645.124	36365.78
645.477	36252.11
645.83	36007.15
646.182	35837.89
646.535	35812.58
646.888	35736.65
647.24	35561.73
647.593	35663.88
647.945	35703.65
648.298	35564.22
648.65	35379.59
649.002	35364.23
649.355	35568.51
649.707	35469.31
650.059	35429.08
650.411	35977.77
650.763	35981.84
651.115	36290.08
651.467	36173.02
651.819	36182.96
652.171	36032.23
652.523	35974.15
652.875	35941.16
653.227	35831.33
653.578	36081.95
653.93	35832.24
654.282	35717.66
654.633	35550.89
654.985	35872.01
655.337	35808.28
655.688	35698.91
656.039	35814.84
656.391	35535.29
656.742	35563.32
657.094	35487.16
657.445	35747.49
657.796	35661.17
658.147	35383.66
658.498	35444.9
658.849	35626.59
659.2	35439.48
659.551	35348.18
659.902	35512.47
660.253	35384.79
660.604	35500.04
660.955	35112.48
661.306	35283.78
661.656	35277.22
662.007	35258.47
662.358	35197.68
662.708	35323.32
663.059	35279.71
663.409	34957.91
663.76	35283.78
664.11	35087.85
664.461	35150.22
664.811	35175.98
665.161	35187.51
665.511	35087.17
665.862	35037.68
666.212	35137.79
666.562	35322.64
666.912	35088.98
667.262	35065.25
667.612	35037.91
667.962	35202.65
668.312	34911.13
668.662	35100.5
669.011	35036.1
669.361	34964.01
669.711	34962.2
670.06	34827.74
670.41	34870.45
670.76	34666.16
671.109	34967.4
671.459	34846.72
671.808	34778.48
672.157	34924.92
672.507	34488.32
672.856	34552.04
673.205	34562.44
673.554	34744.35
673.904	34513.4
674.253	34695.09
674.602	34574.64
674.951	34076.58
675.3	33957.93
675.649	34420.07
675.998	34406.28
676.346	34313.41
676.695	34523.12
677.044	34197.93
677.393	34310.47
677.741	34462.33
678.09	34166.74
678.438	34114.77
678.787	34197.93
679.135	34354.53
679.484	33947.31
679.832	34166.29
680.181	33999.97
680.529	33929.46
680.877	33886.52
681.225	33824.83
681.573	33947.31
681.922	33763.82
682.27	33647.21
682.618	33618.73
682.966	33550.71
683.314	33597.72
683.661	33608.34
684.009	33370.61
684.357	33369.02
684.705	33368.12
685.053	33356.14
685.4	33349.82
685.748	33167.9
686.095	33166.54
686.443	32991.18
686.79	32876.16
687.138	32881.13
687.485	32987.56
687.832	32791.19
688.18	32797.06
688.527	32677.97
688.874	32538.99
689.221	32506
689.568	32386.68
689.915	32372.44
690.262	32325.44
690.609	32305.77
690.956	32077.08
691.303	32143.29
691.65	31978.55
691.997	31780.36
692.344	31838.44
692.69	31818.33
693.037	31730.87
693.383	31382.64
693.73	31605.23
694.077	31450.66
694.423	31352.58
694.769	31289.3
695.116	31227.16
695.462	31179.7
695.808	31012.93
696.155	31013.38
696.501	30824.91
696.847	30835.76
697.193	30549.89
697.539	30764.12
697.885	30473.51
698.231	30612.94
698.577	30497.91
698.923	30407.29
699.269	30043.01
699.614	30096.57
699.96	29988.1
700.306	29979.96
700.651	29847.53
700.997	29714.66
701.342	29786.97
701.688	29646.18
702.033	29415
702.379	29550.82
702.724	29445.74
703.069	29559.63
703.415	29066.09
703.76	29165.74
704.105	29146.31
704.45	29110.15
704.795	28904.28
705.14	28831.06
705.485	28874.45
705.83	28709.49
706.175	28815.02
706.52	28634.01
706.865	28553.78
707.209	28414.58
707.554	28438.76
707.899	28439.66
708.243	28211.65
708.588	28215.71
708.932	28016.85
709.277	28116.05
709.621	27982.5
709.966	27825.44
710.31	27808.27
710.654	27703.18
710.998	27657.76
711.342	27763.52
711.687	27655.95
712.031	27436.75
712.375	27437.2
712.719	27393.36
713.063	27335.51
713.407	27459.57
713.75	27384.32
714.094	27260.71
714.438	27199.47
714.782	27173.93
715.125	27021.17
715.469	27232.91
715.812	26874.28
716.156	26847.39
716.499	26790.44
716.843	26805.81
717.186	26656.88
717.53	26793.6
717.873	26740.95
718.216	26618.01
718.559	26542.54
718.902	26347.29
719.246	26425.25
719.589	26285.37
719.932	26285.37
720.275	26116.33
720.617	26129.89
720.96	26220.51
721.303	26157.46
721.646	26141.87
721.989	25909.56
722.331	26041.08
722.674	25856
723.016	25943.68
723.359	25924.25
723.701	25909.11
724.044	25597.93
724.386	25582.79
724.729	25808.32
725.071	25558.61
725.413	25588.66
725.755	25535.56
726.097	25486.07
726.439	25318.16
726.782	25381.21
727.124	25447.42
727.465	25338.95
727.807	25236.13
728.149	25131.95
728.491	25248.79
728.833	25134.66
729.175	24917.95
729.516	24961.56
729.858	24960.88
730.199	24875.01
730.541	24932.86
730.882	24870.04
731.224	24902.13
731.565	24700.78
731.906	24774.67
732.248	24747.78
732.589	24529.48
732.93	24494.68
733.271	24537.39
733.612	24559.09
733.953	24556.37
734.294	24362.93
734.635	24419.88
734.976	24517.73
735.317	24350.5
735.658	24334.69
735.999	24256.27
736.339	24190.73
736.68	24225.99
737.021	24185.31
737.361	24052.88
737.702	24215.37
738.042	23990.97
738.383	24063.51
738.723	24012.43
739.063	23916.84
739.404	23941.02
739.744	23905.09
740.084	23778.32
740.424	23717.98
740.764	23807.92
741.104	23774.02
741.444	23557.98
741.784	23583.52
742.124	23657.64
742.464	23543.97
742.804	23498.77
743.143	23443.63
743.483	23497.87
743.823	23313.92
744.162	23335.16
744.502	23327.71
744.841	23213.81
745.181	23285.45
745.52	23233.25
745.86	23185.56
746.199	23214.26
746.538	23169.07
746.877	23131.55
747.216	23095.17
747.556	23087.03
747.895	22971.33
748.234	22917.32
748.573	22843.42
748.911	22844.55
749.25	22764.33
749.589	22594.84
749.928	22641.62
750.267	22719.59
750.605	22580.83
750.944	22502.87
751.283	22518.24
751.621	22534.96
751.96	22315.53
752.298	22406.83
752.636	22369.99
752.975	22235.31
753.313	22221.52
