Data from white_steel_sheet_FLMS001491_014.txt Node
Date: Tue Feb 07 10:57:27 GMT 2017
User: dcchb
Spectrometer: FLMS00149
Trigger mode: 0
Integration Time (sec): 2.000000E-2
Scans to average: 10
Electric dark correction enabled: true
Nonlinearity correction enabled: false
Boxcar width: 0
XAxis mode: Wavelengths
Number of Pixels in Spectrum: 2048
>>>>>Begin Spectral Data<<<<<
341.393	-21.26
341.776	-21.26
342.16	-21.26
342.543	-51.99
342.927	-71.65
343.31	-72.78
343.693	-63.52
344.077	-59.67
344.46	-60.13
344.843	-20.35
345.226	-44.08
345.61	-44.53
345.993	-7.92
346.376	-24.42
346.759	7.9
347.142	16.26
347.525	37.27
347.908	53.77
348.291	69.81
348.674	99.64
349.057	112.75
349.44	128.34
349.823	150.94
350.206	165.41
350.588	197.49
350.971	208.34
351.354	231.84
351.737	245.86
352.119	259.64
352.502	267.78
352.884	264.39
353.267	269.58
353.65	288.57
354.032	309.81
354.414	293.99
354.797	303.48
355.179	316.36
355.562	317.49
355.944	335.12
356.326	343.25
356.709	351.39
357.091	334.44
357.473	338.73
357.855	331.95
358.238	326.08
358.62	360.43
359.002	340.32
359.384	348
359.766	338.51
360.148	333.54
360.53	345.97
360.912	321.11
361.294	332.18
361.676	317.27
362.057	331.73
362.439	328.34
362.821	339.86
363.203	336.7
363.584	318.4
363.966	319.07
364.348	324.95
364.729	302.12
365.111	329.47
365.493	310.71
365.874	313.65
366.256	312.29
366.637	308.9
367.019	309.58
367.4	305.29
367.781	328.34
368.163	305.74
368.544	307.77
368.925	315.68
369.306	327.43
369.688	320.43
370.069	327.89
370.45	325.63
370.831	322.01
371.212	306.87
371.593	309.13
371.974	343.48
372.355	332.18
372.736	324.95
373.117	355.23
373.498	333.99
373.879	312.52
374.26	335.12
374.641	316.36
375.021	332.63
375.402	319.98
375.783	340.09
376.163	333.08
376.544	314.33
376.925	326.98
377.305	348
377.686	346.64
378.066	338.06
378.447	352.97
378.827	362.91
379.208	337.38
379.588	349.13
379.968	346.42
380.349	356.81
380.729	358.85
381.109	365.17
381.489	361.11
381.87	339.41
382.25	360.43
382.63	361.33
383.01	391.84
383.39	358.17
383.77	368.11
384.15	368.56
384.53	374.67
384.91	374.44
385.29	366.98
385.67	381.44
386.049	379.41
386.429	361.33
386.809	367.89
387.189	388.22
387.568	383.48
387.948	391.61
388.328	396.13
388.707	419.41
389.087	403.37
389.466	397.94
389.846	392.97
390.225	428
390.605	403.37
390.984	411.95
391.363	407.66
391.743	447.43
392.122	424.38
392.501	442.23
392.881	427.32
393.26	442.46
393.639	458.96
394.018	451.5
394.397	447.43
394.776	458.5
395.155	447.88
395.534	470.71
395.913	472.74
396.292	453.99
396.671	455.79
397.05	462.57
397.429	472.74
397.808	478.62
398.186	521.33
398.565	500.09
398.944	483.14
399.323	493.53
399.701	506.19
400.08	534.44
400.458	534.89
400.837	532.63
401.215	552.06
401.594	547.32
401.972	555.45
402.351	574.21
402.729	585.73
403.107	578.05
403.486	582.57
403.864	614.43
404.242	600.42
404.62	627.54
404.999	639.97
405.377	642
405.755	641.55
406.133	656.01
406.511	659.4
406.889	673.19
407.267	682
407.645	690.36
408.023	703.92
408.401	700.31
408.779	697.59
409.156	742.79
409.534	724.49
409.912	755.45
410.29	773.07
410.667	766.52
411.045	785.95
411.422	782.79
411.8	808.33
412.178	831.38
412.555	822.79
412.933	844.03
413.31	841.32
413.687	879.96
414.065	868.66
414.442	861.21
414.819	904.59
415.197	898.49
415.574	904.14
415.951	929.45
416.328	918.38
416.705	937.59
417.082	946.85
417.46	963.58
417.837	984.14
418.214	996.12
418.591	1013.29
418.967	985.27
419.344	1018.04
419.721	1021.65
420.098	1027.08
420.475	1043.8
420.852	1077.7
421.228	1049
421.605	1078.38
421.982	1073.18
422.358	1089.9
422.735	1116.79
423.111	1112.95
423.488	1129.9
423.864	1157.02
424.241	1154.76
424.617	1184.14
424.994	1185.49
425.37	1178.03
425.746	1167.86
426.123	1199.95
426.499	1204.02
426.875	1252.38
427.251	1250.8
427.627	1262.1
428.003	1291.03
428.379	1300.97
428.756	1305.71
429.132	1317.92
429.507	1330.8
429.883	1386.39
430.259	1385.71
430.635	1384.58
431.011	1412.38
431.387	1433.17
431.763	1447.86
432.138	1478.82
432.514	1505.71
432.89	1500.06
433.265	1526.73
433.641	1545.48
434.016	1569.66
434.392	1613.5
434.767	1634.52
435.143	1633.39
435.518	1648.08
435.894	1682.43
436.269	1696.89
436.644	1703.44
437.02	1736.21
437.395	1739.83
437.77	1737.79
438.145	1793.16
438.52	1801.07
438.895	1823.21
439.271	1817.11
439.646	1877.45
440.021	1862.99
440.395	1888.75
440.77	1869.99
441.145	1914.74
441.52	1954.28
441.895	1942.08
442.27	1996.77
442.645	1969.2
443.019	2001.29
443.394	1984.11
443.769	2024.57
444.143	1986.83
444.518	2051.23
444.892	2081.06
445.267	2068.18
445.641	2112.02
446.016	2092.59
446.39	2147.27
446.764	2159.25
447.139	2130.55
447.513	2187.05
447.887	2197.44
448.262	2173.04
448.636	2184.56
449.01	2218.91
449.384	2262.75
449.758	2278.34
450.132	2298
450.506	2289.87
450.88	2281.96
451.254	2338.46
451.628	2358.34
452.002	2370.77
452.376	2411.67
452.75	2422.3
453.123	2460.94
453.497	2489.86
453.871	2521.73
454.244	2543.87
454.618	2568.96
454.992	2624.32
455.365	2633.14
455.739	2705
456.112	2718.78
456.486	2739.8
456.859	2768.5
457.232	2802.4
457.606	2806.92
457.979	2847.59
458.352	2931.89
458.725	2929.63
459.099	2964.43
459.472	2990.87
459.845	3027.02
460.218	3076.29
460.591	3131.65
460.964	3076.29
461.337	3205.55
461.71	3202.61
462.083	3266.34
462.456	3231.77
462.829	3288.94
463.201	3326.45
463.574	3333.01
463.947	3429.5
464.32	3456.17
464.692	3500.01
465.065	3505.2
465.438	3605.31
465.81	3642.6
466.183	3666.78
466.555	3723.05
466.928	3743.84
467.3	3804.41
467.672	3847.34
468.045	3907.91
468.417	3921.46
468.789	3950.84
469.161	4025.19
469.534	4108.35
469.906	4147.67
470.278	4213.43
470.65	4255.69
471.022	4345.18
471.394	4426.54
471.766	4457.72
472.138	4457.72
472.51	4561.22
472.882	4629.69
473.253	4699.75
473.625	4820.2
473.997	4881.44
474.369	4889.12
474.74	4947.88
475.112	5039.85
475.484	5113.3
475.855	5269.45
476.227	5276.68
476.598	5370.69
476.97	5441.65
477.341	5547.18
477.713	5633.51
478.084	5709.89
478.455	5823.34
478.827	5887.74
479.198	6067.62
479.569	6015.87
479.94	6195.98
480.311	6220.39
480.682	6437.78
481.053	6552.36
481.424	6660.83
481.795	6692.24
482.166	6835.96
482.537	6900.6
482.908	7055.85
483.279	7094.26
483.65	7226.91
484.021	7400.7
484.391	7502.61
484.762	7572.89
485.133	7672.1
485.503	7740.12
485.874	7900.57
486.244	8011.75
486.615	8082.49
486.985	8208.36
487.356	8405.87
487.726	8515.92
488.097	8644.28
488.467	8669.59
488.837	8891.73
489.207	8959.07
489.578	9089.69
489.948	9175.34
490.318	9342.34
490.688	9258.27
491.058	9523.58
491.428	9581.88
491.798	9676.12
492.168	9924.24
492.538	9919.95
492.908	10031.59
493.278	10205.59
493.648	10161.75
494.017	10362.65
494.387	10439.71
494.757	10560.39
495.126	10679.48
495.496	10678.12
495.866	10815.52
496.235	10878.57
496.605	10991.56
496.974	11064.78
497.344	11125.8
497.713	11237.88
498.082	11346.81
498.452	11436.52
498.821	11576.18
499.19	11603.52
499.559	11658.44
499.928	11804.65
500.298	11850.3
500.667	12055.26
501.036	12021.14
501.405	12080.8
501.774	12200.34
502.143	12257.97
502.512	12358.08
502.88	12442.14
503.249	12561.01
503.618	12705.87
503.987	12695.92
504.356	12857.73
504.724	12883.49
505.093	12994.22
505.462	13023.37
505.83	13189.24
506.199	13256.13
506.567	13363.02
506.936	13478.28
507.304	13634.88
507.672	13615
508.041	13731.83
508.409	13855.89
508.777	13888.43
509.145	13972.05
509.514	14068.32
509.882	14123
510.25	14223.79
510.618	14309.89
510.986	14367.52
511.354	14599.6
511.722	14673.72
512.09	14752.82
512.458	14854.96
512.826	14969.99
513.193	14986.26
513.561	15162.3
513.929	15285.69
514.297	15463.31
514.664	15577.66
515.032	15654.49
515.4	15803.41
515.767	15870.53
516.135	16022.16
516.502	15882.05
516.869	16249.5
517.237	16194.14
517.604	16199.33
517.972	16451.53
518.339	16646.33
518.706	16580.11
519.073	16840.67
519.44	16858.98
519.808	17056.71
520.175	17112.53
520.542	17355.01
520.909	17429.81
521.276	17441.56
521.643	17610.37
522.009	17800.42
522.376	17884.49
522.743	18131.03
523.11	18286.06
523.477	18387.52
523.843	18496.22
524.21	18800.17
524.577	18837.46
524.943	19053.27
525.31	19102.53
525.676	19367.16
526.043	19411
526.409	19536.87
526.776	19759.69
527.142	19757.66
527.508	20026.8
527.874	20096.41
528.241	20233.35
528.607	20275.84
528.973	20460.24
529.339	20584.76
529.705	20733.9
530.071	20940.45
530.437	20874.92
530.803	21155.59
531.169	21285.53
531.535	21265.42
531.901	21345.41
532.267	21426.99
532.632	21669.25
532.998	21644.39
533.364	21867.89
533.73	21922.57
534.095	22088.67
534.461	22210.93
534.826	22364.82
535.192	22422.9
535.557	22565.27
535.923	22552.16
536.288	22656.34
536.653	22761.87
537.019	22827.86
537.384	22942.43
537.749	23151.24
538.114	23137.68
538.479	23170
538.845	23324.57
539.21	23283.22
539.575	23466.49
539.94	23490.89
540.305	23723.2
540.67	23654.28
541.034	23796.65
541.399	23837.78
541.764	23930.43
542.129	23911.22
542.494	23990.77
542.858	24296.07
543.223	24272.12
543.587	24356.86
543.952	24463.3
544.316	24522.05
544.681	24514.6
545.045	24665.1
545.41	24778.09
545.774	24866.45
546.138	24950.52
546.503	25033.68
546.867	25054.92
547.231	25254.01
547.595	25209.27
547.959	25379.21
548.324	25474.8
548.688	25538.52
549.052	25601.35
549.416	25678.18
549.779	25730.38
550.143	25764.96
550.507	26089.47
550.871	25973.09
551.235	25988.23
551.599	26379.86
551.962	26409.69
552.326	26325.17
552.689	26649.23
553.053	26519.29
553.417	26624.14
553.78	26888.54
554.143	26847.87
554.507	26842.44
554.87	27054.64
555.234	27336.44
555.597	27058.03
555.96	27288.99
556.323	27487.4
556.686	27507.74
557.05	27697.11
557.413	27880.83
557.776	27937.1
558.139	28065.69
558.502	28080.6
558.865	28137.1
559.228	28432.23
559.59	28376.87
559.953	28527.6
560.316	28686.92
560.679	28882.84
561.041	28906.12
561.404	29108.6
561.767	29255.94
562.129	29284.64
562.492	29517.85
562.854	29554.24
563.217	29483.96
563.579	29666.55
563.941	29874.23
564.304	29946.77
564.666	30170.04
565.028	30252.75
565.39	30380.43
565.753	30453.42
566.115	30562.12
566.477	30831.27
566.839	30869.91
567.201	31109.68
567.563	31146.96
567.925	31294.53
568.287	31309.22
568.648	31378.37
569.01	31525.71
569.372	31835.98
569.734	31690.68
570.095	31860.62
570.457	31993.49
570.819	32206.6
571.18	32153.72
571.542	32343.54
571.903	32350.77
572.265	32464.22
572.626	32542.41
572.987	32605
573.349	32662.4
573.71	32757.99
574.071	32860.36
574.432	32937.2
574.794	33136.06
575.155	33126.12
575.516	32989.17
575.877	33197.98
576.238	33367.92
576.599	33329.73
576.96	33444.3
577.32	33403.63
577.681	33592.77
578.042	33648.82
578.403	33600.23
578.763	33642.72
579.124	33673.45
579.485	33755.26
579.845	33940.34
580.206	33911.86
580.566	33766.33
580.927	34021.01
581.287	34035.93
581.648	33964.74
582.008	33987.34
582.368	34065.98
582.728	34087
583.089	34010.39
583.449	33954.35
583.809	33980.11
584.169	34169.48
584.529	34082.48
584.889	34325.41
585.249	34063.27
585.609	33948.92
585.969	34209.48
586.329	34085.42
586.688	34183.72
587.048	34080.67
587.408	34135.59
587.768	34140.33
588.127	34022.82
588.487	34037.73
588.846	34276.37
589.206	34185.53
589.565	34076.83
589.925	34248.8
590.284	34091.52
590.643	34229.82
591.003	34249.03
591.362	34272.98
591.721	34320.67
592.08	34189.82
592.44	34278.63
592.799	34254.9
593.158	34182.59
593.517	34169.71
593.876	34335.13
594.235	34114.34
594.593	34211.29
594.952	34250.38
595.311	34131.97
595.67	34293.77
596.029	34395.92
596.387	34366.77
596.746	34595.69
597.104	34185.3
597.463	34249.25
597.822	34327.22
598.18	34287.9
598.538	34369.93
598.897	34383.04
599.255	34156.15
599.613	34613.31
599.972	34411.74
600.33	34388.91
600.688	34400.66
601.046	34520.66
601.404	34564.05
601.762	34511.39
602.12	34572.18
602.478	34609.7
602.836	34682.69
603.194	34338.97
603.552	34507.33
603.91	34398.18
604.268	34589.13
604.625	34464.16
604.983	34633.65
605.341	34550.49
605.698	34765.17
606.056	34796.81
606.413	34718.62
606.771	34710.71
607.128	34803.82
607.485	34540.77
607.843	34727.89
608.2	34940.08
608.557	34985.51
608.914	34827.09
609.272	34974.66
609.629	34973.08
609.986	35077.48
610.343	34959.07
610.7	35203.58
611.057	35180.08
611.414	35126.97
611.771	35240.87
612.127	35375.55
612.484	35370.13
612.841	35420.98
613.198	35278.83
613.554	35315.22
613.911	35548.43
614.267	35611.7
614.624	35409.9
614.98	35526.06
615.337	35763.79
615.693	35632.04
616.05	35590.69
616.406	35828.2
616.762	35626.39
617.118	35663.45
617.475	35672.95
617.831	35827.74
618.187	35894.41
618.543	35912.26
618.899	36115.65
619.255	36014.63
619.611	35939.15
619.967	36038.13
620.323	36123.33
620.678	35924.69
621.034	35888.31
621.39	36024.58
621.746	35928.08
622.101	36432.25
622.457	36061.18
622.812	36157.45
623.168	36196.32
623.523	36223.44
623.879	36228.64
624.234	35981.19
624.589	36259.6
624.945	36182.99
625.3	36042.2
625.655	36292.59
626.01	36221.86
626.365	36242.87
626.72	36177.11
627.075	36153.61
627.43	36032.26
627.785	36119.04
628.14	36159.26
628.495	36229.54
628.85	36185.93
629.205	35880.4
629.559	36186.83
629.914	35874.07
630.269	36078.13
630.623	35870
630.978	35826.84
631.332	36110.22
631.687	36077.91
632.041	35938.02
632.396	35989.55
632.75	35752.72
633.104	35742.77
633.459	35709.33
633.813	35633.85
634.167	35622.55
634.521	35723.11
634.875	35651.48
635.229	35606.73
635.583	35327.64
635.937	35446.06
636.291	35274.31
636.645	35430.01
636.999	35255.1
637.352	35351.6
637.706	35194.09
638.06	35196.12
638.413	35093.3
638.767	35152.28
639.121	35179.17
639.474	34889.01
639.828	34901.67
640.181	35055.34
640.534	34895.11
640.888	34715.01
641.241	34555.01
641.594	34698.28
641.947	34756.59
642.301	34641.11
642.654	34642.69
643.007	34635.01
643.36	34522.02
643.713	34589.13
644.066	34607.66
644.419	34356.37
644.771	34107.79
645.124	33909.6
645.477	33717.52
645.83	33504.87
646.182	33348.04
646.535	33326.34
646.888	33367.47
647.24	33189.62
647.593	33373.8
647.945	33234.37
648.298	33154.14
648.65	33134.03
649.002	32979.46
649.355	33221.49
649.707	33033.24
650.059	33116.18
650.411	33577.86
650.763	33544.41
651.115	33831.19
651.467	33714.13
651.819	33787.8
652.171	33791.87
652.523	33691.76
652.875	33649.04
653.227	33545.54
653.578	33683.62
653.93	33516.17
654.282	33490.86
654.633	33442.72
654.985	33585.32
655.337	33581.93
655.688	33484.53
656.039	33541.93
656.391	33186.68
656.742	33311.65
657.094	33330.18
657.445	33353.69
657.796	33208.83
658.147	33132.9
658.498	33215.38
658.849	33286.79
659.2	33109.85
659.551	32978.33
659.902	33182.84
660.253	32961.15
660.604	32986.24
660.955	32780.14
661.306	32942.4
661.656	32877.31
662.007	32810.87
662.358	32732.23
662.708	32641.84
663.059	32664.21
663.409	32506.93
663.76	32751.22
664.11	32587.38
664.461	32639.81
664.811	32563.88
665.161	32520.49
665.511	32302.19
665.862	32362.3
666.212	32437.55
666.562	32344.22
666.912	32259.93
667.262	32159.82
667.612	32144.23
667.962	32125.24
668.312	31953.72
668.662	32103.55
669.011	31899.03
669.361	31811.13
669.711	31589.21
670.06	31614.97
670.41	31493.85
670.76	31330.91
671.109	31542.43
671.459	31312.61
671.808	31341.53
672.157	31281.42
672.507	31033.07
672.856	31122.78
673.205	31074.42
673.554	31066.74
673.904	30916.46
674.253	31088.43
674.602	30908.78
674.951	30459.07
675.3	30334.33
675.649	30817.25
675.998	30687.54
676.346	30775.22
676.695	30783.13
677.044	30546.3
677.393	30617.49
677.741	30754.66
678.09	30482.35
678.438	30403.93
678.787	30488.9
679.135	30490.48
679.484	30249.81
679.832	30550.37
680.181	30343.37
680.529	30372.97
680.877	30267.21
681.225	30344.72
681.573	30487.55
681.922	30290.26
682.27	30151.74
682.618	30377.49
682.966	30416.59
683.314	30305.4
683.661	30262.92
684.009	30187.44
684.357	30175.69
684.705	30366.42
685.053	30172.75
685.4	30199.87
685.748	30147.22
686.095	30284.16
686.443	30090.95
686.79	30172.75
687.138	30113.09
687.485	30287.55
687.832	30168.01
688.18	30328
688.527	30017.5
688.874	30093.21
689.221	30079.42
689.568	29989.71
689.915	29910.61
690.262	30087.56
690.609	29865.19
690.956	29739.77
691.303	29784.29
691.65	29743.84
691.997	29855.02
692.344	29639.88
692.69	29747.68
693.037	29721.01
693.383	29505.65
693.73	29717.85
694.077	29493.45
694.423	29448.03
694.769	29446.22
695.116	29544.97
695.462	29376.61
695.808	29344.53
696.155	29441.25
696.501	29131.65
696.847	29225.43
697.193	29001.48
697.539	29151.31
697.885	28914.03
698.231	28849.62
698.577	28857.98
698.923	28786.57
699.269	28672
699.614	28439.01
699.96	28541.83
700.306	28558.11
700.651	28318.56
700.997	28270.88
701.342	28218.9
701.688	28277.89
702.033	28153.14
702.379	28167.83
702.724	28080.15
703.069	28095.52
703.415	27710.44
703.76	27721.06
704.105	27724.45
704.45	27715.64
704.795	27582.54
705.14	27559.71
705.485	27528.3
705.83	27389.1
706.175	27406.27
706.52	27276.56
706.865	27277.46
707.209	27247.63
707.554	26978.94
707.899	27169.89
708.243	26950.01
708.588	26918.37
708.932	26719.06
709.277	26726.06
709.621	26736.68
709.966	26575.11
710.31	26654.88
710.654	26469.12
710.998	26379.86
711.342	26536.46
711.687	26491.49
712.031	26392.74
712.375	26297.37
712.719	26265.74
713.063	26144.61
713.407	26242.46
713.75	26131.05
714.094	26166.08
714.438	25930.15
714.782	26077.49
715.125	25810.61
715.469	25922.02
715.812	25781.68
716.156	25729.03
716.499	25628.92
716.843	25585.98
717.186	25600.22
717.53	25656.49
717.873	25652.87
718.216	25402.71
718.559	25376.49
718.902	25243.16
719.246	25206.33
719.589	25157.97
719.932	25072.77
720.275	25151.64
720.617	25164.97
720.96	25088.82
721.303	25043.4
721.646	25094.24
721.989	25006.33
722.331	24868.71
722.674	24839.33
723.016	24890.18
723.359	24886.34
723.701	24909.84
724.044	24568.61
724.386	24656.51
724.729	24654.7
725.071	24674.14
725.413	24582.84
725.755	24544.88
726.097	24387.82
726.439	24380.59
726.782	24346.24
727.124	24350.76
727.465	24286.35
727.807	24266.47
728.149	24189.41
728.491	24110.31
728.833	24239.57
729.175	24126.58
729.516	24052.91
729.858	24046.13
730.199	24016.08
730.541	23914.39
730.882	23877.78
731.224	23977.66
731.565	23838.23
731.906	23785.35
732.248	23780.83
732.589	23632.13
732.93	23591.68
733.271	23667.16
733.612	23580.16
733.953	23588.74
734.294	23489.76
734.635	23462.87
734.976	23486.15
735.317	23355.08
735.658	23362.08
735.999	23335.64
736.339	23235.31
736.68	23355.76
737.021	23258.58
737.361	23128.87
737.702	23268.75
738.042	23140.39
738.383	23058.14
738.723	23096.33
739.063	23020.17
739.404	23085.25
739.744	23040.06
740.084	22894.3
740.424	22979.49
740.764	22895.88
741.104	22881.19
741.444	22861.98
741.784	22693.4
742.124	22742.21
742.464	22626.74
742.804	22629
743.143	22619.96
743.483	22572.95
743.823	22338.83
744.162	22505.61
744.502	22404.59
744.841	22391.04
745.181	22548.77
745.52	22396.46
745.86	22258.16
746.199	22223.81
746.538	22407.08
746.877	22243.47
747.216	22240.08
747.556	22196.24
747.895	22064.94
748.234	22161.21
748.573	22021.1
748.911	22114.21
749.25	21948.34
749.589	21861.33
749.928	21946.3
750.267	21853.65
750.605	21840.99
750.944	21717.38
751.283	21673.99
751.621	21669.02
751.96	21568.01
752.298	21526.43
752.636	21604.62
752.975	21477.39
753.313	21358.07
753.651	21489.14
753.989	21295.02
