Data from white_steel_sheet_FLMS001491_039.txt Node
Date: Tue Feb 07 10:57:46 GMT 2017
User: dcchb
Spectrometer: FLMS00149
Trigger mode: 0
Integration Time (sec): 2.000000E-2
Scans to average: 10
Electric dark correction enabled: true
Nonlinearity correction enabled: false
Boxcar width: 0
XAxis mode: Wavelengths
Number of Pixels in Spectrum: 2048
>>>>>Begin Spectral Data<<<<<
341.393	-9.49
341.776	-9.49
342.16	-9.49
342.543	-52.2
342.927	-49.94
343.31	-71.41
343.693	-83.39
344.077	-64.63
344.46	-36.38
344.843	-48.59
345.226	-41.13
345.61	-37.06
345.993	-25.99
346.376	-13.33
346.759	4.07
347.142	20.34
347.525	49.26
347.908	46.33
348.291	79.09
348.674	98.53
349.057	124.29
349.44	131.97
349.823	126.32
350.206	166.32
350.588	207.45
350.971	222.59
351.354	242.48
351.737	240.9
352.119	259.88
352.502	272.31
352.884	288.13
353.267	279.31
353.65	290.16
354.032	308.47
354.414	320.9
354.797	306.21
355.179	313.21
355.562	336.04
355.944	333.32
356.326	347.79
356.709	334.91
357.091	343.49
357.473	351.4
357.855	332.65
358.238	359.99
358.62	357.5
359.002	359.76
359.384	336.26
359.766	340.1
360.148	358.41
360.53	334.23
360.912	324.51
361.294	359.99
361.676	349.37
362.057	331.97
362.439	331.74
362.821	332.19
363.203	356.37
363.584	319.31
363.966	344.62
364.348	340.78
364.729	338.3
365.111	320.22
365.493	341.01
365.874	317.28
366.256	331.29
366.637	337.84
367.019	343.27
367.4	338.97
367.781	335.58
368.163	325.19
368.544	323.61
368.925	334.68
369.306	344.62
369.688	322.48
370.069	328.35
370.45	327.45
370.831	308.01
371.212	313.21
371.593	317.73
371.974	335.13
372.355	329.26
372.736	336.94
373.117	325.87
373.498	307.34
373.879	343.27
374.26	319.77
374.641	328.8
375.021	316.83
375.402	347.34
375.783	310.95
376.163	340.78
376.544	348.47
376.925	343.04
377.305	338.07
377.686	355.24
378.066	350.5
378.447	359.76
378.827	355.24
379.208	348.92
379.588	340.1
379.968	361.8
380.349	338.97
380.729	359.99
381.109	359.54
381.489	361.35
381.87	363.15
382.25	372.87
382.63	353.66
383.01	370.39
383.39	377.62
383.77	364.74
384.15	360.44
384.53	383.27
384.91	367.22
385.29	376.04
385.67	376.94
386.049	376.49
386.429	383.04
386.809	399.09
387.189	377.84
387.568	394.34
387.948	416.94
388.328	403.38
388.707	410.38
389.087	405.87
389.466	423.49
389.846	429.14
390.225	414.9
390.605	410.61
390.984	418.07
391.363	414.45
391.743	456.26
392.122	428.69
392.501	435.69
392.881	433.66
393.26	447.67
393.639	462.59
394.018	441.12
394.397	465.75
394.776	465.3
395.155	470.5
395.534	462.81
395.913	500.78
396.292	493.32
396.671	492.87
397.05	505.52
397.429	491.06
397.808	514.11
398.186	501.91
398.565	509.37
398.944	530.38
399.323	529.93
399.701	542.36
400.08	553.66
400.458	551.17
400.837	542.36
401.215	551.85
401.594	582.58
401.972	570.15
402.351	561.12
402.729	607.89
403.107	597.95
403.486	592.07
403.864	614.45
404.242	649.7
404.62	637.05
404.999	618.06
405.377	647.89
405.755	652.64
406.133	678.4
406.511	678.4
406.889	679.98
407.267	712.75
407.645	694.22
408.023	731.73
408.401	735.12
408.779	752.97
409.156	733.09
409.534	752.07
409.912	747.78
410.29	784.84
410.667	793.43
411.045	824.39
411.422	798.85
411.8	819.64
412.178	833.65
412.555	834.55
412.933	867.1
413.31	889.92
413.687	915.68
414.065	918.17
414.442	916.36
414.819	924.95
415.197	923.14
415.574	942.8
415.951	936.47
416.328	953.42
416.705	972.86
417.082	978.05
417.46	1004.72
417.837	1006.75
418.214	1002.23
418.591	1017.15
418.967	1019.41
419.344	1033.42
419.721	1068.45
420.098	1075.68
420.475	1051.5
420.852	1088.78
421.228	1078.84
421.605	1100.31
421.982	1122.46
422.358	1106.41
422.735	1143.25
423.111	1124.72
423.488	1165.62
423.864	1164.49
424.241	1202
424.617	1199.06
424.994	1207.88
425.37	1243.36
425.746	1241.78
426.123	1236.58
426.499	1257.59
426.875	1272.06
427.251	1284.49
427.627	1325.61
428.003	1325.84
428.379	1344.37
428.756	1373.07
429.132	1390.25
429.507	1385.27
429.883	1414.65
430.259	1427.99
430.635	1416.46
431.011	1461.2
431.387	1463.01
431.763	1511.37
432.138	1520.86
432.514	1560.18
432.89	1573.74
433.265	1595.89
433.641	1620.07
434.016	1610.13
434.392	1644.48
434.767	1672.95
435.143	1678.15
435.518	1710.69
435.894	1722.67
436.269	1740.97
436.644	1743.01
437.02	1792.5
437.395	1817.13
437.77	1807.18
438.145	1851.7
438.52	1861.42
438.895	1875.2
439.271	1903.23
439.646	1919.72
440.021	1928.99
440.395	1968.31
440.77	1943.45
441.145	1951.14
441.52	2010.34
441.895	1977.58
442.27	2005.6
442.645	2022.77
443.019	2050.57
443.394	2045.37
443.769	2133.5
444.143	2079.95
444.518	2121.53
444.892	2139.83
445.267	2163.78
445.641	2167.4
446.016	2168.08
446.39	2209.66
446.764	2220.05
447.139	2207.63
447.513	2270.67
447.887	2245.82
448.262	2270.67
448.636	2288.3
449.01	2319.71
449.384	2331.69
449.758	2376.89
450.132	2400.16
450.506	2371.24
450.88	2420.05
451.254	2433.16
451.628	2408.07
452.002	2469.54
452.376	2511.57
452.75	2514.51
453.123	2531.46
453.497	2608.52
453.871	2616.65
454.244	2668.18
454.618	2684.9
454.992	2724.22
455.365	2713.37
455.739	2753.83
456.112	2814.39
456.486	2821.85
456.859	2859.59
457.232	2919.92
457.606	2904.78
457.979	2971.67
458.352	3023.2
458.725	3049.19
459.099	3086.7
459.472	3153.82
459.845	3143.19
460.218	3155.4
460.591	3177.09
460.964	3223.19
461.337	3308.84
461.71	3352.45
462.083	3398.33
462.456	3360.59
462.829	3429.97
463.201	3524.43
463.574	3501.83
463.947	3552.22
464.32	3610.07
464.692	3620.7
465.065	3687.13
465.438	3743.86
465.81	3761.93
466.183	3783.86
466.555	3878.09
466.928	3938.65
467.3	3891.2
467.672	3986.34
468.045	4060.46
468.417	4089.84
468.789	4175.03
469.161	4165.77
469.534	4245.54
469.906	4351.52
470.278	4377.96
470.65	4474.68
471.022	4523.95
471.394	4601.01
471.766	4637.39
472.138	4632.42
472.51	4743.6
472.882	4840.1
473.253	4876.93
473.625	4970.26
473.997	5088.91
474.369	5093.2
474.74	5165.06
475.112	5250.48
475.484	5322.12
475.855	5422
476.227	5427.88
476.598	5618.16
476.97	5667.42
477.341	5781.54
477.713	5824.25
478.084	5862.22
478.455	6005.49
478.827	6139.5
479.198	6309.66
479.569	6317.35
479.94	6490.68
480.311	6440.96
480.682	6666.72
481.053	6809.54
481.424	6904.23
481.795	7004.79
482.166	7108.74
482.537	7168.4
482.908	7320.94
483.279	7456.75
483.65	7548.05
484.021	7705.33
484.391	7841.83
484.762	7859.68
485.133	7913.92
485.503	8080.01
485.874	8280.01
486.244	8331.98
486.615	8517.97
486.985	8622.82
487.356	8715.25
487.726	8814.68
488.097	9042.02
488.467	8995.7
488.837	9264.84
489.207	9325.18
489.578	9504.38
489.948	9550.94
490.318	9704.15
490.688	9679.52
491.058	9971.94
491.428	9993.86
491.798	10043.58
492.168	10270.24
492.538	10360.86
492.908	10480.85
493.278	10620.96
493.648	10628.87
494.017	10800.62
494.387	10850.79
494.757	10984.57
495.126	11046.72
495.496	11178.01
495.866	11265.92
496.235	11408.29
496.605	11451.22
496.974	11545.01
497.344	11640.6
497.713	11678.56
498.082	11831.55
498.452	11956.97
498.821	12041.94
499.19	12046.01
499.559	12197.19
499.928	12393.12
500.298	12425.44
500.667	12569.61
501.036	12459.11
501.405	12682.6
501.774	12666.33
502.143	12789.04
502.512	12888.02
502.88	12987.68
503.249	13087.34
503.618	13146.77
503.987	13213.44
504.356	13406.65
504.724	13462.47
505.093	13524.84
505.462	13528.68
505.83	13643.94
506.199	13839.18
506.567	13985.62
506.936	13931.39
507.304	14133.64
507.672	14193.3
508.041	14314.65
508.409	14448.21
508.777	14578.6
509.145	14634.64
509.514	14686.62
509.882	14796
510.25	14876.9
510.618	15040.73
510.986	14991.7
511.354	15190.11
511.722	15274.85
512.09	15513.49
512.458	15479.59
512.826	15619.7
513.193	15711.68
513.561	15775.86
513.929	16008.39
514.297	16120.03
514.664	16191.66
515.032	16312.79
515.4	16440.92
515.767	16469.4
516.135	16650.41
516.502	16649.05
516.869	16927.69
517.237	17006.11
517.604	17085.88
517.972	17341.92
518.339	17353.67
518.706	17392.76
519.073	17433.67
519.44	17762.7
519.808	17832.3
520.175	17851.96
520.542	18172.4
520.909	18188.45
521.276	18277.71
521.643	18556.12
522.009	18653.52
522.376	18746.85
522.743	18854.65
523.11	19062.32
523.477	19263.22
523.843	19329.44
524.21	19568.3
524.577	19681.52
524.943	19787.05
525.31	19939.81
525.676	20191.33
526.043	20218.9
526.409	20516.52
526.776	20630.87
527.142	20710.87
527.508	20882.61
527.874	21012.55
528.241	21093.46
528.607	21112.89
528.973	21420.45
529.339	21338.2
529.705	21617.96
530.071	21838.07
530.437	21905.41
530.803	22092.75
531.169	22200.77
531.535	22193.09
531.901	22292.07
532.267	22442.12
532.632	22708.33
532.998	22702.45
533.364	22819.29
533.73	22906.06
534.095	23157.13
534.461	23152.84
534.826	23273.29
535.192	23389.89
535.557	23581.3
535.923	23492.94
536.288	23649.32
536.653	23823.33
537.019	23764.57
537.384	23940.84
537.749	24081.85
538.114	24086.6
538.479	24276.88
538.845	24235.07
539.21	24306.48
539.575	24497.21
539.94	24573.82
540.305	24645.68
540.67	24762.74
541.034	24943.52
541.399	25037.31
541.764	24990.3
542.129	25193.46
542.494	25180.81
542.858	25201.82
543.223	25389.16
543.587	25510.29
543.952	25560.91
544.316	25692.43
544.681	25566.56
545.045	25807.68
545.41	26044.96
545.774	25923.84
546.138	26046.55
546.503	26172.65
546.867	26185.53
547.231	26409.93
547.595	26551.39
547.959	26469.13
548.324	26615.12
548.688	26699.18
549.052	26722.91
549.416	26739.86
549.779	26880.88
550.143	26892.85
550.507	27193.18
550.871	27276.12
551.235	27229.11
551.599	27387.75
551.962	27502.33
552.326	27431.6
552.689	27726.95
553.053	27616
553.417	27760.17
553.78	28070
554.143	27921.3
554.507	28104.35
554.87	28255.98
555.234	28572.81
555.597	28426.82
555.96	28492.13
556.323	28617.55
556.686	28754.05
557.05	28936.87
557.413	29094.38
557.776	29108.84
558.139	29308.61
558.502	29342.96
558.865	29477.87
559.228	29601.48
559.59	29668.6
559.953	29825.88
560.316	30140.22
560.679	30205.99
561.041	30351.07
561.404	30534.79
561.767	30647.78
562.129	30638.06
562.492	30914.22
562.854	30872.18
563.217	31070.6
563.579	31096.81
563.941	31229.24
564.304	31416.58
564.666	31631.26
565.028	31728.88
565.39	31632.61
565.753	31822.44
566.115	32030.57
566.477	32158.25
566.839	32225.82
567.201	32435.76
567.563	32414.74
567.925	32651.8
568.287	32736.77
568.648	32774.28
569.01	32963.2
569.372	32928.4
569.734	33047.04
570.095	33281.38
570.457	33435.73
570.819	33405.9
571.18	33506.46
571.542	33645.22
571.903	33758.21
572.265	33860.58
572.626	33975.83
572.987	33994.36
573.349	34056.05
573.71	34338.98
574.071	34181.02
574.432	34371.53
574.794	34501.47
575.155	34525.87
575.516	34637.51
575.877	34706.21
576.238	34843.38
576.599	34887.44
576.96	34903.04
577.32	34875.92
577.681	35071.39
578.042	35145.74
578.403	35092.18
578.763	35124.5
579.124	35251.95
579.485	35266.19
579.845	35228.23
580.206	35079.98
580.566	35338.05
580.927	35360.2
581.287	35592.06
581.648	35339.86
582.008	35505.06
582.368	35466.64
582.728	35586.63
583.089	35467.54
583.449	35418.5
583.809	35503.7
584.169	35577.14
584.529	35629.35
584.889	35824.37
585.249	35519.52
585.609	35496.02
585.969	35676.8
586.329	35535.11
586.688	35580.31
587.048	35604.94
587.408	35677.71
587.768	35625.96
588.127	35547.31
588.487	35538.95
588.846	35731.94
589.206	35613.53
589.565	35594.09
589.925	35747.53
590.284	35647.2
590.643	35649.68
591.003	35737.82
591.362	35764.26
591.721	35766.07
592.08	35786.86
592.44	35855.55
592.799	35637.26
593.158	35679.29
593.517	35797.02
593.876	35717.7
594.235	35733.52
594.593	35797.7
594.952	35767.2
595.311	35647.65
595.67	35789.34
596.029	35922.45
596.387	35997.7
596.746	35950.47
597.104	35805.39
597.463	35692.62
597.822	35979.84
598.18	35743.92
598.538	35806.97
598.897	35903.46
599.255	35671.38
599.613	36211.25
599.972	36013.74
600.33	36112.95
600.688	36003.12
601.046	35957.02
601.404	36066.62
601.762	36112.04
602.12	36310.01
602.478	36218.03
602.836	36038.6
603.194	35989.11
603.552	36225.71
603.91	36006.06
604.268	36142.1
604.625	36160.18
604.983	36287.41
605.341	35983.69
605.698	36241.76
606.056	36379.61
606.413	36210.12
606.771	36374.18
607.128	36425.03
607.485	36326.95
607.843	36215.54
608.2	36478.14
608.557	36552.49
608.914	36479.27
609.272	36586.38
609.629	36700.96
609.986	36764.68
610.343	36582.54
610.7	36690.79
611.057	36722.65
611.414	36787.28
611.771	36798.58
612.127	36866.15
612.484	36951.8
612.841	36961.51
613.198	36798.81
613.554	36858.01
613.911	37071.12
614.267	37061.17
614.624	37173.71
614.98	37139.59
615.337	37318.57
615.693	37264.56
616.05	37212.81
616.406	37432.24
616.762	37256.65
617.118	37150.89
617.475	37328.06
617.831	37471.78
618.187	37474.04
618.543	37380.49
618.899	37601.27
619.255	37555.17
619.611	37570.31
619.967	37725.34
620.323	37784.32
620.678	37520.6
621.034	37582.74
621.39	37521.5
621.746	37468.62
622.101	38016.4
622.457	37508.84
622.812	37616.86
623.168	37821.6
623.523	37843.98
623.879	37846.69
624.234	37681.5
624.589	37717.2
624.945	37781.15
625.3	37874.94
625.655	37738.67
626.01	37770.31
626.365	37813.24
626.72	37642.63
627.075	37729.86
627.43	37719.69
627.785	37697.77
628.14	37749.97
628.495	37854.82
628.85	37706.35
629.205	37643.53
629.559	37862.96
629.914	37621.38
630.269	37679.01
630.623	37518.56
630.978	37516.3
631.332	37651.67
631.687	37759.69
632.041	37444.44
632.396	37529.18
632.75	37340.49
633.104	37443.08
633.459	37299.58
633.813	37331.9
634.167	37305.01
634.521	37213.71
634.875	37132.36
635.229	37290.32
635.583	36988.86
635.937	36982.3
636.291	36932.81
636.645	37022.3
636.999	36921.29
637.352	36919.26
637.706	36887.17
638.06	36918.13
638.413	36818.01
638.767	36827.28
639.121	36825.02
639.474	36526.72
639.828	36479.04
640.181	36460.06
640.534	36516.78
640.888	36287.41
641.241	36159.95
641.594	36316.33
641.947	36354.52
642.301	36255.77
642.654	36313.4
643.007	36161.99
643.36	35997.02
643.713	36051.48
644.066	36311.81
644.419	35929.45
644.771	35770.36
645.124	35383.93
645.477	35419.18
645.83	35033.66
646.182	35011.51
646.535	34794.79
646.888	35044.05
647.24	34833.21
647.593	34960.21
647.945	34948.46
648.298	34757.05
648.65	34560
649.002	34655.36
649.355	34745.08
649.707	34586.44
650.059	34866.88
650.411	35058.29
650.763	35233.42
651.115	35516.13
651.467	35439.29
651.819	35328.56
652.171	35198.85
652.523	35277.72
652.875	35228
653.227	35105.52
653.578	35230.71
653.93	35150.26
654.282	35117.04
654.633	34882.25
654.985	35123.37
655.337	35066.65
655.688	35021.68
656.039	35114.33
656.391	34565.19
656.742	34880.21
657.094	34795.24
657.445	34863.49
657.796	34857.84
658.147	34936.93
658.498	34757.73
658.849	34815.58
659.2	34647.22
659.551	34549.37
659.902	34640.45
660.253	34689.94
660.604	34567
660.955	34361.36
661.306	34501.69
661.656	34453.33
662.007	34415.14
662.358	34306.44
662.708	34269.61
663.059	34259.21
663.409	34011.54
663.76	34273.45
664.11	34200.91
664.461	34187.12
664.811	34147.8
665.161	34141.93
665.511	33922.5
665.862	33868.26
666.212	33905.55
666.562	33864.19
666.912	33807.02
667.262	33503.75
667.612	33675.72
667.962	33625.56
668.312	33449.97
668.662	33480.48
669.011	33260.82
669.361	33264.89
669.711	33178.79
670.06	33039.13
670.41	32896.99
670.76	32828.06
671.109	32979.25
671.459	32817.89
671.808	32604.34
672.157	32788.06
672.507	32550.56
672.856	32548.07
673.205	32421.52
673.554	32587.84
673.904	32354.4
674.253	32499.03
674.602	32331.58
674.951	31878.48
675.3	31578.38
675.649	32248.87
675.998	32100.85
676.346	32176.78
676.695	32220.62
677.044	32005.71
677.393	31951.93
677.741	32125.93
678.09	31908.31
678.438	31923.68
678.787	31846.62
679.135	31886.17
679.484	31820.18
679.832	31967.07
680.181	31820.41
680.529	31816.34
680.877	31741.54
681.225	31731.37
681.573	32037.8
681.922	31762.1
682.27	31746.06
682.618	31834.64
682.966	31859.95
683.314	31811.14
683.661	31864.92
684.009	31662.44
684.357	31584.03
684.705	31654.53
685.053	31622.9
685.4	31703.35
685.748	31492.28
686.095	31572.73
686.443	31638.94
686.79	31531.83
687.138	31565.27
687.485	31658.6
687.832	31509.91
688.18	31707.87
688.527	31388.55
688.874	31492.51
689.221	31477.14
689.568	31366.63
689.915	31421.77
690.262	31346.75
690.609	31225.17
690.956	31300.87
691.303	31286.41
691.65	31095.23
691.997	31232.4
692.344	31074.21
692.69	31084.15
693.037	31075.79
693.383	30823.14
693.73	31033.31
694.077	30890.71
694.423	31051.16
694.769	30788.12
695.116	30726.2
695.462	30907.89
695.808	30739.76
696.155	30682.36
696.501	30602.81
696.847	30497.96
697.193	30416.15
697.539	30582.47
697.885	30250.73
698.231	30152.88
698.577	30125.99
698.923	30208.7
699.269	30091.64
699.614	29943.85
699.96	29895.49
700.306	30019.78
700.651	29777.07
700.997	29743.62
701.342	29519.45
701.688	29548.83
702.033	29477.42
702.379	29478.77
702.724	29419.79
703.069	29594.25
703.415	29106.58
703.76	29183.41
704.105	29203.75
704.45	29083.08
704.795	28962.4
705.14	28920.82
705.485	28740.49
705.83	28816.19
706.175	28827.72
706.52	28623.88
706.865	28544.11
707.209	28558.8
707.554	28459.36
707.899	28494.62
708.243	28430.44
708.588	28340.95
708.932	28219.37
709.277	28121.29
709.621	28191.35
709.966	27886.72
710.31	28203.78
710.654	27904.13
710.998	27909.1
711.342	27934.63
711.687	27877.69
712.031	27639.05
712.375	27621.87
712.719	27707.75
713.063	27589.33
713.407	27636.56
713.75	27428.88
714.094	27417.58
714.438	27438.37
714.782	27448.77
715.125	27201.09
715.469	27306.63
715.812	27004.04
716.156	26962
716.499	27069.12
716.843	27005.84
717.186	26767.66
717.53	26862.12
717.873	26890.37
718.216	26778.73
718.559	26760.65
718.902	26583.93
719.246	26677.94
719.589	26551.39
719.932	26451.73
720.275	26373.54
720.617	26358.63
720.96	26396.82
721.303	26448.12
721.646	26341.91
721.989	26136.94
722.331	26175.58
722.674	26127.67
723.016	26276.6
723.359	26117.28
723.701	26032.76
724.044	25887.91
724.386	25850.62
724.729	26140.78
725.071	25790.51
725.413	25746.44
725.755	25858.53
726.097	25727.46
726.439	25621.02
726.782	25672.55
727.124	25631.42
727.465	25525.88
727.807	25620.34
728.149	25461.25
728.491	25493.79
728.833	25375.6
729.175	25285.66
729.516	25283.4
729.858	25227.81
730.199	25202.95
730.541	25232.33
730.882	25098.55
731.224	25234.14
731.565	25094.48
731.906	25032.11
732.248	24956.18
732.589	24898.55
732.93	24782.4
733.271	24745.34
733.612	24838.89
733.953	24877.76
734.294	24817.65
734.635	24700.14
734.976	24809.52
735.317	24605.68
735.658	24595.74
735.999	24541.28
736.339	24467.83
736.68	24541.5
737.021	24381.51
737.361	24326.59
737.702	24383.54
738.042	24289.08
738.383	24224.45
738.723	24341.05
739.063	24272.81
739.404	24266.48
739.744	24292.69
740.084	24106.26
740.424	24137.9
740.764	23934.06
741.104	24115.52
741.444	23965.02
741.784	23988.07
742.124	24028.75
742.464	23859.71
742.804	23924.34
743.143	23866.94
743.483	23849.99
743.823	23720.96
744.162	23794.63
744.502	23683.67
744.841	23602.32
745.181	23732.03
745.52	23506.05
745.86	23605.71
746.199	23529.32
746.538	23499.5
746.877	23434.41
747.216	23490.91
747.556	23353.74
747.895	23329.33
748.234	23183.8
748.573	23241.2
748.911	23254.76
749.25	23190.58
749.589	23040.3
749.928	23127.98
750.267	23081.43
750.605	23086.85
750.944	22894.54
751.283	22847.31
751.621	22963.01
751.96	22777.71
752.298	22756.69
752.636	22756.24
752.975	22568.9
753.313	22429.47
753.651	22670.36
753.989	22495
