Data from white_wall_FLMS001491_100.txt Node
Date: Tue Feb 07 11:06:17 GMT 2017
User: dcchb
Spectrometer: FLMS00149
Trigger mode: 0
Integration Time (sec): 2.000000E-2
Scans to average: 10
Electric dark correction enabled: true
Nonlinearity correction enabled: false
Boxcar width: 0
XAxis mode: Wavelengths
Number of Pixels in Spectrum: 2048
>>>>>Begin Spectral Data<<<<<
341.393	-2.19
341.776	-2.19
342.16	-2.19
342.543	-63.66
342.927	-53.94
343.31	-63.2
343.693	-55.52
344.077	-78.12
344.46	-56.88
344.843	-47.16
345.226	-30.66
345.61	-1.96
345.993	-27.95
346.376	-31.79
346.759	1.88
347.142	36.23
347.525	34.65
347.908	41.2
348.291	83.46
348.674	76.23
349.057	119.62
349.44	116.68
349.823	136.56
350.206	178.82
350.588	213.17
350.971	237.58
351.354	240.06
351.737	273.96
352.119	260.18
352.502	277.58
352.884	304.47
353.267	292.04
353.65	306.73
354.032	313.28
354.414	343.11
354.797	339.95
355.179	340.85
355.562	360.51
355.944	349.21
356.326	368.2
356.709	379.72
357.091	350.12
357.473	352.6
357.855	361.64
358.238	363.9
358.62	378.59
359.002	367.97
359.384	346.28
359.766	366.61
360.148	349.89
360.53	382.66
360.912	364.58
361.294	375.65
361.676	361.64
362.057	340.85
362.439	347.63
362.821	383.11
363.203	354.41
363.584	354.19
363.966	380.63
364.348	359.84
364.729	361.64
365.111	350.34
365.493	345.15
365.874	348.54
366.256	342.89
366.637	338.59
367.019	365.71
367.4	339.72
367.781	387.18
368.163	352.15
368.544	326.16
368.925	339.95
369.306	342.21
369.688	335.66
370.069	345.82
370.45	354.86
370.831	348.76
371.212	358.03
371.593	335.66
371.974	350.8
372.355	338.59
372.736	346.05
373.117	365.26
373.498	359.16
373.879	342.66
374.26	346.95
374.641	363.45
375.021	369.78
375.402	365.48
375.783	360.51
376.163	369.33
376.544	362.32
376.925	370
377.305	363.45
377.686	356.9
378.066	370.46
378.447	369.1
378.827	358.25
379.208	351.47
379.588	382.66
379.968	397.35
380.349	365.26
380.729	390.34
381.109	413.85
381.489	379.04
381.87	380.63
382.25	376.11
382.63	386.95
383.01	400.96
383.39	400.74
383.77	390.34
384.15	414.97
384.53	393.51
384.91	412.49
385.29	422.43
385.67	421.98
386.049	435.09
386.429	429.21
386.809	423.11
387.189	428.31
387.568	431.47
387.948	417.01
388.328	442.54
388.707	448.42
389.087	462.21
389.466	467.85
389.846	461.98
390.225	494.97
390.605	477.8
390.984	471.02
391.363	489.78
391.743	502.2
392.122	483.22
392.501	512.83
392.881	511.47
393.26	534.07
393.639	535.65
394.018	545.82
394.397	555.31
394.776	548.08
395.155	546.5
395.534	547.17
395.913	569.32
396.292	585.82
396.671	601.18
397.05	598.02
397.429	598.25
397.808	612.71
398.186	610.45
398.565	635.99
398.944	659.26
399.323	672.82
399.701	652.71
400.08	665.14
400.458	723.44
400.837	708.53
401.215	697.91
401.594	723.67
401.972	724.57
402.351	732.93
402.729	745.14
403.107	751.69
403.486	810.44
403.864	771.8
404.242	790.78
404.62	835.53
404.999	828.52
405.377	854.74
405.755	885.92
406.133	914.85
406.511	926.6
406.889	914.85
407.267	935.41
407.645	986.03
408.023	969.76
408.401	993.26
408.779	1027.16
409.156	1030.1
409.534	1054.96
409.912	1069.87
410.29	1069.42
410.667	1120.49
411.045	1137.67
411.422	1143.77
411.8	1158.91
412.178	1181.28
412.555	1238.46
412.933	1228.06
413.31	1255.63
413.687	1256.08
414.065	1297.21
414.442	1307.38
414.819	1335.4
415.197	1325.46
415.574	1351.45
415.951	1411.11
416.328	1382.63
416.705	1370.2
417.082	1402.75
417.46	1441.84
417.837	1463.99
418.214	1438.68
418.591	1456.08
418.967	1502.18
419.344	1494.95
419.721	1535.85
420.098	1516.64
420.475	1557.09
420.852	1599.12
421.228	1624.21
421.605	1631.21
421.982	1600.71
422.358	1667.6
422.735	1663.3
423.111	1698.11
423.488	1726.58
423.864	1702.62
424.241	1727.48
424.617	1788.95
424.994	1777.2
425.37	1794.83
425.746	1826.69
426.123	1876.63
426.499	1871.66
426.875	1893.81
427.251	1954.37
427.627	1973.8
428.003	1990.98
428.379	1986.23
428.756	2014.03
429.132	2012.45
429.507	2106
429.883	2110.52
430.259	2186.23
430.635	2141.26
431.011	2200.01
431.387	2244.98
431.763	2257.64
432.138	2275.04
432.514	2332.89
432.89	2369.05
433.265	2393.91
433.641	2454.02
434.016	2425.32
434.392	2477.07
434.767	2548.93
435.143	2514.81
435.518	2532.66
435.894	2560.68
436.269	2658.31
436.644	2666.67
437.02	2726.55
437.395	2724.07
437.77	2759.09
438.145	2767.46
438.52	2836.61
438.895	2900.56
439.271	2839.09
439.646	2914.57
440.021	2928.36
440.395	2959.31
440.77	2974
441.145	3001.57
441.52	3092.19
441.895	3075.02
442.27	3082.93
442.645	3103.04
443.019	3109.37
443.394	3150.5
443.769	3177.61
444.143	3176.71
444.518	3245.63
444.892	3256.03
445.267	3242.7
445.641	3279.53
446.016	3308.01
446.39	3341
446.764	3382.81
447.139	3370.15
447.513	3427.78
447.887	3447.21
448.262	3491.5
448.636	3482.24
449.01	3560.2
449.384	3570.82
449.758	3564.5
450.132	3623.48
450.506	3654.89
450.88	3683.36
451.254	3703.25
451.628	3768.11
452.002	3797.71
452.376	3840.65
452.75	3860.31
453.123	3942.11
453.497	3952.28
453.871	4059.4
454.244	4152.5
454.618	4116.57
454.992	4218.72
455.365	4233.63
455.739	4301.65
456.112	4369.67
456.486	4422.55
456.859	4471.37
457.232	4538.03
457.606	4559.05
457.979	4599.95
458.352	4702.09
458.725	4732.83
459.099	4794.75
459.472	4934.63
459.845	4906.16
460.218	4979.6
460.591	5034.29
460.964	5025.25
461.337	5138.47
461.71	5268.41
462.083	5390.21
462.456	5348.63
462.829	5409.19
463.201	5454.39
463.574	5505.46
463.947	5616.65
464.32	5734.84
464.692	5712.24
465.065	5798.34
465.438	5894.6
465.81	5936.41
466.183	6049.63
466.555	6222.05
466.928	6252.11
467.3	6187.7
467.672	6376.4
468.045	6496.62
468.417	6587.69
468.789	6581.14
469.161	6708.14
469.534	6781.36
469.906	7029.72
470.278	7051.64
470.65	7092.09
471.022	7227
471.394	7400.78
471.766	7493.43
472.138	7510.16
472.51	7785.18
472.882	7829.02
473.253	7862.24
473.625	8054.1
473.997	8226.97
474.369	8226.97
474.74	8438.72
475.112	8518.26
475.484	8712.16
475.855	8848.65
476.227	8955.09
476.598	9235.31
476.97	9356.43
477.341	9494.28
477.713	9629.65
478.084	9673.04
478.455	10010.43
478.827	10067.15
479.198	10433.24
479.569	10365.45
479.94	10699.22
480.311	10779.9
480.682	11103.96
481.053	11326.78
481.424	11542.14
481.795	11548.47
482.166	11785.52
482.537	11894.67
482.908	12255.34
483.279	12411.5
483.65	12686.74
484.021	12911.6
484.391	12976.45
484.762	13153.62
485.133	13228.2
485.503	13428.19
485.874	13764.23
486.244	13868.18
486.615	14147.72
486.985	14386.36
487.356	14672
487.726	14825.9
488.097	15104.76
488.467	15138.88
488.837	15441.7
489.207	15545.88
489.578	15844.63
489.948	15931.86
490.318	16289.13
490.688	16255.69
491.058	16585.62
491.428	16835.11
491.798	17017.93
492.168	17351.7
492.538	17456.11
492.908	17649.55
493.278	17997.34
493.648	17981.07
494.017	18169.76
494.387	18306.71
494.757	18551.67
495.126	18751.22
495.496	18772.46
495.866	19035.5
496.235	19176.06
496.605	19414.48
496.974	19577.86
497.344	19740.79
497.713	19924.97
498.082	20039.77
498.452	20256.71
498.821	20323.15
499.19	20399.08
499.559	20618.06
499.928	20822.12
500.298	20872.97
500.667	21181.21
501.036	21193.64
501.405	21425.5
501.774	21509.56
502.143	21757.46
502.512	21855.32
502.88	22002.66
503.249	22069.55
503.618	22339.37
503.987	22466.82
504.356	22621.17
504.724	22751.56
505.093	22903.2
505.462	22989.3
505.83	23274.03
506.199	23376.86
506.567	23768.03
506.936	23733.91
507.304	24048.48
507.672	24045.54
508.041	24231.98
508.409	24323.05
508.777	24597.16
509.145	24805.07
509.514	24899.75
509.882	25140.2
510.25	25317.37
510.618	25450.93
510.986	25462.68
511.354	25916.68
511.722	26160.51
512.09	26457
512.458	26373.16
512.826	26635.08
513.193	26842.3
513.561	26878.01
513.929	27075.29
514.297	27413.81
514.664	27538.56
515.032	27748.04
515.4	27997.3
515.767	28096.73
516.135	28185.77
516.502	28161.14
516.869	28728.35
517.237	28783.27
517.604	28732.2
517.972	29202.01
518.339	29405.4
518.706	29461.44
519.073	29601.1
519.44	29848.55
519.808	30278.37
520.175	30267.07
520.542	30629.55
520.909	30835.19
521.276	30835.42
521.643	31148.4
522.009	31435.4
522.376	31670.2
522.743	31771.89
523.11	32294.81
523.477	32349.28
523.843	32676.5
524.21	32865.2
524.577	33219.99
524.943	33423.82
525.31	33471.05
525.676	33742.46
526.043	33955.56
526.409	34234.2
526.776	34546.96
527.142	34627.63
527.508	34953.73
527.874	35212.25
528.241	35387.16
528.607	35504.9
528.973	35781.5
529.339	35877.55
529.705	36161.15
530.071	36607.24
530.437	36609.96
530.803	36932.43
531.169	37115.03
531.535	37014.69
531.901	37214.46
532.267	37481.34
532.632	37760.43
532.998	37943.48
533.364	38008.11
533.73	38396.58
534.095	38353.41
534.461	38623.24
534.826	38799.28
535.192	38921.76
535.557	39224.12
535.923	39092.6
536.288	39358.13
536.653	39651.46
537.019	39458.92
537.384	39835.18
537.749	39958.57
538.114	40184.55
538.479	40258.45
538.845	40484.88
539.21	40445.56
539.575	40638.1
539.94	40802.84
540.305	41117.63
540.67	41005.32
541.034	41230.4
541.399	41357.63
541.764	41405.99
542.129	41682.82
542.494	41832.42
542.858	42002.81
543.223	42056.37
543.587	42361.44
543.952	42184.95
544.316	42529.12
544.681	42460.42
545.045	42724.37
545.41	42907.87
545.774	43024.48
546.138	43116.68
546.503	43365.71
546.867	43426.73
547.231	43686.61
547.595	43886.15
547.959	43956.88
548.324	44025.81
548.688	44141.28
549.052	44364.33
549.416	44561.38
549.779	44537.2
550.143	44791.89
550.507	45135.61
550.871	45070.52
551.235	45216.96
551.599	45597.06
551.962	45657.4
552.326	45835.02
552.689	46104.4
553.053	45996.6
553.417	46142.81
553.78	46687.43
554.143	46581.22
554.507	46865.96
554.87	47018.27
555.234	47281.31
555.597	47181.65
555.96	47368.54
556.323	47578.03
556.686	47589.33
557.05	48046.26
557.413	48073.16
557.776	48123.33
558.139	48455.07
558.502	48605.35
558.865	48723.54
559.228	49093.47
559.59	49119.46
559.953	49094.37
560.316	49615.49
560.679	49561.25
561.041	49939.1
561.404	50086.21
561.767	50267.45
562.129	50147.9
562.492	50596.93
562.854	50551.28
563.217	50699.08
563.579	50864.72
563.941	51059.75
564.304	51102
564.666	51413.18
565.028	51517.36
565.39	51573.86
565.753	51709.45
566.115	51818.82
566.477	52029.44
566.839	51950.57
567.201	52258.13
567.563	52301.97
567.925	52501.74
568.287	52566.6
568.648	52704.22
569.01	52849.98
569.372	53045
569.734	52881.84
570.095	53222.4
570.457	53231.44
570.819	53312.34
571.18	53378.1
571.542	53449.06
571.903	53550.53
572.265	53679.11
572.626	53645.67
572.987	53815.6
573.349	53889.05
573.71	53967.47
574.071	53979.44
574.432	54143.51
574.794	54281.58
575.155	54321.13
575.516	54265.54
575.877	54506.66
576.238	54460.56
576.599	54634.34
576.96	54638.18
577.32	54588.92
577.681	54726.09
578.042	54805.18
578.403	54768.35
578.763	54826.65
579.124	54926.54
579.485	54974.44
579.845	55077.27
580.206	55027.1
580.566	55084.05
580.927	55054.89
581.287	55115.46
581.648	55122.46
582.008	55264.15
582.368	55212.86
582.728	55220.54
583.089	55213.76
583.449	55211.95
583.809	55249.92
584.169	55310.71
584.529	55201.56
584.889	55489.91
585.249	55311.84
585.609	55217.38
585.969	55329.24
586.329	55243.14
586.688	55340.08
587.048	55410.14
587.408	55277.94
587.768	55312.06
588.127	55328.79
588.487	55270.93
588.846	55501.89
589.206	55375.79
589.565	55344.83
589.925	55481.32
590.284	55439.52
590.643	55442.91
591.003	55427.77
591.362	55498.5
591.721	55418.05
592.08	55488.78
592.44	55526.07
592.799	55598.83
593.158	55494.66
593.517	55464.15
593.876	55571.49
594.235	55512.51
594.593	55523.13
594.952	55579.85
595.311	55592.06
595.67	55595.22
596.029	55724.93
596.387	55712.5
596.746	55798.15
597.104	55597.03
597.463	55627.08
597.822	55823.24
598.18	55610.13
598.538	55595.22
598.897	55845.83
599.255	55609.46
599.613	55994.3
599.972	55790.02
600.33	55846.51
600.688	55774.2
601.046	55841.09
601.404	55953.63
601.762	55925.38
602.12	55980.52
602.478	56006.28
602.836	55985.94
603.194	55903.46
603.552	55937.13
603.91	55858.26
604.268	55980.52
604.625	55951.82
604.983	56119.5
605.341	55956.34
605.698	56051.03
606.056	56162.89
606.413	56146.39
606.771	56219.38
607.128	56310
607.485	56069.78
607.843	56177.58
608.2	56314.52
608.557	56435.42
608.914	56284.47
609.272	56363.56
609.629	56436.1
609.986	56597.9
610.343	56408.98
610.7	56646.49
611.057	56588.87
611.414	56470.68
611.771	56622.31
612.127	56642.65
612.484	56669.77
612.841	56793.83
613.198	56592.03
613.554	56623.21
613.911	56871.57
614.267	56804
614.624	56710.9
614.98	56791.35
615.337	56974.39
615.693	56888.52
616.05	56897.78
616.406	56969.65
616.762	56956.31
617.118	56992.47
617.475	56930.1
617.831	57023.2
618.187	57030.44
618.543	57065.24
618.899	57157.66
619.255	57203.54
619.611	57163.31
619.967	57212.8
620.323	57296.64
620.678	57249.19
621.034	57170.77
621.39	57198.79
621.746	57158.12
622.101	57407.6
622.457	57194.72
622.812	57279.02
623.168	57301.39
623.523	57322.18
623.879	57394.72
624.234	57211.22
624.589	57356.98
624.945	57316.98
625.3	57297.1
625.655	57252.12
626.01	57282.86
626.365	57318.56
626.72	57232.01
627.075	57304.1
627.43	57309.07
627.785	57231.33
628.14	57296.42
628.495	57341.16
628.85	57334.83
629.205	57223.88
629.559	57356.3
629.914	57226.36
630.269	57247.6
630.623	57138.91
630.978	57159.92
631.332	57192.47
631.687	57219.58
632.041	57136.65
632.396	57232.69
632.75	57068.63
633.104	57088.97
633.459	56965.13
633.813	56959.93
634.167	56936.43
634.521	56956.77
634.875	57004
635.229	56947.05
635.583	56900.72
635.937	56829.99
636.291	56798.8
636.645	56768.97
636.999	56724
637.352	56814.85
637.706	56631.12
638.06	56755.64
638.413	56682.65
638.767	56604.01
639.121	56692.59
639.474	56453.73
639.828	56565.81
640.181	56607.17
640.534	56531.69
640.888	56413.05
641.241	56387.97
641.594	56469.09
641.947	56445.14
642.301	56408.53
642.654	56442.88
643.007	56316.78
643.36	56291.25
643.713	56255.09
644.066	56377.57
644.419	56135.09
644.771	56055.55
645.124	55746.4
645.477	55610.13
645.83	55506.18
646.182	55379.41
646.535	55282.46
646.888	55484.26
647.24	55253.31
647.593	55417.37
647.945	55339.41
648.298	55198.62
648.65	55156.36
649.002	55154.55
649.355	55161.11
649.707	55132.41
650.059	55265.06
650.411	55522
650.763	55473.64
651.115	55840.86
651.467	55685.39
651.819	55604.48
652.171	55679.51
652.523	55587.31
652.875	55617.14
653.227	55453.08
653.578	55636.57
653.93	55524.71
654.282	55479.06
654.633	55392.96
654.985	55389.57
655.337	55458.05
655.688	55455.34
656.039	55450.59
656.391	55270.03
656.742	55312.29
657.094	55362.91
657.445	55360.2
657.796	55329.24
658.147	55240.65
658.498	55243.14
658.849	55270.26
659.2	55158.39
659.551	55140.77
659.902	55232.29
660.253	55121.56
660.604	55254.44
660.955	55000.88
661.306	55163.59
661.656	55091.05
662.007	55112.75
662.358	55018.06
662.708	55049.24
663.059	55022.8
663.409	54870.27
663.76	55055.12
664.11	54976.03
664.461	54929.25
664.811	55018.96
665.161	54919.3
665.511	54898.51
665.862	54879.08
666.212	55010.83
666.562	55014.67
666.912	54860.32
667.262	54791.85
667.612	54843.6
667.962	54817.61
668.312	54773.32
668.662	54896.48
669.011	54816.93
669.361	54771.06
669.711	54706.88
670.06	54662.81
670.41	54637.73
670.76	54565.64
671.109	54690.84
671.459	54734.22
671.808	54606.54
672.157	54651.74
672.507	54489.26
672.856	54423.05
673.205	54449.94
673.554	54624.62
673.904	54494.46
674.253	54567
674.602	54482.25
674.951	54090.4
675.3	53935.38
675.649	54334.46
675.998	54293.11
676.346	54368.13
676.695	54448.36
677.044	54247.91
677.393	54290.62
677.741	54269.15
678.09	54265.99
678.438	54183.5
678.787	54153.45
679.135	54112.55
679.484	54039.78
679.832	54098.08
680.181	53898.09
680.529	53986.67
680.877	53889.28
681.225	53911.87
681.573	53943.29
681.922	53783.74
682.27	53732.67
682.618	53705.1
682.966	53658.77
683.314	53686.57
683.661	53560.7
684.009	53454.94
684.357	53398.21
684.705	53344.43
685.053	53394.82
685.4	53317.99
685.748	53089.97
686.095	53146.02
686.443	53080.03
686.79	52957.32
687.138	53009.52
687.485	52949.19
687.832	52790.55
688.18	52810.43
688.527	52559.37
688.874	52620.16
689.221	52471.23
689.568	52418.58
689.915	52412.7
690.262	52376.32
690.609	52296.55
690.956	52163.44
691.303	52126.61
691.65	51972.26
691.997	51999.83
692.344	51690.46
692.69	51819.95
693.037	51879.38
693.383	51460.64
693.73	51616.79
694.077	51393.52
694.423	51428.77
694.769	51234.2
695.116	51185.17
695.462	51222
695.808	50983.14
696.155	51038.73
696.501	50733.43
696.847	50779.3
697.193	50598.06
697.539	50715.35
697.885	50408.91
698.231	50352.87
698.577	50339.09
698.923	50229.26
699.269	50150.62
699.614	50053.22
699.96	49984.07
700.306	49814.58
700.651	49647.58
700.997	49633.57
701.342	49587.92
701.688	49507.24
702.033	49323.07
702.379	49352.45
702.724	49137.54
703.069	49164.43
703.415	48818.67
703.76	48817.09
704.105	48894.38
704.45	48754.72
704.795	48620.94
705.14	48423.43
705.485	48476.54
705.83	48334.62
706.175	48316.54
706.52	48135.75
706.865	48104.12
707.209	48145.7
707.554	47949.09
707.899	47982.54
708.243	47700.51
708.588	47685.14
708.932	47542.32
709.277	47420.74
709.621	47416.45
709.966	47183.24
710.31	47250.58
710.654	46873.64
710.998	47052.17
711.342	46911.15
711.687	46758.16
712.031	46837.26
712.375	46632.29
712.719	46666.64
713.063	46558.85
713.407	46641.56
713.75	46484.27
714.094	46460.54
714.438	46275.24
714.782	46260.78
715.125	46070.05
715.469	46159.99
715.812	45827.79
716.156	45612.66
716.499	45750.96
716.843	45810.62
717.186	45508.93
717.53	45703.28
717.873	45659.89
718.216	45529.49
718.559	45271.87
718.902	45103.29
719.246	45198.43
719.589	44964.76
719.932	44850.19
720.275	44913.69
720.617	44863.3
720.96	44783.98
721.303	44752.34
721.646	44874.82
721.989	44553.48
722.331	44575.17
722.674	44540.14
723.016	44466.92
723.359	44500.82
723.701	44401.39
724.044	44171.79
724.386	44041.62
724.729	44219.92
725.071	43977.67
725.413	43937.9
725.755	43945.58
726.097	43811.8
726.439	43618.36
726.782	43590.34
727.124	43795.08
727.465	43529.1
727.807	43554.86
728.149	43376.11
728.491	43311.47
728.833	43318.93
729.175	43221.08
729.516	43105.6
729.858	42933.41
730.199	43120.74
730.541	42884.37
730.882	42820.64
731.224	42950.13
731.565	42699.74
731.906	42721.43
732.248	42725.27
732.589	42572.96
732.93	42369.58
733.271	42485.51
733.612	42408.67
733.953	42338.17
734.294	42229.69
734.635	42140.66
734.976	42248.45
735.317	41978.18
735.658	41930.95
735.999	41953.32
736.339	41883.04
736.68	42018.63
737.021	41811.4
737.361	41583.84
737.702	41657.51
738.042	41572.31
738.383	41616.6
738.723	41613.89
739.063	41426.78
739.404	41522.59
739.744	41383.39
740.084	41245.99
740.424	41309.27
740.764	41059.33
741.104	41278.08
741.444	41018.2
741.784	40839.9
742.124	40989.95
742.464	41021.36
742.804	40773.24
743.143	40716.97
743.483	40811.88
743.823	40693.24
744.162	40535.28
744.502	40451.21
744.841	40384.32
745.181	40519.01
745.52	40320.14
745.86	40418.89
746.199	40250.76
746.538	40116.76
746.877	40296.19
747.216	40182.74
747.556	40128.06
747.895	40099.13
748.234	39866.37
748.573	39888.06
748.911	39741.17
749.25	39710.21
749.589	39583.21
749.928	39719.48
750.267	39735.07
750.605	39488.52
750.944	39469.77
751.283	39253.05
751.621	39228.19
751.96	39005.82
752.298	38937.35
752.636	39074.52
752.975	38845.38
753.313	38654.87
