Data from white_poster_card_FLMS001491_00069.txt Node
Date: Wed Feb 08 11:51:51 GMT 2017
User: dcchb
Spectrometer: FLMS00149
Trigger mode: 0
Integration Time (sec): 2.000000E-2
Scans to average: 10
Electric dark correction enabled: true
Nonlinearity correction enabled: false
Boxcar width: 0
XAxis mode: Wavelengths
Number of Pixels in Spectrum: 2048
>>>>>Begin Spectral Data<<<<<
341.393	-19.48
341.776	-19.48
342.16	-19.48
342.543	-69.19
342.927	-65.58
343.31	-57.67
343.693	-62.64
344.077	-48.63
344.46	-84.79
344.843	-57.44
345.226	-36.88
345.61	-18.35
345.993	-19.48
346.376	-12.92
346.759	4.93
347.142	17.36
347.525	50.35
347.908	54.87
348.291	67.98
348.674	107.3
349.057	96
349.44	121.54
349.823	135.1
350.206	165.6
350.588	201.31
350.971	211.48
351.354	216.45
351.737	235.88
352.119	258.26
352.502	256.9
352.884	287.86
353.267	306.16
353.65	318.59
354.032	288.76
354.414	285.6
354.797	300.06
355.179	331.02
355.562	313.85
355.944	324.02
356.326	329.21
356.709	349.78
357.091	349.33
357.473	356.11
357.855	364.02
358.238	328.31
358.62	353.39
359.002	326.5
359.384	357.46
359.766	336.9
360.148	346.84
360.53	312.04
360.912	339.16
361.294	337.58
361.676	334.86
362.057	352.26
362.439	321.76
362.821	334.19
363.203	318.14
363.584	323.79
363.966	335.09
364.348	328.54
364.729	315.88
365.111	311.59
365.493	320.85
365.874	298.48
366.256	307.97
366.637	317.92
367.019	326.28
367.4	341.64
367.781	285.83
368.163	311.59
368.544	332.6
368.925	321.53
369.306	317.69
369.688	313.4
370.069	305.26
370.45	319.5
370.831	319.05
371.212	310.23
371.593	325.15
371.974	310.68
372.355	332.15
372.736	340.74
373.117	325.6
373.498	323.11
373.879	309.1
374.26	329.21
374.641	342.55
375.021	309.33
375.402	337.35
375.783	332.38
376.163	323.56
376.544	321.08
376.925	313.62
377.305	342.55
377.686	336.9
378.066	319.72
378.447	351.13
378.827	332.15
379.208	341.87
379.588	323.56
379.968	333.73
380.349	331.47
380.729	349.1
381.109	351.36
381.489	343.45
381.87	351.13
382.25	343
382.63	350.68
383.01	357.01
383.39	335.99
383.77	356.56
384.15	363.56
384.53	358.14
384.91	344.81
385.29	360.85
385.67	362.43
386.049	379.16
386.429	370.34
386.809	342.55
387.189	359.5
387.568	368.31
387.948	370.12
388.328	385.26
388.707	366.95
389.087	386.61
389.466	369.21
389.846	401.08
390.225	383.9
390.605	374.86
390.984	384.13
391.363	409.89
391.743	397.91
392.122	394.07
392.501	392.49
392.881	396.33
393.26	408.53
393.639	399.95
394.018	406.5
394.397	408.99
394.776	416.67
395.155	418.03
395.534	439.95
395.913	428.65
396.292	429.78
396.671	423.9
397.05	437.91
397.429	415.09
397.808	421.42
398.186	449.89
398.565	448.76
398.944	444.92
399.323	442.21
399.701	446.27
400.08	446.5
400.458	448.31
400.837	455.31
401.215	467.52
401.594	446.95
401.972	458.93
402.351	488.76
402.729	455.09
403.107	456.89
403.486	483.79
403.864	494.18
404.242	481.98
404.62	498.48
404.999	496.44
405.377	505.48
405.755	502.77
406.133	520.4
406.511	495.54
406.889	516.78
407.267	540.96
407.645	537.8
408.023	522.2
408.401	553.84
408.779	538.47
409.156	557.68
409.534	618.02
409.912	582.09
410.29	611.92
410.667	601.07
411.045	597.91
411.422	650.56
411.8	639.04
412.178	654.18
412.555	686.27
412.933	689.88
413.31	695.53
413.687	704.12
414.065	731.46
414.442	731.24
414.819	732.59
415.197	750.22
415.574	786.15
415.951	791.58
416.328	805.36
416.705	797
417.082	832.7
417.46	838.58
417.837	866.83
418.214	853.95
418.591	891.69
418.967	927.62
419.344	907.96
419.721	938.01
420.098	949.09
420.475	967.84
420.852	970.78
421.228	984.11
421.605	999.93
421.982	999.48
422.358	1025.47
422.735	1054.39
423.111	1080.61
423.488	1094.84
423.864	1098.01
424.241	1102.98
424.617	1106.37
424.994	1124.45
425.37	1155.63
425.746	1166.71
426.123	1182.98
426.499	1179.59
426.875	1193.82
427.251	1240.83
427.627	1232.69
428.003	1264.33
428.379	1314.95
428.756	1306.36
429.132	1326.7
429.507	1326.7
429.883	1343.65
430.259	1378.23
430.635	1408.96
431.011	1395.85
431.387	1443.31
431.763	1453.25
432.138	1471.78
432.514	1494.83
432.89	1511.56
433.265	1545.45
433.641	1566.7
434.016	1591.1
434.392	1623.19
434.767	1629.29
435.143	1654.6
435.518	1672.23
435.894	1690.53
436.269	1701.16
436.644	1741.83
437.02	1714.26
437.395	1750.87
437.77	1799.23
438.145	1800.81
438.52	1818.21
438.895	1858.89
439.271	1859.12
439.646	1887.37
440.021	1900.92
440.395	1885.11
440.77	1899.12
441.145	1922.17
441.52	1978.21
441.895	1966.46
442.27	1986.35
442.645	1979.57
443.019	2027.25
443.394	2016.85
443.769	2040.36
444.143	2043.97
444.518	2036.97
444.892	2044.2
445.267	2058.43
445.641	2078.55
446.016	2117.87
446.39	2108.6
446.764	2121.94
447.139	2138.66
447.513	2148.6
447.887	2167.58
448.262	2165.32
448.636	2174.59
449.01	2185.66
449.384	2196.96
449.758	2251.65
450.132	2249.39
450.506	2296.39
450.88	2287.81
451.254	2306.56
451.628	2342.27
452.002	2318.77
452.376	2368.26
452.75	2380.23
453.123	2394.7
453.497	2482.6
453.871	2458.65
454.244	2509.27
454.618	2527.8
454.992	2574.35
455.365	2553.11
455.739	2629.27
456.112	2671.07
456.486	2668.36
456.859	2704.75
457.232	2733.9
457.606	2757.85
457.979	2804.63
458.352	2855.48
458.725	2856.83
459.099	2880.79
459.472	2928.92
459.845	3003.49
460.218	2987.22
460.591	2970.05
460.964	2991.07
461.337	3077.84
461.71	3148.35
462.083	3198.74
462.456	3182.92
462.829	3188.12
463.201	3271.28
463.574	3271.28
463.947	3319.87
464.32	3420.88
464.692	3444.39
465.065	3437.61
465.438	3495.91
465.81	3524.38
466.183	3586.3
466.555	3662.69
466.928	3634.66
467.3	3684.61
467.672	3736.58
468.045	3785.39
468.417	3811.16
468.789	3811.38
469.161	3914.2
469.534	3937.26
469.906	4051.6
470.278	4066.52
470.65	4088.66
471.022	4174.31
471.394	4241.43
471.766	4292.95
472.138	4352.61
472.51	4407.53
472.882	4501.53
473.253	4518.93
473.625	4563.91
473.997	4716.67
474.369	4690.46
474.74	4749.21
475.112	4876.67
475.484	4907.17
475.855	4994.4
476.227	5018.81
476.598	5170.9
476.97	5209.54
477.341	5400.95
477.713	5431.23
478.084	5450.44
478.455	5543.77
478.827	5609.3
479.198	5788.96
479.569	5817.66
479.94	5966.35
480.311	5995.96
480.682	6117.99
481.053	6249.96
481.424	6300.36
481.795	6412.44
482.166	6510.97
482.537	6607.92
482.908	6737.86
483.279	6796.62
483.65	6901.25
484.021	7059.88
484.391	7139.88
484.762	7198.19
485.133	7216.49
485.503	7385.75
485.874	7540.1
486.244	7583.04
486.615	7753.88
486.985	7861.45
487.356	8007.88
487.726	8086.07
488.097	8291.72
488.467	8248.33
488.837	8408.1
489.207	8482.22
489.578	8638.6
489.948	8661.2
490.318	8841.99
490.688	8854.19
491.058	9061.41
491.428	9159.04
491.798	9214.63
492.168	9429.09
492.538	9449.88
492.908	9567.16
493.278	9641.96
493.648	9715.41
494.017	9838.12
494.387	9949.53
494.757	10015.74
495.126	10120.82
495.496	10154.72
495.866	10269.07
496.235	10404.2
496.605	10489.17
496.974	10484.88
497.344	10632.22
497.713	10710.41
498.082	10815.04
498.452	10914.47
498.821	10940.23
499.19	10920.57
499.559	11150.17
499.928	11179.1
500.298	11312.43
500.667	11313.78
501.036	11372.31
501.405	11545.87
501.774	11498.19
502.143	11629.26
502.512	11641.46
502.88	11812.75
503.249	11835.35
503.618	11916.93
503.987	11902.7
504.356	12112.18
504.724	12159.19
505.093	12204.16
505.462	12266.08
505.83	12412.51
506.199	12510.59
506.567	12640.76
506.936	12704.03
507.304	12864.48
507.672	12871.71
508.041	12906.96
508.409	13012.95
508.777	13076.22
509.145	13245.49
509.514	13273.05
509.882	13390.34
510.25	13461.52
510.618	13566.83
510.986	13670.11
511.354	13718.47
511.722	13867.84
512.09	14009.53
512.458	14044.56
512.826	14121.17
513.193	14232.35
513.561	14317.1
513.929	14391.22
514.297	14501.27
514.664	14703.3
515.032	14724.09
515.4	14804.99
515.767	14896.29
516.135	15011.99
516.502	15013.12
516.869	15289.73
517.237	15346.45
517.604	15297.41
517.972	15557.97
518.339	15609.04
518.706	15697.62
519.073	15778.53
519.44	15966.32
519.808	16048.8
520.175	16075.92
520.542	16345.06
520.909	16388.45
521.276	16405.85
521.643	16691.95
522.009	16810.59
522.376	16852.4
522.743	16946.18
523.11	17182.56
523.477	17350.46
523.843	17491.02
524.21	17671.36
524.577	17772.37
524.943	17861.86
525.31	17956.1
525.676	18121.52
526.043	18211.23
526.409	18369.19
526.776	18594.04
527.142	18660.26
527.508	18728.28
527.874	18882.17
528.241	19011.44
528.607	19071.09
528.973	19307.7
529.339	19307.02
529.705	19495.72
530.071	19594.47
530.437	19725.54
530.803	19815.26
531.169	19958.3
531.535	19879.66
531.901	20051.18
532.267	20171.86
532.632	20396.94
532.998	20381.12
533.364	20444.62
533.73	20647.32
534.095	20793.54
534.461	20827.88
534.826	21023.36
535.192	21064.94
535.557	21229.46
535.923	21179.29
536.288	21251.38
536.653	21442.33
537.019	21365.95
537.384	21521.65
537.749	21591.93
538.114	21650.24
538.479	21671.7
538.845	21937.91
539.21	21916.22
539.575	22064.46
539.94	22086.16
540.305	22217.45
540.67	22234.18
541.034	22280.5
541.399	22409.99
541.764	22514.62
542.129	22563.21
542.494	22683.65
542.858	22658.8
543.223	22811.79
543.587	22969.52
543.952	22916.87
544.316	23117.32
544.681	23009.52
545.045	23293.81
545.41	23254.04
545.774	23358.89
546.138	23466.91
546.503	23527.93
546.867	23534.48
547.231	23657.87
547.595	23729.5
547.959	23853.34
548.324	23850.86
548.688	23960.23
549.052	24070.29
549.416	24173.79
549.779	24168.59
550.143	24236.38
550.507	24477.28
550.871	24424.17
551.235	24548.01
551.599	24688.35
551.962	24782.13
552.326	24926.31
552.689	25018.28
553.053	24927.21
553.417	25082.01
553.78	25383.25
554.143	25095.34
554.507	25405.39
554.87	25535.78
555.234	25783.91
555.597	25636.8
555.96	25867.07
556.323	25926.96
556.686	25996.34
557.05	26150.68
557.413	26212.83
557.776	26348.19
558.139	26403.56
558.502	26510.22
558.865	26613.72
559.228	26772.36
559.59	26973.71
559.953	27034.73
560.316	27266.59
560.679	27212.8
561.041	27439.69
561.404	27567.82
561.767	27777.98
562.129	27714.03
562.492	27901.82
562.854	27966
563.217	27952.89
563.579	28125.77
563.941	28375.71
564.304	28432.88
564.666	28645.31
565.028	28725.76
565.39	28805.75
565.753	28882.14
566.115	29148.8
566.477	29217.72
566.839	29271.28
567.201	29416.13
567.563	29344.95
567.925	29644.15
568.287	29682.12
568.648	29768.67
569.01	29860.42
569.372	30109.22
569.734	30047.76
570.095	30287.07
570.457	30435.77
570.819	30472.83
571.18	30556.67
571.542	30632.6
571.903	30745.59
572.265	30885.93
572.626	30856.32
572.987	30951.23
573.349	31055.41
573.71	31192.81
574.071	31211.79
574.432	31393.26
574.794	31698.56
575.155	31642.29
575.516	31439.36
575.877	31731.55
576.238	31757.09
576.599	31981.72
576.96	31861.49
577.32	31869.4
577.681	31982.62
578.042	32193.01
578.403	32210.41
578.763	32163.86
579.124	32261.03
579.485	32494.7
579.845	32398.43
580.206	32404.76
580.566	32305.55
580.927	32609.72
581.287	32618.31
581.648	32428.71
582.008	32649.27
582.368	32611.3
582.728	32635.94
583.089	32555.26
583.449	32681.58
583.809	32700.57
584.169	32712.77
584.529	32545.09
584.889	32820.11
585.249	32690.85
585.609	32696.05
585.969	32880.22
586.329	32665.54
586.688	32842.94
587.048	32743.28
587.408	32794.12
587.768	32778.76
588.127	32799.1
588.487	32723.84
588.846	32900.11
589.206	32694.47
589.565	32745.09
589.925	32892.43
590.284	32811.07
590.643	32956.15
591.003	32948.24
591.362	32962.93
591.721	32889.49
592.08	32957.51
592.44	32962.71
592.799	32997.28
593.158	32929.94
593.517	33037.73
593.876	33051.74
594.235	32841.13
594.593	33073.44
594.952	33101.46
595.311	33067.79
595.67	33000.22
596.029	33237.28
596.387	33211.51
596.746	33337.16
597.104	33138.3
597.463	33102.36
597.822	33264.17
598.18	33098.75
598.538	33150.27
598.897	33310.49
599.255	32997.51
599.613	33575.8
599.972	33254.45
600.33	33406.76
600.688	33254
601.046	33499.64
601.404	33555.69
601.762	33552.3
602.12	33635.91
602.478	33599.53
602.836	33573.76
603.194	33339.87
603.552	33678.62
603.91	33345.3
604.268	33609.47
604.625	33605.63
604.983	33652.86
605.341	33498.51
605.698	33769.24
606.056	33815.79
606.413	33857.6
606.771	33947.77
607.128	33917.26
607.485	33864.6
607.843	33927.65
608.2	34049.91
608.557	34205.61
608.914	33987.09
609.272	34199.06
609.629	34260.75
609.986	34305.72
610.343	34183.92
610.7	34405.15
611.057	34388.66
611.414	34316.34
611.771	34321.99
612.127	34391.14
612.484	34422.78
612.841	34646.05
613.198	34351.82
613.554	34449.22
613.911	34693.06
614.267	34562.44
614.624	34632.27
614.98	34678.14
615.337	34844.92
615.693	34717.91
616.05	34653.74
616.406	34799.27
616.762	34814.18
617.118	34823.9
617.475	34798.59
617.831	34982.09
618.187	34916.78
618.543	34959.26
618.899	35168.52
619.255	35025.48
619.611	35188.18
619.967	35168.52
620.323	35194.29
620.678	35068.41
621.034	35063.89
621.39	35046.04
621.746	35002.43
622.101	35358.58
622.457	35070.67
622.812	35137.56
623.168	35270.89
623.523	35268.86
623.879	35209.43
624.234	35019.6
624.589	35166.04
624.945	35287.84
625.3	35313.61
625.655	35265.7
626.01	35210.56
626.365	35267.05
626.72	35244
627.075	35180.28
627.43	35101.18
627.785	35081.07
628.14	35174.4
628.495	35241.06
628.85	35293.27
629.205	35086.04
629.559	35241.52
629.914	35079.26
630.269	35121.97
630.623	34958.59
630.978	34859.15
631.332	34924.46
631.687	35092.37
632.041	34794.07
632.396	34798.36
632.75	34686.73
633.104	34878.81
633.459	34552.5
633.813	34678.82
634.167	34550.91
634.521	34535.09
634.875	34605.15
635.229	34582.1
635.583	34467.98
635.937	34448.77
636.291	34402.89
636.645	34286.74
636.999	34337.36
637.352	34447.41
637.706	34112.73
638.06	34385.27
638.413	34207.42
638.767	34192.05
639.121	34136.46
639.474	33808.33
639.828	33862.57
640.181	33909.57
640.534	33980.31
640.888	33793.19
641.241	33773.98
641.594	33832.06
641.947	33722.69
642.301	33661.67
642.654	33650.15
643.007	33646.08
643.36	33629.13
643.713	33579.64
644.066	33684.27
644.419	33485.18
644.771	33364.73
645.124	32981.01
645.477	32949.6
645.83	32633.68
646.182	32629.16
646.535	32609.5
646.888	32484.75
647.24	32302.39
647.593	32471.87
647.945	32405.89
648.298	32192.33
648.65	32213.57
649.002	32081.37
649.355	32279.33
649.707	32167.25
650.059	32373.12
650.411	32691.3
650.763	32731.98
651.115	32978.07
651.467	32861.47
651.819	32870.28
652.171	32726.1
652.523	32695.82
652.875	32640.46
653.227	32621.92
653.578	32847.68
653.93	32604.52
654.282	32602.72
654.633	32526.33
654.985	32443.85
655.337	32433.68
655.688	32496.96
656.039	32475.26
656.391	32193.24
656.742	32418.99
657.094	32295.83
657.445	32435.94
657.796	32415.15
658.147	32328.37
658.498	32247.92
658.849	32326.11
659.2	32203.63
659.551	32111.2
659.902	32328.37
660.253	32181.94
660.604	32179.22
660.955	32044.99
661.306	32148.72
661.656	32041.83
662.007	32088.38
662.358	32074.59
662.708	32022.84
663.059	32043.41
663.409	31835.05
663.76	32044.54
664.11	31902.85
664.461	31940.13
664.811	31943.07
665.161	31903.75
665.511	31912.56
665.862	31775.39
666.212	31996.86
666.562	31983.75
666.912	31830.53
667.262	31933.81
667.612	31880.7
667.962	31889.29
668.312	31825.79
668.662	31974.71
669.011	31761.61
669.361	31636.19
669.711	31711.67
670.06	31611.78
670.41	31618.11
670.76	31550.09
671.109	31662.4
671.459	31656.98
671.808	31558
672.157	31631.89
672.507	31372.47
672.856	31500.6
673.205	31483.88
673.554	31515.06
673.904	31395.74
674.253	31612.91
674.602	31252.92
674.951	30877.11
675.3	30833.05
675.649	31322.98
675.998	31235.29
676.346	31145.35
676.695	31323.65
677.044	31112.13
677.393	31269.64
677.741	31267.61
678.09	31091.57
678.438	31109.42
678.787	31015.64
679.135	31016.54
679.484	30881.63
679.832	31022.64
680.181	30941.29
680.529	30994.85
680.877	30920.5
681.225	30800.28
681.573	30923.44
681.922	30769.09
682.27	30551.92
682.618	30547.63
682.966	30468.99
683.314	30662.65
683.661	30449.55
684.009	30307.41
684.357	30265.15
684.705	30262.44
685.053	30248.65
685.4	30257.69
685.748	30012.5
686.095	30005.72
686.443	30010.69
686.79	29737.93
687.138	29977.02
687.485	29964.59
687.832	29695.67
688.18	29747.65
688.527	29582.46
688.874	29696.35
689.221	29600.08
689.568	29356.02
689.915	29350.37
690.262	29354.44
690.609	29237.15
690.956	29210.49
691.303	29228.57
691.65	29003.26
691.997	28997.84
692.344	28641.01
692.69	28774.34
693.037	28809.37
693.383	28600.34
693.73	28690.5
694.077	28483.05
694.423	28497.51
694.769	28339.78
695.116	28363.05
695.462	28242.15
695.808	28100.24
696.155	28180.69
696.501	28034.25
696.847	28040.12
697.193	27847.36
697.539	27956.06
697.885	27729.17
698.231	27643.98
698.577	27595.84
698.923	27539.8
699.269	27369.41
699.614	27285.34
699.96	27359.24
700.306	27283.99
700.651	27060.49
700.997	27005.8
701.342	27029.08
701.688	27039.25
702.033	26926.03
702.379	26915.86
702.724	26863.66
703.069	26876.54
703.415	26528.98
703.76	26451.01
704.105	26587.28
704.45	26470.67
704.795	26280.17
705.14	26277.68
705.485	26230.68
705.83	26116.79
706.175	26252.83
706.52	26163.34
706.865	25905.94
707.209	25793.63
707.554	25771.26
707.899	25840.18
708.243	25617.59
708.588	25633.63
708.932	25496.24
709.277	25458.72
709.621	25367.2
709.966	25283.59
710.31	25392.96
710.654	25135.79
710.998	25173.08
711.342	25168.11
711.687	25165.85
712.031	24981
712.375	24906.42
712.719	25001.33
713.063	24932.18
713.407	25052.63
713.75	24937.16
714.094	24802.47
714.438	24705.07
714.782	24779.87
715.125	24569.48
715.469	24653.55
715.812	24486.32
716.156	24310.05
716.499	24434.57
716.843	24394.12
717.186	24205.65
717.53	24264.4
717.873	24339.88
718.216	24189.15
718.559	24111.64
718.902	23947.12
719.246	24061.92
719.589	23909.39
719.932	23918.42
720.275	23786.45
720.617	23840.23
720.96	23772.21
721.303	23759.78
721.646	23772.89
721.989	23589.39
722.331	23671.2
722.674	23597.3
723.016	23605.66
723.359	23493.35
723.701	23623.74
724.044	23374.03
724.386	23257.2
724.729	23413.58
725.071	23359.12
725.413	23287.48
725.755	23308.5
726.097	23082.74
726.439	23068.28
726.782	22989.41
727.124	23081.61
727.465	22931.11
727.807	23002.52
728.149	22861.28
728.491	22842.97
728.833	22924.55
729.175	22766.82
729.516	22671.23
729.858	22723.88
730.199	22705.58
730.541	22748.29
730.882	22582.19
731.224	22683.88
731.565	22514.39
731.906	22548.29
732.248	22489.76
732.589	22463.1
732.93	22358.24
733.271	22276.21
733.612	22428.07
733.953	22436.88
734.294	22236.66
734.635	22179.49
734.976	22246.83
735.317	22064.46
735.658	22186.72
735.999	22105.14
736.339	22074.63
736.68	22056.33
737.021	22105.59
737.361	21896.33
737.702	21934.07
738.042	21916.9
738.383	21967.06
738.723	21889.55
739.063	21835.09
739.404	21852.94
739.744	21764.13
740.084	21653.85
740.424	21704.02
740.764	21670.12
741.104	21614.08
741.444	21445.72
741.784	21453.18
742.124	21439.85
742.464	21421.99
742.804	21361.66
743.143	21375.21
743.483	21367.76
743.823	21289.12
744.162	21322.56
744.502	21315.1
744.841	21182.45
745.181	21238.95
745.52	21030.14
745.86	21169.8
746.199	21077.6
746.538	21038.5
746.877	21100.19
747.216	21044.6
747.556	21078.27
747.895	21007.99
748.234	20853.19
748.573	20840.09
748.911	20816.36
749.25	20822.46
749.589	20685.74
749.928	20704.72
750.267	20712.86
750.605	20677.83
750.944	20596.48
751.283	20582.69
751.621	20638.29
751.96	20446.2
752.298	20431.51
752.636	20433.32
752.975	20309.25
753.313	20219.09
753.651	20333.43
753.989	20244.17
