Data from white_steel_sheet_FLMS001491_050.txt Node
Date: Tue Feb 07 10:57:56 GMT 2017
User: dcchb
Spectrometer: FLMS00149
Trigger mode: 0
Integration Time (sec): 2.000000E-2
Scans to average: 10
Electric dark correction enabled: true
Nonlinearity correction enabled: false
Boxcar width: 0
XAxis mode: Wavelengths
Number of Pixels in Spectrum: 2048
>>>>>Begin Spectral Data<<<<<
341.393	-12.33
341.776	-12.33
342.16	-12.33
342.543	-51.65
342.927	-58.88
343.31	-62.5
343.693	-75.61
344.077	-54.36
344.46	-74.93
344.843	-66.11
345.226	-44.87
345.61	-43.52
345.993	-3.29
346.376	-6
346.759	12.98
347.142	27.89
347.525	36.26
347.908	56.59
348.291	103.15
348.674	89.36
349.057	104.95
349.44	139.98
349.823	151.73
350.206	151.06
350.588	199.42
350.971	238.51
351.354	228.12
351.737	251.62
352.119	248
352.502	257.04
352.884	284.84
353.267	297.72
353.65	309.02
354.032	294.33
354.414	297.72
354.797	313.08
355.179	344.27
355.562	328.45
355.944	315.12
356.326	347.66
356.709	322.8
357.091	339.98
357.473	360.09
357.855	332.29
358.238	346.98
358.62	342.91
359.002	348.11
359.384	361.45
359.766	344.04
360.148	348.56
360.53	355.57
360.912	338.85
361.294	358.96
361.676	339.75
362.057	338.4
362.439	343.37
362.821	352.86
363.203	338.85
363.584	311.05
363.966	343.37
364.348	342.69
364.729	327.32
365.111	330.49
365.493	338.4
365.874	325.51
366.256	316.7
366.637	320.54
367.019	322.58
367.4	330.71
367.781	338.4
368.163	332.75
368.544	317.6
368.925	337.49
369.306	339.07
369.688	331.16
370.069	339.3
370.45	343.82
370.831	355.34
371.212	337.04
371.593	332.97
371.974	336.81
372.355	318.06
372.736	338.62
373.117	323.93
373.498	330.94
373.879	322.35
374.26	335.23
374.641	305.63
375.021	316.02
375.402	324.61
375.783	335.68
376.163	352.18
376.544	332.29
376.925	343.37
377.305	351.05
377.686	347.89
378.066	356.93
378.447	344.72
378.827	340.88
379.208	367.55
379.588	359.19
379.968	346.53
380.349	365.51
380.729	356.93
381.109	345.85
381.489	360.32
381.87	351.28
382.25	392.18
382.63	360.09
383.01	355.57
383.39	350.15
383.77	377.49
384.15	360.77
384.53	392.18
384.91	372.74
385.29	382.69
385.67	380.65
386.049	396.92
386.429	387.21
386.809	381.33
387.189	395.57
387.568	387.89
387.948	412.52
388.328	391.95
388.707	410.03
389.087	393.99
389.466	420.43
389.846	447.54
390.225	414.1
390.605	405.96
390.984	443.93
391.363	425.4
391.743	422.01
392.122	431.27
392.501	457.94
392.881	445.06
393.26	444.38
393.639	458.84
394.018	463.36
394.397	465.62
394.776	459.52
395.155	472.85
395.534	467.21
395.913	468.34
396.292	482.57
396.671	503.81
397.05	497.03
397.429	502.01
397.808	525.06
398.186	497.49
398.565	518.96
398.944	512.4
399.323	521.44
399.701	542.23
400.08	524.83
400.458	549.01
400.837	564.38
401.215	566.64
401.594	555.79
401.972	582.91
402.351	572.74
402.729	570.25
403.107	603.02
403.486	606.86
403.864	609.8
404.242	608.9
404.62	633.3
404.999	665.62
405.377	665.84
405.755	666.07
406.133	663.36
406.511	646.64
406.889	683.02
407.267	695.9
407.645	702.68
408.023	710.14
408.401	762.56
408.779	738.84
409.156	748.33
409.534	778.38
409.912	761.43
410.29	779.51
410.667	796.01
411.045	836.01
411.422	818.16
411.8	820.42
412.178	865.61
412.555	865.39
412.933	856.12
413.31	893.18
413.687	877.59
414.065	911.71
414.442	906.06
414.819	900.87
415.197	926.63
415.574	952.16
415.951	979.73
416.328	967.08
416.705	976.8
417.082	987.42
417.46	991.26
417.837	1011.37
418.214	1025.83
418.591	1013.63
418.967	1038.49
419.344	1035.33
419.721	1095.66
420.098	1073.29
420.475	1071.26
420.852	1083.91
421.228	1096.79
421.605	1111.26
421.982	1135.21
422.358	1136.11
422.735	1132.27
423.111	1144.02
423.488	1199.84
423.864	1192.61
424.241	1185.15
424.617	1189.22
424.994	1223.57
425.37	1214.76
425.746	1205.94
426.123	1254.76
426.499	1255.89
426.875	1280.07
427.251	1286.17
427.627	1320.97
428.003	1344.7
428.379	1341.76
428.756	1350.12
429.132	1391.47
429.507	1400.51
429.883	1398.93
430.259	1445.94
430.635	1459.72
431.011	1481.19
431.387	1513.28
431.763	1526.16
432.138	1490.23
432.514	1563.22
432.89	1581.53
433.265	1595.09
433.641	1627.63
434.016	1612.03
434.392	1658.59
434.767	1701.52
435.143	1691.13
435.518	1698.13
435.894	1692.03
436.269	1736.32
436.644	1772.48
437.02	1761.86
437.395	1807.96
437.77	1813.61
438.145	1818.58
438.52	1870.78
438.895	1857.9
439.271	1863.78
439.646	1960.95
440.021	1939.71
440.395	1946.49
440.77	1958.92
441.145	1986.94
441.52	2035.53
441.895	2024.45
442.27	2055.64
442.645	2015.41
443.019	2037.11
443.394	2106.94
443.769	2087.28
444.143	2060.38
444.518	2118.24
444.892	2156.43
445.267	2148.29
445.641	2196.2
446.016	2195.97
446.39	2174.96
446.764	2252.47
447.139	2217.22
447.513	2261.51
447.887	2257.67
448.262	2281.39
448.636	2301.28
449.01	2329.53
449.384	2326.37
449.758	2354.16
450.132	2385.35
450.506	2409.3
450.88	2398.68
451.254	2421.96
451.628	2457.89
452.002	2499.69
452.376	2473.71
452.75	2515.06
453.123	2515.51
453.497	2602.97
453.871	2612.46
454.244	2675.73
454.618	2666.02
454.992	2721.84
455.365	2729.29
455.739	2793.25
456.112	2812.68
456.486	2813.81
456.859	2840.48
457.232	2895.62
457.606	2895.84
457.979	2944.88
458.352	3021.94
458.725	3017.87
459.099	3041.83
459.472	3127.47
459.845	3157.53
460.218	3212.67
460.591	3217.64
460.964	3219
461.337	3273.01
461.71	3343.51
462.083	3427.35
462.456	3413.79
462.829	3399.78
463.201	3471.87
463.574	3509.61
463.947	3547.12
464.32	3576.73
464.692	3645.88
465.065	3677.74
465.438	3712.09
465.81	3761.81
466.183	3808.59
466.555	3910.5
466.928	3932.88
467.3	3913.67
467.672	3989.15
468.045	4131.29
468.417	4082.03
468.789	4078.18
469.161	4176.49
469.534	4250.83
469.906	4345.3
470.278	4400.66
470.65	4417.61
471.022	4496.7
471.394	4558.62
471.766	4593.65
472.138	4681.33
472.51	4750.03
472.882	4818.5
473.253	4883.36
473.625	4936.92
473.997	5081.1
474.369	5094.2
474.74	5154.99
475.112	5246.51
475.484	5314.76
475.855	5398.15
476.227	5467.75
476.598	5604.92
476.97	5649.44
477.341	5789.1
477.713	5889.66
478.084	5907.97
478.455	6084.68
478.827	6137.11
479.198	6242.87
479.569	6259.82
479.94	6495.75
480.311	6502.98
480.682	6707.72
481.053	6812.12
481.424	6940.71
481.795	6944.55
482.166	7058.22
482.537	7167.37
482.908	7348.15
483.279	7399
483.65	7601.48
484.021	7731.2
484.391	7782.95
484.762	7877.63
485.133	7974.35
485.503	8096.38
485.874	8283.95
486.244	8331.41
486.615	8502.7
486.985	8557.61
487.356	8775.69
487.726	8827.89
488.097	8955.8
488.467	8999.64
488.837	9241.66
489.207	9299.06
489.578	9422.22
489.948	9523.24
490.318	9722.78
490.688	9717.81
491.058	9853.63
491.428	10004.13
491.798	10098.36
492.168	10271.02
492.538	10330.67
492.908	10405.47
493.278	10568.18
493.648	10655.19
494.017	10791.45
494.387	10896.76
494.757	10968.62
495.126	11079.58
495.496	11150.31
495.866	11228.28
496.235	11371.78
496.605	11436.18
496.974	11502.17
497.344	11618.78
497.713	11712.11
498.082	11881.14
498.452	11925.21
498.821	12027.13
499.19	12121.59
499.559	12208.14
499.928	12218.31
500.298	12329.27
500.667	12481.13
501.036	12508.7
501.405	12675.92
501.774	12599.32
502.143	12717.73
502.512	12840.67
502.88	12948.46
503.249	12984.16
503.618	13178.74
503.987	13203.82
504.356	13346.64
504.724	13354.32
505.093	13477.03
505.462	13586.18
505.83	13636.8
506.199	13729.91
506.567	13928.55
506.936	14015.78
507.304	14112.5
507.672	14213.28
508.041	14263
508.409	14324.69
508.777	14468.64
509.145	14639.26
509.514	14628.64
509.882	14796.55
510.25	14840.39
510.618	14963.32
510.986	15028.86
511.354	15222.3
511.722	15340.49
512.09	15467.04
512.458	15412.8
512.826	15624.09
513.193	15620.03
513.561	15839.91
513.929	15906.35
514.297	15948.61
514.664	16204.87
515.032	16306.56
515.4	16355.83
515.767	16517.4
516.135	16641.7
516.502	16606.67
516.869	16924.63
517.237	16945.19
517.604	16931.18
517.972	17186.09
518.339	17269.02
518.706	17375.91
519.073	17500.88
519.44	17572.29
519.808	17885.28
520.175	17772.74
520.542	18044.82
520.909	18194.42
521.276	18249.56
521.643	18496.56
522.009	18621.98
522.376	18767.74
522.743	18877.34
523.11	19152.14
523.477	19229.65
523.843	19327.05
524.21	19622.18
524.577	19574.5
524.943	19751.67
525.31	19958.9
525.676	20179.23
526.043	20190.75
526.409	20347.13
526.776	20588.71
527.142	20630.97
527.508	20688.59
527.874	20990.96
528.241	21064.4
528.607	21147.11
528.973	21329.03
529.339	21354.79
529.705	21704.39
530.071	21801.33
530.437	21829.13
530.803	21974.21
531.169	22238.38
531.535	22134.88
531.901	22258.27
532.267	22352.28
532.632	22661.88
532.998	22611.93
533.364	22785.26
533.73	22804.7
534.095	22959.5
534.461	23112.94
534.826	23271.58
535.192	23284.23
535.557	23478.8
535.923	23441.06
536.288	23635.41
536.653	23737.78
537.019	23776.87
537.384	23869.3
537.749	23963.99
538.114	24051.22
538.479	24129.63
538.845	24310.65
539.21	24215.28
539.575	24401.27
539.94	24479
540.305	24656.85
540.67	24702.5
541.034	24765.55
541.399	24981.81
541.764	24875.15
542.129	24981.36
542.494	25111.53
542.858	25177.52
543.223	25229.27
543.587	25440.79
543.952	25448.7
544.316	25503.38
544.681	25534.57
545.045	25753.32
545.41	25893.66
545.774	25984.95
546.138	25970.72
546.503	26052.07
546.867	26064.72
547.231	26273.53
547.595	26308.79
547.959	26364.6
548.324	26508.1
548.688	26502.45
549.052	26678.04
549.416	26736.8
549.779	26732.73
550.143	26954.87
550.507	27061.31
550.871	27126.84
551.235	27118.93
551.599	27340.4
551.962	27452.26
552.326	27425.82
552.689	27576.32
553.053	27482.99
553.417	27741.74
553.78	28048.63
554.143	27859.03
554.507	28080.72
554.87	28197.78
555.234	28433.02
555.597	28278
555.96	28428.28
556.323	28613.36
556.686	28598.22
557.05	28790.75
557.413	28910.3
557.776	29006.79
558.139	29090.41
558.502	29255.6
558.865	29357.29
559.228	29588.7
559.59	29675.7
559.953	29646.55
560.316	30111.17
560.679	29971.06
561.041	30252.18
561.404	30317.72
561.767	30559.52
562.129	30460.54
562.492	30911.15
562.854	30834.32
563.217	30837.93
563.579	31007.19
563.941	31190.47
564.304	31330.57
564.666	31370.57
565.028	31490.12
565.39	31691.24
565.753	31724.69
566.115	31914.97
566.477	32122.87
566.839	32236.99
567.201	32373.48
567.563	32401.51
567.925	32547.72
568.287	32535.51
568.648	32721.05
569.01	32869.97
569.372	33050.3
569.734	32981.15
570.095	33096.86
570.457	33287.59
570.819	33377.98
571.18	33417.75
571.542	33566.67
571.903	33694.35
572.265	33697.97
572.626	33882.37
572.987	33911.3
573.349	33997.17
573.71	34189.93
574.071	34298.63
574.432	34310.84
574.794	34527.55
575.155	34415.01
575.516	34357.16
575.877	34563.26
576.238	34689.36
576.599	34767.77
576.96	34755.57
577.32	34900.65
577.681	34868.79
578.042	34908.79
578.403	34945.85
578.763	34919.63
579.124	35144.26
579.485	35247.08
579.845	35311.94
580.206	35271.71
580.566	35341.09
580.927	35306.52
581.287	35504.02
581.648	35256.57
582.008	35464.25
582.368	35352.16
582.728	35497.7
583.089	35427.42
583.449	35436.46
583.809	35467.87
584.169	35501.76
584.529	35510.58
584.889	35671.93
585.249	35535.89
585.609	35355.1
585.969	35560.07
586.329	35458.38
586.688	35590.58
587.048	35523.01
587.408	35454.53
587.768	35414.53
588.127	35424.03
588.487	35456.12
588.846	35744.02
589.206	35502.67
589.565	35574.08
589.925	35616.11
590.284	35479.17
590.643	35556.68
591.003	35617.24
591.362	35718.93
591.721	35561.88
592.08	35588.32
592.44	35584.93
592.799	35657.01
593.158	35578.37
593.517	35628.77
593.876	35664.7
594.235	35563.01
594.593	35673.51
594.952	35712.38
595.311	35609.11
595.67	35791.25
596.029	35944.69
596.387	35819.27
596.746	35912.6
597.104	35720.97
597.463	35666.28
597.822	35777.01
598.18	35786.05
598.538	35786.73
598.897	36016.33
599.255	35560.29
599.613	36150.56
599.972	35858.82
600.33	35860.4
600.688	35827.41
601.046	35985.37
601.404	35880.06
601.762	35966.38
602.12	36092.48
602.478	35972.71
602.836	36025.37
603.194	35927.97
603.552	36058.81
603.91	35822.66
604.268	35982.66
604.625	35876.67
604.983	36036.89
605.341	35983.79
605.698	36125.02
606.056	36168.41
606.413	36132.93
606.771	36327.28
607.128	36352.14
607.485	36253.38
607.843	36199.83
608.2	36411.12
608.557	36435.53
608.914	36336.54
609.272	36525.69
609.629	36498.57
609.986	36527.73
610.343	36388.97
610.7	36727.27
611.057	36681.39
611.414	36620.6
611.771	36616.54
612.127	36746.93
612.484	36831.45
612.841	36850.88
613.198	36837.55
613.554	36809.98
613.911	37086.81
614.267	37013.59
614.624	36970.43
614.98	37002.52
615.337	37257.42
615.693	37075.96
616.05	37010.2
616.406	37225.11
616.762	37274.6
617.118	37129.97
617.475	37270.08
617.831	37298.33
618.187	37302.62
618.543	37490.86
618.899	37613.8
619.255	37483.41
619.611	37581.71
619.967	37501.26
620.323	37520.92
620.678	37539
621.034	37483.41
621.39	37461.71
621.746	37410.41
622.101	37849.05
622.457	37514.82
622.812	37691.31
623.168	37676.4
623.523	37537.64
623.879	37795.49
624.234	37451.77
624.589	37709.84
624.945	37754.81
625.3	37732.89
625.655	37828.71
626.01	37679.33
626.365	37650.18
626.72	37537.42
627.075	37547.36
627.43	37767.92
627.785	37521.15
628.14	37719.11
628.495	37722.5
628.85	37543.97
629.205	37499.9
629.559	37797.52
629.914	37379.23
630.269	37500.13
630.623	37414.26
630.978	37447.02
631.332	37305.33
631.687	37529.96
632.041	37332.68
632.396	37495.84
632.75	37274.82
633.104	37285.22
633.459	37155.51
633.813	37176.3
634.167	37085.9
634.521	36993.48
634.875	37102.17
635.229	36944.21
635.583	36851.33
635.937	36741.96
636.291	36700.15
636.645	36822.18
636.999	36702.18
637.352	36802.97
637.706	36539.7
638.06	36776.53
638.413	36612.7
638.767	36463.55
639.121	36691.34
639.474	36375.87
639.828	36449.08
640.181	36463.32
640.534	36398.69
640.888	36332.02
641.241	36203.67
641.594	36186.49
641.947	36140.84
642.301	36148.75
642.654	36159.83
643.007	36119.38
643.36	36102.65
643.713	35844.81
644.066	36049.55
644.419	35835.54
644.771	35492.27
645.124	35092.96
645.477	35019.52
645.83	34946.07
646.182	34782.69
646.535	34683.48
646.888	34829.01
647.24	34563.03
647.593	34846.87
647.945	34663.59
648.298	34672.18
648.65	34601.9
649.002	34478.29
649.355	34526.65
649.707	34386.31
650.059	34509.47
650.411	34996.01
650.763	35011.61
651.115	35416.79
651.467	35075.56
651.819	35136.35
652.171	35069.23
652.523	34926.41
652.875	34976.35
653.227	34840.76
653.578	35108.78
653.93	35123.24
654.282	34803.7
654.633	34769.58
654.985	34838.73
655.337	34781.11
655.688	34837.37
656.039	34909.92
656.391	34468.12
656.742	34649.36
657.094	34604.61
657.445	34724.38
657.796	34569.81
658.147	34658.62
658.498	34537.04
658.849	34558.29
659.2	34406.65
659.551	34316.71
659.902	34450.94
660.253	34442.36
660.604	34339.76
660.955	34213.44
661.306	34218.86
661.656	34047.34
662.007	34201.91
662.358	34170.05
662.708	34188.13
663.059	33977.74
663.409	33737.74
663.76	34031.75
664.11	33865.88
664.461	34032.42
664.811	33938.19
665.161	33857.51
665.511	33646.45
665.862	33635.82
666.212	33719.89
666.562	33765.54
666.912	33597.86
667.262	33466.34
667.612	33512.89
667.962	33363.97
668.312	33189.96
668.662	33398.54
669.011	33162.16
669.361	33025.45
669.711	33070.87
670.06	32814.38
670.41	32836.75
670.76	32738
671.109	32859.8
671.459	32646.25
671.808	32557.89
672.157	32663.87
672.507	32245.35
672.856	32422.3
673.205	32338.91
673.554	32462.75
673.904	32244.22
674.253	32280.38
674.602	32277.89
674.951	31719.72
675.3	31580.96
675.649	32092.81
675.998	32024.12
676.346	31957.9
676.695	32170.1
677.044	31881.97
677.393	31843.1
677.741	31893.05
678.09	31812.6
678.438	31877.68
678.787	31762.43
679.135	31742.54
679.484	31589.32
679.832	31860.5
680.181	31599.04
680.529	31731.92
680.877	31624.8
681.225	31601.75
681.573	31806.49
681.922	31507.07
682.27	31579.16
682.618	31550
682.966	31591.58
683.314	31661.19
683.661	31601.98
684.009	31472.94
684.357	31432.27
684.705	31415.77
685.053	31625.26
685.4	31538.48
685.748	31477.24
686.095	31427.07
686.443	31392.49
686.79	31431.36
687.138	31453.96
687.485	31432.72
687.832	31246.28
688.18	31446.96
688.527	31292.84
688.874	31391.14
689.221	31352.27
689.568	31293.74
689.915	31324.7
690.262	31223.23
690.609	31126.74
690.956	31071.82
691.303	31154.31
691.65	31067.3
691.997	31108.89
692.344	30916.12
692.69	30891.26
693.037	30966.29
693.383	30695.56
693.73	30835.45
694.077	30675.22
694.423	30835.45
694.769	30705.73
695.116	30690.59
695.462	30752.28
695.808	30513.65
696.155	30522.23
696.501	30308.91
696.847	30439.52
697.193	30264.84
697.539	30329.02
697.885	29997.05
698.231	30063.04
698.577	29925.19
698.923	30052.64
699.269	29870.95
699.614	29697.62
699.96	29703.5
700.306	29749.83
700.651	29583.5
700.997	29486.56
701.342	29536.5
701.688	29377.18
702.033	29240.91
702.379	29322.94
702.724	29215.38
703.069	29355.49
703.415	28905.78
703.76	28931.32
704.105	28938.77
704.45	28827.14
704.795	28673.7
705.14	28646.13
705.485	28648.61
705.83	28495.17
706.175	28644.77
706.52	28470.54
706.865	28394.61
707.209	28360.48
707.554	28291.78
707.899	28301.05
708.243	28027.38
708.588	28129.75
708.932	27891.12
709.277	27886.37
709.621	27958.69
709.966	27737.67
710.31	27755.08
710.654	27560.05
710.998	27519.15
711.342	27606.15
711.687	27471.69
712.031	27438.7
712.375	27325.71
712.719	27336.78
713.063	27333.84
713.407	27285.94
713.75	27043.68
714.094	27185.15
714.438	27071.93
714.782	27087.52
715.125	26884.36
715.469	27089.33
715.812	26786.06
716.156	26730.7
716.499	26703.35
716.843	26752.16
717.186	26688.66
717.53	26718.04
717.873	26677.82
718.216	26532.96
718.559	26434.66
718.902	26332.06
719.246	26357.82
719.589	26240.09
719.932	26222.69
720.275	26160.77
720.617	26188.56
720.96	25991.51
721.303	26056.81
721.646	26055.68
721.989	25800.55
722.331	25956.25
722.674	25820.44
723.016	25834.9
723.359	25826.54
723.701	25902.02
724.044	25632.19
724.386	25478.52
724.729	25541.8
725.071	25592.19
725.413	25557.39
725.755	25568.24
726.097	25529.15
726.439	25396.72
726.782	25328.25
727.124	25412.76
727.465	25323.05
727.807	25284.63
728.149	25275.59
728.491	25216.16
728.833	25194.69
729.175	25094.81
729.516	25015.49
729.858	24935.04
730.199	24932.32
730.541	24945.21
730.882	24767.13
731.224	24895.26
731.565	24747.92
731.906	24800.12
732.248	24763.97
732.589	24689.17
732.93	24533.69
733.271	24543.18
733.612	24581.6
733.953	24577.53
734.294	24468.83
734.635	24516.06
734.976	24455.73
735.317	24320.82
735.658	24324.43
735.999	24397.65
736.339	24097.32
736.68	24265.9
737.021	24209.86
737.361	24009.86
737.702	24181.61
738.042	24036.08
738.383	23929.41
738.723	24048.96
739.063	23895.06
739.404	24036.3
739.744	23914.5
740.084	23883.99
740.424	23913.59
740.764	23681.28
741.104	23800.38
741.444	23730.32
741.784	23700.27
742.124	23687.84
742.464	23638.35
742.804	23655.52
743.143	23500.72
743.483	23437.67
743.823	23401.97
744.162	23344.12
744.502	23440.39
744.841	23290.79
745.181	23406.94
745.52	23272.71
745.86	23207.85
746.199	23192.71
746.538	23120.62
746.877	23118.59
747.216	23086.05
747.556	23131.24
747.895	23168.3
748.234	22899.61
748.573	22928.08
748.911	22856
749.25	22873.4
749.589	22677.69
749.928	22793.62
750.267	22828.65
750.605	22713.85
750.944	22666.85
751.283	22578.26
751.621	22592.5
751.96	22373.07
752.298	22543.91
752.636	22417.36
752.975	22277.71
753.313	22240.42
753.651	22300.3
753.989	22202.9
