Data from white_steel_sheet_FLMS001491_048.txt Node
Date: Tue Feb 07 10:57:56 GMT 2017
User: dcchb
Spectrometer: FLMS00149
Trigger mode: 0
Integration Time (sec): 2.000000E-2
Scans to average: 10
Electric dark correction enabled: true
Nonlinearity correction enabled: false
Boxcar width: 0
XAxis mode: Wavelengths
Number of Pixels in Spectrum: 2048
>>>>>Begin Spectral Data<<<<<
341.393	1.16
341.776	1.16
342.16	1.16
342.543	-61.89
342.927	-74.32
343.31	-79.29
343.693	-41.55
344.077	-75.9
344.46	-54.66
344.843	-61.89
345.226	-22.8
345.61	-32.51
345.993	-23.93
346.376	-3.81
346.759	12.23
347.142	34.83
347.525	26.47
347.908	57.65
348.291	65.11
348.674	92.23
349.057	107.82
349.44	126.35
349.823	155.28
350.206	158.22
350.588	200.25
350.971	212.23
351.354	204.99
351.737	241.15
352.119	233.69
352.502	263.3
352.884	295.39
353.267	296.52
353.65	283.64
354.032	304.2
354.414	300.59
354.797	325.9
355.179	313.69
355.562	317.31
355.944	329.06
356.326	348.72
356.709	331.77
357.091	360.47
357.473	345.78
357.855	361.83
358.238	357.76
358.62	335.61
359.002	341.49
359.384	350.75
359.766	347.82
360.148	346.01
360.53	369.51
360.912	348.49
361.294	360.24
361.676	333.58
362.057	368.83
362.439	334.26
362.821	354.37
363.203	342.84
363.584	337.19
363.966	343.97
364.348	356.63
364.729	328.83
365.111	333.58
365.493	311.21
365.874	310.75
366.256	306.69
366.637	319.57
367.019	317.53
367.4	322.73
367.781	327.48
368.163	327.7
368.544	316.86
368.925	341.49
369.306	316.18
369.688	339.23
370.069	343.75
370.45	324.09
370.831	346.91
371.212	337.19
371.593	333.35
371.974	343.3
372.355	341.71
372.736	332.9
373.117	331.09
373.498	331.77
373.879	332
374.26	329.51
374.641	344.65
375.021	341.94
375.402	328.61
375.783	334.71
376.163	341.49
376.544	332.9
376.925	342.17
377.305	320.47
377.686	348.72
378.066	354.14
378.447	340.81
378.827	354.6
379.208	365.22
379.588	360.92
379.968	350.98
380.349	359.79
380.729	350.3
381.109	352.11
381.489	366.12
381.87	376.52
382.25	366.12
382.63	364.99
383.01	384.42
383.39	394.59
383.77	343.52
384.15	392.33
384.53	379.68
384.91	376.29
385.29	390.75
385.67	382.17
386.049	406.35
386.429	401.15
386.809	389.62
387.189	378.78
387.568	411.09
387.948	386.68
388.328	406.8
388.707	404.99
389.087	406.57
389.466	389.4
389.846	421.71
390.225	415.84
390.605	407.25
390.984	397.53
391.363	439.11
391.743	458.32
392.122	435.95
392.501	434.59
392.881	445.67
393.26	457.64
393.639	435.5
394.018	469.85
394.397	465.78
394.776	452.45
395.155	476.63
395.534	482.28
395.913	497.64
396.292	480.69
396.671	481.37
397.05	489.73
397.429	498.55
397.808	512.78
398.186	508.49
398.565	507.81
398.944	512.78
399.323	531.77
399.701	553.46
400.08	532.44
400.458	566.79
400.837	548.26
401.215	545.1
401.594	561.37
401.972	571.76
402.351	583.29
402.729	591.2
403.107	588.26
403.486	615.15
403.864	606.34
404.242	611.54
404.62	625.55
404.999	635.04
405.377	637.07
405.755	643.4
406.133	670.07
406.511	687.24
406.889	684.08
407.267	694.25
407.645	702.16
408.023	702.38
408.401	744.64
408.779	732.44
409.156	761.36
409.534	758.43
409.912	772.44
410.29	755.26
410.667	788.03
411.045	787.35
411.422	835.49
411.8	813.34
412.178	830.97
412.555	849.5
412.933	849.72
413.31	885.2
413.687	875.26
414.065	897.86
414.442	873
414.819	917.07
415.197	928.37
415.574	939.44
415.951	919.33
416.328	956.16
416.705	967.01
417.082	969.04
417.46	967.46
417.837	982.38
418.214	1022.15
418.591	1023.05
418.967	1042.94
419.344	1032.32
419.721	1042.94
420.098	1044.07
420.475	1084.07
420.852	1059.44
421.228	1100.34
421.605	1122.26
421.982	1113.22
422.358	1104.41
422.735	1135.37
423.111	1149.15
423.488	1164.07
423.864	1173.33
424.241	1156.61
424.617	1174.01
424.994	1218.98
425.37	1229.83
425.746	1204.52
426.123	1259.2
426.499	1244.52
426.875	1273.67
427.251	1293.1
427.627	1300.56
428.003	1308.92
428.379	1331.29
428.756	1373.33
429.132	1367.45
429.507	1406.77
429.883	1406.32
430.259	1414.68
430.635	1429.14
431.011	1487.9
431.387	1479.09
431.763	1482.02
432.138	1511.4
432.514	1556.37
432.89	1546.2
433.265	1579.2
433.641	1619.42
434.016	1625.07
434.392	1654.67
434.767	1650.38
435.143	1667.78
435.518	1705.29
435.894	1703.49
436.269	1730.6
436.644	1739.87
437.02	1757.27
437.395	1791.85
437.77	1853.99
438.145	1833.2
438.52	1839.75
438.895	1873.65
439.271	1864.16
439.646	1949.13
440.021	1945.29
440.395	1961.56
440.77	1908.23
441.145	1973.31
441.52	1976.47
441.895	2006.53
442.27	2020.09
442.645	2020.77
443.019	2049.92
443.394	2085.62
443.769	2090.82
444.143	2092.4
444.518	2130.14
444.892	2128.11
445.267	2115.23
445.641	2181.44
446.016	2190.48
446.39	2188.9
446.764	2199.29
447.139	2210.82
447.513	2227.99
447.887	2234.09
448.262	2271.38
448.636	2297.59
449.01	2312.06
449.384	2346.63
449.758	2333.98
450.132	2392.51
450.506	2429.57
450.88	2415.33
451.254	2419.4
451.628	2437.03
452.002	2471.83
452.376	2511.15
452.75	2530.81
453.123	2524.93
453.497	2596.34
453.871	2603.12
454.244	2627.3
454.618	2655.78
454.992	2698.04
455.365	2687.87
455.739	2770.8
456.112	2804.93
456.486	2835.66
456.859	2870.01
457.232	2891.93
457.606	2900.06
457.979	2931.7
458.352	3007.41
458.725	3032.04
459.099	3067.97
459.472	3123.34
459.845	3123.79
460.218	3185.93
460.591	3187.29
460.964	3177.57
461.337	3298.7
461.71	3352.93
462.083	3389.32
462.456	3386.38
462.829	3405.81
463.201	3448.53
463.574	3487.39
463.947	3523.33
464.32	3601.06
464.692	3638.8
465.065	3654.4
465.438	3713.15
465.81	3759.25
466.183	3772.36
466.555	3860.04
466.928	3895.97
467.3	3896.65
467.672	3990.66
468.045	4074.05
468.417	4064.1
468.789	4097.32
469.161	4141.84
469.534	4246.92
469.906	4326.92
470.278	4359.46
470.65	4367.37
471.022	4443.3
471.394	4534.6
471.766	4588.16
472.138	4612.79
472.51	4796.96
472.882	4799.9
473.253	4878.54
473.625	4927.81
473.997	5033.79
474.369	5059.33
474.74	5086.45
475.112	5217.74
475.484	5313.79
475.855	5315.59
476.227	5420
476.598	5604.63
476.97	5663.16
477.341	5771.63
477.713	5819.76
478.084	5887.78
478.455	6040.77
478.827	6064.73
479.198	6287.09
479.569	6276.25
479.94	6443.93
480.311	6502.46
480.682	6575.9
481.053	6752.17
481.424	6957.13
481.795	6966.85
482.166	7047.75
482.537	7154.64
482.908	7371.59
483.279	7399.16
483.65	7490.45
484.021	7663.56
484.391	7760.5
484.762	7811.57
485.133	7904.91
485.503	8043.66
485.874	8191.9
486.244	8268.74
486.615	8468.73
486.985	8547.6
487.356	8712.34
487.726	8742.4
488.097	8953.92
488.467	9020.58
488.837	9137.87
489.207	9247.24
489.578	9409.5
489.948	9436.16
490.318	9597.97
490.688	9677.06
491.058	9831.86
491.428	9932.2
491.798	10011.52
492.168	10291.28
492.538	10273.88
492.908	10404.95
493.278	10513.65
493.648	10575.34
494.017	10779.18
494.387	10798.84
494.757	10879.06
495.126	11074.99
495.496	11108.66
495.866	11133.07
496.235	11283.8
496.605	11379.62
496.974	11490.8
497.344	11551.81
497.713	11625.71
498.082	11762.88
498.452	11875.87
498.821	11903.9
499.19	11982.31
499.559	12052.82
499.928	12169.65
500.298	12245.81
500.667	12428.63
501.036	12492.13
501.405	12538
501.774	12587.72
502.143	12799.24
502.512	12786.58
502.88	12861.61
503.249	12945.45
503.618	13143.86
503.987	13111.55
504.356	13247.59
504.724	13307.47
505.093	13420.92
505.462	13477.19
505.83	13560.58
506.199	13747.01
506.567	13816.16
506.936	13803.73
507.304	14070.84
507.672	14059.55
508.041	14195.81
508.409	14261.35
508.777	14482.59
509.145	14522.36
509.514	14611.4
509.882	14722.35
510.25	14744.27
510.618	14847.55
510.986	14969.58
511.354	15156.47
511.722	15178.16
512.09	15407.98
512.458	15384.26
512.826	15539.05
513.193	15697.47
513.561	15661.99
513.929	15861.76
514.297	15978.59
514.664	16083.67
515.032	16167.29
515.4	16376.77
515.767	16449.54
516.135	16562.53
516.502	16567.95
516.869	16842.98
517.237	16882.97
517.604	16920.04
517.972	17120.71
518.339	17199.58
518.706	17230.08
519.073	17411.1
519.44	17540.36
519.808	17719.11
520.175	17814.7
520.542	18056.95
520.909	18204.97
521.276	18101.93
521.643	18369.49
522.009	18506.66
522.376	18623.27
522.743	18833.88
523.11	18891.73
523.477	19219.41
523.843	19259.41
524.21	19446.52
524.577	19571.04
524.943	19660.75
525.31	19692.17
525.676	19936.68
526.043	20157.01
526.409	20157.01
526.776	20521.52
527.142	20571.92
527.508	20811.68
527.874	20858.69
528.241	20916.54
528.607	21045.8
528.973	21261.84
529.339	21299.13
529.705	21563.08
530.071	21653.92
530.437	21810.75
530.803	21824.31
531.169	22032.9
531.535	22002.61
531.901	22234.25
532.267	22282.15
532.632	22428.37
532.998	22569.83
533.364	22628.81
533.73	22761.46
534.095	22899.31
534.461	22965.07
534.826	23089.59
535.192	23252.3
535.557	23416.59
535.923	23311.51
536.288	23441.9
536.653	23617.49
537.019	23620.65
537.384	23812.06
537.749	23915.56
538.114	24014.54
538.479	24077.59
538.845	24172.5
539.21	24143.8
539.575	24320.97
539.94	24397.58
540.305	24479.61
540.67	24556.22
541.034	24521.19
541.399	24774.97
541.764	24811.58
542.129	24846.38
542.494	24984.68
542.858	25106.26
543.223	25066.49
543.587	25384.67
543.952	25330.89
544.316	25393.03
544.681	25349.64
545.045	25630.09
545.41	25698.34
545.774	25774.94
546.138	25691.33
546.503	25925.9
546.867	25915.96
547.231	26163.41
547.595	26216.51
547.959	26325.66
548.324	26374.02
548.688	26468.26
549.052	26596.17
549.416	26548.71
549.779	26630.74
550.143	26701.47
550.507	26924.52
550.871	26952.99
551.235	27028.92
551.599	27233.21
551.962	27261.68
552.326	27334.68
552.689	27463.49
553.053	27307.33
553.417	27482.92
553.78	27925.62
554.143	27712.97
554.507	28018.05
554.87	28046.3
555.234	28312.73
555.597	28171.04
555.96	28418.94
556.323	28411.94
556.686	28573.74
557.05	28827.07
557.413	28718.6
557.776	28863.22
558.139	29065.93
558.502	29113.61
558.865	29175.31
559.228	29327.84
559.59	29528.29
559.953	29624.11
560.316	29960.14
560.679	29843.54
561.041	30073.36
561.404	30148.84
561.767	30360.13
562.129	30338.89
562.492	30579.11
562.854	30703.85
563.217	30738.66
563.579	30912.89
563.941	31093.22
564.304	31110.85
564.666	31428.81
565.028	31432.42
565.39	31471.52
565.753	31660.89
566.115	31753.54
566.477	31869.02
566.839	32018.85
567.201	32239.41
567.563	32244.83
567.925	32563.24
568.287	32367.54
568.648	32572.51
569.01	32688.89
569.372	32963.46
569.734	32813.63
570.095	32955.32
570.457	33165.71
570.819	33245.03
571.18	33298.81
571.542	33357.57
571.903	33519.37
572.265	33452.48
572.626	33644.12
572.987	33889.98
573.349	33855.41
573.71	34032.81
574.071	34092.47
574.432	34101.05
574.794	34313.7
575.155	34349.86
575.516	34181.95
575.877	34463.98
576.238	34490.19
576.599	34490.87
576.96	34640.93
577.32	34678.21
577.681	34798.89
578.042	34806.12
578.403	34823.29
578.763	34868.49
579.124	34890.86
579.485	35088.6
579.845	35074.81
580.206	35086.56
580.566	35050.86
580.927	35018.77
581.287	35251.3
581.648	35082.04
582.008	35365.88
582.368	35193.91
582.728	35386.44
583.089	35211.53
583.449	35247.46
583.809	35384.63
584.169	35398.65
584.529	35207.92
584.889	35461.02
585.249	35232.55
585.609	35135.15
585.969	35476.84
586.329	35358.19
586.688	35249.27
587.048	35369.27
587.408	35359.55
587.768	35367.46
588.127	35242.49
588.487	35257.18
588.846	35475.71
589.206	35297.41
589.565	35341.02
589.925	35502.37
590.284	35401.13
590.643	35444.75
591.003	35508.93
591.362	35536.49
591.721	35459.43
592.08	35553.9
592.44	35477.29
592.799	35516.83
593.158	35411.75
593.517	35393.45
593.876	35482.49
594.235	35368.14
594.593	35434.35
594.952	35662.82
595.311	35430.06
595.67	35488.59
596.029	35726.32
596.387	35630.5
596.746	35661.24
597.104	35570.39
597.463	35584.4
597.822	35678.64
598.18	35564.52
598.538	35469.15
598.897	35787.34
599.255	35483.62
599.613	35882.7
599.972	35618.75
600.33	35791.63
600.688	35523.16
601.046	35745.76
601.404	35893.55
601.762	35774.45
602.12	35846.54
602.478	35897.16
602.836	35934.9
603.194	35690.39
603.552	35760.44
603.91	35706.89
604.268	35706.43
604.625	35742.82
604.983	35943.94
605.341	35816.94
605.698	35985.75
606.056	36116.14
606.413	35990.04
606.771	36121.34
607.128	36272.97
607.485	35913.66
607.843	36023.94
608.2	36071.62
608.557	36262.35
608.914	36112.53
609.272	36306.64
609.629	36298.28
609.986	36474.55
610.343	36314.1
610.7	36519.29
611.057	36439.97
611.414	36476.13
611.771	36636.58
612.127	36450.82
612.484	36567.65
612.841	36742.79
613.198	36656.92
613.554	36603.59
613.911	36735.33
614.267	36905.72
614.624	36734.88
614.98	36920.19
615.337	37031.82
615.693	36826.86
616.05	36872.51
616.406	37219.61
616.762	36957.7
617.118	37069.34
617.475	37036.57
617.831	37243.34
618.187	37168.09
618.543	37145.27
618.899	37485.37
619.255	37387.29
619.611	37248.99
619.967	37416.45
620.323	37375.99
620.678	37274.53
621.034	37269.1
621.39	37289.67
621.746	37241.31
622.101	37647.63
622.457	37392.27
622.812	37352.72
623.168	37467.97
623.523	37474.52
623.879	37560.85
624.234	37333.96
624.589	37498.48
624.945	37513.84
625.3	37679.04
625.655	37448.08
626.01	37525.14
626.365	37520.62
626.72	37564.01
627.075	37510.91
627.43	37492.6
627.785	37332.15
628.14	37436.78
628.495	37487.63
628.85	37449.44
629.205	37238.82
629.559	37488.08
629.914	37408.08
630.269	37338.26
630.623	37238.6
630.978	37100.3
631.332	37368.09
631.687	37264.81
632.041	37159.05
632.396	37231.14
632.75	37067.08
633.104	37147.3
633.459	36906.85
633.813	36966.29
634.167	36893.75
634.521	36935.78
634.875	36910.92
635.229	36879.51
635.583	36697.37
635.937	36698.27
636.291	36729.46
636.645	36702.11
636.999	36587.09
637.352	36604.72
637.706	36290.83
638.06	36496.7
638.413	36471.39
638.767	36213.77
639.121	36385.06
639.474	36070.49
639.828	36157.72
640.181	36253.99
640.534	36284.95
640.888	36107.1
641.241	35977.16
641.594	36103.03
641.947	36042.02
642.301	35979.65
642.654	36023.71
643.007	35759.77
643.36	35810.39
643.713	35866.88
644.066	35820.56
644.419	35758.86
644.771	35344.64
645.124	35083.85
645.477	34980.8
645.83	34707.36
646.182	34692.9
646.535	34626.24
646.888	34587.59
647.24	34431.67
647.593	34720.02
647.945	34548.72
648.298	34397.54
648.65	34334.04
649.002	34227.15
649.355	34388.95
649.707	34106.7
650.059	34388.5
650.411	34764.99
650.763	34750.53
651.115	35147.8
651.467	35100.12
651.819	35077.3
652.171	34931.09
652.523	34890.64
652.875	34888.6
653.227	34718.89
653.578	34927.92
653.93	34826.23
654.282	34720.7
654.633	34673.01
654.985	34747.59
655.337	34745.1
655.688	34693.35
656.039	34830.98
656.391	34434.38
656.742	34430.08
657.094	34433.93
657.445	34562.28
657.796	34522.96
658.147	34428.05
658.498	34329.75
658.849	34491.78
659.2	34240.71
659.551	34190.32
659.902	34299.01
660.253	34127.27
660.604	34068.06
660.955	34020.6
661.306	34135.85
661.656	33961.17
662.007	34106.7
662.358	33968.4
662.708	34002.3
663.059	34044.33
663.409	33583.33
663.76	33804.56
664.11	33969.53
664.461	33769.76
664.811	33828.07
665.161	33675.08
665.511	33606.15
665.862	33577.45
666.212	33682.98
666.562	33529.99
666.912	33396.89
667.262	33292.49
667.612	33256.33
667.962	33176.56
668.312	33026.73
668.662	33193.28
669.011	33043.23
669.361	32794.42
669.711	32840.97
670.06	32874.87
670.41	32720.98
670.76	32618.38
671.109	32650.47
671.459	32523.24
671.808	32473.07
672.157	32528.66
672.507	32105.4
672.856	32231.72
673.205	32203.93
673.554	32121.9
673.904	32174.32
674.253	32211.84
674.602	32107.43
674.951	31680.55
675.3	31465.19
675.649	31845.74
675.998	31832.86
676.346	31895.91
676.695	31985.18
677.044	31899.3
677.393	31776.59
677.741	31876.03
678.09	31825.41
678.438	31650.95
678.787	31634.22
679.135	31652.3
679.484	31483.27
679.832	31671.29
680.181	31551.52
680.529	31483.49
680.877	31398.75
681.225	31453.44
681.573	31705.41
681.922	31441.69
682.27	31467.68
682.618	31442.14
682.966	31469.03
683.314	31538.63
683.661	31352.88
684.009	31339.32
684.357	31278.98
684.705	31272.43
685.053	31390.39
685.4	31301.13
685.748	31168.25
686.095	31371.41
686.443	31215.03
686.79	31170.28
687.138	31278.75
687.485	31325.76
687.832	31271.97
688.18	31343.16
688.527	31012.55
688.874	31192.88
689.221	31168.47
689.568	31149.94
689.915	30992.89
690.262	31129.83
690.609	31040.79
690.956	30951.53
691.303	30988.37
691.65	30977.29
691.997	30934.13
692.344	30709.28
692.69	30806.9
693.037	30930.29
693.383	30628.15
693.73	30804.64
694.077	30488.94
694.423	30451.88
694.769	30518.1
695.116	30524.88
695.462	30411.43
695.808	30391.77
696.155	30443.97
696.501	30110.87
696.847	30345.67
697.193	30001.5
697.539	30173.47
697.885	29920.37
698.231	29829.53
698.577	29811.9
698.923	29909.75
699.269	29604
699.614	29726.03
699.96	29513.15
700.306	29484.9
700.651	29456.65
700.997	29353.15
701.342	29338.47
701.688	29282.2
702.033	29116.1
702.379	29156.78
702.724	29095.99
703.069	29197.23
703.415	28786.84
703.76	28811.47
704.105	28789.78
704.45	28658.71
704.795	28591.82
705.14	28439.73
705.485	28474.76
705.83	28381.43
706.175	28441.31
706.52	28335.33
706.865	28269.57
707.209	28232.51
707.554	28247.65
707.899	28228.21
708.243	28011.04
708.588	27925.62
708.932	27725.4
709.277	27695.57
709.621	27809.24
709.966	27609.25
710.31	27791.39
710.654	27417.84
710.998	27467.55
711.342	27390.27
711.687	27292.64
712.031	27224.4
712.375	27150.95
712.719	27199.99
713.063	27202.02
713.407	27126.77
713.75	27082.03
714.094	27027.79
714.438	26918.87
714.782	26990.05
715.125	26835.93
715.469	26928.81
715.812	26740.12
716.156	26637.75
716.499	26604.75
716.843	26657.41
717.186	26470.52
717.53	26554.36
717.873	26538.99
718.216	26386.68
718.559	26288.38
718.902	26161.83
719.246	26214.03
719.589	26069.85
719.932	26122.05
720.275	26096.97
720.617	26024.88
720.96	26017.2
721.303	25958.22
721.646	25872.57
721.989	25798.67
722.331	25835.06
722.674	25734.72
723.016	25763.42
723.359	25740.37
723.701	25648.85
724.044	25674.83
724.386	25407.72
724.729	25581.73
725.071	25400.72
725.413	25437.55
725.755	25435.07
726.097	25355.07
726.439	25148.97
726.782	25232.36
727.124	25354.62
727.465	25165.02
727.807	25260.83
728.149	25147.16
728.491	25128.41
728.833	25119.82
729.175	24891.58
729.516	24855.65
729.858	24769.77
730.199	24860.84
730.541	24809.32
730.882	24773.39
731.224	24870.79
731.565	24643.45
731.906	24647.52
732.248	24629.21
732.589	24575.43
732.93	24417.47
733.271	24571.36
733.612	24478.93
733.953	24556.9
734.294	24321.42
734.635	24327.98
734.976	24326.85
735.317	24134.99
735.658	24214.53
735.999	24219.96
736.339	24081.2
736.68	24218.37
737.021	24049.79
737.361	23959.4
737.702	24084.37
738.042	24044.37
738.383	23961.88
738.723	23847.54
739.063	23835.79
739.404	23826.07
739.744	23817.48
740.084	23627.2
740.424	23741.78
740.764	23679.86
741.104	23692.74
741.444	23507.88
741.784	23490.03
742.124	23604.83
742.464	23498.17
742.804	23465.85
743.143	23308.79
743.483	23429.24
743.823	23283.48
744.162	23227.21
744.502	23275.12
744.841	23226.76
745.181	23262.02
745.52	23169.59
745.86	23266.08
746.199	23004.17
746.538	22988.58
746.877	23088.01
747.216	22968.24
747.556	22907.22
747.895	22918.07
748.234	22833.55
748.573	22793.1
748.911	22773.89
749.25	22787.68
749.589	22647.34
749.928	22689.38
750.267	22701.58
750.605	22595.14
750.944	22583.16
751.283	22362.15
751.621	22555.59
751.96	22347.01
752.298	22268.14
752.636	22412.09
752.975	22212.1
753.313	22142.72
753.651	22128.03
753.989	22070.63
