Data from white_wall_FLMS001491_018.txt Node
Date: Tue Feb 07 11:03:43 GMT 2017
User: dcchb
Spectrometer: FLMS00149
Trigger mode: 0
Integration Time (sec): 2.000000E-2
Scans to average: 10
Electric dark correction enabled: true
Nonlinearity correction enabled: false
Boxcar width: 0
XAxis mode: Wavelengths
Number of Pixels in Spectrum: 2048
>>>>>Begin Spectral Data<<<<<
341.393	-12.25
341.776	-12.25
342.16	-12.25
342.543	-33.49
342.927	-74.84
343.31	-59.93
343.693	-59.25
344.077	-55.86
344.46	-61.06
344.843	-54.73
345.226	-38.01
345.61	-43.43
345.993	-24.9
346.376	-3.66
346.759	4.03
347.142	37.47
347.525	51.71
347.908	48.77
348.291	80.18
348.674	74.76
349.057	103.91
349.44	96.68
349.823	159.73
350.206	154.98
350.588	210.57
350.971	210.57
351.354	268.88
351.737	237.47
352.119	286.96
352.502	299.61
352.884	310.68
353.267	325.82
353.65	316.56
354.032	316.33
354.414	331.7
354.797	353.85
355.179	358.82
355.562	335.32
355.944	348.65
356.326	357.91
356.709	360.4
357.091	366.05
357.473	373.73
357.855	380.29
358.238	354.3
358.62	357.91
359.002	363.79
359.384	384.81
359.766	382.32
360.148	361.76
360.53	377.8
360.912	377.35
361.294	359.72
361.676	372.83
362.057	342.77
362.439	352.72
362.821	346.62
363.203	351.81
363.584	378.7
363.966	364.24
364.348	362.21
364.729	346.62
365.111	361.76
365.493	340.51
365.874	337.12
366.256	355.2
366.637	353.85
367.019	361.98
367.4	342.32
367.781	333.73
368.163	361.98
368.544	359.04
368.925	360.4
369.306	358.37
369.688	349.55
370.069	352.49
370.45	357.24
370.831	347.29
371.212	333.96
371.593	366.5
371.974	354.98
372.355	361.98
372.736	375.54
373.117	374.64
373.498	352.72
373.879	365.6
374.26	364.69
374.641	358.59
375.021	361.3
375.402	352.04
375.783	378.03
376.163	380.29
376.544	368.76
376.925	376.44
377.305	394.98
377.686	369.67
378.066	382.77
378.447	384.35
378.827	354.98
379.208	369.67
379.588	391.81
379.968	386.61
380.349	392.72
380.729	389.55
381.109	405.82
381.489	397.46
381.87	403.34
382.25	413.51
382.63	405.37
383.01	412.15
383.39	390.68
383.77	387.74
384.15	427.97
384.53	404.92
384.91	418.48
385.29	421.87
385.67	427.74
386.049	429.78
386.429	432.04
386.809	425.03
387.189	434.07
387.568	435.65
387.948	454.41
388.328	447.86
388.707	439.72
389.087	446.05
389.466	475.65
389.846	464.8
390.225	487.4
390.605	484.01
390.984	496.44
391.363	506.38
391.743	500.96
392.122	506.16
392.501	498.02
392.881	543.9
393.26	507.51
393.639	548.42
394.018	519.49
394.397	546.38
394.776	559.72
395.155	598.36
395.534	567.85
395.913	575.31
396.292	564.46
396.671	607.63
397.05	579.38
397.429	608.08
397.808	621.64
398.186	627.96
398.565	617.12
398.944	637
399.323	650.79
399.701	671.58
400.08	674.97
400.458	681.75
400.837	705.25
401.215	726.72
401.594	700.5
401.972	715.65
402.351	733.95
402.729	754.74
403.107	774.17
403.486	772.59
403.864	775.76
404.242	806.94
404.62	822.53
404.999	818.47
405.377	884.91
405.755	877
406.133	835.19
406.511	900.95
406.889	895.75
407.267	933.27
407.645	941.18
408.023	934.4
408.401	995.64
408.779	1008.07
409.156	984.11
409.534	1019.82
409.912	1041.51
410.29	1062.98
410.667	1091.91
411.045	1094.62
411.422	1091.23
411.8	1127.84
412.178	1163.54
412.555	1187.05
412.933	1192.92
413.31	1193.37
413.687	1197.89
414.065	1264.78
414.442	1263.2
414.819	1253.94
415.197	1239.47
415.574	1328.74
415.951	1314.73
416.328	1311.34
416.705	1349.53
417.082	1350.88
417.46	1344.56
417.837	1401.73
418.214	1424.55
418.591	1457.32
418.967	1426.59
419.344	1448.28
419.721	1474.95
420.098	1478.11
420.475	1532.8
420.852	1515.4
421.228	1543.42
421.605	1555.17
421.982	1556.07
422.358	1599.46
422.735	1597.43
423.111	1608.5
423.488	1622.06
423.864	1648.73
424.241	1688.27
424.617	1674.49
424.994	1711.1
425.37	1730.08
425.746	1752.45
426.123	1793.13
426.499	1763.53
426.875	1808.5
427.251	1822.28
427.627	1881.26
428.003	1884.65
428.379	1949.74
428.756	1951.09
429.132	1975.27
429.507	1982.96
429.883	2015.5
430.259	2064.54
430.635	2093.01
431.011	2091.88
431.387	2107.92
431.763	2173.91
432.138	2173.23
432.514	2217.98
432.89	2241.25
433.265	2290.52
433.641	2349.5
434.016	2334.13
434.392	2402.38
434.767	2412.1
435.143	2439.22
435.518	2449.38
435.894	2514.47
436.269	2504.07
436.644	2562.15
437.02	2601.7
437.395	2606.67
437.77	2680.34
438.145	2696.61
438.52	2717.4
438.895	2716.5
439.271	2742.03
439.646	2806.21
440.021	2837.85
440.395	2808.92
440.77	2813.22
441.145	2899.77
441.52	2923.95
441.895	2913.33
442.27	2972.31
442.645	2960.56
443.019	3025.19
443.394	3000.78
443.769	3042.59
444.143	3017.51
444.518	3117.39
444.892	3112.87
445.267	3169.59
445.641	3161.91
446.016	3168.01
446.39	3211.62
446.764	3219.31
447.139	3244.17
447.513	3225.86
447.887	3302.7
448.262	3297.72
448.636	3323.26
449.01	3359.64
449.384	3438.96
449.758	3431.96
450.132	3478.06
450.506	3483.48
450.88	3533.42
451.254	3510.15
451.628	3558.73
452.002	3647.09
452.376	3662.69
452.75	3713.76
453.123	3741.1
453.497	3798.05
453.871	3831.95
454.244	3909.46
454.618	3950.14
454.992	4014.32
455.365	3983.81
455.739	4104.03
456.112	4120.3
456.486	4196.23
456.859	4212.95
457.232	4312.61
457.606	4330.47
457.979	4360.75
458.352	4488.88
458.725	4582.21
459.099	4540.63
459.472	4629.89
459.845	4711.92
460.218	4753.96
460.591	4781.07
460.964	4831.02
461.337	4927.29
461.71	4988.98
462.083	5072.14
462.456	5080.28
462.829	5118.69
463.201	5251.57
463.574	5291.8
463.947	5297.22
464.32	5461.73
464.692	5475.52
465.065	5541.05
465.438	5609.08
465.81	5695.18
466.183	5767.04
466.555	5922.51
466.928	5942.85
467.3	5922.51
467.672	6056.75
468.045	6245.22
468.417	6205.44
468.789	6323.18
469.161	6345.78
469.534	6527.02
469.906	6651.99
470.278	6714.13
470.65	6758.42
471.022	6924.07
471.394	7052.43
471.766	7115.25
472.138	7170.84
472.51	7347.11
472.882	7470.72
473.253	7589.14
473.625	7719.53
473.997	7831.16
474.369	7877.72
474.74	8047.43
475.112	8116.35
475.484	8332.85
475.855	8439.06
476.227	8556.57
476.598	8751.82
476.97	8840.63
477.341	9063.45
477.713	9218.92
478.084	9286.27
478.455	9571.23
478.827	9608.74
479.198	9975.29
479.569	9958.79
479.94	10246.24
480.311	10286.69
480.682	10466.58
481.053	10771.88
481.424	10916.05
481.795	11062.72
482.166	11211.19
482.537	11375.25
482.908	11585.42
483.279	11838.29
483.65	12112.63
484.021	12203.7
484.391	12396.47
484.762	12532.96
485.133	12695.89
485.503	12787.64
485.874	13142.44
486.244	13198.71
486.615	13585.36
486.985	13796.88
487.356	14015.18
487.726	14079.81
488.097	14330.2
488.467	14479.58
488.837	14767.25
489.207	14894.03
489.578	15109.84
489.948	15416.95
490.318	15450.4
490.688	15543.5
491.058	15923.83
491.428	16074.79
491.798	16147.1
492.168	16512.52
492.538	16713.64
492.908	16814.43
493.278	17096.01
493.648	17125.61
494.017	17338.94
494.387	17634.52
494.757	17698.48
495.126	17914.06
495.496	17927.85
495.866	18183.89
496.235	18330.78
496.605	18548.4
496.974	18679.24
497.344	18874.26
497.713	18830.42
498.082	19150.41
498.452	19423.18
498.821	19455.94
499.19	19596.05
499.559	19732.55
499.928	19913.33
500.298	20059.77
500.667	20363.04
501.036	20242.36
501.405	20435.13
501.774	20581.34
502.143	20819.52
502.512	20788.34
502.88	21038.73
503.249	21139.06
503.618	21283.47
503.987	21486.85
504.356	21484.14
504.724	21838.48
505.093	21814.07
505.462	22017.68
505.83	22031.92
506.199	22354.85
506.567	22723.65
506.936	22584.22
507.304	22980.14
507.672	23032.8
508.041	23226.47
508.409	23429.4
508.777	23597.98
509.145	23715.49
509.514	23851.76
509.882	24216.27
510.25	24150.28
510.618	24263.05
510.986	24381.69
511.354	24720.21
511.722	24965.85
512.09	25350.93
512.458	25201.78
512.826	25391.38
513.193	25562.68
513.561	25671.82
513.929	25819.84
514.297	26052.83
514.664	26253.73
515.032	26444.91
515.4	26785.47
515.767	26805.13
516.135	27036.99
516.502	26867.95
516.869	27374.38
517.237	27521.49
517.604	27501.83
517.972	27799
518.339	28141.14
518.706	28217.07
519.073	28435.37
519.44	28617.51
519.808	28875.58
520.175	28844.17
520.542	29255.01
520.909	29490.93
521.276	29539.75
521.643	29833.3
522.009	29909.68
522.376	30255.66
522.743	30469.89
523.11	30829.88
523.477	31084.79
523.843	31294.05
524.21	31426.93
524.577	31793.25
524.943	31915.28
525.31	32052.45
525.676	32321.59
526.043	32531.31
526.409	32716.39
526.776	33126.09
527.142	33078.86
527.508	33475.69
527.874	33750.93
528.241	33890.37
528.607	33968.1
528.973	34303.46
529.339	34273.86
529.705	34679.05
530.071	35031.58
530.437	35128.53
530.803	35358.35
531.169	35490.55
531.535	35543.2
531.901	35757.89
532.267	35900.03
532.632	36169.18
532.998	36202.62
533.364	36520.13
533.73	36539.11
534.095	36938.65
534.461	36950.4
534.826	37292.54
535.192	37332.99
535.557	37445.75
535.923	37521.46
536.288	37785.86
536.653	37847.32
537.019	37813.43
537.384	38115.34
537.749	38342.45
538.114	38414.31
538.479	38588.77
538.845	38788.54
539.21	38775.21
539.575	38988.54
539.94	39166.39
540.305	39509.43
540.67	39325.93
541.034	39520.73
541.399	39690.67
541.764	39845.01
542.129	40009.98
542.494	40172.01
542.858	40245.68
543.223	40369.29
543.587	40492
543.952	40557.76
544.316	40797.98
544.681	40674.82
545.045	41047.01
545.41	41170.4
545.774	41321.58
546.138	41517.28
546.503	41630.73
546.867	41420.34
547.231	42038.85
547.595	42070.49
547.959	42355.91
548.324	42387.32
548.688	42381.89
549.052	42518.61
549.416	42914.08
549.779	42900.3
550.143	43026.85
550.507	43302.32
550.871	43373.51
551.235	43465.93
551.599	43770.56
551.962	44009.42
552.326	44033.38
552.689	44384.1
553.053	44039.25
553.417	44306.59
553.78	44859.8
554.143	44794.03
554.507	45095.04
554.87	45230.63
555.234	45593.34
555.597	45530.96
555.96	45653.45
556.323	45956.26
556.686	45993.32
557.05	46310.6
557.413	46342.92
557.776	46487.32
558.139	46814.77
558.502	46842.57
558.865	46979.51
559.228	47253.18
559.59	47533.62
559.953	47511.02
560.316	48056.77
560.679	47908.98
561.041	48170.44
561.404	48403.88
561.767	48654.27
562.129	48515.29
562.492	49003.64
562.854	49008.61
563.217	48969.74
563.579	49267.59
563.941	49487.7
564.304	49609.05
564.666	49861.7
565.028	49922.71
565.39	50078.41
565.753	50279.31
566.115	50390.72
566.477	50422.36
566.839	50618.29
567.201	50794.1
567.563	50890.37
567.925	51062.12
568.287	51089.69
568.648	51184.37
569.01	51393.41
569.372	51678.6
569.734	51515.44
570.095	51770.35
570.457	51943.45
570.819	51918.59
571.18	51936.45
571.542	52214.63
571.903	52195.2
572.265	52287.17
572.626	52372.59
572.987	52565.58
573.349	52633.83
573.71	52720.83
574.071	52747.27
574.432	52810.77
574.794	53083.76
575.155	53039.24
575.516	52933.93
575.877	53149.75
576.238	53231.55
576.599	53234.94
576.96	53325.11
577.32	53357.65
577.681	53516.06
578.042	53577.76
578.403	53593.12
578.763	53542.5
579.124	53664.31
579.485	53695.72
579.845	53777.98
580.206	53817.3
580.566	53923.74
580.927	53793.12
581.287	53980.91
581.648	53896.17
582.008	54020.68
582.368	53959.89
582.728	54041.93
583.089	53963.28
583.449	53989.27
583.809	54029.27
584.169	53999.22
584.529	53985.43
584.889	54187.91
585.249	54009.38
585.609	53860.69
585.969	54047.8
586.329	54064.52
586.688	54159.66
587.048	54034.47
587.408	54015.26
587.768	54055.49
588.127	54053.45
588.487	53980.23
588.846	54252.32
589.206	54058.65
589.565	54098.87
589.925	54277.17
590.284	54148.36
590.643	54201.24
591.003	54259.77
591.362	54319.89
591.721	54257.06
592.08	54310.62
592.44	54381.13
592.799	54323.5
593.158	54257.74
593.517	54275.59
593.876	54273.78
594.235	54231.75
594.593	54247.8
594.952	54295.71
595.311	54249.38
595.67	54325.99
596.029	54537.73
596.387	54509.03
596.746	54523.95
597.104	54357.62
597.463	54349.94
597.822	54478.53
598.18	54350.39
598.538	54388.81
598.897	54490.5
599.255	54354.91
599.613	54741.34
599.972	54523.95
600.33	54552.42
600.688	54468.13
601.046	54658.86
601.404	54709.25
601.762	54736.15
602.12	54863.83
602.478	54717.39
602.836	54868.35
603.194	54634.91
603.552	54812.08
603.91	54618.86
604.268	54858.4
604.625	54695.92
604.983	54869.25
605.341	54749.25
605.698	54946.99
606.056	54974.33
606.413	54897.5
606.771	55022.01
607.128	54984.73
607.485	54864.96
607.843	54977.5
608.2	55147.89
608.557	55181.11
608.914	55159.86
609.272	55193.53
609.629	55250.03
609.986	55322.12
610.343	55267.21
610.7	55483.02
611.057	55379.52
611.414	55364.15
611.771	55398.28
612.127	55499.74
612.484	55442.57
612.841	55569.12
613.198	55520.08
613.554	55477.14
613.911	55642.56
614.267	55602.56
614.624	55634.65
614.98	55662.22
615.337	55780.19
615.693	55780.86
616.05	55791.03
616.406	55914.19
616.762	55730.24
617.118	55754.88
617.475	55763.69
617.831	55898.15
618.187	55861.54
618.543	55977.02
618.899	56084.81
619.255	56021.31
619.611	55961.65
619.967	56032.38
620.323	56019.95
620.678	56066.28
621.034	55969.56
621.39	55950.35
621.746	55971.59
622.101	56212.94
622.457	56109.44
622.812	56122.1
623.168	56119.61
623.523	56095.88
623.879	56170.23
624.234	56033.96
624.589	56170.68
624.945	56071.25
625.3	56168.42
625.655	56150.12
626.01	56114.19
626.365	56094.3
626.72	56105.6
627.075	56181.76
627.43	56218.14
627.785	56030.12
628.14	56223.56
628.495	56236.45
628.85	56184.24
629.205	56063.12
629.559	56270.79
629.914	56082.32
630.269	56085.26
630.623	56035.09
630.978	55966.17
631.332	56108.76
631.687	56097.69
632.041	55978.37
632.396	56061.08
632.75	55845.27
633.104	55933.63
633.459	55910.13
633.813	55824.03
634.167	55824.93
634.521	55812.95
634.875	55890.24
635.229	55808.66
635.583	55661.32
635.937	55683.69
636.291	55628.55
636.645	55708.32
636.999	55683.92
637.352	55713.75
637.706	55527.31
638.06	55612.05
638.413	55583.35
638.767	55463.81
639.121	55490.02
639.474	55341.55
639.828	55361.21
640.181	55459.06
640.534	55416.13
640.888	55298.39
641.241	55131.62
641.594	55171.39
641.947	55224.04
642.301	55193.08
642.654	55120.99
643.007	55140.65
643.36	55084.84
643.713	54991.05
644.066	55168.45
644.419	54977.95
644.771	54804.62
645.124	54512.65
645.477	54545.64
645.83	54361.01
646.182	54228.81
646.535	54167.8
646.888	54107.01
647.24	53988.59
647.593	54064.52
647.945	53973.45
648.298	54050.06
648.65	53904.98
649.002	53808.49
649.355	54001.48
649.707	53805.32
650.059	54009.38
650.411	54365.31
650.763	54357.62
651.115	54621.57
651.467	54518.07
651.819	54545.64
652.171	54327.79
652.523	54366.66
652.875	54430.62
653.227	54224.29
653.578	54423.61
653.93	54363.73
654.282	54283.73
654.633	54227.68
654.985	54236.05
655.337	54207.57
655.688	54146.1
656.039	54250.73
656.391	54024.3
656.742	54058.2
657.094	54035.82
657.445	54094.13
657.796	54049.84
658.147	54050.97
658.498	53998.09
658.849	53985.2
659.2	54013.45
659.551	53961.02
659.902	53980.01
660.253	53974.13
660.604	54019.55
660.955	53844.42
661.306	54001.25
661.656	53892.33
662.007	53949.5
662.358	53843.29
662.708	53758.77
663.059	53784.53
663.409	53640.81
663.76	53753.35
664.11	53707.25
664.461	53772.33
664.811	53721.71
665.161	53665.21
665.511	53621.37
665.862	53606.91
666.212	53713.12
666.562	53742.73
666.912	53690.75
667.262	53544.76
667.612	53625.44
667.962	53673.12
668.312	53610.07
668.662	53751.31
669.011	53592.67
669.361	53572.11
669.711	53444.65
670.06	53469.96
670.41	53351.1
670.76	53436.74
671.109	53434.48
671.459	53444.88
671.808	53336.86
672.157	53401.94
672.507	53172.34
672.856	53214.83
673.205	53273.59
673.554	53373.47
673.904	53188.16
674.253	53322.62
674.602	53149.07
674.951	52782.98
675.3	52546.6
675.649	52998.34
675.998	52952.92
676.346	52998.56
676.695	53063.42
677.044	52980.71
677.393	52984.1
677.741	53001.73
678.09	52854.61
678.438	52741.85
678.787	52838.57
679.135	52867.95
679.484	52603.77
679.832	52767.84
680.181	52515.19
680.529	52604.68
680.877	52571.68
681.225	52455.98
681.573	52752.02
681.922	52533.49
682.27	52363.55
682.618	52337.79
682.966	52267.06
683.314	52435.87
683.661	52237.68
684.009	52107.97
684.357	51979.16
684.705	51908.88
685.053	51942.55
685.4	51883.11
685.748	51707.07
686.095	51722.89
686.443	51605.83
686.79	51525.16
687.138	51613.29
687.485	51591.14
687.832	51476.8
688.18	51440.86
688.527	51255.56
688.874	51138.05
689.221	51214.43
689.568	51017.6
689.915	50977.37
690.262	50983.7
690.609	50855.8
690.956	50813.54
691.303	50722.92
691.65	50547.78
691.997	50495.13
692.344	50349.14
692.69	50481.34
693.037	50300.78
693.383	50086.1
693.73	50060.11
694.077	49878.65
694.423	49902.15
694.769	49821.25
695.116	49746.67
695.462	49586.45
695.808	49448.83
696.155	49325.89
696.501	49282.96
696.847	49261.49
697.193	49056.07
697.539	49195.27
697.885	48947.6
698.231	48799.58
698.577	48934.04
698.923	48654.05
699.269	48565.69
699.614	48358.23
699.96	48379.7
700.306	48378.35
700.651	48045.7
700.997	47897.91
701.342	47926.83
701.688	47915.08
702.033	47746.05
702.379	47670.34
702.724	47643.45
703.069	47762.54
703.415	47219.51
703.76	47393.51
704.105	47333.18
704.45	47183.58
704.795	46958.27
705.14	46818.61
705.485	46773.64
705.83	46603.25
706.175	46668.11
706.52	46585.63
706.865	46491.16
707.209	46566.42
707.554	46262.7
707.899	46324.39
708.243	46088.01
708.588	45989.26
708.932	45899.32
709.277	45764.63
709.621	45747
709.966	45508.14
710.31	45498.42
710.654	45269.95
710.998	45336.84
711.342	45384.53
711.687	45288.71
712.031	44938.66
712.375	44966.91
712.719	45095.5
713.063	44828.61
713.407	44932.34
713.75	44740.48
714.094	44803.3
714.438	44513.59
714.782	44496.87
715.125	44416.64
715.469	44459.81
715.812	44194.73
716.156	44114.05
716.499	44156.31
716.843	43994.06
717.186	43923.77
717.53	43914.06
717.873	43913.83
718.216	43805.13
718.559	43700.05
718.902	43380.06
719.246	43535.31
719.589	43311.36
719.932	43158.6
720.275	43217.58
720.617	43179.61
720.96	43132.16
721.303	43239.72
721.646	43067.3
721.989	42750.7
722.331	42802
722.674	42682.9
723.016	42756.8
723.359	42556.8
723.701	42737.14
724.044	42420.76
724.386	42171.5
724.729	42385.28
725.071	42277.26
725.413	42348
725.755	42055.12
726.097	41933.09
726.439	41831.17
726.782	41853.77
727.124	42159.75
727.465	41823.04
727.807	41798.18
728.149	41751.85
728.491	41587.34
728.833	41605.19
729.175	41543.5
729.516	41512.09
729.858	41422.82
730.199	41432.31
730.541	41218.99
730.882	41229.38
731.224	41350.28
731.565	41068.03
731.906	41070.74
732.248	41048.14
732.589	40920.69
732.93	40751.65
733.271	40734.03
733.612	40787.36
733.953	40772.9
734.294	40607.03
734.635	40626.91
734.976	40687.25
735.317	40411.1
735.658	40424.43
735.999	40428.05
736.339	40251.1
736.68	40401.61
737.021	40254.49
737.361	40114.38
737.702	40242.97
738.042	40149.64
738.383	39944.67
738.723	40035.74
739.063	39805.01
739.404	39891.79
739.744	39640.72
740.084	39707.84
740.424	39591.68
740.764	39541.06
741.104	39622.42
741.444	39412.71
741.784	39290.22
742.124	39365.25
742.464	39334.74
742.804	39233.5
743.143	39144.69
743.483	39137.23
743.823	38893.4
744.162	38991.7
744.502	38988.31
744.841	38843
745.181	38965.26
745.52	38689.11
745.86	38746.74
746.199	38556.91
746.538	38548.32
746.877	38707.64
747.216	38559.4
747.556	38462.22
747.895	38447.31
748.234	38267.2
748.573	38254.77
748.911	38203.25
749.25	38107.88
749.589	37962.8
749.928	37972.07
750.267	37954.44
750.605	37881.45
750.944	37829.92
751.283	37514.68
751.621	37615.47
751.96	37499.76
752.298	37376.38
752.636	37303.61
752.975	37365.75
