Data from White_reflection_standard_FLMS001491_033.txt Node
Date: Tue Feb 07 10:32:01 GMT 2017
User: dcchb
Spectrometer: FLMS00149
Trigger mode: 0
Integration Time (sec): 2.000000E-2
Scans to average: 10
Electric dark correction enabled: true
Nonlinearity correction enabled: false
Boxcar width: 0
XAxis mode: Wavelengths
Number of Pixels in Spectrum: 2048
>>>>>Begin Spectral Data<<<<<
341.393	-12.5
341.776	-12.5
342.16	-12.5
342.543	-78.49
342.927	-54.53
343.31	-64.93
343.693	-87.98
344.077	-63.8
344.46	-60.63
344.843	-61.09
345.226	-48.43
345.61	-23.35
345.993	-8.66
346.376	3.77
346.759	11.45
347.142	18.23
347.525	50.55
347.908	63.2
348.291	73.37
348.674	81.06
349.057	117.21
349.44	131.23
349.823	113.37
350.206	156.08
350.588	214.84
350.971	232.69
351.354	274.72
351.737	272.46
352.119	281.05
352.502	320.15
352.884	338.23
353.267	319.69
353.65	311.79
354.032	353.59
354.414	358.79
354.797	371.22
355.179	385.91
355.562	376.64
355.944	380.26
356.326	364.44
356.709	368.73
357.091	381.16
357.473	384.78
357.855	392.24
358.238	377.55
358.62	411.22
359.002	394.5
359.384	400.37
359.766	392.91
360.148	413.25
360.53	406.25
360.912	387.04
361.294	415.96
361.676	396.08
362.057	402.86
362.439	386.36
362.821	391.11
363.203	420.48
363.584	420.03
363.966	433.14
364.348	425.68
364.729	406.47
365.111	406.47
365.493	409.86
365.874	425.23
366.256	407.15
366.637	413.48
367.019	401.05
367.4	427.94
367.781	420.03
368.163	426.36
368.544	410.54
368.925	415.29
369.306	428.84
369.688	430.2
370.069	434.04
370.45	405.34
370.831	425.91
371.212	433.82
371.593	413.03
371.974	445.79
372.355	452.35
372.736	465.68
373.117	459.58
373.498	444.66
373.879	466.36
374.26	434.95
374.641	454.38
375.021	427.49
375.402	462.06
375.783	478.11
376.163	489.63
376.544	486.7
376.925	488.28
377.305	505.45
377.686	476.53
378.066	496.87
378.447	500.93
378.827	510.65
379.208	513.59
379.588	495.51
379.968	484.44
380.349	501.16
380.729	527.37
381.109	535.28
381.489	538.45
381.87	538.22
382.25	564.21
382.63	547.03
383.01	548.39
383.39	545.45
383.77	574.83
384.15	544.32
384.53	560.14
384.91	579.12
385.29	596.75
385.67	603.76
386.049	595.85
386.429	585.68
386.809	608.27
387.189	600.82
387.568	613.7
387.948	653.02
388.328	636.75
388.707	641.49
389.087	656.41
389.466	683.08
389.846	676.75
390.225	688.72
390.605	693.24
390.984	690.53
391.363	675.39
391.743	716.52
392.122	732.79
392.501	738.89
392.881	741.38
393.26	775.28
393.639	751.1
394.018	768.5
394.397	770.08
394.776	804.2
395.155	790.42
395.534	801.26
395.913	786.35
396.292	793.58
396.671	801.49
397.05	829.06
397.429	833.58
397.808	838.1
398.186	842.85
398.565	829.51
398.944	884.2
399.323	862.51
399.701	892.79
400.08	878.78
400.458	884.65
400.837	937.08
401.215	921.49
401.594	917.42
401.972	927.81
402.351	971.2
402.729	974.14
403.107	968.27
403.486	984.54
403.864	996.97
404.242	1000.81
404.62	1015.5
404.999	1026.12
405.377	1037.87
405.755	1023.86
406.133	1052.56
406.511	1079.45
406.889	1084.19
407.267	1099.56
407.645	1155.38
408.023	1145.66
408.401	1160.58
408.779	1169.16
409.156	1167.81
409.534	1201.93
409.912	1201.48
410.29	1225.43
410.667	1238.31
411.045	1262.5
411.422	1271.08
411.8	1296.39
412.178	1330.29
412.555	1359.89
412.933	1365.54
413.31	1376.39
413.687	1399.21
414.065	1364.64
414.442	1405.32
414.819	1420.91
415.197	1476.73
415.574	1482.83
415.951	1497.74
416.328	1486.44
416.705	1543.39
417.082	1525.54
417.46	1507.23
417.837	1591.53
418.214	1605.54
418.591	1595.14
418.967	1622.26
419.344	1603.96
419.721	1645.54
420.098	1702.71
420.475	1690.73
420.852	1704.52
421.228	1728.7
421.605	1722.82
421.982	1747.23
422.358	1775.7
422.735	1824.97
423.111	1803.72
423.488	1861.58
423.864	1840.11
424.241	1903.16
424.617	1892.99
424.994	1911.74
425.37	1934.57
425.746	1950.16
426.123	1976.6
426.499	1989.48
426.875	2015.02
427.251	2052.3
427.627	2112.19
428.003	2124.85
428.379	2152.64
428.756	2141.34
429.132	2227.89
429.507	2244.16
429.883	2230.38
430.259	2311.96
430.635	2326.2
431.011	2350.15
431.387	2389.02
431.763	2453.2
432.138	2450.71
432.514	2473.54
432.89	2523.03
433.265	2546.08
433.641	2589.92
434.016	2645.06
434.392	2676.24
434.767	2718.28
435.143	2673.08
435.518	2763.02
435.894	2783.36
436.269	2838.27
436.644	2849.12
437.02	2888.22
437.395	2908.33
437.77	2960.98
438.145	2967.99
438.52	3031.26
438.895	3072.16
439.271	3083.24
439.646	3168.89
440.021	3159.62
440.395	3162.11
440.77	3162.78
441.145	3221.77
441.52	3243.69
441.895	3251.14
442.27	3298.83
442.645	3330.01
443.019	3361.2
443.394	3349.45
443.769	3409.56
444.143	3407.75
444.518	3470.35
444.892	3410.69
445.267	3466.96
445.641	3519.84
446.016	3544.92
446.39	3591.02
446.764	3596.67
447.139	3610.68
447.513	3661.75
447.887	3652.94
448.262	3708.98
448.636	3738.81
449.01	3781.3
449.384	3792.15
449.758	3840.05
450.132	3880.73
450.506	3938.13
450.88	3930.22
451.254	3956.66
451.628	4048.18
452.002	4120.5
452.376	4104.68
452.75	4141.97
453.123	4152.36
453.497	4238.46
453.871	4285.24
454.244	4353.71
454.618	4403.66
454.992	4448.63
455.365	4478.23
455.739	4598.45
456.112	4585.35
456.486	4715.96
456.859	4715.96
457.232	4857.65
457.606	4796.64
457.979	4892.46
458.352	5000.02
458.725	5046.58
459.099	5075.73
459.472	5179.45
459.845	5230.75
460.218	5303.29
460.591	5331.09
460.964	5381.26
461.337	5474.36
461.71	5572.66
462.083	5610.18
462.456	5647.92
462.829	5677.75
463.201	5794.35
463.574	5799.78
463.947	5937.4
464.32	6022.6
464.692	6059.88
465.065	6112.31
465.438	6309.59
465.81	6359.76
466.183	6345.75
466.555	6470.72
466.928	6575.12
467.3	6588.46
467.672	6649.7
468.045	6883.14
468.417	6833.42
468.789	6935.11
469.161	6990.03
469.534	7173.3
469.906	7352.73
470.278	7350.02
470.65	7458.72
471.022	7659.16
471.394	7715.21
471.766	7804.02
472.138	7892.83
472.51	8103.67
472.882	8211.46
473.253	8357.68
473.625	8427.73
473.997	8606.03
474.369	8658.91
474.74	8786.82
475.112	8930.09
475.484	9047.38
475.855	9261.61
476.227	9278.1
476.598	9632.67
476.97	9635.16
477.341	9869.73
477.713	10069.72
478.084	10094.58
478.455	10370.5
478.827	10511.07
479.198	10781.57
479.569	10744.51
479.94	11083.03
480.311	11293.64
480.682	11486.86
481.053	11623.35
481.424	12017.01
481.795	12058.37
482.166	12331.81
482.537	12434.63
482.908	12702.19
483.279	12772.93
483.65	13025.35
484.021	13325
484.391	13408.84
484.762	13569.74
485.133	13728.61
485.503	13990.52
485.874	14188.93
486.244	14319.33
486.615	14589.83
486.985	14779.43
487.356	15030.49
487.726	15167.21
488.097	15451.05
488.467	15503.25
488.837	15859.17
489.207	16089.22
489.578	16369.89
489.948	16454.41
490.318	16711.13
490.688	16799.94
491.058	17086.26
491.428	17197.22
491.798	17452.13
492.168	17727.37
492.538	17874.26
492.908	18021.83
493.278	18300.92
493.648	18304.08
494.017	18630.85
494.387	18781.36
494.757	18898.42
495.126	19139.09
495.496	19210.05
495.866	19265.64
496.235	19827.2
496.605	19731.39
496.974	19879.63
497.344	20062.23
497.713	20181.32
498.082	20351.94
498.452	20591.93
498.821	20737.24
499.19	20781.3
499.559	21063.56
499.928	21089.54
500.298	21227.17
500.667	21466.94
501.036	21395.75
501.405	21710.54
501.774	21732.69
502.143	21985.11
502.512	22114.6
502.88	22237.99
503.249	22370.64
503.618	22527.47
503.987	22614.25
504.356	22750.74
504.724	22962.26
505.093	23024.63
505.462	23213.33
505.83	23411.97
506.199	23614.22
506.567	23799.08
506.936	23783.71
507.304	24195.9
507.672	24272.06
508.041	24368.78
508.409	24512.96
508.777	24698.71
509.145	25012.83
509.514	24961.31
509.882	25279.26
510.25	25257.57
510.618	25580.27
510.986	25653.94
511.354	26000.15
511.722	26079.02
512.09	26469.97
512.458	26348.62
512.826	26705.67
513.193	26754.48
513.561	26928.71
513.929	27233.11
514.297	27417.74
514.664	27509.26
515.032	27753.1
515.4	27968.91
515.767	28078.06
516.135	28266.08
516.502	28224.5
516.869	28681.66
517.237	28885.95
517.604	28836.23
517.972	29171.82
518.339	29335.43
518.706	29357.12
519.073	29582.43
519.44	29914.62
519.808	30314.84
520.175	30270.55
520.542	30716.86
520.909	30776.75
521.276	30884.77
521.643	31241.82
522.009	31500.57
522.376	31649.49
522.743	31905.31
523.11	32192.76
523.477	32530.37
523.843	32720.65
524.21	33068.89
524.577	33357.92
524.943	33372.84
525.31	33598.37
525.676	34009.2
526.043	34236.54
526.409	34364.9
526.776	34739.13
527.142	34835.4
527.508	35084.88
527.874	35385.67
528.241	35431.54
528.607	35561.48
528.973	35886.9
529.339	36037.85
529.705	36395.58
530.071	36549.25
530.437	36688.23
530.803	37018.62
531.169	37313.52
531.535	37258.16
531.901	37435.33
532.267	37579.28
532.632	37907.18
532.998	38022.43
533.364	38213.39
533.73	38323.44
534.095	38627.61
534.461	38700.38
534.826	38912.35
535.192	39063.76
535.557	39397.76
535.923	39256.07
536.288	39593.92
536.653	39972.44
537.019	39625.1
537.384	40063.73
537.749	40121.13
538.114	40239.1
538.479	40308.02
538.845	40504.4
539.21	40478.87
539.575	40785.75
539.94	40835.92
540.305	41187.55
540.67	41173.08
541.034	41329.46
541.399	41347.99
541.764	41512.51
542.129	41705.05
542.494	41852.16
542.858	41900.75
543.223	42011.48
543.587	42312.49
543.952	42269.33
544.316	42511.35
544.681	42573.05
545.045	42780.95
545.41	42883.55
545.774	43087.16
546.138	43211.67
546.503	43345
546.867	43353.37
547.231	43761.72
547.595	43676.07
547.959	43843.07
548.324	44045.32
548.688	44074.25
549.052	44258.2
549.416	44320.12
549.779	44486.44
550.143	44559.21
550.507	44816.6
550.871	45008.92
551.235	44963.72
551.599	45345.4
551.962	45408.68
552.326	45489.81
552.689	45663.59
553.053	45676.02
553.417	45895.45
553.78	46367.75
554.143	46041.2
554.507	46380.63
554.87	46508.09
555.234	46830.79
555.597	46624.92
555.96	46934.97
556.323	47075.53
556.686	47266.94
557.05	47421.28
557.413	47532.69
557.776	47690.88
558.139	47956.18
558.502	48080.25
558.865	48124.31
559.228	48286.57
559.59	48667.12
559.953	48608.14
560.316	49045.87
560.679	49119.09
561.041	49220.56
561.404	49383.26
561.767	49564.73
562.129	49548.91
562.492	49969.91
562.854	49858.73
563.217	50033.42
563.579	50123.13
563.941	50447.64
564.304	50463.91
564.666	50654.64
565.028	50808.54
565.39	50883.79
565.753	51091.92
566.115	51289.2
566.477	51346.15
566.839	51513.15
567.201	51790.66
567.563	51712.69
567.925	51961.73
568.287	51944.33
568.648	52001.73
569.01	52198.78
569.372	52521.71
569.734	52357.42
570.095	52655.49
570.457	52724.87
570.819	52815.04
571.18	52751.99
571.542	53051.19
571.903	53012.77
572.265	53187.91
572.626	53113.56
572.987	53247.12
573.349	53413.67
573.71	53444.63
574.071	53604.62
574.432	53680.33
574.794	53890.49
575.155	53810.27
575.516	53818.18
575.877	53950.83
576.238	53987.21
576.599	54131.16
576.96	54127.55
577.32	54046.64
577.681	54275.11
578.042	54364.38
578.403	54328.22
578.763	54337.71
579.124	54390.59
579.485	54464.94
579.845	54585.84
580.206	54495.45
580.566	54566.63
580.927	54547.42
581.287	54642.79
581.648	54532.05
582.008	54736.57
582.368	54631.26
582.728	54710.13
583.089	54631.71
583.449	54707.19
583.809	54650.02
584.169	54859.73
584.529	54739.96
584.889	54996.9
585.249	54677.59
585.609	54687.98
585.969	54961.65
586.329	54737.02
586.688	54856.11
587.048	54770.47
587.408	54798.71
587.768	54795.78
588.127	54796.68
588.487	54762.33
588.846	54965.26
589.206	54775.89
589.565	54722.78
589.925	54878.71
590.284	54862.89
590.643	54911.93
591.003	54901.54
591.362	54972.04
591.721	54915.1
592.08	54938.37
592.44	55052.27
592.799	54990.8
593.158	54884.36
593.517	54943.12
593.876	55077.35
594.235	55004.36
594.593	55017.69
594.952	55009.1
595.311	54966.85
595.67	55030.12
596.029	55146.95
596.387	55207.74
596.746	55259.49
597.104	55092.27
597.463	55183.34
597.822	55245.26
598.18	55068.09
598.538	55126.84
598.897	55285.48
599.255	55014.75
599.613	55419.94
599.972	55313.5
600.33	55289.55
600.688	55219.49
601.046	55309.44
601.404	55483.89
601.762	55400.73
602.12	55549.88
602.478	55388.76
602.836	55486.38
603.194	55338.14
603.552	55442.31
603.91	55375.2
604.268	55525.7
604.625	55455.42
604.983	55568.19
605.341	55550.11
605.698	55614.51
606.056	55632.14
606.413	55663.1
606.771	55644.57
607.128	55786.03
607.485	55565.7
607.843	55593.95
608.2	55803.21
608.557	55852.7
608.914	55752.14
609.272	55932.47
609.629	55955.97
609.986	55987.61
610.343	55966.59
610.7	56166.36
611.057	56077.32
611.414	56022.19
611.771	56045.91
612.127	56175.18
612.484	56178.34
612.841	56243.87
613.198	56158
613.554	56178.34
613.911	56323.19
614.267	56266.47
614.624	56230.54
614.98	56261.73
615.337	56372.46
615.693	56381.72
616.05	56379.92
616.406	56385.34
616.762	56346.02
617.118	56365.45
617.475	56416.3
617.831	56447.26
618.187	56502.62
618.543	56536.52
618.899	56643.64
619.255	56533.58
619.611	56535.62
619.967	56680.7
620.323	56668.5
620.678	56617.2
621.034	56460.82
621.39	56477.99
621.746	56504.88
622.101	56811.54
622.457	56480.48
622.812	56614.49
623.168	56680.25
623.523	56637.76
623.879	56618.78
624.234	56512.57
624.589	56637.54
624.945	56680.47
625.3	56614.26
625.655	56586.01
626.01	56614.26
626.365	56630.76
626.72	56569.52
627.075	56581.72
627.43	56562.06
627.785	56541.72
628.14	56617.42
628.495	56586.69
628.85	56581.72
629.205	56470.99
629.559	56606.58
629.914	56483.42
630.269	56462.85
630.623	56405.9
630.978	56317.77
631.332	56482.06
631.687	56474.15
632.041	56276.42
632.396	56436.19
632.75	56313.25
633.104	56353.7
633.459	56219.02
633.813	56213.37
634.167	56163.65
634.521	56122.07
634.875	56141.28
635.229	56096.53
635.583	55951.23
635.937	56021.96
636.291	55945.35
636.645	56016.76
636.999	55897.22
637.352	55945.13
637.706	55801.63
638.06	55932.92
638.413	55832.59
638.767	55704.45
639.121	55772.25
639.474	55606.15
639.828	55662.87
640.181	55619.48
640.534	55629.65
640.888	55537.9
641.241	55399.83
641.594	55446.16
641.947	55545.36
642.301	55483.44
642.654	55403.9
643.007	55379.04
643.36	55367.51
643.713	55278.48
644.066	55426.04
644.419	55154.19
644.771	54978.82
645.124	54730.47
645.477	54716.23
645.83	54511.49
646.182	54451.83
646.535	54302.68
646.888	54298.39
647.24	54139.07
647.593	54367.77
647.945	54253.42
648.298	54176.58
648.65	54106.76
649.002	54036.02
649.355	54113.76
649.707	54017.27
650.059	54184.72
650.411	54455.22
650.763	54485.28
651.115	54822.22
651.467	54661.32
651.819	54604.6
652.171	54592.84
652.523	54531.38
652.875	54464.49
653.227	54367.31
653.578	54513.75
653.93	54483.69
654.282	54235.79
654.633	54255
654.985	54300.87
655.337	54330.7
655.688	54270.37
656.039	54340.2
656.391	54058.39
656.742	54203.7
657.094	54170.71
657.445	54274.66
657.796	54135.46
658.147	54109.02
658.498	54055.23
658.849	54214.32
659.2	54034.67
659.551	53991.73
659.902	54078.73
660.253	53919.19
660.604	53974.1
660.955	53919.87
661.306	54019.3
661.656	53848.68
662.007	53855.69
662.358	53884.39
662.708	53841
663.059	53866.54
663.409	53575.02
663.76	53907.66
664.11	53798.51
664.461	53819.76
664.811	53793.32
665.161	53790.83
665.511	53622.02
665.862	53718.52
666.212	53768.69
666.562	53763.71
666.912	53660.67
667.262	53620.89
667.612	53619.76
667.962	53581.57
668.312	53593.1
668.662	53730.27
669.011	53530.5
669.361	53586.54
669.711	53564.62
670.06	53460.44
670.41	53389.26
670.76	53366.66
671.109	53501.12
671.459	53450.5
671.808	53351.52
672.157	53411.63
672.507	53071.08
672.856	53257.29
673.205	53229.94
673.554	53366.44
673.904	53137.52
674.253	53355.59
674.602	53219.32
674.951	52781.37
675.3	52629.73
675.649	53126.67
675.998	53050.96
676.346	53071.75
676.695	53117.63
677.044	52925.77
677.393	52975.94
677.741	53024.98
678.09	52911.31
678.438	52738.43
678.787	52914.7
679.135	52839.44
679.484	52679.45
679.832	52767.36
680.181	52636.51
680.529	52622.05
680.877	52552.22
681.225	52580.47
681.573	52757.86
681.922	52442.84
682.27	52352.68
682.618	52286.01
682.966	52291.89
683.314	52366.01
683.661	52166.47
684.009	52039.24
684.357	52086.7
684.705	52000.82
685.053	52058.67
685.4	51867.04
685.748	51792.47
686.095	51704.11
686.443	51583.21
686.79	51491
687.138	51587.95
687.485	51595.41
687.832	51415.53
688.18	51517.67
688.527	51238.81
688.874	51241.52
689.221	51170.34
689.568	51102.31
689.915	50958.14
690.262	50937.35
690.609	50796.33
690.956	50738.26
691.303	50649.22
691.65	50528.32
691.997	50548.66
692.344	50285.39
692.69	50275.22
693.037	50263.92
693.383	49902.8
693.73	50176.92
694.077	49985.96
694.423	49871.61
694.769	49652.86
695.116	49529.47
695.462	49585.52
695.808	49469.14
696.155	49522.24
696.501	49231.63
696.847	49301.01
697.193	48922.94
697.539	49019.66
697.885	48810.62
698.231	48636.84
698.577	48567.01
698.923	48716.61
699.269	48357.53
699.614	48246.12
699.96	48188.49
700.306	48191.2
700.651	48025.79
700.997	47833.47
701.342	47803.64
701.688	47807.03
702.033	47708.96
702.379	47633.25
702.724	47512.35
703.069	47615.4
703.415	47152.81
703.76	47134.96
704.105	47164.34
704.45	46978.13
704.795	46749.43
705.14	46581.3
705.485	46600.29
705.83	46556.9
706.175	46498.82
706.52	46428.99
706.865	46187.64
707.209	46194.42
707.554	45994.88
707.899	46000.98
708.243	45702.91
708.588	45712.85
708.932	45429.02
709.277	45551.73
709.621	45477.83
709.966	45168.91
710.31	45459.98
710.654	44970.5
710.998	45099.31
711.342	45074.9
711.687	44922.59
712.031	44728.02
712.375	44638.3
712.719	44596.27
713.063	44637.85
713.407	44660.45
713.75	44400.8
714.094	44200.8
714.438	44232.89
714.782	44291.42
715.125	43990.86
715.469	44011.88
715.812	43844.43
716.156	43677.88
716.499	43672.68
716.843	43733.69
717.186	43596.07
717.53	43661.38
717.873	43615.05
718.216	43418.67
718.559	43343.42
718.902	42987.73
719.246	43080.83
719.589	42930.1
719.932	42782.08
720.275	42679.49
720.617	42652.14
720.96	42651.01
721.303	42658.92
721.646	42657.34
721.989	42382.09
722.331	42488.76
722.674	42351.13
723.016	42273.17
723.359	42330.57
723.701	42219.16
724.044	41975.55
724.386	41794.99
724.729	41964.93
725.071	41718.15
725.413	41834.99
725.755	41723.35
726.097	41547.54
726.439	41377.37
726.782	41412.85
727.124	41614.43
727.465	41372.85
727.807	41244.49
728.149	41316.81
728.491	41057.38
728.833	41071.17
729.175	41013.31
729.516	40840.44
729.858	40991.17
730.199	40841.57
730.541	40751.85
730.882	40698.97
731.224	40814.68
731.565	40529.71
731.906	40519.54
732.248	40492.65
732.589	40289.27
732.93	40150.51
733.271	40174.01
733.612	40287.01
733.953	40268.48
734.294	40065.32
734.635	39883.17
734.976	39927.02
735.317	39803.85
735.658	39756.4
735.999	39671.2
736.339	39625.78
736.68	39690.86
737.021	39559.57
737.361	39265.79
737.702	39557.31
738.042	39371.55
738.383	39197.32
738.723	39280.48
739.063	39116.41
739.404	39266.69
739.744	38942.41
740.084	39028.51
740.424	39025.57
740.764	38767.27
741.104	38968.85
741.444	38783.54
741.784	38654.51
742.124	38728.18
742.464	38572.7
742.804	38631
743.143	38446.6
743.483	38452.7
743.823	38304.01
744.162	38278.7
744.502	38209.09
744.841	38049.78
745.181	38262.2
745.52	37954.64
745.86	38097.23
746.199	37916.9
746.538	37952.15
746.877	37905.6
747.216	37895.43
747.556	37765.49
747.895	37645.72
748.234	37514.2
748.573	37527.98
748.911	37474.42
749.25	37429.23
749.589	37183.36
749.928	37322.11
750.267	37390.58
750.605	37183.58
750.944	37001.22
751.283	36899.52
751.621	37018.84
751.96	36636.71
752.298	36678.96
