Data from whiteboard_FLMS001491_00051.txt Node
Date: Wed Feb 08 11:27:05 GMT 2017
User: dcchb
Spectrometer: FLMS00149
Trigger mode: 0
Integration Time (sec): 2.000000E-2
Scans to average: 10
Electric dark correction enabled: true
Nonlinearity correction enabled: false
Boxcar width: 0
XAxis mode: Wavelengths
Number of Pixels in Spectrum: 2048
>>>>>Begin Spectral Data<<<<<
341.393	-21.47
341.776	-21.47
342.16	-21.47
342.543	-39.1
342.927	-72.31
343.31	-81.13
343.693	-58.53
344.077	-69.15
344.46	-22.6
344.843	-55.82
345.226	-35.93
345.61	-47.91
345.993	-27.12
346.376	-8.36
346.759	16.72
347.142	25.31
347.525	54.91
347.908	63.05
348.291	58.53
348.674	81.81
349.057	106.21
349.44	124.06
349.823	119.77
350.206	157.74
350.588	212.2
350.971	243.61
351.354	261.69
351.737	263.27
352.119	280.67
352.502	292.42
352.884	294.46
353.267	321.8
353.65	317.05
354.032	328.58
354.414	348.24
354.797	365.64
355.179	364.74
355.562	329.48
355.944	352.08
356.326	371.74
356.709	376.26
357.091	375.81
357.473	365.87
357.855	378.3
358.238	370.16
358.62	349.37
359.002	369.71
359.384	392.76
359.766	376.49
360.148	376.94
360.53	363.83
360.912	364.74
361.294	362.02
361.676	368.8
362.057	356.83
362.439	360.44
362.821	356.37
363.203	377.17
363.584	366.09
363.966	364.06
364.348	365.19
364.729	366.32
365.111	369.48
365.493	370.84
365.874	362.93
366.256	351.4
366.637	359.09
367.019	367.22
367.4	362.48
367.781	344.4
368.163	345.3
368.544	359.31
368.925	368.8
369.306	357.05
369.688	356.6
370.069	376.04
370.45	364.96
370.831	369.48
371.212	376.26
371.593	352.53
371.974	352.76
372.355	364.28
372.736	353.66
373.117	376.71
373.498	365.64
373.879	372.65
374.26	402.93
374.641	369.26
375.021	372.87
375.402	371.29
375.783	392.98
376.163	396.6
376.544	380.78
376.925	397.73
377.305	395.47
377.686	392.31
378.066	385.07
378.447	395.02
378.827	406.99
379.208	410.61
379.588	397.5
379.968	399.31
380.349	407.67
380.729	416.49
381.109	433.21
381.489	425.3
381.87	417.62
382.25	415.36
382.63	436.15
383.01	419.88
383.39	432.76
383.77	420.78
384.15	438.63
384.53	444.96
384.91	418.07
385.29	436.82
385.67	468.46
386.049	459.42
386.429	464.17
386.809	472.76
387.189	491.51
387.568	473.43
387.948	455.36
388.328	501.23
388.707	491.96
389.087	476.37
389.466	511.17
389.846	499.42
390.225	527.67
390.605	538.06
390.984	514.79
391.363	535.58
391.743	540.32
392.122	543.71
392.501	556.14
392.881	544.62
393.26	587.56
393.639	568.57
394.018	572.64
394.397	576.93
394.776	618.97
395.155	583.26
395.534	597.05
395.913	647.44
396.292	642.02
396.671	625.29
397.05	645.41
397.429	655.12
397.808	675.69
398.186	651.06
398.565	688.12
398.944	689.47
399.323	666.65
399.701	703.48
400.08	691.51
400.458	730.83
400.837	745.07
401.215	730.15
401.594	747.55
401.972	769.92
402.351	784.61
402.729	791.17
403.107	832.75
403.486	830.03
403.864	830.49
404.242	847.89
404.62	851.5
404.999	885.63
405.377	913.2
405.755	907.09
406.133	944.83
406.511	922.24
406.889	966.3
407.267	952.07
407.645	990.48
408.023	1017.83
408.401	1022.57
408.779	1049.92
409.156	1077.94
409.534	1056.47
409.912	1115.45
410.29	1153.42
410.667	1156.35
411.045	1192.51
411.422	1173.3
411.8	1206.52
412.178	1229.35
412.555	1263.47
412.933	1285.62
413.31	1299.4
413.687	1341.66
414.065	1347.76
414.442	1383.47
414.819	1413.75
415.197	1416.46
415.574	1434.09
415.951	1459.85
416.328	1470.24
416.705	1504.14
417.082	1506.18
417.46	1540.3
417.837	1565.61
418.214	1565.61
418.591	1602.22
418.967	1600.41
419.344	1637.7
419.721	1684.48
420.098	1688.09
420.475	1749.78
420.852	1739.39
421.228	1730.58
421.605	1777.13
421.982	1781.2
422.358	1832.04
422.735	1831.36
423.111	1839.73
423.488	1854.41
423.864	1891.48
424.241	1962.43
424.617	1949.33
424.994	1946.16
425.37	1997.01
425.746	1976.9
426.123	2030.68
426.499	2058.93
426.875	2093.96
427.251	2134.63
427.627	2171.92
428.003	2172.15
428.379	2211.47
428.756	2244.91
429.132	2278.13
429.507	2331.24
429.883	2357.23
430.259	2404.23
430.635	2401.52
431.011	2412.59
431.387	2498.69
431.763	2511.35
432.138	2572.14
432.514	2611.23
432.89	2589.31
433.265	2648.97
433.641	2730.1
434.016	2734.39
434.392	2735.75
434.767	2822.07
435.143	2800.83
435.518	2854.61
435.894	2892.13
436.269	2958.57
436.644	2974.39
437.02	3003.99
437.395	3045.57
437.77	3082.4
438.145	3129.18
438.52	3161.05
438.895	3176.64
439.271	3207.37
439.646	3262.29
440.021	3296.18
440.395	3330.53
440.77	3303.42
441.145	3328.05
441.52	3437.65
441.895	3409.18
442.27	3443.98
442.645	3493.24
443.019	3479.46
443.394	3523.07
443.769	3599
444.143	3578.21
444.518	3631.99
444.892	3584.99
445.267	3666.57
445.641	3660.69
446.016	3731.88
446.39	3773.91
446.764	3744.31
447.139	3749.28
447.513	3835.83
447.887	3816.4
448.262	3851.88
448.636	3894.81
449.01	3966.9
449.384	3982.95
449.758	3996.73
450.132	4050.51
450.506	4109.5
450.88	4135.48
451.254	4145.2
451.628	4240.79
452.002	4276.5
452.376	4298.42
452.75	4347
453.123	4403.95
453.497	4459.32
453.871	4502.71
454.244	4606.43
454.618	4620.22
454.992	4688.69
455.365	4739.54
455.739	4846.88
456.112	4860.21
456.486	4912.41
456.859	4949.7
457.232	5046.65
457.606	5067.89
457.979	5133.2
458.352	5260.88
458.725	5306.98
459.099	5341.78
459.472	5448.22
459.845	5542.23
460.218	5523.02
460.591	5595.79
460.964	5623.35
461.337	5754.42
461.71	5849.34
462.083	5937.7
462.456	5974.98
462.829	5980.41
463.201	6071.03
463.574	6128.43
463.947	6266.73
464.32	6340.4
464.692	6425.37
465.065	6484.12
465.438	6534.74
465.81	6692.71
466.183	6767.28
466.555	6919.14
466.928	6986.93
467.3	6959.59
467.672	7101.96
468.045	7322.07
468.417	7253.14
468.789	7337.89
469.161	7418.79
469.534	7544.66
469.906	7731.77
470.278	7786.69
470.65	7900.81
471.022	8040.92
471.394	8235.72
471.766	8276.62
472.138	8407.69
472.51	8562.03
472.882	8672.77
473.253	8769.49
473.625	8944.85
473.997	9171.96
474.369	9226.2
474.74	9326.99
475.112	9528.34
475.484	9672.29
475.855	9802
476.227	9875.22
476.598	10235.89
476.97	10263.23
477.341	10436.34
477.713	10649.21
478.084	10716.33
478.455	11024.34
478.827	11110.67
479.198	11471.34
479.569	11538.91
479.94	11810.08
480.311	11968.72
480.682	12098.66
481.053	12385.44
481.424	12658.88
481.795	12751.3
482.166	12963.5
482.537	13182.25
482.908	13445.3
483.279	13537.5
483.65	13812.52
484.021	14068.33
484.391	14244.37
484.762	14356.23
485.133	14535.89
485.503	14692.72
485.874	15020.4
486.244	15151.01
486.615	15531.8
486.985	15760.04
487.356	15955.96
487.726	16063.98
488.097	16443.64
488.467	16481.15
488.837	16874.81
489.207	17010.17
489.578	17345.98
489.948	17557.05
490.318	17747.78
490.688	17934.44
491.058	18188.67
491.428	18411.72
491.798	18560.19
492.168	18917.24
492.538	18944.59
492.908	19279.49
493.278	19616.43
493.648	19497.79
494.017	19786.82
494.387	19983.2
494.757	20253.7
495.126	20409.63
495.496	20449.18
495.866	20603.07
496.235	20858.43
496.605	21042.16
496.974	21154.25
497.344	21406.22
497.713	21559.43
498.082	21724.85
498.452	21810.95
498.821	22027.9
499.19	22090.04
499.559	22314.89
499.928	22422.24
500.298	22615
500.667	22766.86
501.036	22814.54
501.405	23128.88
501.774	23166.85
502.143	23384.47
502.512	23447.75
502.88	23680.06
503.249	23766.15
503.618	23860.16
503.987	24032.36
504.356	24159.82
504.724	24323.43
505.093	24465.12
505.462	24656.98
505.83	24760.25
506.199	24973.13
506.567	25372.67
506.936	25376.28
507.304	25603.39
507.672	25661.7
508.041	25804.75
508.409	26050.61
508.777	26291.29
509.145	26496.48
509.514	26557.95
509.882	26826.87
510.25	26994.09
510.618	27049.01
510.986	27237.48
511.354	27517.24
511.722	27815.09
512.09	27846.73
512.458	28042.65
512.826	28298.92
513.193	28411.68
513.561	28545.24
513.929	28879.01
514.297	29131.89
514.664	29335.05
515.032	29466.34
515.4	29714.7
515.767	29735.04
516.135	29930.96
516.502	29879.21
516.869	30468.8
517.237	30588.35
517.604	30523.27
517.972	30931.16
518.339	31096.58
518.706	31270.82
519.073	31373.86
519.44	31780.63
519.808	32086.39
520.175	32092.26
520.542	32509.2
520.909	32739.25
521.276	32669.42
521.643	33042.75
522.009	33152.35
522.376	33476.86
522.743	33623.3
523.11	34093.79
523.477	34398.42
523.843	34618.75
524.21	34928.35
524.577	35183.71
524.943	35214.67
525.31	35506.64
525.676	35726.52
526.043	35883.8
526.409	36143
526.776	36566.72
527.142	36586.83
527.508	36887.39
527.874	37175.29
528.241	37393.59
528.607	37426.36
528.973	37870.87
529.339	37921.71
529.705	38162.84
530.071	38500.23
530.437	38660.45
530.803	38863.38
531.169	39125.3
531.535	39175.47
531.901	39333.88
532.267	39476.7
532.632	39802.57
532.998	39841.44
533.364	40168.66
533.73	40304.03
534.095	40677.12
534.461	40565.71
534.826	40891.58
535.192	40967.28
535.557	41295.19
535.923	41279.14
536.288	41414.05
536.653	41635.29
537.019	41550.09
537.384	41868.96
537.749	42244.54
538.114	42227.82
538.479	42266.23
538.845	42562.04
539.21	42638.43
539.575	42786.9
539.94	42948.02
540.305	43204.51
540.67	43143.05
541.034	43503.94
541.399	43571.28
541.764	43753.65
542.129	43982.12
542.494	44127.88
542.858	44406.52
543.223	44336.46
543.587	44590.92
543.952	44645.83
544.316	44745.72
544.681	44756.11
545.045	45037.23
545.41	45362.65
545.774	45320.39
546.138	45508.63
546.503	45647.61
546.867	45707.05
547.231	45987.27
547.595	45982.52
547.959	46232.46
548.324	46182.97
548.688	46230.65
549.052	46460.25
549.416	46425.67
549.779	46618.89
550.143	46670.41
550.507	46953.12
550.871	47095.48
551.235	46981.36
551.599	47358.08
551.962	47406.89
552.326	47371.18
552.689	47633.78
553.053	47551.74
553.417	47695.47
553.78	48131.84
554.143	47941.79
554.507	48184.27
554.87	48165.29
555.234	48526.18
555.597	48430.82
555.96	48635.78
556.323	48847.08
556.686	48835.78
557.05	49161.19
557.413	49145.83
557.776	49415.65
558.139	49518.25
558.502	49599.15
558.865	49667.62
559.228	49912.36
559.59	49967.05
559.953	50206.14
560.316	50520.48
560.679	50493.59
561.041	50717.99
561.404	50827.82
561.767	51054.02
562.129	50967.7
562.492	51422.15
562.854	51305.32
563.217	51418.76
563.579	51640.45
563.941	51761.8
564.304	51947.56
564.666	52143.26
565.028	52188.23
565.39	52324.05
565.753	52549.13
566.115	52593.87
566.477	52803.13
566.839	52852.62
567.201	53140.3
567.563	53118.6
567.925	53313.63
568.287	53399.05
568.648	53453.96
569.01	53586.61
569.372	53737.8
569.734	53654.63
570.095	53920.62
570.457	54008.07
570.819	54137.79
571.18	54101.63
571.542	54316.76
571.903	54337.1
572.265	54380.94
572.626	54556.98
572.987	54513.14
573.349	54619.58
573.71	54718.56
574.071	54830.42
574.432	55005.11
574.794	55083.07
575.155	55024.54
575.516	55115.39
575.877	55288.04
576.238	55248.94
576.599	55368.04
576.96	55415.04
577.32	55453.23
577.681	55499.11
578.042	55579.1
578.403	55541.59
578.763	55541.14
579.124	55572.55
579.485	55721.47
579.845	55755.37
580.206	55688.93
580.566	55753.34
580.927	55760.57
581.287	55843.05
581.648	55767.35
582.008	55878.76
582.368	55804.18
582.728	55908.36
583.089	55853.22
583.449	55872.88
583.809	55902.94
584.169	55955.82
584.529	55886.89
584.889	56032.88
585.249	55965.08
585.609	55779.32
585.969	56008.47
586.329	55894.8
586.688	55940.68
587.048	55884.41
587.408	55832.66
587.768	55880.11
588.127	55915.59
588.487	55799.44
588.846	55960.34
589.206	55796.5
589.565	55809.61
589.925	55897.06
590.284	55843.5
590.643	55962.82
591.003	55939.09
591.362	55987.23
591.721	55942.03
592.08	55922.15
592.44	56034.23
592.799	55899.32
593.158	55982.03
593.517	56011.18
593.876	56014.8
594.235	55901.58
594.593	55967.34
594.952	56053.89
595.311	56004.18
595.67	56046.44
596.029	56186.55
596.387	56094.12
596.746	56267.67
597.104	56153.78
597.463	56105.87
597.822	56308.12
598.18	56225.41
598.538	56224.06
598.897	56417.05
599.255	56202.36
599.613	56625.86
599.972	56389.25
600.33	56582.47
600.688	56428.57
601.046	56547.44
601.404	56659.75
601.762	56559.19
602.12	56592.86
602.478	56662.01
602.836	56630.6
603.194	56559.87
603.552	56657.49
603.91	56542.02
604.268	56682.8
604.625	56614.33
604.983	56674.89
605.341	56585.18
605.698	56834.44
606.056	56783.82
606.413	56835.34
606.771	56842.35
607.128	56959.86
607.485	56793.08
607.843	56829.92
608.2	56933.64
608.557	57018.39
608.914	56955.79
609.272	57082.79
609.629	57096.35
609.986	57196.91
610.343	56998.28
610.7	57223.35
611.057	57128.89
611.414	57080.98
611.771	57177.25
612.127	57291.6
612.484	57154.43
612.841	57272.62
613.198	57126.18
613.554	57189.46
613.911	57327.76
614.267	57285.95
614.624	57243.01
614.98	57322.11
615.337	57371.37
615.693	57389.9
616.05	57284.37
616.406	57463.12
616.762	57341.09
617.118	57322.33
617.475	57262.9
617.831	57337.48
618.187	57325.05
618.543	57349
618.899	57514.65
619.255	57448.88
619.611	57470.58
619.967	57469.22
620.323	57487.08
620.678	57429.9
621.034	57386.51
621.39	57376.8
621.746	57291.15
622.101	57577.02
622.457	57346.97
622.812	57457.25
623.168	57414.99
623.523	57391.49
623.879	57534.08
624.234	57316.01
624.589	57391.49
624.945	57393.29
625.3	57469.22
625.655	57357.14
626.01	57331.83
626.365	57454.99
626.72	57367.08
627.075	57329.57
627.43	57347.19
627.785	57262
628.14	57343.8
628.495	57320.53
628.85	57357.14
629.205	57163.69
629.559	57358.94
629.914	57202.34
630.269	57245.95
630.623	57135.9
630.978	57086.63
631.332	57233.52
631.687	57244.14
632.041	57176.8
632.396	57145.62
632.75	57123.24
633.104	57141.55
633.459	57088.22
633.813	57062.45
634.167	57016.58
634.521	57052.51
634.875	57105.84
635.229	57081.21
635.583	56942.46
635.937	57010.25
636.291	56990.14
636.645	57016.58
636.999	56915.34
637.352	56986.07
637.706	56813.65
638.06	57014.09
638.413	56824.04
638.767	56823.82
639.121	56869.69
639.474	56701.56
639.828	56803.25
640.181	56803.25
640.534	56729.58
640.888	56673.31
641.241	56649.36
641.594	56679.41
641.947	56749.02
642.301	56619.98
642.654	56597.38
643.007	56666.08
643.36	56580.43
643.713	56487.78
644.066	56598.51
644.419	56435.58
644.771	56274.23
645.124	55962.37
645.477	55955.14
645.83	55720.34
646.182	55595.15
646.535	55464.08
646.888	55554.47
647.24	55339.56
647.593	55632.66
647.945	55509.5
648.298	55354.02
648.65	55321.71
649.002	55176.63
649.355	55335.04
649.707	55202.84
650.059	55303.4
650.411	55635.83
650.763	55653.9
651.115	55856.84
651.467	55707.69
651.819	55742.04
652.171	55636.28
652.523	55600.57
652.875	55648.93
653.227	55437.19
653.578	55648.03
653.93	55570.74
654.282	55418.88
654.633	55345.44
654.985	55404.87
655.337	55302.5
655.688	55332.56
656.039	55457.52
656.391	55177.76
656.742	55141.37
657.094	55264.08
657.445	55325.1
657.796	55217.31
658.147	55188.38
658.498	55048.5
658.849	55134.14
659.2	55109.96
659.551	55042.62
659.902	55116.29
660.253	54972.57
660.604	55030.87
660.955	54896.86
661.306	55019.57
661.656	54854.15
662.007	54962.85
662.358	54915.39
662.708	54853.7
663.059	54784.77
663.409	54711.1
663.76	54845.34
664.11	54866.35
664.461	54828.39
664.811	54850.08
665.161	54768.73
665.511	54697.77
665.862	54794.27
666.212	54753.36
666.562	54764.21
666.912	54728.73
667.262	54657.09
667.612	54687.6
667.962	54638.11
668.312	54536.42
668.662	54585.91
669.011	54564.44
669.361	54523.31
669.711	54548.17
670.06	54413.26
670.41	54396.76
670.76	54355.18
671.109	54403.09
671.459	54316.09
671.808	54275.41
672.157	54302.98
672.507	54034.51
672.856	54106.15
673.205	54179.37
673.554	54231.57
673.904	54170.33
674.253	54265.24
674.602	54145.47
674.951	53698.02
675.3	53606.5
675.649	54114.96
675.998	53885.59
676.346	54040.16
676.695	54105.24
677.044	53910.45
677.393	54011.46
677.741	53989.31
678.09	53818.7
678.438	53872.48
678.787	53968.52
679.135	53896.21
679.484	53766.5
679.832	53851.47
680.181	53682.66
680.529	53717.68
680.877	53667.06
681.225	53549.78
681.573	53750
681.922	53523.56
682.27	53440.18
682.618	53489.67
682.966	53394.08
683.314	53512.04
683.661	53422.78
684.009	53204.7
684.357	53260.29
684.705	53283.12
685.053	53203.8
685.4	53233.18
685.748	53070.24
686.095	53112.05
686.443	53113.18
686.79	52921.77
687.138	52938.5
687.485	52961.77
687.832	52788.89
688.18	52858.27
688.527	52707.77
688.874	52649.46
689.221	52560.2
689.568	52640.65
689.915	52453.99
690.262	52528.79
690.609	52354.1
690.956	52331.73
691.303	52208.8
691.65	52071.4
691.997	51947.11
692.344	51789.82
692.69	51802.93
693.037	51839.99
693.383	51548.93
693.73	51590.96
694.077	51475.93
694.423	51405.88
694.769	51339.22
695.116	51252.44
695.462	51145.77
695.808	51013.57
696.155	51085.66
696.501	50774.94
696.847	50802.51
697.193	50401.61
697.539	50647.48
697.885	50322.52
698.231	50212.47
698.577	50086.59
698.923	50141.51
699.269	49853.83
699.614	49694.96
699.96	49501.52
700.306	49510.56
700.651	49201.87
700.997	49092.04
701.342	49113.28
701.688	48920.07
702.033	48914.65
702.379	48735.44
702.724	48643.47
703.069	48662.9
703.415	48172.97
703.76	48239.64
704.105	48257.04
704.45	48071.5
704.795	47823.6
705.14	47642.14
705.485	47683.72
705.83	47562.82
706.175	47519.2
706.52	47259.1
706.865	47259.55
707.209	47055.71
707.554	46938.43
707.899	47215.71
708.243	46779.79
708.588	46791.09
708.932	46477.87
709.277	46558.1
709.621	46513.35
709.966	46132.57
710.31	46437.65
710.654	46016.42
710.998	45986.36
711.342	45986.36
711.687	45836.53
712.031	45671.79
712.375	45515.87
712.719	45570.1
713.063	45532.81
713.407	45610.55
713.75	45344.34
714.094	45148.87
714.438	45136.89
714.782	45196.33
715.125	45041.3
715.469	45134.63
715.812	44759.73
716.156	44549.79
716.499	44725.83
716.843	44716.79
717.186	44478.15
717.53	44620.75
717.873	44541.43
718.216	44405.84
718.559	44367.42
718.902	44101.67
719.246	44250.14
719.589	44077.03
719.932	43892.63
720.275	43969.69
720.617	43805.63
720.96	43809.24
721.303	43839.53
721.646	43886.53
721.989	43549.59
722.331	43805.63
722.674	43536.93
723.016	43531.96
723.359	43342.14
723.701	43454.9
724.044	43384.85
724.386	43140.56
724.729	43292.65
725.071	43118.64
725.413	43126.55
725.755	42922.26
726.097	42894.01
726.439	42664.19
726.782	42723.17
727.124	42908.93
727.465	42514.36
727.807	42591.65
728.149	42357.53
728.491	42193.47
728.833	42393.01
729.175	42249.28
729.516	42317.76
729.858	42103.3
730.199	42104.43
730.541	42068.95
730.882	41954.83
731.224	42080.48
731.565	41782.18
731.906	41898.56
732.248	41896.75
732.589	41525.69
732.93	41593.03
733.271	41680.94
733.612	41648.17
733.953	41420.38
734.294	41354.62
734.635	41179.93
734.976	41225.81
735.317	41154.62
735.658	41132.48
735.999	41098.58
736.339	40842.09
736.68	41015.19
737.021	40853.62
737.361	40675.54
737.702	41038.24
738.042	40707.4
738.383	40695.2
738.723	40579.72
739.063	40446.17
739.404	40534.3
739.744	40396.9
740.084	40331.37
740.424	40276.46
740.764	40204.82
741.104	40196.46
741.444	39959.18
741.784	39891.38
742.124	40005.28
742.464	39916.92
742.804	39739.29
743.143	39771.16
743.483	39829.69
743.823	39478.96
744.162	39562.58
744.502	39532.97
744.841	39403.94
745.181	39340.43
745.52	39309.47
745.86	39291.4
746.199	39293.66
746.538	39176.37
746.877	39246.43
747.216	39115.13
747.556	38937.28
747.895	38940.67
748.234	38809.38
748.573	38710.17
748.911	38681.02
749.25	38516.28
749.589	38391.76
749.928	38412.78
750.267	38180.47
750.605	38202.39
750.944	38127.36
751.283	38028.38
751.621	37955.84
751.96	37766.92
752.298	37607.15
752.636	37782.74
