Data from White_paper_FLMS001491_029.txt Node
Date: Tue Feb 07 10:34:53 GMT 2017
User: dcchb
Spectrometer: FLMS00149
Trigger mode: 0
Integration Time (sec): 2.000000E-2
Scans to average: 10
Electric dark correction enabled: true
Nonlinearity correction enabled: false
Boxcar width: 0
XAxis mode: Wavelengths
Number of Pixels in Spectrum: 2048
>>>>>Begin Spectral Data<<<<<
341.393	1.53
341.776	1.53
342.16	1.53
342.543	-50.22
342.927	-68.08
343.31	-77.12
343.693	-80.28
344.077	-58.81
344.46	-65.14
344.843	-56.55
345.226	-34.63
345.61	-21.98
345.993	-31.47
346.376	-17.23
346.759	5.59
347.142	17.12
347.525	49.89
347.908	68.64
348.291	82.88
348.674	107.06
349.057	112.03
349.44	109.09
349.823	143.89
350.206	168.53
350.588	210.11
350.971	249.43
351.354	240.84
351.737	274.74
352.119	279.26
352.502	280.61
352.884	301.86
353.267	301.86
353.65	307.73
354.032	322.19
354.414	337.56
354.797	337.11
355.179	346.83
355.562	355.19
355.944	369.65
356.326	352.02
356.709	381.4
357.091	383.21
357.473	366.71
357.855	359.03
358.238	367.84
358.62	377.11
359.002	370.56
359.384	383.66
359.766	394.28
360.148	381.18
360.53	352.7
360.912	364.91
361.294	391.57
361.676	378.46
362.057	362.19
362.439	351.35
362.821	354.51
363.203	352.25
363.584	357.9
363.966	368.07
364.348	360.84
364.729	357.45
365.111	349.09
365.493	370.78
365.874	339.82
366.256	362.87
366.637	351.8
367.019	367.17
367.4	357
367.781	339.14
368.163	351.35
368.544	366.04
368.925	358.8
369.306	374.4
369.688	362.65
370.069	363.55
370.45	342.31
370.831	372.59
371.212	357.22
371.593	365.36
371.974	361.97
372.355	359.93
372.736	371.23
373.117	377.11
373.498	387.5
373.879	376.2
374.26	378.46
374.641	356.09
375.021	341.4
375.402	358.8
375.783	377.56
376.163	389.76
376.544	360.84
376.925	394.74
377.305	401.74
377.686	385.7
378.066	394.96
378.447	394.06
378.827	401.06
379.208	394.28
379.588	389.76
379.968	417.79
380.349	407.16
380.729	418.69
381.109	420.05
381.489	426.6
381.87	408.75
382.25	413.72
382.63	415.53
383.01	423.44
383.39	419.14
383.77	425.7
384.15	430.67
384.53	427.28
384.91	459.59
385.29	457.56
385.67	423.89
386.049	467.5
386.429	445.58
386.809	454.85
387.189	464.79
387.568	466.82
387.948	470.89
388.328	480.16
388.707	468.63
389.087	474.28
389.466	479.7
389.846	477.45
390.225	490.55
390.605	481.06
390.984	500.72
391.363	503.89
391.743	512.7
392.122	507.5
392.501	506.82
392.881	510.89
393.26	521.74
393.639	552.25
394.018	535.97
394.397	523.77
394.776	541.4
395.155	546.37
395.534	566.48
395.913	571.91
396.292	584.33
396.671	587.72
397.05	592.7
397.429	586.14
397.808	580.95
398.186	593.37
398.565	600.83
398.944	622.98
399.323	609.19
399.701	637.67
400.08	626.59
400.458	643.32
400.837	636.76
401.215	630.66
401.594	639.93
401.972	660.72
402.351	700.04
402.729	703.65
403.107	697.55
403.486	680.38
403.864	711.79
404.242	735.29
404.62	758.57
404.999	754.5
405.377	776.19
405.755	801.5
406.133	792.92
406.511	827.94
406.889	818.91
407.267	846.25
407.645	851.67
408.023	880.82
408.401	918.56
408.779	908.85
409.156	950.2
409.534	982.29
409.912	984.78
410.29	1033.36
410.667	1039.92
411.045	1056.41
411.422	1090.99
411.8	1124.43
412.178	1138.22
412.555	1170.99
412.933	1174.38
413.31	1203.53
413.687	1236.07
414.065	1267.48
414.442	1271.55
414.819	1338.67
415.197	1366.24
415.574	1361.94
415.951	1373.01
416.328	1437.42
416.705	1463.18
417.082	1475.16
417.46	1513.12
417.837	1571.2
418.214	1555.38
418.591	1576.63
418.967	1614.36
419.344	1642.84
419.721	1664.98
420.098	1685.1
420.475	1725.77
420.852	1741.14
421.228	1776.17
421.605	1786.56
421.982	1820.23
422.358	1856.84
422.735	1871.53
423.111	1863.17
423.488	1942.94
423.864	1961.25
424.241	1963.06
424.617	1979.55
424.994	2018.65
425.37	2043.05
425.746	2041.02
426.123	2090.06
426.499	2141.81
426.875	2149.94
427.251	2173.45
427.627	2215.93
428.003	2262.03
428.379	2276.49
428.756	2312.2
429.132	2371.86
429.507	2365.98
429.883	2432.87
430.259	2475.13
430.635	2510.16
431.011	2525.3
431.387	2565.53
431.763	2618.63
432.138	2628.12
432.514	2692.53
432.89	2697.05
433.265	2758.52
433.641	2807.78
434.016	2814.56
434.392	2923.93
434.767	2967.1
435.143	2944.72
435.518	2944.95
435.894	3004.38
436.269	3074.44
436.644	3102.46
437.02	3144.04
437.395	3191.5
437.77	3238.05
438.145	3225.85
438.52	3256.36
438.895	3258.84
439.271	3332.29
439.646	3426.52
440.021	3463.58
440.395	3487.76
440.77	3458.16
441.145	3445.28
441.52	3535.22
441.895	3509.68
442.27	3584.26
442.645	3619.06
443.019	3632.84
443.394	3615.44
443.769	3674.42
444.143	3696.57
444.518	3723.01
444.892	3732.27
445.267	3741.99
445.641	3819.28
446.016	3810.69
446.39	3844.14
446.764	3857.92
447.139	3834.64
447.513	3918.94
447.887	3900.41
448.262	3939.05
448.636	3949.44
449.01	3986.51
449.384	4066.28
449.758	4038.93
450.132	4108.08
450.506	4111.02
450.88	4146.73
451.254	4184.24
451.628	4197.12
452.002	4252.49
452.376	4292.94
452.75	4325.93
453.123	4355.76
453.497	4475.31
453.871	4475.08
454.244	4605.92
454.618	4574.96
454.992	4619.03
455.365	4657.67
455.739	4788.97
456.112	4817.67
456.486	4839.82
456.859	4909.19
457.232	5047.04
457.606	4999.59
457.979	5087.04
458.352	5150.32
458.725	5215.85
459.099	5249.97
459.472	5368.39
459.845	5440.25
460.218	5465.79
460.591	5474.6
460.964	5508.27
461.337	5653.58
461.71	5734.48
462.083	5828.72
462.456	5835.72
462.829	5875.5
463.201	5992.55
463.574	5968.15
463.947	6074.36
464.32	6196.39
464.692	6249.04
465.065	6282.94
465.438	6366.33
465.81	6529.94
466.183	6555.25
466.555	6702.14
466.928	6713.89
467.3	6721.12
467.672	6834.11
468.045	7032.07
468.417	7050.15
468.789	7105.52
469.161	7256.25
469.534	7309.58
469.906	7467.09
470.278	7581.44
470.65	7612.62
471.022	7801.09
471.394	7925.61
471.766	7984.14
472.138	8099.39
472.51	8272.95
472.882	8408.76
473.253	8452.15
473.625	8531.02
473.997	8817.79
474.369	8818.24
474.74	8907.96
475.112	9082.42
475.484	9306.59
475.855	9370.32
476.227	9515.85
476.598	9755.85
476.97	9782.74
477.341	9985.44
477.713	10207.36
478.084	10221.82
478.455	10551.08
478.827	10621.59
479.198	10919.66
479.569	10985.87
479.94	11202.13
480.311	11244.17
480.682	11555.8
481.053	11792.63
481.424	11966.63
481.795	12080.3
482.166	12275.1
482.537	12420.18
482.908	12779.95
483.279	12832.15
483.65	13063.1
484.021	13358.01
484.391	13401.4
484.762	13469.19
485.133	13708.06
485.503	13824.89
485.874	14224.88
486.244	14363.41
486.615	14537.41
486.985	14697.86
487.356	15009.94
487.726	15118.87
488.097	15351.4
488.467	15459.2
488.837	15816.7
489.207	16012.18
489.578	16175.34
489.948	16314.99
490.318	16552.73
490.688	16590.69
491.058	16943.45
491.428	17097.35
491.798	17254.63
492.168	17539.6
492.538	17610.78
492.908	17793.83
493.278	18085.8
493.648	18122.63
494.017	18306.13
494.387	18435.84
494.757	18604.65
495.126	18898.88
495.496	18864.08
495.866	19035.83
496.235	19319.89
496.605	19373.22
496.974	19465.87
497.344	19683.27
497.713	19808.24
498.082	20025.63
498.452	20243.71
498.821	20234.21
499.19	20380.42
499.559	20625.16
499.928	20692.05
500.298	20821.77
500.667	20978.6
501.036	20929.34
501.405	21233.74
501.774	21172.27
502.143	21473.28
502.512	21446.61
502.88	21746.26
503.249	21735.42
503.618	21893.15
503.987	21997.33
504.356	22101.51
504.724	22258.34
505.093	22422.86
505.462	22514.83
505.83	22700.36
506.199	22856.29
506.567	23081.6
506.936	23095.83
507.304	23357.3
507.672	23455.37
508.041	23557.97
508.409	23700.56
508.777	24000.44
509.145	24122.02
509.514	24158.86
509.882	24279.53
510.25	24366.31
510.618	24522.46
510.986	24629.13
511.354	24993.86
511.722	25030.47
512.09	25426.62
512.458	25428.2
512.826	25613.96
513.193	25746.16
513.561	25786.84
513.929	25995.87
514.297	26175.3
514.664	26389.08
515.032	26526.48
515.4	26614.84
515.767	26852.34
516.135	26956.97
516.502	26838.11
516.869	27334.59
517.237	27434.02
517.604	27409.62
517.972	27737.07
518.339	27933.67
518.706	28033.1
519.073	28156.49
519.44	28345.41
519.808	28605.07
520.175	28579.53
520.542	28919.64
520.909	29184.94
521.276	29213.86
521.643	29410.24
522.009	29712.83
522.376	29865.82
522.743	30096.78
523.11	30398.01
523.477	30525.24
523.843	30841.84
524.21	31045.45
524.577	31301.04
524.943	31437.99
525.31	31548.94
525.676	31877.98
526.043	31926.79
526.409	32228.25
526.776	32423.5
527.142	32669.14
527.508	32879.3
527.874	33071.62
528.241	33220.99
528.607	33241.56
528.973	33686.06
529.339	33590.02
529.705	33994.53
530.071	34235.65
530.437	34396.33
530.803	34617.11
531.169	34658.24
531.535	34821.85
531.901	34959.02
532.267	35203.99
532.632	35280.37
532.998	35443.31
533.364	35733.92
533.73	35622.96
534.095	36029.73
534.461	36129.39
534.826	36225.66
535.192	36479.89
535.557	36685.53
535.923	36762.14
536.288	36790.61
536.653	37115.8
537.019	37152.41
537.384	37349.02
537.749	37552.63
538.114	37610.03
538.479	37528.22
538.845	37968.21
539.21	37712.62
539.575	37981.77
539.94	38122.78
540.305	38284.13
540.67	38269.22
541.034	38524.58
541.399	38685.03
541.764	38771.58
542.129	38945.81
542.494	38948.3
542.858	39253.6
543.223	39310.32
543.587	39573.59
543.952	39508.28
544.316	39748.5
544.681	39604.1
545.045	39856.52
545.41	40144.42
545.774	40224.42
546.138	40193.69
546.503	40505.09
546.867	40604.98
547.231	40728.14
547.595	40829.6
547.959	41006.55
548.324	40968.36
548.688	41107.34
549.052	41369.03
549.416	41441.34
549.779	41524.28
550.143	41539.87
550.507	41959.07
550.871	41992.96
551.235	42123.13
551.599	42340.53
551.962	42322.9
552.326	42414.2
552.689	42834.07
553.053	42575.1
553.417	42794.07
553.78	43354.74
554.143	43056.21
554.507	43319.71
554.87	43525.35
555.234	43892.57
555.597	43572.81
555.96	43834.72
556.323	44042.18
556.686	44159.69
557.05	44311.77
557.413	44506.34
557.776	44657.75
558.139	44758.77
558.502	44698.43
558.865	44931.87
559.228	45320.33
559.59	45387
559.953	45476.49
560.316	45913.54
560.679	45848.46
561.041	46119.63
561.404	46202.12
561.767	46461.77
562.129	46438.5
562.492	46752.39
562.854	46729.56
563.217	46675.33
563.579	46952.61
563.941	47365.93
564.304	47434.4
564.666	47567.51
565.028	47560.73
565.39	47826.26
565.753	48076.65
566.115	48151.67
566.477	48347.37
566.839	48553.7
567.201	48759.79
567.563	48780.13
567.925	48980.58
568.287	49063.96
568.648	49048.82
569.01	49267.57
569.372	49569.26
569.734	49522.03
570.095	49701.69
570.457	49863.94
570.819	49896.48
571.18	50016.03
571.542	50237.49
571.903	50261.45
572.265	50471.38
572.626	50478.16
572.987	50591.83
573.349	50753.19
573.71	50724.94
574.071	50878.15
574.432	51113.85
574.794	51249.22
575.155	51271.82
575.516	51191.37
575.877	51348.2
576.238	51501.64
576.599	51566.5
576.96	51622.77
577.32	51611.92
577.681	51811.69
578.042	51924.91
578.403	51833.83
578.763	51823.67
579.124	52013.49
579.485	52310.43
579.845	52276.54
580.206	52245.35
580.566	52096.2
580.927	52305.23
581.287	52365.57
581.648	52306.59
582.008	52382.75
582.368	52459.81
582.728	52593.59
583.089	52480.6
583.449	52545.91
583.809	52601.72
584.169	52600.14
584.529	52564.21
584.889	52819.35
585.249	52690.31
585.609	52625
585.969	52805.33
586.329	52663.19
586.688	52776.41
587.048	52813.24
587.408	52741.16
587.768	52784.77
588.127	52761.27
588.487	52814.6
588.846	53060.7
589.206	52811.89
589.565	52864.09
589.925	53009.17
590.284	52838.33
590.643	53046.01
591.003	53114.93
591.362	53116.29
591.721	53019.34
592.08	53081.03
592.44	53191.77
592.799	53140.69
593.158	53188.6
593.517	53164.2
593.876	53256.17
594.235	53113.8
594.593	53147.7
594.952	53312.89
595.311	53233.35
595.67	53274.93
596.029	53452.32
596.387	53523.96
596.746	53473.34
597.104	53345.21
597.463	53387.92
597.822	53516.95
598.18	53424.53
598.538	53401.93
598.897	53572.09
599.255	53373.23
599.613	53845.08
599.972	53620.91
600.33	53663.39
600.688	53579.55
601.046	53704.07
601.404	53778.64
601.762	53725.99
602.12	53874.69
602.478	53899.54
602.836	53816.83
603.194	53674.46
603.552	53710.17
603.91	53707.01
604.268	53868.58
604.625	53860.9
604.983	53985.19
605.341	53767.34
605.698	53927.57
606.056	53990.39
606.413	53902.93
606.771	53986.09
607.128	54107
607.485	53956.49
607.843	54048.92
608.2	54186.77
608.557	54311.28
608.914	54194
609.272	54245.52
609.629	54366.65
609.986	54340.21
610.343	54272.87
610.7	54523.93
611.057	54447.55
611.414	54382.47
611.771	54499.98
612.127	54524.61
612.484	54497.95
612.841	54600.09
613.198	54543.37
613.554	54531.39
613.911	54675.57
614.267	54655.46
614.624	54638.51
614.98	54705.62
615.337	54793.98
615.693	54726.87
616.05	54681.44
616.406	54876.92
616.762	54716.02
617.118	54788.33
617.475	54747.88
617.831	54883.02
618.187	54907.43
618.543	54871.04
618.899	55032.17
619.255	54984.26
619.611	55024.71
619.967	55033.07
620.323	55110.81
620.678	54887.99
621.034	55045.73
621.39	55022.9
621.746	54823.13
622.101	55266.06
622.457	55022.45
622.812	55004.6
623.168	55146.52
623.523	55203.46
623.879	55179.06
624.234	54995.56
624.589	55130.47
624.945	55115.78
625.3	55072.85
625.655	55146.52
626.01	55192.16
626.365	55150.58
626.72	55083.47
627.075	55087.99
627.43	55088.89
627.785	55086.18
628.14	55158.95
628.495	55195.78
628.85	55130.02
629.205	54994.66
629.559	55139.28
629.914	54989.23
630.269	55126.4
630.623	55033.98
630.978	54963.47
631.332	55138.83
631.687	55164.82
632.041	55020.19
632.396	55130.7
632.75	54959.18
633.104	55075.78
633.459	54944.94
633.813	54904.04
634.167	54910.36
634.521	54890.25
634.875	54980.19
635.229	54902.45
635.583	54754.89
635.937	54777.03
636.291	54798.05
636.645	54823.59
636.999	54713.53
637.352	54782.01
637.706	54691.39
638.06	54884.83
638.413	54651.84
638.767	54626.08
639.121	54654.78
639.474	54647.55
639.828	54635.34
640.181	54692.97
640.534	54656.36
640.888	54575.91
641.241	54481
641.594	54504.5
641.947	54604.84
642.301	54594.44
642.654	54616.36
643.007	54556.25
643.36	54467.21
643.713	54466.76
644.066	54560.09
644.419	54319.19
644.771	54235.81
645.124	53888.7
645.477	53873.78
645.83	53766.89
646.182	53608.25
646.535	53607.57
646.888	53575.71
647.24	53531.19
647.593	53643.28
647.945	53530.74
648.298	53424.98
648.65	53375.26
649.002	53314.47
649.355	53399.9
649.707	53370.52
650.059	53513.34
650.411	53933.44
650.763	53928.47
651.115	54222.7
651.467	54091.85
651.819	54235.35
652.171	53999.88
652.523	53961.69
652.875	53987.68
653.227	53898.19
653.578	54050.95
653.93	53966.89
654.282	53931.86
654.633	53845.99
654.985	53920.79
655.337	53827.91
655.688	53866.1
656.039	53929.15
656.391	53695.93
656.742	53683.96
657.094	53797.4
657.445	53868.81
657.796	53727.57
658.147	53717.85
658.498	53787.91
658.849	53765.76
659.2	53769.38
659.551	53669.72
659.902	53836.95
660.253	53657.52
660.604	53753.78
660.955	53556.73
661.306	53702.03
661.656	53629.95
662.007	53721.47
662.358	53688.48
662.708	53616.84
663.059	53667.91
663.409	53434.47
663.76	53609.38
664.11	53694.12
664.461	53602.83
664.811	53629.27
665.161	53586.33
665.511	53515.82
665.862	53561.7
666.212	53545.88
666.562	53600.34
666.912	53502.04
667.262	53401.93
667.612	53492.32
667.962	53535.26
668.312	53433.34
668.662	53568.03
669.011	53465.2
669.361	53354.25
669.711	53321.48
670.06	53326.68
670.41	53256.17
670.76	53201.26
671.109	53337.07
671.459	53241.93
671.808	53196.96
672.157	53256.4
672.507	53032.9
672.856	53068.83
673.205	53143.86
673.554	53237.41
673.904	53117.64
674.253	53239.9
674.602	53084.88
674.951	52682.85
675.3	52452.12
675.649	52911.55
675.998	52833.36
676.346	52932.79
676.695	53022.96
677.044	52759.91
677.393	52865.45
677.741	52914.26
678.09	52782.51
678.438	52745
678.787	52753.58
679.135	52742.51
679.484	52499.35
679.832	52645.34
680.181	52411.67
680.529	52516.53
680.877	52453.03
681.225	52383.65
681.573	52624.77
681.922	52267.95
682.27	52185.24
682.618	52198.57
682.966	52117.22
683.314	52207.38
683.661	52098.23
684.009	51934.85
684.357	51849.43
684.705	51826.38
685.053	51835.64
685.4	51735.53
685.748	51649.88
686.095	51573.28
686.443	51530.34
686.79	51318.37
687.138	51384.81
687.485	51340.06
687.832	51181.65
688.18	51223.23
688.527	51091.93
688.874	51134.19
689.221	51072.05
689.568	50789.12
689.915	50854.43
690.262	50734.2
690.609	50617.82
690.956	50525.85
691.303	50468
691.65	50239.07
691.997	50300.77
692.344	50069.14
692.69	50114.33
693.037	49998.4
693.383	49771.74
693.73	49837.73
694.077	49662.59
694.423	49658.75
694.769	49490.85
695.116	49490.39
695.462	49360
695.808	49216.73
696.155	49286.56
696.501	49018.54
696.847	49042.27
697.193	48733.35
697.539	48950.29
697.885	48567.25
698.231	48496.52
698.577	48645.67
698.923	48529.51
699.269	48222.18
699.614	48090.66
699.96	48076.42
700.306	47973.6
700.651	47991.68
700.997	47749.42
701.342	47762.08
701.688	47717.33
702.033	47491.8
702.379	47671.46
702.724	47423.56
703.069	47523.44
703.415	46959.16
703.76	47020.85
704.105	46966.84
704.45	46755.1
704.795	46620.41
705.14	46697.7
705.485	46499.29
705.83	46317.14
706.175	46578.83
706.52	46294.77
706.865	46224.04
707.209	46215.45
707.554	46055.68
707.899	46059.07
708.243	45829.92
708.588	45794.9
708.932	45598.07
709.277	45559.2
709.621	45513.55
709.966	45280.56
710.31	45290.28
710.654	45015.03
710.998	45040.34
711.342	45050.74
711.687	44949.27
712.031	44657.3
712.375	44591.54
712.719	44733.23
713.063	44622.27
713.407	44673.35
713.75	44390.87
714.094	44599.9
714.438	44312.68
714.782	44207.37
715.125	44096.64
715.469	44192
715.812	43846.7
716.156	43884.67
716.499	43771.22
716.843	43804.22
717.186	43605.58
717.53	43566.26
717.873	43691.22
718.216	43383.89
718.559	43361.97
718.902	43095.99
719.246	43319.93
719.589	43122.43
719.932	42861.87
720.275	43004.69
720.617	42870.23
720.96	42789.1
721.303	42927.18
721.646	42891.02
721.989	42489.45
722.331	42593.4
722.674	42539.39
723.016	42573.51
723.359	42498.94
723.701	42526.96
724.044	42159.96
724.386	41990.03
724.729	42243.8
725.071	42173.75
725.413	42067.31
725.755	42149.34
726.097	41812.86
726.439	41722.01
726.782	41683.82
727.124	41947.54
727.465	41603.6
727.807	41541
728.149	41499.19
728.491	41445.41
728.833	41354.79
729.175	41423.71
729.516	41300.33
729.858	41244.06
730.199	41302.59
730.541	41020.56
730.882	40959.54
731.224	41169.48
731.565	41016.94
731.906	40970.84
732.248	41007.23
732.589	40698.08
732.93	40682.49
733.271	40683.85
733.612	40618.08
733.953	40763.84
734.294	40661.25
734.635	40466
734.976	40612.43
735.317	40335.83
735.658	40162.73
735.999	40244.08
736.339	40197.98
736.68	40206.57
737.021	40128.83
737.361	39985.11
737.702	40128.38
738.042	39955.73
738.383	39963.64
738.723	39864.21
739.063	39788.05
739.404	39860.82
739.744	39693.59
740.084	39570.43
740.424	39639.35
740.764	39461.05
741.104	39621.73
741.444	39424.22
741.784	39358.23
742.124	39402.3
742.464	39286.37
742.804	39250.66
743.143	39070.78
743.483	39173.83
743.823	38854.29
744.162	38843.89
744.502	39001.18
744.841	38884.57
745.181	38997.11
745.52	38846.15
745.86	38901.52
746.199	38673.28
746.538	38607.06
746.877	38721.64
747.216	38687.29
747.556	38488.87
747.895	38550.12
748.234	38389.89
748.573	38284.13
748.911	38202.55
749.25	38348.31
749.589	38083.46
749.928	38234.19
750.267	38143.8
750.605	38078.94
750.944	37991.49
751.283	37770.02
751.621	37857.71
751.96	37694.09
752.298	37632.17
752.636	37672.85
752.975	37427.43
