Data from White_paper_FLMS001491_062.txt Node
Date: Tue Feb 07 10:35:24 GMT 2017
User: dcchb
Spectrometer: FLMS00149
Trigger mode: 0
Integration Time (sec): 2.000000E-2
Scans to average: 10
Electric dark correction enabled: true
Nonlinearity correction enabled: false
Boxcar width: 0
XAxis mode: Wavelengths
Number of Pixels in Spectrum: 2048
>>>>>Begin Spectral Data<<<<<
341.393	-14.19
341.776	-14.19
342.16	-14.19
342.543	-43.12
342.927	-46.74
343.31	-69.79
343.693	-42.89
344.077	-68.66
344.46	-60.52
344.843	-60.3
345.226	-72.5
345.61	-21.88
345.993	10.44
346.376	-4.7
346.759	11.57
347.142	9.53
347.525	44.56
347.908	60.61
348.291	88.18
348.674	85.69
349.057	90.66
349.44	122.53
349.823	144.45
350.206	147.16
350.588	214.73
350.971	247.72
351.354	257.66
351.737	288.62
352.119	281.84
352.502	277.78
352.884	323.88
353.267	311.67
353.65	314.84
354.032	332.91
354.414	339.24
354.797	350.32
355.179	341.73
355.562	370.2
355.944	355.74
356.326	374.95
356.709	372.01
357.091	366.13
357.473	377.21
357.855	400.48
358.238	376.98
358.62	363.87
359.002	369.75
359.384	380.82
359.766	405.68
360.148	383.99
360.53	375.85
360.912	368.17
361.294	362.97
361.676	381.95
362.057	349.41
362.439	366.59
362.821	372.01
363.203	369.52
363.584	356.42
363.966	365.46
364.348	369.3
364.729	360.48
365.111	374.72
365.493	363.87
365.874	370.65
366.256	375.17
366.637	354.38
367.019	370.88
367.4	365.23
367.781	358.23
368.163	366.36
368.544	371.78
368.925	347.6
369.306	375.17
369.688	363.65
370.069	357.77
370.45	385.79
370.831	358.45
371.212	352.12
371.593	385.79
371.974	379.02
372.355	358.23
372.736	397.55
373.117	377.43
373.498	380.37
373.879	389.64
374.26	374.5
374.641	374.72
375.021	372.91
375.402	393.03
375.783	374.27
376.163	418.34
376.544	406.81
376.925	388.96
377.305	398.9
377.686	403.42
378.066	388.73
378.447	399.81
378.827	412.91
379.208	398
379.588	402.97
379.968	422.18
380.349	410.65
380.729	420.6
381.109	406.81
381.489	421.95
381.87	426.25
382.25	435.51
382.63	444.55
383.01	416.98
383.39	434.83
383.77	422.63
384.15	445.68
384.53	444.1
384.91	439.13
385.29	469.41
385.67	470.99
386.049	481.16
386.429	459.01
386.809	445.23
387.189	470.54
387.568	472.57
387.948	487.71
388.328	468.5
388.707	483.65
389.087	482.29
389.466	499.01
389.846	498.56
390.225	506.02
390.605	504.66
390.984	512.57
391.363	499.69
391.743	511.44
392.122	525.45
392.501	538.56
392.881	539.92
393.26	553.47
393.639	541.72
394.018	547.6
394.397	552.8
394.776	565
395.155	577.2
395.534	549.86
395.913	571.33
396.292	593.02
396.671	608.61
397.05	597.31
397.429	598.44
397.808	592.8
398.186	589.86
398.565	607.26
398.944	608.16
399.323	609.74
399.701	622.85
400.08	618.78
400.458	657.43
400.837	656.75
401.215	664.88
401.594	669.4
401.972	678.44
402.351	690.65
402.729	690.42
403.107	709.85
403.486	728.84
403.864	704.43
404.242	738.55
404.62	753.92
404.999	771.1
405.377	765.45
405.755	814.03
406.133	804.99
406.511	840.47
406.889	844.54
407.267	847.03
407.645	884.54
408.023	913.69
408.401	912.79
408.779	922.28
409.156	960.02
409.534	970.86
409.912	1002.28
410.29	1027.36
410.667	1060.81
411.045	1059.22
411.422	1073.23
411.8	1136.51
412.178	1149.39
412.555	1183.97
412.933	1186.23
413.31	1217.41
413.687	1301.03
414.065	1286.34
414.442	1321.59
414.819	1355.49
415.197	1378.76
415.574	1409.72
415.951	1446.56
416.328	1470.74
416.705	1483.17
417.082	1513
417.46	1557.29
417.837	1574.92
418.214	1600.45
418.591	1601.81
418.967	1643.39
419.344	1661.92
419.721	1695.14
420.098	1663.5
420.475	1729.04
420.852	1776.27
421.228	1773.56
421.605	1813.1
421.982	1835.47
422.358	1841.58
422.735	1898.07
423.111	1905.75
423.488	1946.88
423.864	1985.53
424.241	1992.08
424.617	2017.39
424.994	2068.91
425.37	2062.81
425.746	2090.16
426.123	2146.43
426.499	2160.21
426.875	2165.18
427.251	2191.85
427.627	2267.55
428.003	2303.48
428.379	2321.56
428.756	2328.34
429.132	2419.64
429.507	2425.97
429.883	2503.48
430.259	2514.78
430.635	2531.73
431.011	2546.87
431.387	2611.73
431.763	2641.78
432.138	2667.77
432.514	2715
432.89	2718.61
433.265	2823.24
433.641	2820.08
434.016	2851.49
434.392	2934.43
434.767	2980.98
435.143	2974.88
435.518	3000.87
435.894	3030.7
436.269	3103.69
436.644	3171.03
437.02	3164.03
437.395	3211.71
437.77	3279.05
438.145	3310.46
438.52	3312.27
438.895	3372.16
439.271	3372.16
439.646	3453.74
440.021	3439.73
440.395	3492.61
440.77	3509.33
441.145	3564.24
441.52	3620.74
441.895	3605.15
442.27	3594.07
442.645	3653.28
443.019	3689.89
443.394	3681.3
443.769	3735.99
444.143	3684.92
444.518	3793.39
444.892	3782.32
445.267	3819.15
445.641	3847.62
446.016	3882.88
446.39	3896.44
446.764	3976.21
447.139	3943.44
447.513	4006.49
447.887	4020.28
448.262	3967.17
448.636	4012.82
449.01	4051.01
449.384	4118.13
449.758	4107.73
450.132	4235.41
450.506	4248.97
450.88	4286.48
451.254	4247.39
451.628	4275.18
452.002	4429.76
452.376	4349.31
452.75	4449.64
453.123	4447.61
453.497	4549.98
453.871	4624.1
454.244	4671.78
454.618	4670.2
454.992	4766.24
455.365	4734.38
455.739	4893.7
456.112	4940.25
456.486	5007.14
456.859	4985.67
457.232	5109.51
457.606	5115.39
457.979	5175.95
458.352	5272.67
458.725	5367.81
459.099	5353.8
459.472	5530.07
459.845	5552.44
460.218	5614.36
460.591	5601.93
460.964	5626.11
461.337	5746.56
461.71	5909.49
462.083	5956.95
462.456	5914.01
462.829	5937.06
463.201	6131.18
463.574	6095.02
463.947	6240.1
464.32	6339.76
464.692	6360.33
465.065	6387.45
465.438	6526.2
465.81	6658.17
466.183	6715.8
466.555	6875.79
466.928	6899.07
467.3	6858.85
467.672	7012.51
468.045	7190.14
468.417	7247.99
468.789	7304.26
469.161	7381.09
469.534	7519.17
469.906	7662.44
470.278	7683.91
470.65	7812.49
471.022	7896.78
471.394	8112.6
471.766	8186.27
472.138	8306.04
472.51	8465.58
472.882	8473.04
473.253	8600.04
473.625	8799.59
473.997	8973.37
474.369	9002.07
474.74	9097.88
475.112	9261.27
475.484	9464.43
475.855	9651.99
476.227	9654.93
476.598	9914.81
476.97	10033.9
477.341	10265.31
477.713	10441.35
478.084	10490.84
478.455	10760.89
478.827	10941.22
479.198	11138.96
479.569	11157.94
479.94	11507.08
480.311	11591.38
480.682	11820.3
481.053	12112.49
481.424	12204.69
481.795	12401.98
482.166	12627.05
482.537	12789.08
482.908	12955.63
483.279	13082.64
483.65	13331.22
484.021	13585.22
484.391	13777.31
484.762	13843.52
485.133	14100.91
485.503	14166.68
485.874	14511.75
486.244	14683.5
486.615	14979.31
486.985	15066.76
487.356	15342.01
487.726	15485.96
488.097	15719.86
488.467	15753.75
488.837	16108.32
489.207	16306.28
489.578	16499.5
489.948	16789.66
490.318	16991.91
490.688	17007.5
491.058	17297.67
491.428	17496.98
491.798	17583.08
492.168	18019
492.538	18062.84
492.908	18294.93
493.278	18447.47
493.648	18504.19
494.017	18819.21
494.387	18964.06
494.757	19041.35
495.126	19228.92
495.496	19331.51
495.866	19487.44
496.235	19742.8
496.605	19905.96
496.974	19911.38
497.344	20203.58
497.713	20213.75
498.082	20471.14
498.452	20627.75
498.821	20888.08
499.19	20765.6
499.559	20924.92
499.928	21175.3
500.298	21266.38
500.667	21448.07
501.036	21450.33
501.405	21742.75
501.774	21790.43
502.143	21995.4
502.512	21983.19
502.88	22316.07
503.249	22310.19
503.618	22403.97
503.987	22478.1
504.356	22693.23
504.724	22866.79
505.093	22867.69
505.462	22972.77
505.83	23208.02
506.199	23352.87
506.567	23655.69
506.936	23729.59
507.304	23938.17
507.672	24085.06
508.041	24137.94
508.409	24283.7
508.777	24542.9
509.145	24643.24
509.514	24848.2
509.882	24952.38
510.25	25019.95
510.618	25242.77
510.986	25178.14
511.354	25573.38
511.722	25707.39
512.09	25904.22
512.458	25978.34
512.826	26162.52
513.193	26372.68
513.561	26471.44
513.929	26642.05
514.297	26852.9
514.664	27019.44
515.032	27145.54
515.4	27428.47
515.767	27499.43
516.135	27697.17
516.502	27505.53
516.869	28106.87
517.237	28252.41
517.604	28018.74
517.972	28378.05
518.339	28632.74
518.706	28609.46
519.073	28955.44
519.44	29034.53
519.808	29306.39
520.175	29463
520.542	29677
520.909	29849.2
521.276	29892.36
521.643	30306.59
522.009	30470.2
522.376	30647.6
522.743	30986.57
523.11	31126
523.477	31355.83
523.843	31557.18
524.21	31914.46
524.577	32001.69
524.943	32141.12
525.31	32306.31
525.676	32758.73
526.043	32804.15
526.409	32896.58
526.776	33365.04
527.142	33367.07
527.508	33665.15
527.874	33954.86
528.241	34098.13
528.607	34097.9
528.973	34406.82
529.339	34496.31
529.705	34842.06
530.071	35199.57
530.437	35195.05
530.803	35430.75
531.169	35695.83
531.535	35625.77
531.901	35790.51
532.267	36049.94
532.632	36367
532.998	36303.72
533.364	36597.95
533.73	36581.68
534.095	36946.87
534.461	37124.49
534.826	37305.95
535.192	37276.58
535.557	37621.43
535.923	37646.96
536.288	37907.52
536.653	38049.89
537.019	38008.99
537.384	38163.56
537.749	38312.48
538.114	38477.22
538.479	38394.51
538.845	38720.15
539.21	38672.47
539.575	39028.17
539.94	39074.72
540.305	39317.2
540.67	39268.61
541.034	39415.28
541.399	39683.74
541.764	39827.24
542.129	40017.97
542.494	40046.45
542.858	40172.77
543.223	40292.09
543.587	40445.31
543.952	40521.24
544.316	40713.1
544.681	40663.38
545.045	40999.64
545.41	41180.65
545.774	41176.36
546.138	41247.32
546.503	41326.87
546.867	41410.93
547.231	41866.96
547.595	41879.17
547.959	42038.49
548.324	42005.49
548.688	42154.87
549.052	42296.56
549.416	42400.74
549.779	42603.22
550.143	42559.6
550.507	42902.19
550.871	42982.64
551.235	43045.01
551.599	43445.91
551.962	43490.88
552.326	43586.92
552.689	43829.62
553.053	43703.53
553.417	43750.53
553.78	44345.09
554.143	44099.67
554.507	44412.66
554.87	44512.77
555.234	44804.74
555.597	44712.54
555.96	44856.04
556.323	45019.65
556.686	45171.74
557.05	45467.32
557.413	45376.7
557.776	45611.5
558.139	45786.41
558.502	45925.84
558.865	45901.89
559.228	46400.18
559.59	46296.23
559.953	46567.18
560.316	46890.56
560.679	46877.91
561.041	47019.6
561.404	47286.03
561.767	47536.65
562.129	47272.25
562.492	47728.05
562.854	47733.48
563.217	47894.38
563.579	47993.58
563.941	48321.26
564.304	48497.07
564.666	48582.27
565.028	48735.71
565.39	48905.88
565.753	48997.17
566.115	49239.43
566.477	49339.31
566.839	49565.52
567.201	49683.71
567.563	49694.33
567.925	49982.91
568.287	49878.5
568.648	50080.99
569.01	50144.26
569.372	50457.02
569.734	50408.43
570.095	50659.5
570.457	50836.67
570.819	50945.82
571.18	50881.19
571.542	51067.4
571.903	51174.06
572.265	51259.03
572.626	51340.39
572.987	51460.38
573.349	51564.11
573.71	51751.9
574.071	51817.21
574.432	51897.43
574.794	52082.06
575.155	52005.45
575.516	52017.88
575.877	52177.43
576.238	52346.69
576.599	52377.2
576.96	52443.86
577.32	52444.77
577.681	52600.02
578.042	52688.37
578.403	52677.98
578.763	52745.77
579.124	52851.31
579.485	53016.73
579.845	53088.36
580.206	52940.57
580.566	53120.45
580.927	53094.47
581.287	53179.66
581.648	53094.01
582.008	53239.09
582.368	53277.51
582.728	53351.18
583.089	53387.79
583.449	53320
583.809	53440.9
584.169	53526.32
584.529	53388.47
584.889	53621.91
585.249	53469.82
585.609	53423.72
585.969	53629.37
586.329	53463.95
586.688	53556.37
587.048	53614.68
587.408	53565.87
587.768	53583.72
588.127	53607.9
588.487	53620.55
588.846	53802.7
589.206	53625.3
589.565	53640.89
589.925	53811.06
590.284	53714.56
590.643	53834.11
591.003	53923.6
591.362	53964.27
591.721	53848.8
592.08	53827.55
592.44	53953.65
592.799	54035.46
593.158	53963.82
593.517	53903.71
593.876	53965.86
594.235	53994.55
594.593	54069.81
594.952	54083.82
595.311	53897.16
595.67	54101.44
596.029	54149.13
596.387	54194.78
596.746	54241.1
597.104	54162.46
597.463	54165.4
597.822	54250.59
598.18	54111.39
598.538	54222.57
598.897	54306.86
599.255	54151.16
599.613	54554.77
599.972	54391.61
600.33	54452.17
600.688	54236.36
601.046	54491.49
601.404	54621.21
601.762	54549.57
602.12	54595.67
602.478	54563.81
602.836	54547.76
603.194	54493.3
603.552	54541.89
603.91	54454.43
604.268	54691.26
604.625	54606.97
604.983	54738.72
605.341	54525.16
605.698	54728.09
606.056	54738.04
606.413	54689
606.771	54809.67
607.128	54865.04
607.485	54724.93
607.843	54758.15
608.2	54915.21
608.557	55031.59
608.914	54939.16
609.272	55034.53
609.629	55048.99
609.986	55193.85
610.343	55039.5
610.7	55226.61
611.057	55142.32
611.414	55148.65
611.771	55212.83
612.127	55319.72
612.484	55305.71
612.841	55367.17
613.198	55257.12
613.554	55270.45
613.911	55449.21
614.267	55385.48
614.624	55310.45
614.98	55416.44
615.337	55544.12
615.693	55401.07
616.05	55444.01
616.406	55644.45
616.762	55512.03
617.118	55456.21
617.475	55499.83
617.831	55605.59
618.187	55594.96
618.543	55612.59
618.899	55743.21
619.255	55717.22
619.611	55661.63
619.967	55870.44
620.323	55809.42
620.678	55664.34
621.034	55636.77
621.39	55643.78
621.746	55650.33
622.101	55909.53
622.457	55732.14
622.812	55731.68
623.168	55838.12
623.523	55790.44
623.879	55914.05
624.234	55736.43
624.589	55770.55
624.945	55796.54
625.3	55856.65
625.655	55848.52
626.01	55793.83
626.365	55880.83
626.72	55756.09
627.075	55890.78
627.43	55821.63
627.785	55777.78
628.14	55874.73
628.495	55863.43
628.85	55797.9
629.205	55720.39
629.559	55844
629.914	55742.08
630.269	55749.31
630.623	55733.27
630.978	55762.64
631.332	55854.84
631.687	55843.77
632.041	55781.17
632.396	55796.09
632.75	55669.54
633.104	55665.47
633.459	55587.96
633.813	55660.5
634.167	55665.7
634.521	55616.43
634.875	55691.46
635.229	55600.84
635.583	55555.64
635.937	55569.43
636.291	55535.08
636.645	55541.41
636.999	55468.19
637.352	55545.25
637.706	55390.45
638.06	55484.23
638.413	55434.52
638.767	55411.24
639.121	55471.8
639.474	55295.09
639.828	55329.66
640.181	55411.92
640.534	55353.39
640.888	55273.17
641.241	55209.21
641.594	55246.5
641.947	55263
642.301	55227.97
642.654	55276.1
643.007	55279.72
643.36	55230.45
643.713	55115.43
644.066	55314.97
644.419	55045.15
644.771	54856.91
645.124	54731.03
645.477	54687.87
645.83	54504.6
646.182	54417.14
646.535	54262.57
646.888	54422.34
647.24	54260.99
647.593	54470.7
647.945	54391.61
648.298	54162.23
648.65	54193.42
649.002	54067.1
649.355	54229.8
649.707	54161.56
650.059	54237.94
650.411	54652.84
650.763	54743.46
651.115	54849
651.467	54824.14
651.819	54908.88
652.171	54738.49
652.523	54784.59
652.875	54761.99
653.227	54590.92
653.578	54796.12
653.93	54766.74
654.282	54616.46
654.633	54563.58
654.985	54565.16
655.337	54619.4
655.688	54661.2
656.039	54703.91
656.391	54462.57
656.742	54503.02
657.094	54508.67
657.445	54618.49
657.796	54638.15
658.147	54578.49
658.498	54480.64
658.849	54569
659.2	54472.28
659.551	54393.19
659.902	54544.37
660.253	54481.1
660.604	54492.62
660.955	54336.47
661.306	54427.31
661.656	54370.82
662.007	54405.62
662.358	54410.14
662.708	54380.53
663.059	54361.78
663.409	54191.16
663.76	54395
664.11	54368.33
664.461	54382.79
664.811	54408.56
665.161	54312.29
665.511	54274.32
665.862	54239.75
666.212	54388.67
666.562	54385.96
666.912	54227.32
667.262	54204.94
667.612	54244.72
667.962	54257.82
668.312	54229.58
668.662	54251.72
669.011	54118.39
669.361	54131.73
669.711	54162.23
670.06	54056.02
670.41	54004.72
670.76	53955.69
671.109	54016.93
671.459	54017.15
671.808	53966.31
672.157	53990.94
672.507	53821
672.856	53753.66
673.205	53828.23
673.554	53922.01
673.904	53762.7
674.253	53899.64
674.602	53776.03
674.951	53374.23
675.3	53222.82
675.649	53685.64
675.998	53655.35
676.346	53746.65
676.695	53776.03
677.044	53465.98
677.393	53689.93
677.741	53714.79
678.09	53509.14
678.438	53453.1
678.787	53480.44
679.135	53516.6
679.484	53295.14
679.832	53313.22
680.181	53165.2
680.529	53286.55
680.877	53191.41
681.225	53061.47
681.573	53299.43
681.922	53121.81
682.27	53026.44
682.618	53031.64
682.966	52930.4
683.314	53011.08
683.661	52821.25
684.009	52675.27
684.357	52645.44
684.705	52529.73
685.053	52665.55
685.4	52614.93
685.748	52496.97
686.095	52362.06
686.443	52241.61
686.79	52181.04
687.138	52209.07
687.485	52222.4
687.832	52108.28
688.18	52094.94
688.527	51882.75
688.874	51873.25
689.221	51870.54
689.568	51636.65
689.915	51564.56
690.262	51675.75
690.609	51455.19
690.956	51289.99
691.303	51480.04
691.65	51212.48
691.997	51135.87
692.344	51001.19
692.69	50969.78
693.037	50972.94
693.383	50775.88
693.73	50788.09
694.077	50615.21
694.423	50674.42
694.769	50475.78
695.116	50405.27
695.462	50312.84
695.808	50246.63
696.155	50351.94
696.501	50043.47
696.847	50071.27
697.193	49840.77
697.539	49907.88
697.885	49528.23
698.231	49586.76
698.577	49447.56
698.923	49445.97
699.269	49288.69
699.614	49066.77
699.96	49015.02
700.306	49034.69
700.651	48853.22
700.997	48756.05
701.342	48728.7
701.688	48589.73
702.033	48519.67
702.379	48553.79
702.724	48319.45
703.069	48424.53
703.415	47997.88
703.76	48103.64
704.105	48042.62
704.45	47977.09
704.795	47618.68
705.14	47586.14
705.485	47575.51
705.83	47333.49
706.175	47477.89
706.52	47292.36
706.865	47176.43
707.209	47224.34
707.554	46963.1
707.899	47063.21
708.243	46799.49
708.588	46792.48
708.932	46581.87
709.277	46687.63
709.621	46513.62
709.966	46324.25
710.31	46468.43
710.654	46066.4
710.998	46169.22
711.342	46172.61
711.687	46033.18
712.031	45835.67
712.375	45686.52
712.719	45776.92
713.063	45644.72
713.407	45802.23
713.75	45587.77
714.094	45613.08
714.438	45309.36
714.782	45331.28
715.125	45169.25
715.469	45251.51
715.812	45061.91
716.156	44686.1
716.499	44769.94
716.843	44765.64
717.186	44624.41
717.53	44733.33
717.873	44813.33
718.216	44579.44
718.559	44543.05
718.902	44236.85
719.246	44495.82
719.589	44178.32
719.932	44069.62
720.275	44011.09
720.617	44014.48
720.96	43914.82
721.303	43943.07
721.646	43892.67
721.989	43753.24
722.331	43783.52
722.674	43673.92
723.016	43606.13
723.359	43502.63
723.701	43396.87
724.044	43249.3
724.386	43123.65
724.729	43244.33
725.071	43185.8
725.413	43132.24
725.755	43119.59
726.097	42780.84
726.439	42564.12
726.782	42748.75
727.124	42896.09
727.465	42688.64
727.807	42631.92
728.149	42459.72
728.491	42348.99
728.833	42433.5
729.175	42313.73
729.516	42302.88
729.858	42249.33
730.199	42170.23
730.541	42060.18
730.882	42059.73
731.224	42146.28
731.565	41870.81
731.906	41986.06
732.248	42025.38
732.589	41748.78
732.93	41687.99
733.271	41719.62
733.612	41756.68
733.953	41720.08
734.294	41513.3
734.635	41442.57
734.976	41485.73
735.317	41389.01
735.658	41304.95
735.999	41300.88
736.339	41218.85
736.68	41250.48
737.021	41198.06
737.361	41071.28
737.702	41207.32
738.042	40996.48
738.383	40931.17
738.723	41023.14
739.063	40745.19
739.404	40832.42
739.744	40699.76
740.084	40697.73
740.424	40657.73
740.764	40515.36
741.104	40775.69
741.444	40441.92
741.784	40302.49
742.124	40578.41
742.464	40317.4
742.804	40173.45
743.143	40147.91
743.483	40019.33
743.823	39997.86
744.162	40010.52
744.502	39960.8
744.841	39802.16
745.181	39968.03
745.52	39889.61
745.86	39851.2
746.199	39762.84
746.538	39665.44
746.877	39768.26
747.216	39810.75
747.556	39714.7
747.895	39569.4
748.234	39438.55
748.573	39294.15
748.911	39234.94
749.25	39271.33
749.589	39170.76
749.928	39177.54
750.267	39106.58
750.605	38890.09
750.944	38931.22
751.283	38824.56
751.621	38778.68
751.96	38536.2
752.298	38681.06
752.636	38655.75
752.975	38440.39
753.313	38253.27
