Data from white_steel_sheet_FLMS001491_061.txt Node
Date: Tue Feb 07 10:58:15 GMT 2017
User: dcchb
Spectrometer: FLMS00149
Trigger mode: 0
Integration Time (sec): 2.000000E-2
Scans to average: 10
Electric dark correction enabled: true
Nonlinearity correction enabled: false
Boxcar width: 0
XAxis mode: Wavelengths
Number of Pixels in Spectrum: 2048
>>>>>Begin Spectral Data<<<<<
341.393	2.78
341.776	2.78
342.16	2.78
342.543	-80.15
342.927	-69.98
343.31	-61.17
343.693	-56.2
344.077	-50.55
344.46	-47.16
344.843	-43.09
345.226	-42.64
345.61	-33.37
345.993	-36.54
346.376	-12.13
346.759	3.91
347.142	0.97
347.525	15.44
347.908	59.73
348.291	75.32
348.674	101.08
349.057	126.39
349.44	115.77
349.823	139.28
350.206	143.57
350.588	205.04
350.971	223.12
351.354	221.53
351.737	261.31
352.119	250.46
352.502	263.57
352.884	272.61
353.267	282.1
353.65	311.25
354.032	328.42
354.414	320.74
354.797	319.38
355.179	325.71
355.562	325.94
355.944	350.8
356.326	329.33
356.709	346.5
357.091	334.3
357.473	337.46
357.855	348.76
358.238	350.57
358.62	346.73
359.002	326.16
359.384	360.06
359.766	322.55
360.148	334.3
360.53	323
360.912	360.74
361.294	334.53
361.676	349.44
362.057	352.83
362.439	337.01
362.821	339.72
363.203	342.21
363.584	343.56
363.966	336.11
364.348	345.15
364.729	313.73
365.111	334.75
365.493	345.15
365.874	321.87
366.256	291.14
366.637	326.84
367.019	323
367.4	302.89
367.781	326.39
368.163	305.83
368.544	314.64
368.925	322.32
369.306	317.58
369.688	318.03
370.069	328.88
370.45	326.62
370.831	348.31
371.212	329.78
371.593	325.71
371.974	323.9
372.355	320.06
372.736	328.88
373.117	297.92
373.498	315.99
373.879	320.97
374.26	325.03
374.641	350.57
375.021	341.98
375.402	338.82
375.783	352.15
376.163	336.78
376.544	343.11
376.925	326.84
377.305	348.99
377.686	340.85
378.066	342.43
378.447	364.58
378.827	352.6
379.208	356.67
379.588	360.74
379.968	363.9
380.349	382.89
380.729	360.97
381.109	344.47
381.489	365.03
381.87	375.2
382.25	364.58
382.63	367.97
383.01	369.1
383.39	386.73
383.77	376.78
384.15	359.16
384.53	379.5
384.91	358.71
385.29	398.25
385.67	379.72
386.049	397.35
386.429	392.6
386.809	403
387.189	363.9
387.568	384.47
387.948	393.05
388.328	407.74
388.707	414.07
389.087	404.81
389.466	421.3
389.846	415.65
390.225	424.24
390.605	424.69
390.984	426.95
391.363	443.22
391.743	415.43
392.122	437.35
392.501	459.72
392.881	448.87
393.26	441.19
393.639	477.12
394.018	448.65
394.397	484.8
394.776	485.71
395.155	491.13
395.534	462.88
395.913	478.25
396.292	472.37
396.671	475.54
397.05	490.68
397.429	499.04
397.808	516.67
398.186	506.95
398.565	535.2
398.944	504.24
399.323	513.5
399.701	517.12
400.08	536.33
400.458	532.03
400.837	548.08
401.215	563.22
401.594	541.75
401.972	587.4
402.351	582.43
402.729	586.95
403.107	580.39
403.486	582.2
403.864	580.17
404.242	614.07
404.62	653.84
404.999	626.04
405.377	646.61
405.755	653.61
406.133	668.08
406.511	654.97
406.889	659.49
407.267	681.41
407.645	713.5
408.023	702.88
408.401	722.31
408.779	745.81
409.156	736.55
409.534	736.1
409.912	750.11
410.29	773.38
410.667	779.49
411.045	791.91
411.422	793.04
411.8	821.97
412.178	820.39
412.555	868.97
412.933	845.47
413.31	868.07
413.687	895.87
414.065	906.04
414.442	896.77
414.819	924.57
415.197	924.34
415.574	923.66
415.951	955.3
416.328	950.55
416.705	960.72
417.082	962.08
417.46	986.03
417.837	991.01
418.214	970.21
418.591	1036.2
418.967	1028.29
419.344	1039.82
419.721	1040.72
420.098	1046.37
420.475	1045.92
420.852	1052.7
421.228	1073.49
421.605	1097.67
421.982	1091.34
422.358	1144.9
422.735	1129.31
423.111	1112.13
423.488	1157.33
423.864	1136.09
424.241	1164.79
424.617	1197.33
424.994	1198.68
425.37	1194.62
425.746	1225.58
426.123	1247.5
426.499	1257.44
426.875	1250.21
427.251	1277.55
427.627	1280.49
428.003	1328.4
428.379	1349.19
428.756	1323.2
429.132	1347.61
429.507	1380.83
429.883	1383.31
430.259	1412.24
430.635	1416.08
431.011	1426.93
431.387	1465.34
431.763	1500.82
432.138	1501.05
432.514	1508.05
432.89	1527.94
433.265	1574.04
433.641	1583.31
434.016	1609.29
434.392	1611.78
434.767	1670.99
435.143	1665.79
435.518	1656.75
435.894	1714.83
436.269	1731.1
436.644	1748.95
437.02	1739.46
437.395	1755.73
437.77	1804.77
438.145	1835.5
438.52	1816.52
438.895	1846.35
439.271	1842.96
439.646	1866.91
440.021	1899.46
440.395	1916.86
440.77	1915.73
441.145	1939
441.52	1989.4
441.895	1990.3
442.27	2025.78
442.645	2022.39
443.019	2032.11
443.394	2035.27
443.769	2082.95
444.143	2086.8
444.518	2040.02
444.892	2089.06
445.267	2126.79
445.641	2146.68
446.016	2148.04
446.39	2151.2
446.764	2162.5
447.139	2213.35
447.513	2211.76
447.887	2224.42
448.262	2223.51
448.636	2255.6
449.01	2307.81
449.384	2280.01
449.758	2323.4
450.132	2361.14
450.506	2386.45
450.88	2386
451.254	2349.61
451.628	2416.73
452.002	2435.26
452.376	2431.19
452.75	2489.27
453.123	2506.9
453.497	2539.44
453.871	2588.93
454.244	2619.89
454.618	2619.21
454.992	2657.18
455.365	2688.59
455.739	2738.08
456.112	2785.08
456.486	2769.49
456.859	2822.6
457.232	2877.51
457.606	2886.32
457.979	2911.18
458.352	3009.26
458.725	3037.96
459.099	3043.38
459.472	3076.37
459.845	3132.64
460.218	3143.94
460.591	3151.85
460.964	3156.37
461.337	3276.14
461.71	3306.42
462.083	3322.24
462.456	3325.63
462.829	3359.3
463.201	3422.35
463.574	3429.58
463.947	3456.7
464.32	3531.73
464.692	3615.34
465.065	3613.08
465.438	3648.56
465.81	3706.41
466.183	3743.7
466.555	3822.57
466.928	3804.94
467.3	3840.65
467.672	3926.52
468.045	4029.57
468.417	3987.99
468.789	4051.94
469.161	4127.19
469.534	4147.08
469.906	4266.63
470.278	4279.28
470.65	4309.34
471.022	4418.49
471.394	4501.87
471.766	4541.87
472.138	4579.61
472.51	4701.42
472.882	4745.71
473.253	4799.94
473.625	4862.99
473.997	4936.21
474.369	4983.44
474.74	5085.13
475.112	5154.74
475.484	5225.02
475.855	5294.85
476.227	5394.28
476.598	5482.86
476.97	5512.92
477.341	5628.85
477.713	5745.91
478.084	5811.9
478.455	5925.11
478.827	6019.8
479.198	6163.07
479.569	6114.49
479.94	6377.53
480.311	6403.74
480.682	6555.15
481.053	6695.04
481.424	6733.23
481.795	6864.3
482.166	7011.19
482.537	7088.25
482.908	7163.05
483.279	7267
483.65	7422.02
484.021	7616.14
484.391	7654.11
484.762	7793.09
485.133	7856.36
485.503	7957.38
485.874	8094.77
486.244	8166.86
486.615	8324.15
486.985	8411.15
487.356	8604.14
487.726	8615.44
488.097	8826.73
488.467	8892.72
488.837	9065.14
489.207	9112.37
489.578	9214.29
489.948	9443.89
490.318	9469.88
490.688	9484.79
491.058	9704.67
491.428	9818.57
491.798	9908.28
492.168	10070.99
492.538	10188.96
492.908	10244.77
493.278	10344.43
493.648	10425.11
494.017	10570.41
494.387	10666
494.757	10773.35
495.126	10899.22
495.496	10902.16
495.866	11077.97
496.235	11147.57
496.605	11306.21
496.974	11324.97
497.344	11509.82
497.713	11538.98
498.082	11619.65
498.452	11747.56
498.821	11783.94
499.19	11738.52
499.559	12003.6
499.928	12076.59
500.298	12158.17
500.667	12304.15
501.036	12264.38
501.405	12465.28
501.774	12425.28
502.143	12625.5
502.512	12668.89
502.88	12819.85
503.249	12797.25
503.618	12931.03
503.987	12967.41
504.356	13007.41
504.724	13191.59
505.093	13242.43
505.462	13255.09
505.83	13418.93
506.199	13559.04
506.567	13723.1
506.936	13710.44
507.304	13894.39
507.672	13916.31
508.041	14016.2
508.409	14073.6
508.777	14180.94
509.145	14261.62
509.514	14363.76
509.882	14578.22
510.25	14541.61
510.618	14671.1
510.986	14712
511.354	14908.15
511.722	15025.66
512.09	15104.08
512.458	15203.74
512.826	15316.5
513.193	15474.69
513.561	15571.19
513.929	15666.55
514.297	15806.89
514.664	15859.31
515.032	15931.86
515.4	16129.82
515.767	16197.84
516.135	16310.38
516.502	16261.11
516.869	16499.3
517.237	16682.12
517.604	16708.33
517.972	16886.41
518.339	16994.2
518.706	17012.96
519.073	17152.16
519.44	17280.97
519.808	17531.59
520.175	17514.41
520.542	17768.64
520.909	17838.92
521.276	17829.21
521.643	18079.6
522.009	18159.37
522.376	18410.89
522.743	18459.47
523.11	18616.08
523.477	18866.24
523.843	19013.36
524.21	19126.57
524.577	19282.5
524.943	19374.48
525.31	19525.21
525.676	19780.12
526.043	19784.18
526.409	19904.86
526.776	20252.65
527.142	20273.44
527.508	20480.21
527.874	20671.39
528.241	20773.08
528.607	20832.07
528.973	21025.51
529.339	21080.42
529.705	21251.94
530.071	21403.35
530.437	21554.76
530.803	21700.07
531.169	21747.52
531.535	21780.51
531.901	21909.33
532.267	22038.14
532.632	22228.19
532.998	22302.76
533.364	22414.4
533.73	22461.85
534.095	22676.76
534.461	22714.5
534.826	22815.97
535.192	22910.43
535.557	23114.94
535.923	23096.64
536.288	23180.25
536.653	23374.6
537.019	23352
537.384	23488.72
537.749	23662.73
538.114	23744.98
538.479	23741.59
538.845	23834.7
539.21	23798.99
539.575	23944.07
539.94	24021.59
540.305	24306.78
540.67	24253.67
541.034	24363.5
541.399	24451.63
541.764	24517.39
542.129	24705.64
542.494	24701.79
542.858	24822.69
543.223	24759.19
543.587	25041.22
543.952	25105.4
544.316	25132.07
544.681	25163.93
545.045	25368.9
545.41	25354.66
545.774	25613.18
546.138	25577.93
546.503	25502.45
546.867	25610.92
547.231	25930.01
547.595	25930.24
547.959	25963.46
548.324	26081.42
548.688	26132.72
549.052	26255.43
549.416	26259.04
549.779	26314.18
550.143	26433.27
550.507	26535.64
550.871	26776.99
551.235	26634.62
551.599	26952.13
551.962	26951.9
552.326	27055.18
552.689	27213.14
553.053	27075.06
553.417	27110.54
553.78	27550.53
554.143	27483.42
554.507	27571.78
554.87	27730.87
555.234	27931.99
555.597	27850.86
555.96	28015.61
556.323	28155.71
556.686	28125.88
557.05	28394.35
557.413	28474.35
557.776	28497.17
558.139	28683.84
558.502	28845.87
558.865	28851.29
559.228	29007.9
559.59	29186.87
559.953	29318.17
560.316	29549.8
560.679	29560.65
561.041	29656.47
561.404	29711.15
561.767	30090.35
562.129	29920.87
562.492	30272.04
562.854	30258.71
563.217	30373.74
563.579	30468.2
563.941	30532.6
564.304	30753.16
564.666	30973.04
565.028	30980.95
565.39	31062.3
565.753	31264.11
566.115	31305.69
566.477	31512.01
566.839	31567.38
567.201	31805.34
567.563	31996.29
567.925	31949.06
568.287	32057.98
568.648	32109.06
569.01	32257.53
569.372	32477.86
569.734	32373.91
570.095	32644.18
570.457	32771.64
570.819	32803.95
571.18	32876.04
571.542	33170.72
571.903	33190.16
572.265	33143.83
572.626	33200.55
572.987	33355.58
573.349	33430.6
573.71	33563.03
574.071	33459.3
574.432	33855.9
574.794	34071.94
575.155	34023.81
575.516	33846.64
575.877	34040.98
576.238	34067.88
576.599	34159.4
576.96	34239.4
577.32	34338.6
577.681	34378.38
578.042	34367.3
578.403	34399.62
578.763	34525.49
579.124	34611.59
579.485	34598.03
579.845	34822.88
580.206	34615.88
580.566	34668.99
580.927	34679.84
581.287	34839.15
581.648	34797.35
582.008	34888.42
582.368	34810.91
582.728	34886.38
583.089	34824.47
583.449	34732.94
583.809	34916.89
584.169	34876.67
584.529	34918.02
584.889	35148.07
585.249	34892.71
585.609	34868.08
585.969	35031.01
586.329	34940.62
586.688	35046.61
587.048	34918.25
587.408	34913.05
587.768	35006.61
588.127	35050.22
588.487	34865.59
588.846	35191.24
589.206	34936.1
589.565	34909.44
589.925	35157.79
590.284	35082.76
590.643	35027.85
591.003	35116.66
591.362	35251.35
591.721	35065.14
592.08	35086.83
592.44	35158.24
592.799	35112.59
593.158	34965.7
593.517	35066.49
593.876	35082.54
594.235	35169.32
594.593	35078.92
594.952	35198.47
595.311	34971.81
595.67	35140.16
596.029	35226.26
596.387	35199.15
596.746	35224.68
597.104	35024.46
597.463	35175.19
597.822	35270.1
598.18	35066.49
598.538	35062.65
598.897	35420.61
599.255	35047.74
599.613	35580.83
599.972	35266.49
600.33	35477.1
600.688	35224.46
601.046	35424.68
601.404	35369.99
601.762	35458.35
602.12	35458.8
602.478	35558.68
602.836	35409.08
603.194	35364.56
603.552	35392.81
603.91	35294.28
604.268	35641.62
604.625	35480.27
604.983	35434.39
605.341	35357.78
605.698	35408.18
606.056	35638
606.413	35506.48
606.771	35721.17
607.128	35696.53
607.485	35582.19
607.843	35527.27
608.2	35661.96
608.557	35867.83
608.914	35707.15
609.272	35980.14
609.629	36024.21
609.986	36092.45
610.343	35865.57
610.7	36032.12
611.057	36181.49
611.414	35999.12
611.771	36006.81
612.127	36188.5
612.484	36093.81
612.841	36203.41
613.198	36276.63
613.554	36185.56
613.911	36363.63
614.267	36275.73
614.624	36255.61
614.98	36396.18
615.337	36576.06
615.693	36548.71
616.05	36457.19
616.406	36853.34
616.762	36515.27
617.118	36569.5
617.475	36579
617.831	36731.99
618.187	36845.43
618.543	36627.58
618.899	36945.09
619.255	36879.78
619.611	36850.63
619.967	37053.33
620.323	37005.88
620.678	36949.61
621.034	36789.61
621.39	36738.99
621.746	36695.83
622.101	37096.95
622.457	36983.96
622.812	37011.98
623.168	37204.74
623.523	37054.24
623.879	37228.02
624.234	36953.45
624.589	36979.44
624.945	37025.31
625.3	37147.12
625.655	37108.93
626.01	37074.12
626.365	37085.42
626.72	36941.25
627.075	37060.34
627.43	36979.66
627.785	36949.83
628.14	37102.37
628.495	36996.16
628.85	36982.83
629.205	36757.75
629.559	37009.49
629.914	36860.12
630.269	36864.19
630.623	36877.07
630.978	36801.14
631.332	36857.18
631.687	36940.57
632.041	36641.37
632.396	36887.01
632.75	36638.88
633.104	36699.44
633.459	36444.54
633.813	36504.87
634.167	36547.13
634.521	36500.35
634.875	36654.25
635.229	36413.12
635.583	36117.99
635.937	36251.77
636.291	36324.77
636.645	36295.61
636.999	36193.24
637.352	36230.3
637.706	36157.54
638.06	36147.59
638.413	35951.67
638.767	35882.29
639.121	36012.91
639.474	35922.97
639.828	35868.28
640.181	35829.19
640.534	35709.19
640.888	35660.38
641.241	35472.13
641.594	35640.49
641.947	35589.64
642.301	35305.58
642.654	35645.46
643.007	35395.98
643.36	35355.07
643.713	35320.05
644.066	35455.64
644.419	35183.33
644.771	34966.61
645.124	34685.26
645.477	34628.99
645.83	34421.31
646.182	34219.06
646.535	34222.9
646.888	34240.07
647.24	34082.11
647.593	34219.28
647.945	34096.58
648.298	34053.41
648.65	34004.15
649.002	33911.5
649.355	33863.14
649.707	33733.65
650.059	34016.58
650.411	34244.14
650.763	34285.95
651.115	34766.84
651.467	34617.47
651.819	34653.62
652.171	34537.02
652.523	34554.19
652.875	34505.15
653.227	34307.64
653.578	34528.2
653.93	34381.31
654.282	34273.75
654.633	34235.1
654.985	34271.71
655.337	34247.76
655.688	34180.64
656.039	34238.94
656.391	33963.92
656.742	34006.18
657.094	34017.71
657.445	34181.09
657.796	34025.62
658.147	34012.28
658.498	33916.01
658.849	34023.13
659.2	33852.29
659.551	33833.98
659.902	33929.8
660.253	33897.48
660.604	33798.73
660.955	33651.84
661.306	33626.08
661.656	33540.43
662.007	33559.87
662.358	33496.37
662.708	33482.81
663.059	33434.45
663.409	33177.73
663.76	33355.35
664.11	33282.81
664.461	33409.36
664.811	33372.53
665.161	33288.01
665.511	33131.85
665.862	33101.57
666.212	33064.74
666.562	33194.45
666.912	32984.06
667.262	32817.96
667.612	32858.64
667.962	32828.59
668.312	32783.39
668.662	32778.87
669.011	32662.04
669.361	32469.5
669.711	32493.91
670.06	32394.25
670.41	32280.58
670.76	32158.55
671.109	32282.16
671.459	32137.98
671.808	32117.42
672.157	32066.8
672.507	31896.18
672.856	31824.54
673.205	31807.6
673.554	31848.5
673.904	31818.89
674.253	31835.39
674.602	31634.04
674.951	31314.5
675.3	31112.02
675.649	31484.89
675.998	31459.36
676.346	31462.07
676.695	31599.47
677.044	31279.02
677.393	31380.71
677.741	31345.01
678.09	31269.76
678.438	31260.27
678.787	31265.69
679.135	31246.48
679.484	31095.3
679.832	31268.63
680.181	31115.18
680.529	31272.02
680.877	31203.54
681.225	31134.85
681.573	31369.42
681.922	31158.35
682.27	30976.21
682.618	31089.87
682.966	31063.89
683.314	31257.55
683.661	31047.62
684.009	30863.21
684.357	30915.19
684.705	31019.82
685.053	30982.31
685.4	30971.01
685.748	30867.73
686.095	30902.08
686.443	30860.05
686.79	30819.83
687.138	30909.99
687.485	30907.96
687.832	30762.43
688.18	30950.67
688.527	30765.82
688.874	30804.46
689.221	30793.61
689.568	30722.43
689.915	30651.02
690.262	30583
690.609	30641.52
690.956	30544.13
691.303	30589.77
691.65	30512.71
691.997	30446.5
692.344	30290.12
692.69	30146.85
693.037	30421.19
693.383	30135.1
693.73	30264.36
694.077	30087.19
694.423	30150.24
694.769	30046.51
695.116	30078.83
695.462	29954.99
695.808	29930.13
696.155	29986.4
696.501	29877.7
696.847	29851.72
697.193	29555.45
697.539	29773.53
697.885	29520.65
698.231	29465.96
698.577	29590.93
698.923	29460.54
699.269	29247.21
699.614	29059.19
699.96	29144.62
700.306	29155.24
700.651	28995.01
700.997	28952.08
701.342	28894.68
701.688	28938.07
702.033	28729.48
702.379	28835.02
702.724	28635.48
703.069	28683.61
703.415	28391.87
703.76	28407.69
704.105	28386.22
704.45	28297.41
704.795	28188.48
705.14	28116.17
705.485	28005.44
705.83	27889.96
706.175	28058.54
706.52	27961.37
706.865	27735.84
707.209	27772.67
707.554	27683.86
707.899	27753.24
708.243	27579.01
708.588	27682.51
708.932	27299.01
709.277	27331.33
709.621	27327.49
709.966	27155.97
710.31	27388.05
710.654	27043.65
710.998	27173.82
711.342	27162.75
711.687	26983.77
712.031	26871.23
712.375	26814.28
712.719	26824.45
713.063	26839.59
713.407	26837.11
713.75	26644.12
714.094	26713.27
714.438	26596.89
714.782	26648.64
715.125	26522.31
715.469	26430.79
715.812	26283.9
716.156	26193.73
716.499	26325.25
716.843	26300.85
717.186	26063.79
717.53	26153.28
717.873	26254.07
718.216	26005.26
718.559	26014.98
718.902	25774.08
719.246	25914.19
719.589	25839.62
719.932	25624.71
720.275	25622.67
720.617	25637.36
720.96	25649.79
721.303	25670.36
721.646	25690.92
721.989	25410.7
722.331	25620.19
722.674	25335.68
723.016	25371.83
723.359	25329.12
723.701	25317.37
724.044	25202.35
724.386	25097.04
724.729	25223.59
725.071	25044.16
725.413	25082.57
725.755	25021.11
726.097	24937.27
726.439	24788.57
726.782	24855.24
727.124	25046.19
727.465	24817.27
727.807	24784.96
728.149	24746.31
728.491	24686.2
728.833	24769.81
729.175	24621.57
729.516	24474.91
729.858	24482.59
730.199	24465.42
730.541	24444.63
730.882	24443.72
731.224	24524.85
731.565	24321.69
731.906	24217.96
732.248	24270.84
732.589	24143.16
732.93	24143.62
733.271	24059.55
733.612	24113.56
733.953	24084.64
734.294	24030.63
734.635	23966.9
734.976	24053
735.317	23901.14
735.658	23920.12
735.999	23935.71
736.339	23759.22
736.68	23770.29
737.021	23644.87
737.361	23653.01
737.702	23687.81
738.042	23540.24
738.383	23547.93
738.723	23614.59
739.063	23386.12
739.404	23517.42
739.744	23365.33
740.084	23225.67
740.424	23277.42
740.764	23234.49
741.104	23405.78
741.444	23195.17
741.784	23107.26
742.124	23182.06
742.464	23119.01
742.804	23003.99
743.143	22912.69
743.483	22990.88
743.823	22862.75
744.162	22867.94
744.502	22990.43
744.841	22760.6
745.181	22933.03
745.52	22712.47
745.86	22763.54
746.199	22759.25
746.538	22686.03
746.877	22713.37
747.216	22582.75
747.556	22587.05
747.895	22597.89
748.234	22398.35
748.573	22401.97
748.911	22347.96
749.25	22422.76
749.589	22330.33
749.928	22258.69
750.267	22232.48
750.605	22136.44
750.944	22123.1
751.283	22071.58
751.621	22111.58
751.96	22024.8
752.298	21928.53
752.636	21977.8
752.975	21911.81
753.313	21795.88
753.651	21884.01
753.989	21734.87
754.327	21739.61
