Data from White_reflection_standard_FLMS001491_063.txt Node
Date: Tue Feb 07 10:32:07 GMT 2017
User: dcchb
Spectrometer: FLMS00149
Trigger mode: 0
Integration Time (sec): 2.000000E-2
Scans to average: 10
Electric dark correction enabled: true
Nonlinearity correction enabled: false
Boxcar width: 0
XAxis mode: Wavelengths
Number of Pixels in Spectrum: 2048
>>>>>Begin Spectral Data<<<<<
341.393	-3.35
341.776	-3.35
342.16	-3.35
342.543	-72.5
342.927	-44.48
343.31	-62.33
343.693	-64.59
344.077	-62.55
344.46	-56.91
344.843	-36.11
345.226	-51.71
345.61	-33.18
345.993	-34.98
346.376	-0.86
346.759	-1.54
347.142	34.84
347.525	25.35
347.908	87.95
348.291	64.45
348.674	78.46
349.057	113.71
349.44	101.28
349.823	143.32
350.206	168.85
350.588	235.97
350.971	255.63
351.354	262.41
351.737	297.89
352.119	296.08
352.502	305.35
352.884	313.03
353.267	333.37
353.65	337.89
354.032	349.86
354.414	340.82
354.797	364.78
355.179	356.42
355.562	374.72
355.944	384.89
356.326	412.01
356.709	383.31
357.091	401.84
357.473	393.93
357.855	396.87
358.238	386.02
358.62	410.65
359.002	398
359.384	403.65
359.766	401.61
360.148	409.75
360.53	400.03
360.912	408.39
361.294	427.15
361.676	403.2
362.057	406.59
362.439	426.25
362.821	409.07
363.203	412.23
363.584	399.58
363.966	427.38
364.348	401.39
364.729	419.24
365.111	420.6
365.493	409.07
365.874	413.36
366.256	416.53
366.637	402.97
367.019	410.2
367.4	409.98
367.781	405.23
368.163	413.82
368.544	414.72
368.925	425.57
369.306	420.6
369.688	430.31
370.069	442.74
370.45	446.36
370.831	435.96
371.212	438.22
371.593	433.93
371.974	443.65
372.355	422.18
372.736	462.18
373.117	451.1
373.498	459.01
373.879	432.8
374.26	433.25
374.641	439.58
375.021	442.06
375.402	471.67
375.783	481.84
376.163	520.93
376.544	513.7
376.925	475.06
377.305	495.62
377.686	492.01
378.066	499.46
378.447	500.14
378.827	511.89
379.208	501.72
379.588	516.41
379.968	530.65
380.349	522.29
380.729	528.39
381.109	526.13
381.489	539.69
381.87	557.77
382.25	548.5
382.63	548.73
383.01	567.49
383.39	566.36
383.77	554.83
384.15	573.13
384.53	594.83
384.91	595.51
385.29	596.41
385.67	623.98
386.049	614.04
386.429	609.52
386.809	631.21
387.189	633.92
387.568	624.43
387.948	647.48
388.328	644.09
388.707	650.42
389.087	660.36
389.466	675.96
389.846	680.7
390.225	673.25
390.605	673.92
390.984	698.1
391.363	727.71
391.743	694.71
392.122	713.24
392.501	722.28
392.881	741.49
393.26	749.63
393.639	758.44
394.018	739.46
394.397	748.27
394.776	797.54
395.155	789.85
395.534	786.24
395.913	798.44
396.292	798.89
396.671	807.7
397.05	854.26
397.429	839.34
397.808	840.7
398.186	846.35
398.565	843.41
398.944	861.49
399.323	892.67
399.701	894.48
400.08	909.17
400.458	884.09
400.837	896.06
401.215	944.65
401.594	918.89
401.972	942.16
402.351	938.77
402.729	947.14
403.107	952.33
403.486	970.86
403.864	993.69
404.242	1001.82
404.62	981.94
404.999	1068.49
405.377	1074.82
405.755	1049.51
406.133	1082.27
406.511	1053.12
406.889	1100.35
407.267	1107.58
407.645	1124.08
408.023	1165.44
408.401	1160.24
408.779	1191.65
409.156	1193.23
409.534	1194.14
409.912	1208.82
410.29	1252.66
410.667	1264.87
411.045	1284.08
411.422	1251.99
411.8	1305.09
412.178	1330.4
412.555	1342.38
412.933	1349.61
413.31	1367.24
413.687	1404.3
414.065	1402.94
414.442	1431.87
414.819	1458.31
415.197	1465.31
415.574	1472.32
415.951	1495.37
416.328	1512.54
416.705	1533.11
417.082	1553
417.46	1539.89
417.837	1545.09
418.214	1582.15
418.591	1610.4
418.967	1628.02
419.344	1644.29
419.721	1683.16
420.098	1681.58
420.475	1708.02
420.852	1713.67
421.228	1745.08
421.605	1771.3
421.982	1793.67
422.358	1759.32
422.735	1811.29
423.111	1808.36
423.488	1827.11
423.864	1865.76
424.241	1875.47
424.617	1906.43
424.994	1957.51
425.37	1971.97
425.746	1952.53
426.123	1978.3
426.499	2001.35
426.875	2013.77
427.251	2117.05
427.627	2117.05
428.003	2111.85
428.379	2179.42
428.756	2164.73
429.132	2189.36
429.507	2263.03
429.883	2314.33
430.259	2317.04
430.635	2324.5
431.011	2343.48
431.387	2408.57
431.763	2423.26
432.138	2461.9
432.514	2485.4
432.89	2491.73
433.265	2564.72
433.641	2626.41
434.016	2629.8
434.392	2639.75
434.767	2686.3
435.143	2690.59
435.518	2767.2
435.894	2772.62
436.269	2845.84
436.644	2873.41
437.02	2891.72
437.395	2872.74
437.77	2947.08
438.145	2994.99
438.52	3017.82
438.895	3061.88
439.271	3072.96
439.646	3151.15
440.021	3173.74
440.395	3191.14
440.77	3150.92
441.145	3195.44
441.52	3274.08
441.895	3276.11
442.27	3321.99
442.645	3347.07
443.019	3351.37
443.394	3392.95
443.769	3413.96
444.143	3396.79
444.518	3468.43
444.892	3456.45
445.267	3457.58
445.641	3543.9
446.016	3563.56
446.39	3550.68
446.764	3605.15
447.139	3601.53
447.513	3670.45
447.887	3724.46
448.262	3729.66
448.636	3743.67
449.01	3770.79
449.384	3833.39
449.758	3844.01
450.132	3872.71
450.506	3919.71
450.88	3970.11
451.254	3951.12
451.628	3956.77
452.002	4062.53
452.376	4148.63
452.75	4152.48
453.123	4162.42
453.497	4214.62
453.871	4347.72
454.244	4384.79
454.618	4372.13
454.992	4463.65
455.365	4442.64
455.739	4582.75
456.112	4660.94
456.486	4697.32
456.859	4717.43
457.232	4825.23
457.606	4831.55
457.979	4896.86
458.352	5010.98
458.725	5069.97
459.099	5055.5
459.472	5163.3
459.845	5273.8
460.218	5256.4
460.591	5337.98
460.964	5340.69
461.337	5473.57
461.71	5603.74
462.083	5666.56
462.456	5663.4
462.829	5700.68
463.201	5797.4
463.574	5826.56
463.947	5934.58
464.32	6067.23
464.692	6048.24
465.065	6124.4
465.438	6265.19
465.81	6354.45
466.183	6391.96
466.555	6597.16
466.928	6626.31
467.3	6556.48
467.672	6688.45
468.045	6834.89
468.417	6860.43
468.789	6944.49
469.161	7046.41
469.534	7213.41
469.906	7350.13
470.278	7344.26
470.65	7472.61
471.022	7562.33
471.394	7718.71
471.766	7805.26
472.138	7920.74
472.51	8144.24
472.882	8176.55
473.253	8292.93
473.625	8433.94
473.997	8633.04
474.369	8599.36
474.74	8812.01
475.112	9003.2
475.484	9195.05
475.855	9270.08
476.227	9328.16
476.598	9577.64
476.97	9674.36
477.341	9888.82
477.713	9966.56
478.084	10134.92
478.455	10407.23
478.827	10482.03
479.198	10783.04
479.569	10800.66
479.94	11122.24
480.311	11249.69
480.682	11469.12
481.053	11690.58
481.424	11924.25
481.795	11994.98
482.166	12238.59
482.537	12415.31
482.908	12580.05
483.279	12726.26
483.65	12990.66
484.021	13383.19
484.391	13440.37
484.762	13588.84
485.133	13627.71
485.503	13913.35
485.874	14195.83
486.244	14342.94
486.615	14606.89
486.985	14689.37
487.356	15132.53
487.726	15188.8
488.097	15463.14
488.467	15553.08
488.837	15810.93
489.207	16087.75
489.578	16305.15
489.948	16350.35
490.318	16743.1
490.688	16808.19
491.058	16988.97
491.428	17289.31
491.798	17475.06
492.168	17700.14
492.538	17878.67
492.908	18086.35
493.278	18331.99
493.648	18255.83
494.017	18608.59
494.387	18701.92
494.757	18931.52
495.126	19151.4
495.496	19203.38
495.866	19383.49
496.235	19571.28
496.605	19800.65
496.974	19912.29
497.344	20105.5
497.713	20184.6
498.082	20361.54
498.452	20582.33
498.821	20672.27
499.19	20707.07
499.559	21081.07
499.928	21180.95
500.298	21320.61
500.667	21500.27
501.036	21554.28
501.405	21721.28
501.774	21771.67
502.143	21950.65
502.512	22096.18
502.88	22355.84
503.249	22382.96
503.618	22573.01
503.987	22660.46
504.356	22849.84
504.724	23034.92
505.093	23077.63
505.462	23162.15
505.83	23341.8
506.199	23540.44
506.567	23887.1
506.936	23778.63
507.304	24117.83
507.672	24287.77
508.041	24440.53
508.409	24614.99
508.777	24811.59
509.145	24911.25
509.514	25012.72
509.882	25240.51
510.25	25326.61
510.618	25577.67
510.986	25633.27
511.354	26030.09
511.722	26120.26
512.09	26423.08
512.458	26358.9
512.826	26612.45
513.193	26882.73
513.561	26919.33
513.929	27123.17
514.297	27444.07
514.664	27573.78
515.032	27724.06
515.4	27996.14
515.767	28142.58
516.135	28293.54
516.502	28305.96
516.869	28723.58
517.237	28821.43
517.604	28841.09
517.972	29230.23
518.339	29377.12
518.706	29532.15
519.073	29635.65
519.44	30041.74
519.808	30247.83
520.175	30189.53
520.542	30711.1
520.909	30863.64
521.276	30902.05
521.643	31224.76
522.009	31598.08
522.376	31701.13
522.743	31842.59
523.11	32319.19
523.477	32511.28
523.843	32713.76
524.21	32993.75
524.577	33344.25
524.943	33321.65
525.31	33650.01
525.676	33942.88
526.043	34267.84
526.409	34250.44
526.776	34705.8
527.142	34877.54
527.508	34900.37
527.874	35328.38
528.241	35496.06
528.607	35611.54
528.973	35885.65
529.339	36032.99
529.705	36294.23
530.071	36568.35
530.437	36681.34
530.803	36933.99
531.169	37311.6
531.535	37147.09
531.901	37366.74
532.267	37587.3
532.632	37774.19
532.998	37903.9
533.364	38019.61
533.73	38356.55
534.095	38623.66
534.461	38756.54
534.826	39001.28
535.192	39023.88
535.557	39347.03
535.923	39355.39
536.288	39585.89
536.653	39796.06
537.019	39696.85
537.384	39948.14
537.749	40191.98
538.114	40319.89
538.479	40402.6
538.845	40425.65
539.21	40582.93
539.575	40728.91
539.94	40911.51
540.305	41059.98
540.67	41112.63
541.034	41320.54
541.399	41388.33
541.764	41555.11
542.129	41650.02
542.494	41801.88
542.858	42045.94
543.223	42078.94
543.587	42416.55
543.952	42324.81
544.316	42533.61
544.681	42597.34
545.045	42704.91
545.41	42920.95
545.774	42979.93
546.138	43101.73
546.503	43414.49
546.867	43394.38
547.231	43760.47
547.595	43825.1
547.959	43940.36
548.324	43882.28
548.688	44014.93
549.052	44235.04
549.416	44348.71
549.779	44343.96
550.143	44467.8
550.507	44809.94
550.871	45033.21
551.235	44968.58
551.599	45257.38
551.962	45363.6
552.326	45484.72
552.689	45783.92
553.053	45638.84
553.417	45747.77
553.78	46284.93
554.143	46124.25
554.507	46338.94
554.87	46479.05
555.234	46867.51
555.597	46675.43
555.96	46856.44
556.323	47247.61
556.686	47216.2
557.05	47501.39
557.413	47595.85
557.776	47773.48
558.139	47974.15
558.502	47995.16
558.865	48178.89
559.228	48480.8
559.59	48508.82
559.953	48545.43
560.316	49084.63
560.679	49075.14
561.041	49230.16
561.404	49392.42
561.767	49680.54
562.129	49508.12
562.492	49880.99
562.854	49913.76
563.217	50124.83
563.579	50169.12
563.941	50248.89
564.304	50539.05
564.666	50703.79
565.028	50727.52
565.39	50931.13
565.753	51026.72
566.115	51296.09
566.477	51381.74
566.839	51499.03
567.201	51582.19
567.563	51764.56
567.925	51880.94
568.287	51983.53
568.648	52016.53
569.01	52244.77
569.372	52416.97
569.734	52264.88
570.095	52637.53
570.457	52749.62
570.819	52720.24
571.18	52746.23
571.542	52958.65
571.903	53020.57
572.265	53097.86
572.626	53172.2
572.987	53241.81
573.349	53298.98
573.71	53430.95
574.071	53537.39
574.432	53734.9
574.794	53905.29
575.155	53809.02
575.516	53728.12
575.877	53926.53
576.238	54096.47
576.599	54146.42
576.96	54189.58
577.32	54110.94
577.681	54322.68
578.042	54233.42
578.403	54334.21
578.763	54305.96
579.124	54407.65
579.485	54569
579.845	54605.16
580.206	54452.17
580.566	54515.67
580.927	54551.38
581.287	54642.9
581.648	54584.37
582.008	54674.99
582.368	54729.9
582.728	54796.79
583.089	54743.24
583.449	54682.67
583.809	54692.62
584.169	54792.95
584.529	54733.07
584.889	54928.99
585.249	54737.36
585.609	54617.14
585.969	54868.88
586.329	54737.81
586.688	54807.87
587.048	54771.48
587.408	54780.52
587.768	54726.51
588.127	54726.74
588.487	54692.62
588.846	54958.37
589.206	54792.95
589.565	54776.68
589.925	54901.2
590.284	54841.09
590.643	54820.07
591.003	54978.71
591.362	55053.06
591.721	54921.54
592.08	54926.73
592.44	55009.67
592.799	55025.26
593.158	54952.95
593.517	54886.28
593.876	54957.47
594.235	54987.75
594.593	54990.01
594.952	54987.07
595.311	55014.19
595.67	54998.6
596.029	55189.33
596.387	55216.22
596.746	55235.88
597.104	55110.91
597.463	55163.11
597.822	55164.69
598.18	55089.22
598.538	55093.96
598.897	55200.85
599.255	54990.01
599.613	55458.47
599.972	55211.92
600.33	55375.99
600.688	55284.46
601.046	55391.35
601.404	55430.68
601.762	55350.23
602.12	55479.04
602.478	55446.27
602.836	55477.91
603.194	55345.03
603.552	55433.84
603.91	55424.57
604.268	55505.25
604.625	55414.86
604.983	55579.15
605.341	55448.98
605.698	55598.13
606.056	55617.79
606.413	55601.52
606.771	55709.54
607.128	55751.8
607.485	55625.25
607.843	55639.26
608.2	55816.65
608.557	55912.47
608.914	55809.42
609.272	55949.98
609.629	55966.48
609.986	56053.94
610.343	55862.98
610.7	56096.19
611.057	56062.75
611.414	56014.84
611.771	56046.7
612.127	56138.68
612.484	56119.92
612.841	56249.64
613.198	56151.79
613.554	56096.19
613.911	56288.28
614.267	56300.93
614.624	56291.44
614.98	56220.03
615.337	56410.31
615.693	56328.5
616.05	56312.69
616.406	56494.38
616.762	56347.94
617.118	56388.39
617.475	56427.03
617.831	56434.94
618.187	56440.14
618.543	56541.15
618.899	56720.81
619.255	56602.17
619.611	56521.49
619.967	56660.02
620.323	56631.77
620.678	56633.81
621.034	56523.53
621.39	56544.54
621.746	56469.52
622.101	56772.11
622.457	56576.41
622.812	56607.59
623.168	56652.79
623.523	56603.53
623.879	56656.86
624.234	56554.71
624.589	56674.94
624.945	56681.49
625.3	56634.71
625.655	56610.53
626.01	56657.99
626.365	56662.06
626.72	56504.32
627.075	56609.63
627.43	56613.24
627.785	56496.18
628.14	56618.21
628.495	56669.74
628.85	56573.7
629.205	56442.17
629.559	56642.62
629.914	56464.77
630.269	56477.65
630.623	56394.49
630.978	56328.73
631.332	56467.03
631.687	56437.2
632.041	56388.39
632.396	56439.01
632.75	56281.95
633.104	56354.04
633.459	56226.81
633.813	56173.25
634.167	56138.68
634.521	56134.39
634.875	56219.36
635.229	56105.46
635.583	55937.33
635.937	55994.28
636.291	55994.73
636.645	55953.37
636.999	55921.74
637.352	56004.67
637.706	55808.97
638.06	55919.02
638.413	55808.52
638.767	55707.28
639.121	55867.5
639.474	55591.8
639.828	55652.14
640.181	55677.9
640.534	55609.43
640.888	55535.08
641.241	55457.12
641.594	55532.14
641.947	55522.65
642.301	55414.63
642.654	55439.26
643.007	55410.56
643.36	55308.64
643.713	55246.73
644.066	55394.07
644.419	55175.54
644.771	54987.07
645.124	54697.59
645.477	54665.27
645.83	54472.51
646.182	54499.17
646.535	54309.35
646.888	54457.14
647.24	54112.97
647.593	54338.73
647.945	54301.44
648.298	54091.95
648.65	54046.3
649.002	53968.34
649.355	54102.8
649.707	54081.78
650.059	54132.18
650.411	54513.41
650.763	54445.39
651.115	54817.58
651.467	54631.6
651.819	54619.62
652.171	54469.12
652.523	54577.59
652.875	54482.9
653.227	54384.83
653.578	54573.52
653.93	54461.66
654.282	54306.86
654.633	54212.63
654.985	54298.73
655.337	54294.89
655.688	54265.28
656.039	54282
656.391	54158.84
656.742	54192.29
657.094	54039.07
657.445	54229.58
657.796	54112.52
658.147	54042.46
658.498	54032.52
658.849	54107.09
659.2	54004.05
659.551	53926.31
659.902	54043.59
660.253	53987.78
660.604	54072.74
660.955	53903.26
661.306	54024.16
661.656	53903.48
662.007	53944.84
662.358	53891.51
662.708	53868.46
663.059	53909.59
663.409	53728.8
663.76	53909.36
664.11	53788.68
664.461	53783.03
664.811	53782.13
665.161	53748.69
665.511	53656.03
665.862	53662.81
666.212	53769.25
666.562	53786.88
666.912	53609.71
667.262	53659.87
667.612	53594.11
667.962	53645.41
668.312	53536.04
668.662	53717.05
669.011	53657.39
669.361	53470.73
669.711	53479.54
670.06	53411.07
670.41	53448.58
670.76	53348.92
671.109	53518.86
671.459	53433.21
671.808	53269.6
672.157	53369.71
672.507	53313.89
672.856	53208.59
673.205	53174.01
673.554	53262.14
673.904	53177.85
674.253	53336.49
674.602	53170.62
674.951	52759.11
675.3	52657.19
675.649	53134.24
675.998	52981.02
676.346	53023.96
676.695	53086.56
677.044	52902.61
677.393	52931.53
677.741	52930.85
678.09	52953
678.438	52841.36
678.787	52889.95
679.135	52812.44
679.484	52670.75
679.832	52844.53
680.181	52604.08
680.529	52699
680.877	52542.62
681.225	52576.74
681.573	52685.89
681.922	52455.61
682.27	52327.25
682.618	52345.33
682.966	52308.5
683.314	52388.27
683.661	52287.71
684.009	52103.08
684.357	51964.78
684.705	51994.16
685.053	51971.56
685.4	52042.97
685.748	51817.89
686.095	51789.87
686.443	51687.72
686.79	51505.35
687.138	51608.63
687.485	51524.56
687.832	51460.16
688.18	51492.02
688.527	51330.9
688.874	51242.99
689.221	51224.68
689.568	51096.1
689.915	50987.4
690.262	50924.35
690.609	50853.39
690.956	50706.28
691.303	50728.2
691.65	50517.58
691.997	50559.39
692.344	50254.09
692.69	50258.38
693.037	50289.12
693.383	50021.55
693.73	50147.65
694.077	49862.01
694.423	49911.95
694.769	49829.92
695.116	49571.85
695.462	49484.62
695.808	49471.06
696.155	49489.81
696.501	49220.9
696.847	49200.1
697.193	49020.22
697.539	49165.3
697.885	48816.39
698.231	48681.93
698.577	48657.52
698.923	48739.33
699.269	48463.17
699.614	48285.55
699.96	48343.4
700.306	48209.85
700.651	48014.37
700.997	47906.58
701.342	47863.87
701.688	47716.98
702.033	47588.4
702.379	47593.14
702.724	47443.99
703.069	47613.25
703.415	47044
703.76	47163.55
704.105	47133.72
704.45	46979.6
704.795	46713.62
705.14	46635.88
705.485	46659.83
705.83	46503.68
706.175	46471.14
706.52	46333.74
706.865	46125.16
707.209	46186.62
707.554	46089.45
707.899	46157.47
708.243	45872.51
708.588	45758.84
708.932	45529.24
709.277	45615.34
709.621	45543.48
709.966	45218.97
710.31	45283.6
710.654	44986.66
710.998	45040.89
711.342	45012.19
711.687	44868.24
712.031	44757.74
712.375	44716.15
712.719	44726.55
713.063	44565.2
713.407	44625.76
713.75	44482.94
714.094	44355.03
714.438	44266.9
714.782	44312.1
715.125	44021.94
715.469	44127.7
715.812	43919.57
716.156	43799.12
716.499	43637.54
716.843	43615.84
717.186	43526.13
717.53	43615.17
717.873	43569.74
718.216	43471.67
718.559	43348.28
718.902	42979.7
719.246	43129.53
719.589	42905.13
719.932	42903.55
720.275	42831.91
720.617	42678.92
720.96	42601.18
721.303	42666.27
721.646	42636.44
721.989	42329.55
722.331	42422.66
722.674	42325.94
723.016	42349.89
723.359	42091.14
723.701	42138.37
724.044	41923.01
724.386	41754.65
724.729	41985.61
725.071	41897.7
725.413	41791.26
725.755	41771.15
726.097	41660.42
726.439	41563.7
726.782	41361.89
727.124	41587.65
727.465	41312.4
727.807	41370.71
728.149	41197.15
728.491	41107.44
728.833	41294.32
729.175	40984.05
729.516	40918.51
729.858	40990.83
730.199	40871.51
730.541	40778.86
730.882	40645.75
731.224	40798.74
731.565	40563.5
731.906	40505.19
732.248	40443.5
732.589	40221.13
732.93	40145.2
733.271	40151.75
733.612	40250.06
733.953	40163.05
734.294	40115.6
734.635	39999.67
734.976	40024.07
735.317	39809.62
735.658	39807.58
735.999	39722.39
736.339	39615.95
736.68	39755.83
737.021	39553.13
737.361	39402.4
737.702	39545.44
738.042	39348.39
738.383	39344.54
738.723	39260.7
739.063	39222.97
739.404	39169.41
739.744	39070.88
740.084	38994.27
740.424	38971.67
740.764	38844.67
741.104	38966.02
741.444	38620.95
741.784	38731
742.124	38642.42
742.464	38642.19
742.804	38686.71
743.143	38438.13
743.483	38484
743.823	38216.89
744.162	38211.47
744.502	38253.95
744.841	38076.33
745.181	38249.43
745.52	37969.89
745.86	37997.46
746.199	38125.82
746.538	37813.29
746.877	37938.03
747.216	37826.62
747.556	37850.12
747.895	37633.4
748.234	37525.38
748.573	37543.91
748.911	37476.35
749.25	37324.26
749.589	37250.81
749.928	37242.68
750.267	37447.42
750.605	37107.09
750.944	36977.38
751.283	36891.28
751.621	36866.87
751.96	36770.37
752.298	36863.48
