Data from white_poster_card_FLMS001491_00044.txt Node
Date: Wed Feb 08 11:51:34 GMT 2017
User: dcchb
Spectrometer: FLMS00149
Trigger mode: 0
Integration Time (sec): 2.000000E-2
Scans to average: 10
Electric dark correction enabled: true
Nonlinearity correction enabled: false
Boxcar width: 0
XAxis mode: Wavelengths
Number of Pixels in Spectrum: 2048
>>>>>Begin Spectral Data<<<<<
341.393	-7.71
341.776	-7.71
342.16	-7.71
342.543	-62.63
342.927	-84.55
343.31	-54.04
343.693	-56.52
344.077	-67.6
344.46	-71.89
344.843	-49.74
345.226	-43.42
345.61	-41.84
345.993	-14.27
346.376	-3.64
346.759	7.2
347.142	1.55
347.525	51.72
347.908	57.6
348.291	88.56
348.674	100.53
349.057	95.79
349.44	145.5
349.823	158.61
350.206	165.39
350.588	186.41
350.971	211.72
351.354	221.89
351.737	222.79
352.119	251.49
352.502	267.76
352.884	266.86
353.267	278.38
353.65	290.81
354.032	300.3
354.414	324.71
354.797	330.36
355.179	330.58
355.562	315.9
355.944	323.81
356.326	312.05
356.709	350.47
357.091	347.53
357.473	342.79
357.855	361.09
358.238	339.62
358.62	350.25
359.002	331.49
359.384	339.62
359.766	334.43
360.148	344.6
360.53	342.11
360.912	342.34
361.294	338.72
361.676	307.53
362.057	321.32
362.439	328.1
362.821	319.29
363.203	328.32
363.584	331.26
363.966	342.79
364.348	335.1
364.729	330.81
365.111	327.87
365.493	330.13
365.874	340.75
366.256	329.68
366.637	329.23
367.019	335.1
367.4	342.34
367.781	321.77
368.163	292.85
368.544	308.21
368.925	315.22
369.306	317.93
369.688	312.73
370.069	323.81
370.45	332.84
370.831	321.09
371.212	308.66
371.593	326.06
371.974	312.28
372.355	301.43
372.736	319.06
373.117	317.7
373.498	335.33
373.879	318.16
374.26	320.87
374.641	315.44
375.021	334.43
375.402	325.61
375.783	319.51
376.163	350.47
376.544	324.71
376.925	331.04
377.305	324.71
377.686	336.91
378.066	350.25
378.447	311.83
378.827	337.14
379.208	330.58
379.588	325.16
379.968	348.89
380.349	362.22
380.729	329.45
381.109	345.05
381.489	334.43
381.87	343.92
382.25	347.53
382.63	343.47
383.01	347.08
383.39	341.66
383.77	357.7
384.15	356.12
384.53	364.03
384.91	333.07
385.29	356.35
385.67	362.45
386.049	361.54
386.429	354.09
386.809	348.66
387.189	345.05
387.568	354.09
387.948	340.53
388.328	368.32
388.707	380.07
389.087	364.03
389.466	369.91
389.846	397.93
390.225	387.76
390.605	392.96
390.984	375.1
391.363	383.69
391.743	406.74
392.122	362.22
392.501	389.11
392.881	410.13
393.26	393.86
393.639	416.01
394.018	402
394.397	406.74
394.776	420.3
395.155	422.33
395.534	431.82
395.913	423.92
396.292	425.27
396.671	426.4
397.05	416.01
397.429	430.24
397.808	427.31
398.186	424.14
398.565	437.25
398.944	444.71
399.323	419.62
399.701	450.58
400.08	437.7
400.458	458.04
400.837	427.98
401.215	444.93
401.594	457.81
401.972	463.46
402.351	467.3
402.729	464.37
403.107	464.82
403.486	451.94
403.864	486.51
404.242	470.92
404.62	490.13
404.999	482.22
405.377	497.81
405.755	488.09
406.133	505.27
406.511	507.08
406.889	532.61
407.267	519.05
407.645	536.91
408.023	538.04
408.401	556.12
408.779	558.6
409.156	531.48
409.534	573.97
409.912	554.31
410.29	593.18
410.667	597.24
411.045	618.49
411.422	630.92
411.8	601.99
412.178	649.9
412.555	649.67
412.933	671.82
413.31	689.9
413.687	688.99
414.065	673.17
414.442	717.69
414.819	726.96
415.197	724.25
415.574	754.98
415.951	755.21
416.328	787.3
416.705	782.78
417.082	813.06
417.46	820.97
417.837	831.81
418.214	830.46
418.591	858.48
418.967	876.11
419.344	882.66
419.721	909.55
420.098	912.26
420.475	942.09
420.852	938.03
421.228	986.84
421.605	975.99
421.982	974.86
422.358	999.72
422.735	1019.83
423.111	1030.45
423.488	1072.94
423.864	1058.25
424.241	1074.52
424.617	1077.68
424.994	1109.77
425.37	1114.97
425.746	1144.12
426.123	1165.82
426.499	1157.68
426.875	1166.95
427.251	1209.88
427.627	1231.8
428.003	1244.68
428.379	1222.09
428.756	1256.66
429.132	1287.62
429.507	1312.48
429.883	1295.76
430.259	1350.67
430.635	1351.57
431.011	1381.18
431.387	1419.14
431.763	1414.62
432.138	1462.98
432.514	1435.64
432.89	1464.57
433.265	1521.29
433.641	1529.65
434.016	1526.26
434.392	1561.96
434.767	1567.61
435.143	1602.42
435.518	1618.23
435.894	1629.31
436.269	1635.18
436.644	1699.36
437.02	1673.15
437.395	1704.33
437.77	1710.21
438.145	1755.18
438.52	1752.47
438.895	1759.7
439.271	1776.65
439.646	1818.91
440.021	1836.99
440.395	1853.03
440.77	1836.53
441.145	1841.96
441.52	1893.71
441.895	1906.36
442.27	1923.31
442.645	1904.55
443.019	1955.63
443.394	1937.32
443.769	1961.28
444.143	1978.9
444.518	2002.86
444.892	1996.98
445.267	2013.93
445.641	1999.02
446.016	2052.35
446.39	2076.08
446.764	2062.97
447.139	2012.35
447.513	2081.95
447.887	2098.45
448.262	2113.81
448.636	2115.17
449.01	2153.59
449.384	2152.23
449.758	2169.86
450.132	2176.86
450.506	2205.11
450.88	2230.42
451.254	2219.57
451.628	2267.48
452.002	2288.5
452.376	2269.06
452.75	2335.28
453.123	2346.12
453.497	2406.01
453.871	2398.33
454.244	2439
454.618	2452.11
454.992	2494.6
455.365	2505.44
455.739	2530.53
456.112	2588.15
456.486	2562.84
456.859	2596.74
457.232	2638.55
457.606	2665.21
457.979	2692.33
458.352	2744.53
458.725	2755.61
459.099	2790.86
459.472	2834.47
459.845	2856.85
460.218	2878.77
460.591	2919.44
460.964	2904.3
461.337	2964.19
461.71	3008.25
462.083	3053.22
462.456	3099.78
462.829	3145.2
463.201	3167.8
463.574	3156.95
463.947	3214.12
464.32	3265.87
464.692	3269.49
465.065	3318.98
465.438	3362.82
465.81	3390.39
466.183	3440.56
466.555	3524.62
466.928	3555.58
467.3	3562.36
467.672	3608.46
468.045	3643.72
468.417	3693.66
468.789	3702.93
469.161	3717.84
469.534	3822.24
469.906	3860.44
470.278	3890.72
470.65	3935.24
471.022	4031.5
471.394	4041.67
471.766	4131.61
472.138	4183.14
472.51	4250.26
472.882	4311.27
473.253	4341.55
473.625	4403.25
473.997	4464.26
474.369	4502.45
474.74	4555.33
475.112	4631.94
475.484	4749
475.855	4812.27
476.227	4873.06
476.598	4977.24
476.97	5028.99
477.341	5105.37
477.713	5155.32
478.084	5241.64
478.455	5302.66
478.827	5380.17
479.198	5573.38
479.569	5555.98
479.94	5681.4
480.311	5741.06
480.682	5935.86
481.053	6033.03
481.424	6112.13
481.795	6140.6
482.166	6252.24
482.537	6287.26
482.908	6479.12
483.279	6530.42
483.65	6677.54
484.021	6780.13
484.391	6841.15
484.762	6856.29
485.133	6983.06
485.503	7055.61
485.874	7214.7
486.244	7253.34
486.615	7407.46
486.985	7505.09
487.356	7667.11
487.726	7654.23
488.097	7867.11
488.467	7846.55
488.837	8098.97
489.207	8150.72
489.578	8243.37
489.948	8347.77
490.318	8492.86
490.688	8458.73
491.058	8590.03
491.428	8718.16
491.798	8799.51
492.168	8993.63
492.538	9040.86
492.908	9091.03
493.278	9314.53
493.648	9303
494.017	9400.85
494.387	9496.22
494.757	9553.39
495.126	9743.22
495.496	9666.84
495.866	9838.81
496.235	9965.81
496.605	9977.56
496.974	10069.31
497.344	10148.18
497.713	10250.1
498.082	10318.57
498.452	10451.22
498.821	10502.52
499.19	10568.28
499.559	10650.31
499.928	10730.99
500.298	10771.67
500.667	10872.45
501.036	10876.52
501.405	10979.57
501.774	11036.52
502.143	11164.2
502.512	11173.01
502.88	11318.09
503.249	11319.22
503.618	11331.43
503.987	11489.16
504.356	11608.93
504.724	11633.34
505.093	11743.84
505.462	11731.41
505.83	11864.97
506.199	11966.44
506.567	12129.6
506.936	12036.04
507.304	12260.21
507.672	12307.22
508.041	12388.57
508.409	12457.95
508.777	12580.21
509.145	12663.14
509.514	12718.73
509.882	12908.11
510.25	12878.5
510.618	12953.3
510.986	13028.33
511.354	13177.48
511.722	13254.54
512.09	13418.6
512.458	13417.02
512.826	13548.99
513.193	13622.44
513.561	13679.16
513.929	13840.29
514.297	13970.45
514.664	14085.03
515.032	14113.27
515.4	14245.92
515.767	14266.26
516.135	14396.43
516.502	14355.98
516.869	14664.9
517.237	14665.12
517.604	14709.64
517.972	14822.86
518.339	14952.12
518.706	15010.2
519.073	15164.77
519.44	15204.77
519.808	15411.32
520.175	15360.7
520.542	15627.58
520.909	15665.32
521.276	15744.64
521.643	15857.63
522.009	15974.02
522.376	16143.73
522.743	16209.26
523.11	16485.87
523.477	16615.81
523.843	16729.02
524.21	16816.48
524.577	16988.68
524.943	17032.29
525.31	17233.64
525.676	17366.97
526.043	17502.56
526.409	17585.95
526.776	17742.33
527.142	17771.48
527.508	17946.17
527.874	18139.83
528.241	18178.25
528.607	18224.35
528.973	18469.99
529.339	18410.56
529.705	18557.22
530.071	18621.4
530.437	18889.87
530.803	18988.4
531.169	19065.91
531.535	19074.95
531.901	19111.79
532.267	19316.75
532.632	19465.67
532.998	19487.82
533.364	19648.27
533.73	19752.22
534.095	19836.96
534.461	19913.35
534.826	20089.61
535.192	20116.96
535.557	20257.97
535.923	20269.04
536.288	20369.61
536.653	20439.43
537.019	20471.52
537.384	20595.14
537.749	20716.04
538.114	20736.15
538.479	20809.14
538.845	20939.53
539.21	20831.74
539.575	21083.03
539.94	21198.96
540.305	21235.57
540.67	21199.64
541.034	21427.2
541.399	21439.18
541.764	21548.33
542.129	21606.86
542.494	21741.1
542.858	21829.68
543.223	21841.43
543.587	21908.77
543.952	21932.95
544.316	22051.37
544.681	22082.78
545.045	22123.23
545.41	22317.13
545.774	22330.68
546.138	22405.94
546.503	22407.29
546.867	22533.84
547.231	22722.31
547.595	22746.94
547.959	22747.85
548.324	22810.45
548.688	22876.66
549.052	22980.61
549.416	23130.89
549.779	23102.42
550.143	23143.54
550.507	23409.98
550.871	23500.6
551.235	23437.55
551.599	23605.68
551.962	23712.57
552.326	23826.46
552.689	24016.06
553.053	23795.96
553.417	23958.66
553.78	24260.35
554.143	24146.91
554.507	24353.91
554.87	24362.04
555.234	24679.1
555.597	24512.55
555.96	24571.76
556.323	24732.43
556.686	24798.42
557.05	25006.77
557.413	25160.89
557.776	25164.28
558.139	25356.82
558.502	25486.08
558.865	25487.21
559.228	25649.69
559.59	25812.17
559.953	25819.41
560.316	26082.68
560.679	26078.83
561.041	26286.51
561.404	26530.57
561.767	26564.47
562.129	26520.63
562.492	26752.49
562.854	26816.44
563.217	26923.33
563.579	26934.4
563.941	27157.22
564.304	27213.72
564.666	27350.89
565.028	27528.51
565.39	27548.17
565.753	27822.29
566.115	27864.32
566.477	27961.95
566.839	28136.41
567.201	28195.39
567.563	28243.52
567.925	28530.75
568.287	28372.56
568.648	28603.06
569.01	28743.4
569.372	28951.98
569.734	28742.94
570.095	29002.15
570.457	29095.7
570.819	29184.52
571.18	29248.92
571.542	29482.36
571.903	29413.44
572.265	29631.06
572.626	29540.21
572.987	29755.8
573.349	29760.55
573.71	29804.39
574.071	30029.92
574.432	30023.36
574.794	30224.26
575.155	30272.85
575.516	30187.65
575.877	30399.85
576.238	30393.3
576.599	30521.88
576.96	30522.79
577.32	30608.88
577.681	30676.45
578.042	30761.42
578.403	30660.86
578.763	30820.4
579.124	30816.34
579.485	30899.72
579.845	31042.55
580.206	30926.84
580.566	31061.3
580.927	31104.01
581.287	31293.39
581.648	31068.31
582.008	31251.81
582.368	31096.33
582.728	31219.49
583.089	31101.3
583.449	31306.04
583.809	31345.81
584.169	31320.5
584.529	31138.36
584.889	31485.25
585.249	31157.12
585.609	31254.29
585.969	31566.15
586.329	31234.4
586.688	31328.64
587.048	31310.11
587.408	31286.61
587.768	31400.5
588.127	31385.14
588.487	31275.76
588.846	31566.15
589.206	31379.03
589.565	31319.6
589.925	31608.63
590.284	31445.02
590.643	31504
591.003	31545.36
591.362	31590.55
591.721	31492.25
592.08	31606.37
592.44	31693.15
592.799	31584
593.158	31636.88
593.517	31662.64
593.876	31674.17
594.235	31718.01
594.593	31632.81
594.952	31668.52
595.311	31538.8
595.67	31683.21
596.029	31796.65
596.387	31744.22
596.746	31853.37
597.104	31648.18
597.463	31685.47
597.822	31802.98
598.18	31656.99
598.538	31767.72
598.897	31851.34
599.255	31672.36
599.613	32079.58
599.972	31799.81
600.33	31914.61
600.688	31788.51
601.046	31988.96
601.404	32201.84
601.762	32087.49
602.12	32336.52
602.478	32310.99
602.836	32265.56
603.194	32134.49
603.552	32273.25
603.91	32132.69
604.268	32305.34
604.625	32213.14
604.983	32319.35
605.341	32111.22
605.698	32376.75
606.056	32376.3
606.413	32267.15
606.771	32423.98
607.128	32422.62
607.485	32412.68
607.843	32448.38
608.2	32608.83
608.557	32655.38
608.914	32582.84
609.272	32694.48
609.629	32779.9
609.986	32896.28
610.343	32727.92
610.7	32967.24
611.057	32930.18
611.414	32863.97
611.771	32835.27
612.127	33095.6
612.484	33057.18
612.841	33008.82
613.198	32996.84
613.554	33063.96
613.911	33206.33
614.267	33281.36
614.624	33162.26
614.98	33169.95
615.337	33324.75
615.693	33325.65
616.05	33211.3
616.406	33437.74
616.762	33228.7
617.118	33225.09
617.475	33362.48
617.831	33521.12
618.187	33458.98
618.543	33457.4
618.899	33750.5
619.255	33503.27
619.611	33578.75
619.967	33725.64
620.323	33701.01
620.678	33631.18
621.034	33505.31
621.39	33484.29
621.746	33544.85
622.101	33977.61
622.457	33540.56
622.812	33635.92
623.168	33810.61
623.523	33722.25
623.879	33841.12
624.234	33654.68
624.589	33661.69
624.945	33861.45
625.3	33852.87
625.655	33669.59
626.01	33801.34
626.365	33781.23
626.72	33736.26
627.075	33667.34
627.43	33599.77
627.785	33607.22
628.14	33658.97
628.495	33619.88
628.85	33695.13
629.205	33476.83
629.559	33773.55
629.914	33501.01
630.269	33515.25
630.623	33431.64
630.978	33416.72
631.332	33478.87
631.687	33566.55
632.041	33367.23
632.396	33437.28
632.75	33326.55
633.104	33327.68
633.459	33206.1
633.813	33113.23
634.167	33107.58
634.521	33154.13
634.875	33273.45
635.229	33103.51
635.583	32984.19
635.937	32962.49
636.291	33049.72
636.645	33025.77
636.999	32909.84
637.352	32945.09
637.706	32824.65
638.06	32833.01
638.413	32622.62
638.767	32654.25
639.121	32680.47
639.474	32485.67
639.828	32402.06
640.181	32635.95
640.534	32445.22
640.888	32385.33
641.241	32299.01
641.594	32281.61
641.947	32435.73
642.301	32251.78
642.654	32250.2
643.007	32315.51
643.36	32174.94
643.713	32113.48
644.066	32291.1
644.419	32008.62
644.771	31796.42
645.124	31625.58
645.477	31512.36
645.83	31221.75
646.182	31086.39
646.535	31019.72
646.888	31221.52
647.24	30905.37
647.593	31153.05
647.945	30957.58
648.298	30851.36
648.65	30866.05
649.002	30792.16
649.355	30808.65
649.707	30845.94
650.059	30975.2
650.411	31319.15
650.763	31298.13
651.115	31698.57
651.467	31432.59
651.819	31480.27
652.171	31299.94
652.523	31429.88
652.875	31315.53
653.227	31359.15
653.578	31443.44
653.93	31362.31
654.282	31099.27
654.633	31198.47
654.985	31090.91
655.337	31029.21
655.688	31045.94
656.039	31181.75
656.391	30876.45
656.742	31022.43
657.094	30985.15
657.445	31028.53
657.796	30783.34
658.147	30933.17
658.498	30986.5
658.849	30882.1
659.2	30800.07
659.551	30831.7
659.902	30948.31
660.253	30820.4
660.604	30752.38
660.955	30781.54
661.306	30806.85
661.656	30689.56
662.007	30640.07
662.358	30527.53
662.708	30693.18
663.059	30706.51
663.409	30365.95
663.76	30597.13
664.11	30673.97
664.461	30573.63
664.811	30521.2
665.161	30649.79
665.511	30475.1
665.862	30468.32
666.212	30659.96
666.562	30624.93
666.912	30501.54
667.262	30520.07
667.612	30476.68
667.962	30415.44
668.312	30406.63
668.662	30549.22
669.011	30544.71
669.361	30391.94
669.711	30392.84
670.06	30399.17
670.41	30238.27
670.76	30208.89
671.109	30283.7
671.459	30201.89
671.808	30120.31
672.157	30281.44
672.507	30103.14
672.856	30050.93
673.205	30096.36
673.554	30326.41
673.904	30184.26
674.253	30186.07
674.602	30141.78
674.951	29686.2
675.3	29488.46
675.649	30031.95
675.998	29968
676.346	29906.3
676.695	30060.2
677.044	29667.67
677.393	29886.64
677.741	29991.5
678.09	29724.39
678.438	29746.99
678.787	29700.66
679.135	29736.37
679.484	29541.34
679.832	29777.72
680.181	29558.29
680.529	29513.09
680.877	29499.99
681.225	29430.61
681.573	29566.2
681.922	29432.64
682.27	29280.33
682.618	29341.57
682.966	29226.1
683.314	29275.59
683.661	29226.1
684.009	29098.64
684.357	28998.76
684.705	29008.25
685.053	28979.32
685.4	28994.46
685.748	28740.68
686.095	28787.92
686.443	28688.71
686.79	28551.31
687.138	28690.74
687.485	28603.29
687.832	28492.33
688.18	28530.52
688.527	28347.02
688.874	28358.32
689.221	28195.16
689.568	28190.42
689.915	28039.69
690.262	28035.84
690.609	28057.99
690.956	28026.58
691.303	27908.16
691.65	27818.45
691.997	27765.8
692.344	27688.28
692.69	27619.58
693.037	27590.43
693.383	27465.01
693.73	27487.38
694.077	27318.35
694.423	27305.47
694.769	27229.09
695.116	27189.77
695.462	27086.04
695.808	26992.48
696.155	27153.61
696.501	26771.02
696.847	26714.3
697.193	26616
697.539	26678.14
697.885	26532.83
698.231	26438.15
698.577	26458.03
698.923	26506.62
699.269	26390.24
699.614	26252.39
699.96	26184.82
700.306	26141.66
700.651	25946.86
700.997	25864.15
701.342	25907.31
701.688	25957.26
702.033	25691.95
702.379	25675
702.724	25623.48
703.069	25745.96
703.415	25440.43
703.76	25472.75
704.105	25457.83
704.45	25364.05
704.795	25242.47
705.14	25118.18
705.485	24999.77
705.83	24981.24
706.175	25081.8
706.52	24868.92
706.865	24781.24
707.209	24754.12
707.554	24691.75
707.899	24752.32
708.243	24679.55
708.588	24612.88
708.932	24440.23
709.277	24396.62
709.621	24431.87
709.966	24249.73
710.31	24367.92
710.654	24091.32
710.998	24048.15
711.342	24171.77
711.687	24015.84
712.031	23894.94
712.375	23903.75
712.719	23963.86
713.063	23902.62
713.407	23875.05
713.75	23731.1
714.094	23686.81
714.438	23580.14
714.782	23628.73
715.125	23508.96
715.469	23528.39
715.812	23382.41
716.156	23364.1
716.499	23316.19
716.843	23404.55
717.186	23131.79
717.53	23297.66
717.873	23242.98
718.216	23135.86
718.559	22926.37
718.902	22897.45
719.246	22963.89
719.589	22885.7
719.932	22803.89
720.275	22885.7
720.617	22810.67
720.96	22787.85
721.303	22738.36
721.646	22674.4
721.989	22697
722.331	22595.76
722.674	22596.67
723.016	22621.07
723.359	22552.6
723.701	22523.45
724.044	22364.36
724.386	22247.97
724.729	22346.95
725.071	22329.33
725.413	22284.81
725.755	22202.78
726.097	22140.63
726.439	22021.77
726.782	22063.8
727.124	22163.46
727.465	21945.16
727.807	21894.54
728.149	21860.64
728.491	21959.85
728.833	21871.94
729.175	21753.3
729.516	21800.98
729.858	21806.63
730.199	21648.22
730.541	21672.62
730.882	21629.46
731.224	21767.08
731.565	21492.29
731.906	21499.52
732.248	21544.49
732.589	21407.09
732.93	21316.7
733.271	21352.63
733.612	21247.1
733.953	21303.37
734.294	21225.4
734.635	21250.26
734.976	21203.26
735.317	21125.07
735.658	21201.67
735.999	21088.46
736.339	21088.23
736.68	21068.57
737.021	21035.58
737.361	20897.73
737.702	21053.66
738.042	20994.22
738.383	21029.48
738.723	20852.76
739.063	20780.44
739.404	20965.07
739.744	20816.37
740.084	20713.78
740.424	20748.58
740.764	20790.16
741.104	20660.22
741.444	20658.64
741.784	20565.53
742.124	20640.33
742.464	20537.51
742.804	20438.3
743.143	20425.88
743.483	20437.85
743.823	20431.3
744.162	20340
744.502	20271.98
744.841	20332.32
745.181	20271.98
745.52	20211.19
745.86	20224.3
746.199	20156.05
746.538	20135.49
746.877	20126.22
747.216	20168.71
747.556	20082.38
747.895	20010.29
748.234	19935.72
748.573	19835.16
748.911	19866.57
749.25	19901.37
749.589	19826.8
749.928	19775.27
750.267	19737.98
750.605	19624.99
750.944	19634.94
751.283	19568.04
751.621	19648.72
751.96	19523.53
752.298	19530.76
752.636	19502.51
752.975	19309.52
753.313	19406.47
753.651	19337.99
753.989	19211.44
754.327	19347.71
754.666	19145.23
