Data from White_paper_FLMS001491_033.txt Node
Date: Tue Feb 07 10:35:00 GMT 2017
User: dcchb
Spectrometer: FLMS00149
Trigger mode: 0
Integration Time (sec): 2.000000E-2
Scans to average: 10
Electric dark correction enabled: true
Nonlinearity correction enabled: false
Boxcar width: 0
XAxis mode: Wavelengths
Number of Pixels in Spectrum: 2048
>>>>>Begin Spectral Data<<<<<
341.393	-30.48
341.776	-30.48
342.16	-30.48
342.543	-77.03
342.927	-74.32
343.31	-76.58
343.693	-73.42
344.077	-75.45
344.46	-44.49
344.843	-58.95
345.226	-51.72
345.61	-14.66
345.993	-25.73
346.376	-12.4
346.759	7.26
347.142	28.28
347.525	37.32
347.908	62.85
348.291	63.3
348.674	116.86
349.057	117.54
349.44	125.67
349.823	112.57
350.206	161.61
350.588	226.24
350.971	258.33
351.354	252.23
351.737	257.87
352.119	282.73
352.502	288.38
352.884	298.1
353.267	319.34
353.65	326.35
354.032	322.05
354.414	344.43
354.797	334.71
355.179	353.92
355.562	340.81
355.944	370.87
356.326	370.87
356.709	378.78
357.091	354.6
357.473	380.81
357.855	351.88
358.238	368.83
358.62	371.09
359.002	358.44
359.384	351.66
359.766	385.55
360.148	396.18
360.53	368.61
360.912	378.1
361.294	370.87
361.676	350.53
362.057	377.65
362.439	347.36
362.821	381.04
363.203	353.47
363.584	366.57
363.966	365.89
364.348	374.03
364.729	362.96
365.111	374.03
365.493	363.63
365.874	361.37
366.256	353.47
366.637	349.85
367.019	360.24
367.4	354.37
367.781	355.5
368.163	360.47
368.544	385.55
368.925	351.66
369.306	354.82
369.688	377.19
370.069	367.7
370.45	351.43
370.831	359.57
371.212	360.7
371.593	356.63
371.974	370.64
372.355	368.38
372.736	372.9
373.117	381.26
373.498	361.83
373.879	389.4
374.26	376.52
374.641	365.67
375.021	371.54
375.402	386.46
375.783	386.68
376.163	406.8
376.544	407.25
376.925	391.2
377.305	386.91
377.686	417.19
378.066	408.61
378.447	393.69
378.827	393.24
379.208	411.09
379.588	423.52
379.968	402.28
380.349	386.46
380.729	440.47
381.109	381.71
381.489	422.16
381.87	438.89
382.25	436.17
382.63	402.73
383.01	413.12
383.39	428.04
383.77	435.05
384.15	430.3
384.53	429.62
384.91	442.28
385.29	439.56
385.67	459.9
386.049	458.1
386.429	456.06
386.809	448.6
387.189	463.07
387.568	475.95
387.948	444.08
388.328	465.78
388.707	492.67
389.087	482.73
389.466	497.19
389.846	481.6
390.225	505.33
390.605	502.16
390.984	528.15
391.363	519.56
391.743	513.69
392.122	509.85
392.501	530.86
392.881	538.32
393.26	545.78
393.639	545.1
394.018	548.49
394.397	539.45
394.776	537.42
395.155	571.09
395.534	574.25
395.913	545.78
396.292	568.83
396.671	627.58
397.05	604.53
397.429	593.46
397.808	597.07
398.186	602.5
398.565	605.44
398.944	619.9
399.323	619
399.701	638.2
400.08	654.02
400.458	653.12
400.837	660.12
401.215	671.2
401.594	662.61
401.972	691.99
402.351	694.7
402.729	715.26
403.107	709.39
403.486	731.99
403.864	731.53
404.242	757.97
404.62	774.47
404.999	767.69
405.377	773.12
405.755	805.88
406.133	817.18
406.511	850.63
406.889	841.14
407.267	847.46
407.645	892.21
408.023	887.69
408.401	923.39
408.779	957.74
409.156	943.73
409.534	995.93
409.912	1003.62
410.29	1046.33
410.667	1042.94
411.045	1089.72
411.422	1098.76
411.8	1118.64
412.178	1161.35
412.555	1189.6
412.933	1212.88
413.31	1260.33
413.687	1271.41
414.065	1298.07
414.442	1313.89
414.819	1353.66
415.197	1368.81
415.574	1418.52
415.951	1440.67
416.328	1479.09
416.705	1484.06
417.082	1494.45
417.46	1524.73
417.837	1571.51
418.214	1581
418.591	1610.61
418.967	1630.95
419.344	1671.85
419.721	1723.6
420.098	1728.34
420.475	1727.44
420.852	1757.5
421.228	1801.56
421.605	1829.81
421.982	1846.99
422.358	1879.3
422.735	1915.01
423.111	1912.97
423.488	1940.77
423.864	1980.09
424.241	2011.27
424.617	2003.82
424.994	2040.43
425.37	2063.02
425.746	2116.36
426.123	2140.99
426.499	2122.46
426.875	2169.24
427.251	2207.43
427.627	2246.07
428.003	2287.65
428.379	2366.97
428.756	2354.99
429.132	2379.85
429.507	2467.99
429.883	2441.09
430.259	2519.51
430.635	2523.58
431.011	2585.72
431.387	2594.54
431.763	2642.9
432.138	2686.29
432.514	2749.79
432.89	2752.05
433.265	2805.38
433.641	2830.69
434.016	2870.69
434.392	2943.23
434.767	2966.73
435.143	2983.23
435.518	3035.65
435.894	3052.15
436.269	3097.57
436.644	3135.09
437.02	3199.72
437.395	3174.41
437.77	3287.63
438.145	3302.99
438.52	3341.18
438.895	3386.83
439.271	3413.05
439.646	3461.86
440.021	3495.3
440.395	3487.39
440.77	3466.15
441.145	3551.57
441.52	3568.75
441.895	3580.27
442.27	3636.54
442.645	3645.36
443.019	3691.91
443.394	3694.62
443.769	3710.67
444.143	3725.81
444.518	3789.53
444.892	3780.95
445.267	3809.19
445.641	3845.12
446.016	3823.66
446.39	3889.19
446.764	3896.65
447.139	3912.69
447.513	3942.98
447.887	3934.61
448.262	3991.56
448.636	4049.19
449.01	4074.5
449.384	4078.57
449.758	4133.93
450.132	4182.07
450.506	4191.78
450.88	4222.74
451.254	4239.24
451.628	4332.57
452.002	4388.16
452.376	4420.48
452.75	4425
453.123	4450.98
453.497	4463.19
453.871	4523.07
454.244	4637.19
454.618	4748.15
454.992	4736.85
455.365	4718.32
455.739	4853.91
456.112	4897.75
456.486	4972.1
456.859	4993.12
457.232	5095.49
457.606	5096.84
457.979	5174.58
458.352	5284.64
458.725	5309.72
459.099	5310.62
459.472	5433.56
459.845	5503.16
460.218	5578.41
460.591	5623.16
460.964	5642.37
461.337	5772.31
461.71	5881
462.083	5923.71
462.456	5937.73
462.829	5993.09
463.201	6138.85
463.574	6069.93
463.947	6194.44
464.32	6350.82
464.692	6392.63
465.065	6415.9
465.438	6550.36
465.81	6631.94
466.183	6642.57
466.555	6814.76
466.928	6874.65
467.3	6898.6
467.672	7015.44
468.045	7145.83
468.417	7201.65
468.789	7210.69
469.161	7383.56
469.534	7479.83
469.906	7685.7
470.278	7706.94
470.65	7795.3
471.022	7979.71
471.394	8073.26
471.766	8116.43
472.138	8293.6
472.51	8457.88
472.882	8589.41
473.253	8662.17
473.625	8857.65
473.997	8968.38
474.369	9001.83
474.74	9080.69
475.112	9354.13
475.484	9426.67
475.855	9589.15
476.227	9698.98
476.598	9945.53
476.97	9993.66
477.341	10191.62
477.713	10379.87
478.084	10458.74
478.455	10676.36
478.827	10762.46
479.198	11144.14
479.569	11121.09
479.94	11466.39
480.311	11514.75
480.682	11883.33
481.053	12124.46
481.424	12326.94
481.795	12343.21
482.166	12598.12
482.537	12772.12
482.908	13015.73
483.279	13114.71
483.65	13469.73
484.021	13628.82
484.391	13794.24
484.762	13870.62
485.133	14000.79
485.503	14266.09
485.874	14592.41
486.244	14594.22
486.615	14962.35
486.985	15036.47
487.356	15352.84
487.726	15459.73
488.097	15834.19
488.467	15871.93
488.837	16170.45
489.207	16304.91
489.578	16544
489.948	16693.37
490.318	16949.41
490.688	17003.65
491.058	17216.07
491.428	17551.43
491.798	17644.31
492.168	17942.16
492.538	18065.99
492.908	18253.79
493.278	18421.01
493.648	18440.9
494.017	18771.29
494.387	18951.62
494.757	19043.14
495.126	19342.8
495.496	19401.1
495.866	19592.73
496.235	19700.98
496.605	19857.59
496.974	20024.36
497.344	20161.76
497.713	20320.62
498.082	20386.61
498.452	20591.8
498.821	20847.62
499.19	20780.95
499.559	21126.93
499.928	21090.55
500.298	21274.95
500.667	21470.65
501.036	21453.48
501.405	21744.99
501.774	21670.42
502.143	21932.78
502.512	22012.33
502.88	22295.04
503.249	22273.34
503.618	22386.78
503.987	22556.5
504.356	22637.17
504.724	22848.92
505.093	22979.54
505.462	23060.21
505.83	23363.93
506.199	23409.58
506.567	23664.49
506.936	23763.7
507.304	23921.21
507.672	24020.87
508.041	24156.23
508.409	24282.55
508.777	24619.04
509.145	24702.43
509.514	24694.29
509.882	24900.84
510.25	25033.95
510.618	25210.21
510.986	25321.17
511.354	25505.35
511.722	25852.46
512.09	26068.95
512.458	25847.71
512.826	26248.83
513.193	26333.12
513.561	26494.92
513.929	26681.81
514.297	26849.94
514.664	27032.76
515.032	27225.98
515.4	27432.75
515.767	27523.82
516.135	27691.5
516.502	27691.05
516.869	28024.15
517.237	28077.48
517.604	28069.57
517.972	28490.58
518.339	28637.02
518.706	28700.74
519.073	28917.46
519.44	29016.89
519.808	29278.58
520.175	29248.98
520.542	29672.02
520.909	29849.86
521.276	29983.87
521.643	30244.43
522.009	30514.71
522.376	30648.26
522.743	30893.45
523.11	31185.87
523.477	31441.01
523.843	31613.66
524.21	31905.4
524.577	32065.17
524.943	32231.27
525.31	32374.09
525.676	32744.03
526.043	32807.08
526.409	32984.25
526.776	33324.8
527.142	33393.5
527.508	33648.41
527.874	33861.74
528.241	34160.94
528.607	34134.72
528.973	34548.05
529.339	34477.54
529.705	34690.64
530.071	34992.33
530.437	35300.57
530.803	35561.35
531.169	35681.12
531.535	35630.96
531.901	35873.44
532.267	36046.76
532.632	36449.92
532.998	36385.96
533.364	36674.09
533.73	36665.5
534.095	36983.24
534.461	37034.76
534.826	37286.96
535.192	37559.27
535.557	37700.73
535.923	37663.9
536.288	37919.26
536.653	38067.05
537.019	37996.77
537.384	38296.87
537.749	38453.93
538.114	38508.62
538.479	38579.58
538.845	38732.57
539.21	38764.88
539.575	38962.85
539.94	39064.31
540.305	39372.78
540.67	39337.98
541.034	39467.24
541.399	39690.51
541.764	39681.47
542.129	39928.02
542.494	40025.42
542.858	40268.57
543.223	40216.82
543.587	40544.5
543.952	40506.76
544.316	40832.85
544.681	40602.8
545.045	40981.55
545.41	41216.12
545.774	41156.69
546.138	41277.59
546.503	41482.33
546.867	41366.62
547.231	41902.43
547.595	41967.06
547.959	41972.94
548.324	42069.66
548.688	42144.68
549.052	42289.99
549.416	42390.55
549.779	42530.21
550.143	42656.08
550.507	42854.27
550.871	43119.57
551.235	42968.62
551.599	43299.23
551.962	43377.19
552.326	43554.82
552.689	43891.53
553.053	43677.07
553.417	43830.97
553.78	44288.13
554.143	44209.71
554.507	44397.28
554.87	44611.74
555.234	44822.8
555.597	44700.32
555.96	44953.87
556.323	45011.5
556.686	45141.21
557.05	45450.13
557.413	45602.22
557.776	45701.65
558.139	45861.2
558.502	45858.03
558.865	45981.42
559.228	46350.9
559.59	46311.58
559.953	46429.77
560.316	46886.71
560.679	46825.92
561.041	47048.28
561.404	47321.95
561.767	47478.55
562.129	47339.35
562.492	47766.23
562.854	47799.22
563.217	47834.25
563.579	48008.26
563.941	48205.09
564.304	48361.69
564.666	48672.19
565.028	48607.34
565.39	48911.51
565.753	48981.57
566.115	49168.9
566.477	49399.63
566.839	49462
567.201	49703.13
567.563	49645.28
567.925	49858.83
568.287	49972.05
568.648	49995.32
569.01	50189.44
569.372	50443.22
569.734	50305.37
570.095	50698.13
570.457	50792.59
570.819	50823.1
571.18	50905.13
571.542	51172.47
571.903	51107.61
572.265	51263.99
572.626	51475.06
572.987	51503.98
573.349	51595.51
573.71	51719.8
574.071	51858.55
574.432	51964.54
574.794	52181.03
575.155	52068.04
575.516	51991.43
575.877	52189.16
576.238	52458.99
576.599	52440.68
576.96	52389.61
577.32	52486.33
577.681	52651.07
578.042	52728.59
578.403	52755.03
578.763	52785.53
579.124	52924.06
579.485	53024.17
579.845	53075.24
580.206	53045.64
580.566	52972.65
580.927	53095.81
581.287	53240.66
581.648	53086.99
582.008	53325.18
582.368	53260.1
582.728	53351.85
583.089	53318.4
583.449	53243.37
583.809	53389.58
584.169	53440.66
584.529	53467.32
584.889	53688.56
585.249	53495.57
585.609	53389.36
585.969	53526.53
586.329	53441.79
586.688	53550.71
587.048	53689.92
587.408	53585.96
587.768	53542.8
588.127	53614.66
588.487	53604.72
588.846	53841.32
589.206	53654.21
589.565	53709.58
589.925	53797.03
590.284	53759.74
590.643	53827.54
591.003	53863.7
591.362	54011.04
591.721	53891.04
592.08	53883.81
592.44	54027.99
592.799	54047.87
593.158	53919.06
593.517	53971.94
593.876	54020.3
594.235	53928.33
594.593	54043.13
594.952	54039.74
595.311	53977.14
595.67	54085.39
596.029	54171.26
596.387	54222.33
596.746	54228.21
597.104	54192.5
597.463	54177.81
597.822	54346.4
598.18	54225.95
598.538	54209
598.897	54347.07
599.255	54134.88
599.613	54576.67
599.972	54432.04
600.33	54454.19
600.688	54333.74
601.046	54492.38
601.404	54527.18
601.762	54527.18
602.12	54672.49
602.478	54590.68
602.836	54612.15
603.194	54522.21
603.552	54551.81
603.91	54506.39
604.268	54614.19
604.625	54609.89
604.983	54710.23
605.341	54599.72
605.698	54722.66
606.056	54822.32
606.413	54692.6
606.771	54836.1
607.128	54859.6
607.485	54805.82
607.843	54816.44
608.2	54961.75
608.557	55033.61
608.914	54874.07
609.272	55016.89
609.629	55055.08
609.986	55175.07
610.343	55027.73
610.7	55188.41
611.057	55215.75
611.414	55178.46
611.771	55256.65
612.127	55316.54
612.484	55255.07
612.841	55360.61
613.198	55285.58
613.554	55293.04
613.911	55419.81
614.267	55412.36
614.624	55389.53
614.98	55484.67
615.337	55500.49
615.693	55546.59
616.05	55495.74
616.406	55643.54
616.762	55445.8
617.118	55487.16
617.475	55543.43
617.831	55598.34
618.187	55601.05
618.543	55623.2
618.899	55725.79
619.255	55759.01
619.611	55770.99
619.967	55710.43
620.323	55832.23
620.678	55663.88
621.034	55739.58
621.39	55700.94
621.746	55694.16
622.101	55960.59
622.457	55699.35
622.812	55829.07
623.168	55915.17
623.523	55833.14
623.879	55898.22
624.234	55657.32
624.589	55821.16
624.945	55884.43
625.3	55882.85
625.655	55894.15
626.01	55857.32
626.365	55863.42
626.72	55815.28
627.075	55806.47
627.43	55800.37
627.785	55772.8
628.14	55811.22
628.495	55894.83
628.85	55815.51
629.205	55759.47
629.559	55981.61
629.914	55870.42
630.269	55792.46
630.623	55805.57
630.978	55776.64
631.332	55777.77
631.687	55939.57
632.041	55783.42
632.396	55824.55
632.75	55668.17
633.104	55813.48
633.459	55649.19
633.813	55676.98
634.167	55648.51
634.521	55589.98
634.875	55696.64
635.229	55583.65
635.583	55475.41
635.937	55561.05
636.291	55569.87
636.645	55538
636.999	55490.09
637.352	55548.17
637.706	55389.76
638.06	55541.84
638.413	55445.35
638.767	55433.6
639.121	55480.15
639.474	55325.13
639.828	55343.88
640.181	55416.42
640.534	55396.09
640.888	55298.01
641.241	55129.2
641.594	55298.46
641.947	55339.36
642.301	55277.44
642.654	55279.93
643.007	55234.28
643.36	55266.82
643.713	55139.14
644.066	55172.81
644.419	55036.32
644.771	54909.54
645.124	54623.9
645.477	54620.74
645.83	54464.58
646.182	54349.33
646.535	54290.8
646.888	54401.31
647.24	54272.27
647.593	54396.34
647.945	54284.93
648.298	54147.53
648.65	54091.71
649.002	54131.94
649.355	54183.69
649.707	54092.17
650.059	54329.22
650.411	54616.22
650.763	54637.69
651.115	54903.9
651.467	54832.94
651.819	54808.3
652.171	54800.17
652.523	54670
652.875	54681.98
653.227	54672.49
653.578	54836.55
653.93	54716.78
654.282	54594.98
654.633	54522.21
654.985	54639.95
655.337	54658.03
655.688	54598.37
656.039	54651.92
656.391	54430.01
656.742	54475.88
657.094	54523.57
657.445	54658.7
657.796	54517.46
658.147	54551.14
658.498	54535.77
658.849	54525.15
659.2	54478.14
659.551	54433.4
659.902	54489.89
660.253	54432.95
660.604	54454.19
660.955	54419.84
661.306	54429.33
661.656	54522.21
662.007	54394.53
662.358	54381.88
662.708	54380.29
663.059	54427.07
663.409	54225.95
663.76	54443.79
664.11	54290.58
664.461	54386.62
664.811	54368.54
665.161	54312.95
665.511	54247.87
665.862	54244.25
666.212	54221.2
666.562	54312.5
666.912	54287.87
667.262	54177.13
667.612	54195.89
667.962	54255.55
668.312	54223.46
668.662	54298.04
669.011	54132.62
669.361	54088.1
669.711	54133.07
670.06	54072.05
670.41	54035.9
670.76	53927.88
671.109	54085.16
671.459	54015.33
671.808	53959.06
672.157	54020.3
672.507	53821.44
672.856	53825.51
673.205	53825.28
673.554	53927.88
673.904	53795
674.253	53885.84
674.602	53814.21
674.951	53419.19
675.3	53240.44
675.649	53741.44
675.998	53689.92
676.346	53716.36
676.695	53807.2
677.044	53507.77
677.393	53623.7
677.741	53668
678.09	53541.22
678.438	53540.54
678.787	53420.77
679.135	53521.33
679.484	53194.34
679.832	53335.12
680.181	53166.31
680.529	53317.04
680.877	53190.04
681.225	53192.3
681.573	53268.23
681.922	53032.53
682.27	52933.78
682.618	52947.34
682.966	53012.65
683.314	53065.98
683.661	52863.5
684.009	52777.62
684.357	52646.33
684.705	52588.7
685.053	52689.49
685.4	52586.89
685.748	52415.6
686.095	52399.33
686.443	52191.42
686.79	52191.88
687.138	52232.55
687.485	52176.28
687.832	52118.43
688.18	52138.32
688.527	51885.9
688.874	51851.32
689.221	51861.04
689.568	51752.34
689.915	51653.13
690.262	51557.77
690.609	51511.67
690.956	51418.34
691.303	51343.76
691.65	51181.28
691.997	51169.3
692.344	50925.02
692.69	50939.48
693.037	51025.58
693.383	50619.94
693.73	50860.39
694.077	50586.95
694.423	50417.01
694.769	50479.83
695.116	50411.81
695.462	50213.85
695.808	50155.09
696.155	50295.2
696.501	49970.92
696.847	49851.82
697.193	49651.15
697.539	49836.01
697.885	49610.7
698.231	49469.01
698.577	49501.1
698.923	49434.21
699.269	49160.54
699.614	49028.12
699.96	49024.28
700.306	48947.67
700.651	48731.63
700.997	48762.36
701.342	48648.01
701.688	48600.33
702.033	48498.41
702.379	48459.09
702.724	48393.78
703.069	48419.09
703.415	47869.05
703.76	47999.44
704.105	48043.51
704.45	47918.09
704.795	47690.3
705.14	47620.47
705.485	47442.4
705.83	47246.47
706.175	47448.05
706.52	47114.27
706.865	47144.55
707.209	46976.87
707.554	46907.95
707.899	46979.36
708.243	46755.18
708.588	46823.2
708.932	46536.43
709.277	46466.6
709.621	46458.24
709.966	46273.84
710.31	46314.97
710.654	45952.27
710.998	46012.83
711.342	46108.19
711.687	46016.67
712.031	45704.59
712.375	45649.68
712.719	45685.83
713.063	45648.55
713.407	45717.02
713.75	45501.2
714.094	45479.74
714.438	45257.14
714.782	45289.23
715.125	45034.78
715.469	45236.35
715.812	44986.87
716.156	44852.63
716.499	44663.03
716.843	44876.59
717.186	44588.69
717.53	44701.45
717.873	44704.39
718.216	44624.39
718.559	44357.73
718.902	44098.76
719.246	44266.89
719.589	44045.2
719.932	43936.95
720.275	43947.12
720.617	43898.31
720.96	43923.17
721.303	43840.68
721.646	43766.56
721.989	43592.55
722.331	43699.9
722.674	43397.31
723.016	43542.61
723.359	43493.35
723.701	43597.75
724.044	43102.62
724.386	43132.23
724.729	43262.39
725.071	43106.47
725.413	43060.82
725.755	43165.67
726.097	42824.66
726.439	42716.87
726.782	42647.72
727.124	42886.58
727.465	42438.91
727.807	42570.66
728.149	42353.49
728.491	42442.75
728.833	42438.69
729.175	42190.56
729.516	42239.37
729.858	42074.4
730.199	42089.54
730.541	42140.84
730.882	41998.25
731.224	42099.26
731.565	41916.21
731.906	41873.96
732.248	41876.67
732.589	41638.26
732.93	41578.37
733.271	41631.25
733.612	41685.26
733.953	41671.47
734.294	41463.12
734.635	41431.93
734.976	41396.23
735.317	41226.97
735.658	41134.31
735.999	41193.52
736.339	41073.98
736.68	41254.54
737.021	40956.92
737.361	40744.04
737.702	40985.62
738.042	40885.51
738.383	40783.14
738.723	40697.26
739.063	40711.95
739.404	40804.15
739.744	40621.33
740.084	40571.39
740.424	40515.8
740.764	40280.78
741.104	40482.35
741.444	40325.97
741.784	40170.05
742.124	40273.77
742.464	40256.82
742.804	40159.88
743.143	40107.9
743.483	39915.36
743.823	39991.29
744.162	39819.77
744.502	39933.89
744.841	39770.06
745.181	39862.71
745.52	39783.16
745.86	39781.58
746.199	39548.59
746.538	39632.21
746.877	39670.4
747.216	39610.06
747.556	39472.21
747.895	39485.77
748.234	39224.31
748.573	39140.47
748.911	39165.78
749.25	39185.21
749.589	38997.87
749.928	39040.58
750.267	39018.21
750.605	38927.14
750.944	38754.26
751.283	38712
751.621	38741.16
751.96	38532.12
752.298	38514.27
752.636	38667.26
752.975	38311.79
