Data from white_poster_card_FLMS001491_00065.txt Node
Date: Wed Feb 08 11:51:51 GMT 2017
User: dcchb
Spectrometer: FLMS00149
Trigger mode: 0
Integration Time (sec): 2.000000E-2
Scans to average: 10
Electric dark correction enabled: true
Nonlinearity correction enabled: false
Boxcar width: 0
XAxis mode: Wavelengths
Number of Pixels in Spectrum: 2048
>>>>>Begin Spectral Data<<<<<
341.393	-22.94
341.776	-22.94
342.16	-22.94
342.543	-78.98
342.927	-73.11
343.31	-64.97
343.693	-62.71
344.077	-52.54
344.46	-64.07
344.843	-82.6
345.226	-57.29
345.61	-35.82
345.993	-33.33
346.376	-3.95
346.759	17.51
347.142	17.51
347.525	50.96
347.908	81.01
348.291	67.91
348.674	100.9
349.057	121.47
349.44	118.98
349.823	145.19
350.206	180.22
350.588	196.49
350.971	221.8
351.354	211.18
351.737	238.52
352.119	235.36
352.502	259.09
352.884	271.97
353.267	293.21
353.65	299.77
354.032	289.82
354.414	297.73
354.797	329.37
355.179	315.36
355.562	332.76
355.944	319.2
356.326	341.8
356.709	300.67
357.091	362.59
357.473	350.39
357.855	356.94
358.238	352.42
358.62	352.87
359.002	328.24
359.384	344.96
359.766	335.47
360.148	351.52
360.53	336.6
360.912	336.6
361.294	332.99
361.676	328.01
362.057	319.43
362.439	314.68
362.821	340.67
363.203	335.47
363.584	338.64
363.966	314.68
364.348	315.13
364.729	316.94
365.111	296.83
365.493	311.74
365.874	321.69
366.256	313.78
366.637	300.67
367.019	312.87
367.4	312.87
367.781	314.68
368.163	317.84
368.544	312.87
368.925	292.08
369.306	335.02
369.688	319.88
370.069	314.46
370.45	303.16
370.831	311.97
371.212	304.51
371.593	322.36
371.974	318.07
372.355	317.39
372.736	338.41
373.117	334.34
373.498	316.49
373.879	315.58
374.26	334.57
374.641	307.45
375.021	327.79
375.402	316.04
375.783	332.08
376.163	311.29
376.544	328.01
376.925	341.57
377.305	329.37
377.686	337.05
378.066	344.51
378.447	342.7
378.827	333.66
379.208	322.82
379.588	344.28
379.968	339.09
380.349	330.95
380.729	323.27
381.109	308.35
381.489	341.57
381.87	345.19
382.25	349.48
382.63	332.76
383.01	339.77
383.39	371.4
383.77	359.65
384.15	363.49
384.53	350.39
384.91	358.07
385.29	366.43
385.67	373.21
386.049	358.75
386.429	352.19
386.809	353.1
387.189	374.34
387.568	379.09
387.948	366.66
388.328	366.43
388.707	369.14
389.087	396.03
389.466	385.87
389.846	377.96
390.225	378.41
390.605	386.77
390.984	408.69
391.363	399.42
391.743	393.32
392.122	373.44
392.501	413.21
392.881	405.98
393.26	412.31
393.639	401.46
394.018	417.73
394.397	401.01
394.776	401.46
395.155	417.28
395.534	409.14
395.913	420.44
396.292	422.02
396.671	420.44
397.05	436.49
397.429	411.18
397.808	426.54
398.186	422.7
398.565	436.49
398.944	445.98
399.323	441.91
399.701	435.81
400.08	455.24
400.458	446.43
400.837	458.41
401.215	461.8
401.594	457.73
401.972	462.7
402.351	451.4
402.729	454.11
403.107	474.45
403.486	482.13
403.864	470.38
404.242	480.78
404.62	494.56
404.999	486.65
405.377	489.59
405.755	516.03
406.133	497.73
406.511	493.21
406.889	520.1
407.267	497.05
407.645	543.83
408.023	544.28
408.401	550.16
408.779	567.56
409.156	577.5
409.534	584.96
409.912	602.81
410.29	611.62
410.667	614.56
411.045	641.68
411.422	622.24
411.8	621.79
412.178	650.27
412.555	664.73
412.933	685.74
413.31	700.89
413.687	689.81
414.065	701.56
414.442	741.34
414.819	763.26
415.197	796.25
415.574	776.14
415.951	793.54
416.328	806.42
416.705	828.11
417.082	829.02
417.46	844.84
417.837	866.3
418.214	845.06
418.591	888.23
418.967	925.74
419.344	934.1
419.721	938.85
420.098	926.42
420.475	947.21
420.852	964.83
421.228	973.19
421.605	996.47
421.982	996.7
422.358	1037.6
422.735	1080.31
423.111	1032.85
423.488	1101.55
423.864	1091.38
424.241	1109.91
424.617	1121.89
424.994	1133.87
425.37	1146.75
425.746	1147.43
426.123	1190.14
426.499	1169.35
426.875	1172.74
427.251	1207.31
427.627	1233.3
428.003	1251.83
428.379	1289.12
428.756	1286.63
429.132	1339.74
429.507	1331.15
429.883	1349
430.259	1402.56
430.635	1389.45
431.011	1398.49
431.387	1438.49
431.763	1483.46
432.138	1496.57
432.514	1505.16
432.89	1509.9
433.265	1533.41
433.641	1578.38
434.016	1576.57
434.392	1629.9
434.767	1640.52
435.143	1619.28
435.518	1649.11
435.894	1694.98
436.269	1684.36
436.644	1717.81
437.02	1761.65
437.395	1761.42
437.77	1774.76
438.145	1834.42
438.52	1823.12
438.895	1861.53
439.271	1850.46
439.646	1885.26
440.021	1877.35
440.395	1894.98
440.77	1891.14
441.145	1911.48
441.52	1943.56
441.895	1946.95
442.27	1959.38
442.645	1944.92
443.019	2005.94
443.394	2004.13
443.769	2025.82
444.143	1989.67
444.518	2062.66
444.892	2015.65
445.267	2069.66
445.641	2087.74
446.016	2093.39
446.39	2095.2
446.764	2111.7
447.139	2132.71
447.513	2185.37
447.887	2142.88
448.262	2156.67
448.636	2196.67
449.01	2215.87
449.384	2241.41
449.758	2268.08
450.132	2278.02
450.506	2329.32
450.88	2280.51
451.254	2301.97
451.628	2372.25
452.002	2355.53
452.376	2369.09
452.75	2377.45
453.123	2407.73
453.497	2467.62
453.871	2482.31
454.244	2512.82
454.618	2515.3
454.992	2566.6
455.365	2619.03
455.739	2591.23
456.112	2623.55
456.486	2661.06
456.859	2677.78
457.232	2719.14
457.606	2734.96
457.979	2780.83
458.352	2815.86
458.725	2856.99
459.099	2857.44
459.472	2939.92
459.845	2914.16
460.218	2986.93
460.591	3003.42
460.964	3036.87
461.337	3125.91
461.71	3113.93
462.083	3184.89
462.456	3218.56
462.829	3189.63
463.201	3252
463.574	3249.97
463.947	3346.24
464.32	3372.91
464.692	3338.1
465.065	3393.47
465.438	3451.32
465.81	3527.25
466.183	3546.46
466.555	3626.01
466.928	3633.24
467.3	3684.99
467.672	3733.35
468.045	3836.4
468.417	3860.8
468.789	3882.5
469.161	3905.1
469.534	3964.75
469.906	4024.87
470.278	4078.65
470.65	4096.95
471.022	4205.2
471.394	4266.22
471.766	4273.9
472.138	4371.52
472.51	4401.35
472.882	4470.73
473.253	4502.59
473.625	4592.08
473.997	4730.38
474.369	4713.66
474.74	4779.2
475.112	4810.38
475.484	4968.12
475.855	5051.28
476.227	5047.66
476.598	5178.51
476.97	5230.94
477.341	5355.23
477.713	5375.11
478.084	5399.97
478.455	5540.53
478.827	5638.38
479.198	5759.28
479.569	5764.26
479.94	5931.26
480.311	5965.38
480.682	6132.16
481.053	6274.75
481.424	6315.65
481.795	6401.07
482.166	6532.82
482.537	6584.57
482.908	6738.69
483.279	6781.63
483.65	6892.81
484.021	7049.65
484.391	7137.78
484.762	7172.81
485.133	7276.76
485.503	7313.37
485.874	7530.08
486.244	7582.51
486.615	7741.15
486.985	7815.05
487.356	7978.43
487.726	8067.02
488.097	8302.04
488.467	8260.01
488.837	8433.11
489.207	8476.95
489.578	8645.99
489.948	8702.94
490.318	8857.96
490.688	8838.07
491.058	9047.33
491.428	9041.68
491.798	9238.06
492.168	9379.53
492.538	9467.66
492.908	9545.62
493.278	9644.61
493.648	9612.52
494.017	9818.16
494.387	9911.72
494.757	10025.16
495.126	10088.44
495.496	10140.19
495.866	10206.62
496.235	10289.11
496.605	10409.56
496.974	10516.67
497.344	10655.88
497.713	10720.51
498.082	10745.37
498.452	10780.62
498.821	10940.62
499.19	10968.64
499.559	11117.56
499.928	11119.59
500.298	11193.72
500.667	11329.98
501.036	11347.61
501.405	11505.35
501.774	11478.23
502.143	11658.79
502.512	11652.91
502.88	11822.4
503.249	11818.33
503.618	11936.07
503.987	12025.11
504.356	12056.97
504.724	12262.62
505.093	12245.89
505.462	12354.59
505.83	12414.48
506.199	12519.33
506.567	12619.67
506.936	12593.91
507.304	12771.98
507.672	12868.48
508.041	12969.94
508.409	13026.44
508.777	13156.6
509.145	13171.29
509.514	13364.28
509.882	13323.38
510.25	13429.36
510.618	13505.75
510.986	13569.47
511.354	13791.16
511.722	13832.52
512.09	13981.67
512.458	13995.45
512.826	14147.99
513.193	14178.27
513.561	14264.14
513.929	14415.33
514.297	14500.3
514.664	14724.25
515.032	14702.78
515.4	14827.07
515.767	14911.81
516.135	14982.09
516.502	14940.96
516.869	15290.11
517.237	15413.49
517.604	15244.46
517.972	15536.2
518.339	15597.22
518.706	15765.35
519.073	15799.92
519.44	15921.05
519.808	16061.39
520.175	16025.68
520.542	16290.08
520.909	16425.22
521.276	16477.65
521.643	16633.35
522.009	16771.65
522.376	16758.99
522.743	16991.53
523.11	17200.34
523.477	17347.23
523.843	17360.33
524.21	17619.31
524.577	17718.29
524.943	17800.1
525.31	18028.11
525.676	18171.39
526.043	18230.59
526.409	18252.29
526.776	18622.9
527.142	18588.55
527.508	18714.2
527.874	18858.15
528.241	18908.54
528.607	19091.59
528.973	19204.35
529.339	19255.88
529.705	19423.33
530.071	19580.16
530.437	19662.87
530.803	19860.38
531.169	19994.16
531.535	19939.02
531.901	20038.23
532.267	20152.58
532.632	20324.78
532.998	20361.84
533.364	20512.12
533.73	20701.94
534.095	20778.32
534.461	20835.05
534.826	20911.43
535.192	21019.45
535.557	21147.81
535.923	21218.09
536.288	21308.25
536.653	21450.62
537.019	21418.98
537.384	21578.3
537.749	21747.56
538.114	21732.87
538.479	21743.27
538.845	21853.78
539.21	21953.66
539.575	21956.37
539.94	22073.2
540.305	22164.5
540.67	22284.27
541.034	22224.39
541.399	22424.83
541.764	22550.48
542.129	22619.63
542.494	22633.64
542.858	22733.98
543.223	22765.62
543.587	22931.71
543.952	22916.57
544.316	23037.02
544.681	23040.64
545.045	23167.41
545.41	23238.37
545.774	23321.76
546.138	23430.46
546.503	23427.52
546.867	23493.51
547.231	23751.8
547.595	23731.47
547.959	23865.7
548.324	23898.69
548.688	23797.91
549.052	24014.4
549.416	24126.71
549.779	24192.7
550.143	24252.13
550.507	24400.15
550.871	24559.69
551.235	24625.68
551.599	24802.17
551.962	24727.82
552.326	24836.52
552.689	25010.75
553.053	24883.75
553.417	24966.24
553.78	25330.75
554.143	25199.68
554.507	25263.63
554.87	25427.92
555.234	25759.66
555.597	25641.02
555.96	25796.5
556.323	25926.44
556.686	25898.42
557.05	26184.96
557.413	26122.36
557.776	26221.8
558.139	26445.75
558.502	26463.37
558.865	26561.9
559.228	26840.99
559.59	26870.37
559.953	27006.63
560.316	27201.21
560.679	27243.69
561.041	27385.38
561.404	27518.71
561.767	27610.46
562.129	27594.19
562.492	27978.36
562.854	27932.26
563.217	28080.5
563.579	28093.16
563.941	28221.74
564.304	28451.12
564.666	28499.25
565.028	28555.75
565.39	28826.02
565.753	28986.92
566.115	28902.63
566.477	29089.07
566.839	29173.58
567.201	29418.55
567.563	29370.64
567.925	29671.42
568.287	29608.15
568.648	29682.27
569.01	29896.95
569.372	30159.77
569.734	30005.2
570.095	30207
570.457	30451.52
570.819	30487.22
571.18	30460.56
571.542	30666.2
571.903	30543.94
572.265	30884.05
572.626	30869.81
572.987	30971.73
573.349	31009.92
573.71	31164.72
574.071	31302.79
574.432	31296.24
574.794	31677.25
575.155	31575.78
575.516	31452.62
575.877	31604.25
576.238	31661.2
576.599	31928.76
576.96	31792.5
577.32	31875.89
577.681	32060.29
578.042	32103
578.403	32107.29
578.763	32099.61
579.124	32287.4
579.485	32257.57
579.845	32444.01
580.206	32432.48
580.566	32281.3
580.927	32434.51
581.287	32415.53
581.648	32500.05
582.008	32615.3
582.368	32470.67
582.728	32601.52
583.089	32582.53
583.449	32613.72
583.809	32627.96
584.169	32683.77
584.529	32619.37
584.889	32744.56
585.249	32674.28
585.609	32630.89
585.969	32744.79
586.329	32619.59
586.688	32788.63
587.048	32723.09
587.408	32636.09
587.768	32868.18
588.127	32811.23
588.487	32747.73
588.846	32859.59
589.206	32632.48
589.565	32742.08
589.925	32812.58
590.284	32729.42
590.643	32768.52
591.003	32891
591.362	32890.1
591.721	32993.6
592.08	33011
592.44	32878.34
592.799	33075.18
593.158	32856.42
593.517	32912.24
593.876	32963.31
594.235	32978.91
594.593	33001.96
594.952	33119.47
595.311	32930.32
595.67	33104.1
596.029	33254.15
596.387	33151.56
596.746	33358.11
597.104	33157.21
597.463	33037.89
597.822	33300.71
598.18	33103.42
598.538	33037.44
598.897	33309.97
599.255	33088.51
599.613	33539.8
599.972	33346.58
600.33	33454.83
600.688	33243.08
601.046	33501.38
601.404	33449.4
601.762	33595.16
602.12	33624.31
602.478	33521.04
602.836	33741.6
603.194	33527.37
603.552	33646.01
603.91	33529.85
604.268	33656.18
604.625	33567.82
604.983	33720.36
605.341	33471.32
605.698	33749.06
606.056	33825.44
606.413	33737.76
606.771	33950.86
607.128	33935.27
607.485	33790.41
607.843	33948.37
608.2	34064.3
608.557	34167.35
608.914	34030.4
609.272	34097.52
609.629	34214.58
609.986	34443.73
610.343	34196.28
610.7	34389.94
611.057	34280.79
611.414	34397.85
611.771	34287.57
612.127	34391.75
612.484	34525.53
612.841	34513.56
613.198	34364.18
613.554	34530.05
613.911	34674.91
614.267	34609.82
614.624	34582.25
614.98	34612.31
615.337	34799.2
615.693	34637.85
616.05	34699.77
616.406	34991.96
616.762	34683.95
617.118	34842.59
617.475	34887.33
617.831	34909.93
618.187	34848.46
618.543	34984.73
618.899	35064.5
619.255	35083.71
619.611	35010.72
619.967	35127.32
620.323	35224.5
620.678	35091.39
621.034	35016.37
621.39	35024.95
621.746	34973.88
622.101	35446.41
622.457	35114.67
622.812	35093.43
623.168	35259.07
623.523	35170.49
623.879	35318.96
624.234	35130.04
624.589	35165.06
624.945	35131.17
625.3	35170.26
625.655	35184.05
626.01	35273.54
626.365	35273.31
626.72	35217.49
627.075	35141.34
627.43	35126.42
627.785	34881.23
628.14	35088.91
628.495	35158.96
628.85	35203.71
629.205	34958.29
629.559	35199.41
629.914	35023.37
630.269	35066.31
630.623	34905.86
630.978	34971.85
631.332	34883.26
631.687	35005.52
632.041	34846.2
632.396	34900.21
632.75	34732.31
633.104	34700.44
633.459	34560.33
633.813	34575.25
634.167	34645.76
634.521	34542.71
634.875	34589.03
635.229	34509.26
635.583	34443.28
635.937	34535.48
636.291	34478.53
636.645	34411.41
636.999	34354.69
637.352	34404.63
637.706	34127.35
638.06	34330.28
638.413	34127.13
638.767	34100.69
639.121	34137.29
639.474	33964.42
639.828	33899.11
640.181	33946.34
640.534	33966.68
640.888	33869.5
641.241	33660.47
641.594	33801.71
641.947	33809.62
642.301	33777.98
642.654	33806.23
643.007	33624.31
643.36	33675.39
643.713	33611.43
644.066	33700.7
644.419	33472.23
644.771	33189.52
645.124	32952.01
645.477	32874.28
645.83	32766.94
646.182	32687.84
646.535	32505.25
646.888	32539.6
647.24	32347.96
647.593	32469.09
647.945	32489.2
648.298	32210.57
648.65	32090.57
649.002	32068.42
649.355	32230.9
649.707	32016.9
650.059	32323.1
650.411	32579.37
650.763	32615.07
651.115	33018.68
651.467	32867.27
651.819	32922.41
652.171	32705.24
652.523	32754.51
652.875	32726.03
653.227	32522.42
653.578	32730.33
653.93	32610.33
654.282	32515.87
654.633	32377.79
654.985	32503.44
655.337	32460.05
655.688	32456.21
656.039	32521.52
656.391	32214.41
656.742	32239.04
657.094	32333.95
657.445	32391.8
657.796	32296.66
658.147	32098.93
658.498	32069.33
658.849	32170.79
659.2	32078.59
659.551	32143.22
659.902	32272.71
660.253	32089.21
660.604	32171.47
660.955	31993.4
661.306	32063.45
661.656	32008.08
662.007	32011.02
662.358	32017.58
662.708	32168.31
663.059	32039.95
663.409	31861.42
663.76	32159.49
664.11	32039.5
664.461	31935.09
664.811	32032.94
665.161	31984.81
665.511	31807.19
665.862	31853.51
666.212	31888.09
666.562	31924.7
666.912	31813.29
667.262	31922.44
667.612	31884.92
667.962	31759.73
668.312	31704.59
668.662	31940.74
669.011	31784.36
669.361	31663.46
669.711	31707.08
670.06	31679.28
670.41	31567.19
670.76	31590.02
671.109	31639.96
671.459	31488.55
671.808	31496.46
672.157	31545.27
672.507	31380.3
672.856	31408.78
673.205	31450.81
673.554	31494.65
673.904	31515.89
674.253	31485.16
674.602	31382.11
674.951	30840.21
675.3	30803.6
675.649	31267.99
675.998	31204.04
676.346	31259.4
676.695	31371.94
677.044	31114.55
677.393	31141.67
677.741	31233.19
678.09	31172.4
678.438	31089.69
678.787	31058.96
679.135	31027.32
679.484	30862.35
679.832	30928.11
680.181	30787.55
680.529	30910.26
680.877	30752.07
681.225	30756.59
681.573	30922.92
681.922	30658.97
682.27	30529.71
682.618	30412.19
682.966	30474.57
683.314	30624.39
683.661	30526.99
684.009	30224.4
684.357	30344.85
684.705	30282.48
685.053	30371.29
685.4	30196.61
685.748	29979.21
686.095	30080.9
686.443	29818.54
686.79	29815.6
687.138	29926.78
687.485	29798.2
687.832	29735.83
688.18	29806.11
688.527	29682.5
688.874	29554.59
689.221	29460.36
689.568	29480.24
689.915	29316.63
690.262	29432.79
690.609	29205.45
690.956	29115.73
691.303	29157.09
691.65	28919.58
691.997	28994.6
692.344	28801.84
692.69	28815.85
693.037	28737.66
693.383	28556.42
693.73	28763.65
694.077	28458.57
694.423	28498.57
694.769	28405.92
695.116	28257.22
695.462	28214.51
695.808	28165.93
696.155	28303.78
696.501	27944.01
696.847	27978.81
697.193	27750.34
697.539	27947.4
697.885	27698.59
698.231	27594.64
698.577	27490.92
698.923	27510.58
699.269	27465.15
699.614	27346.06
699.96	27267.87
700.306	27162.79
700.651	27082.79
700.997	26970.03
701.342	26952.62
701.688	26944.94
702.033	26747.66
702.379	26771.39
702.724	26911.04
703.069	26982.91
703.415	26559.64
703.76	26445.75
704.105	26589.24
704.45	26448.01
704.795	26260.67
705.14	26347.44
705.485	26184.96
705.83	26206.88
706.175	26086.88
706.52	26024.97
706.865	25939.77
707.209	25937.06
707.554	25706.33
707.899	25798.53
708.243	25677.63
708.588	25669.72
708.932	25402.16
709.277	25451.87
709.621	25336.17
709.966	25276.06
710.31	25392.21
710.654	25048.04
710.998	25224.76
711.342	25295.27
711.687	25064.09
712.031	24964.2
712.375	24900.25
712.719	24936.63
713.063	24906.8
713.407	24916.75
713.75	24751.55
714.094	24824.09
714.438	24608.05
714.782	24667.04
715.125	24519.92
715.469	24662.06
715.812	24495.06
716.156	24396.53
716.499	24391.56
716.843	24463.2
717.186	24249.64
717.53	24202.64
717.873	24322.41
718.216	24207.39
718.559	24126.03
718.902	23933.49
719.246	23940.73
719.589	23827.28
719.932	23813.5
720.275	23788.19
720.617	23784.12
720.96	23832.71
721.303	23699.38
721.646	23713.61
721.989	23564.92
722.331	23666.61
722.674	23607.4
723.016	23642.43
723.359	23623.9
723.701	23422.1
724.044	23384.36
724.386	23334.64
724.729	23348.88
725.071	23295.09
725.413	23193.18
725.755	23199.95
726.097	23087.87
726.439	22970.81
726.782	23076.79
727.124	23140.97
727.465	22996.12
727.807	22925.16
728.149	22961.32
728.491	22835.67
728.833	22825.73
729.175	22826.41
729.516	22708.22
729.858	22732.17
730.199	22680.87
730.541	22738.05
730.882	22610.14
731.224	22698.05
731.565	22438.17
731.906	22517.71
732.248	22503.7
732.589	22412.18
732.93	22270.94
733.271	22292.86
733.612	22362.01
733.953	22318.4
734.294	22209.7
734.635	22219.19
734.976	22257.83
735.317	22126.08
735.658	22155.46
735.999	22136.71
736.339	22018.29
736.68	22041.12
737.021	21969.93
737.361	21840.67
737.702	21997.05
738.042	21868.69
738.383	21791.86
738.723	21802.25
739.063	21793.89
739.404	21769.03
739.744	21812.19
740.084	21643.84
740.424	21704.18
740.764	21690.39
741.104	21654.91
741.444	21465.09
741.784	21424.86
742.124	21535.14
742.464	21444.29
742.804	21344.86
743.143	21263.96
743.483	21365.2
743.823	21264.19
744.162	21214.24
744.502	21198.43
744.841	21132.89
745.181	21216.28
745.52	21061.03
745.86	21125.21
746.199	21027.13
746.538	21004.76
746.877	21030.07
747.216	21006.79
747.556	21045.66
747.895	20989.84
748.234	20838.89
748.573	20686.12
748.911	20816.97
749.25	20817.19
749.589	20638.44
749.928	20738.78
750.267	20668.27
750.605	20655.62
750.944	20557.54
751.283	20560.93
751.621	20541.72
751.96	20407.49
752.298	20372.01
752.636	20411.78
752.975	20270.54
753.313	20285.91
753.651	20342.63
753.989	20244.1
