Data from white_steel_sheet_FLMS001491_072.txt Node
Date: Tue Feb 07 10:58:26 GMT 2017
User: dcchb
Spectrometer: FLMS00149
Trigger mode: 0
Integration Time (sec): 2.000000E-2
Scans to average: 10
Electric dark correction enabled: true
Nonlinearity correction enabled: false
Boxcar width: 0
XAxis mode: Wavelengths
Number of Pixels in Spectrum: 2048
>>>>>Begin Spectral Data<<<<<
341.393	-19.87
341.776	-19.87
342.16	-19.87
342.543	-60.1
342.927	-71.85
343.31	-69.36
343.693	-75.69
344.077	-56.48
344.46	-63.26
344.843	-50.15
345.226	-64.62
345.61	-29.82
345.993	-26.43
346.376	-10.16
346.759	37.53
347.142	27.36
347.525	44.08
347.908	63.97
348.291	73.91
348.674	95.38
349.057	103.74
349.44	143.97
349.823	144.87
350.206	184.64
350.588	199.33
350.971	219.22
351.354	247.47
351.737	240.46
352.119	249.73
352.502	271.65
352.884	289.95
353.267	297.18
353.65	305.54
354.032	309.61
354.414	342.38
354.797	317.97
355.179	327.24
355.562	316.39
355.944	337.18
356.326	313.45
356.709	358.42
357.091	352.77
357.473	358.42
357.855	329.95
358.238	342.83
358.62	356.61
359.002	341.47
359.384	351.87
359.766	353.9
360.148	344.86
360.53	355.94
360.912	356.84
361.294	334.69
361.676	330.85
362.057	368.82
362.439	341.93
362.821	348.03
363.203	356.84
363.584	355.71
363.966	349.16
364.348	337.41
364.729	356.39
365.111	352.1
365.493	340.57
365.874	333.34
366.256	357.97
366.637	335.37
367.019	341.25
367.4	322.94
367.781	327.69
368.163	353
368.544	309.38
368.925	338.99
369.306	326.11
369.688	329.72
370.069	329.72
370.45	331.53
370.831	336.28
371.212	321.81
371.593	327.92
371.974	334.24
372.355	337.41
372.736	349.38
373.117	355.49
373.498	334.69
373.879	347.12
374.26	329.05
374.641	332.21
375.021	339.67
375.402	325.66
375.783	342.38
376.163	374.24
376.544	350.29
376.925	355.71
377.305	357.07
377.686	353.68
378.066	357.07
378.447	347.8
378.827	337.63
379.208	356.39
379.588	360.46
379.968	371.08
380.349	366.78
380.729	357.74
381.109	387.57
381.489	370.17
381.87	383.73
382.25	383.73
382.63	378.54
383.01	386.22
383.39	382.6
383.77	363.17
384.15	388.48
384.53	388.93
384.91	392.09
385.29	394.35
385.67	408.59
386.049	391.64
386.429	395.94
386.809	402.94
387.189	399.33
387.568	403.39
387.948	404.52
388.328	426.67
388.707	418.53
389.087	425.31
389.466	430.51
389.846	426.44
390.225	441.36
390.605	445.88
390.984	442.71
391.363	441.36
391.743	459.89
392.122	470.96
392.501	447.91
392.881	471.41
393.26	470.06
393.639	473.67
394.018	478.87
394.397	494.92
394.776	488.81
395.155	493.79
395.534	521.13
395.913	503.73
396.292	528.59
396.671	496.05
397.05	508.7
397.429	538.31
397.808	531.75
398.186	535.82
398.565	537.63
398.944	556.38
399.323	546.89
399.701	575.82
400.08	564.52
400.458	547.57
400.837	601.81
401.215	587.8
401.594	583.05
401.972	604.29
402.351	614.01
402.729	640.9
403.107	638.42
403.486	650.84
403.864	644.06
404.242	635.48
404.62	693.33
404.999	684.06
405.377	708.24
405.755	699.43
406.133	699.66
406.511	707.79
406.889	737.4
407.267	745.08
407.645	743.72
408.023	733.33
408.401	780.11
408.779	780.33
409.156	796.15
409.534	798.86
409.912	829.14
410.29	831.4
410.667	844.29
411.045	869.6
411.422	879.31
411.8	876.15
412.178	898.97
412.555	910.5
412.933	942.81
413.31	937.62
413.687	956.37
414.065	985.98
414.442	951.63
414.819	1000.21
415.197	1034.11
415.574	1028.91
415.951	1035.24
416.328	1045.86
416.705	1042.02
417.082	1060.78
417.46	1053.09
417.837	1109.36
418.214	1078.86
418.591	1093.32
418.967	1122.02
419.344	1131.06
419.721	1139.87
420.098	1137.84
420.475	1157.95
420.852	1180.55
421.228	1215.58
421.605	1215.58
421.982	1224.16
422.358	1246.76
422.735	1228.91
423.111	1251.96
423.488	1246.31
423.864	1275.01
424.241	1309.58
424.617	1307.55
424.994	1327.44
425.37	1340.77
425.746	1371.73
426.123	1398.4
426.499	1359.07
426.875	1416.02
427.251	1431.39
427.627	1433.42
428.003	1459.86
428.379	1473.42
428.756	1496.25
429.132	1535.34
429.507	1515
429.883	1578.96
430.259	1569.92
430.635	1602.68
431.011	1635
431.387	1687.88
431.763	1673.64
432.138	1686.3
432.514	1710.03
432.89	1749.35
433.265	1732.4
433.641	1800.64
434.016	1778.5
434.392	1829.12
434.767	1866.86
435.143	1860.3
435.518	1892.85
435.894	1912.96
436.269	1925.39
436.644	1957.48
437.02	1966.06
437.395	1966.06
437.77	2006.74
438.145	2025.72
438.52	2065.27
438.895	2113.86
439.271	2098.49
439.646	2133.29
440.021	2166.74
440.395	2170.58
440.77	2140.52
441.145	2183.69
441.52	2217.36
441.895	2250.58
442.27	2236.11
442.645	2242.67
443.019	2281.31
443.394	2291.48
443.769	2323.57
444.143	2316.79
444.518	2357.01
444.892	2362.89
445.267	2404.7
445.641	2422.1
446.016	2432.94
446.39	2444.24
446.764	2464.81
447.139	2477.24
447.513	2501.64
447.887	2519.95
448.262	2532.83
448.636	2557.91
449.01	2601.98
449.384	2619.83
449.758	2631.13
450.132	2688.53
450.506	2661.64
450.88	2698.25
451.254	2698.7
451.628	2752.71
452.002	2779.6
452.376	2827.74
452.75	2823.89
453.123	2837.45
453.497	2937.11
453.871	2959.03
454.244	2959.94
454.618	3001.74
454.992	3032.48
455.365	3034.96
455.739	3072.48
456.112	3152.02
456.486	3151.57
456.859	3175.3
457.232	3246.71
457.606	3254.84
457.979	3291.23
458.352	3382.3
458.725	3441.96
459.099	3441.05
459.472	3467.72
459.845	3543.65
460.218	3564.21
460.591	3612.8
460.964	3626.81
461.337	3659.58
461.71	3794.26
462.083	3834.04
462.456	3837.65
462.829	3829.97
463.201	3882.17
463.574	3920.36
463.947	3981.6
464.32	4102.28
464.692	4051.43
465.065	4137.98
465.438	4196.29
465.81	4239.68
466.183	4330.52
466.555	4383.18
466.928	4409.39
467.3	4420.01
467.672	4476.28
468.045	4585.66
468.417	4590.4
468.789	4619.55
469.161	4787.68
469.534	4796.27
469.906	4867.91
470.278	4924.86
470.65	5010.05
471.022	5062.03
471.394	5125.98
471.766	5219.76
472.138	5294.11
472.51	5396.48
472.882	5424.96
473.253	5501.34
473.625	5620.66
473.997	5718.06
474.369	5757.15
474.74	5807.55
475.112	5906.07
475.484	6021.55
475.855	6116.01
476.227	6124.6
476.598	6344.71
476.97	6399.85
477.341	6557.13
477.713	6680.74
478.084	6757.12
478.455	6879.16
478.827	6962.54
479.198	7113.73
479.569	7164.12
479.94	7319.6
480.311	7417.9
480.682	7609.98
481.053	7753.48
481.424	7903.76
481.795	7948.28
482.166	8089.97
482.537	8199.12
482.908	8325.44
483.279	8463.07
483.65	8644.31
484.021	8776.05
484.391	8870.52
484.762	8937.63
485.133	9051.53
485.503	9193.9
485.874	9359.09
486.244	9467.11
486.615	9628.46
486.985	9742.36
487.356	9930.6
487.726	9988.23
488.097	10298.5
488.467	10284.04
488.837	10482.22
489.207	10647.87
489.578	10732.84
489.948	10827.07
490.318	11037.69
490.688	11116.78
491.058	11257.35
491.428	11390.68
491.798	11501.18
492.168	11736.65
492.538	11823.66
492.908	11952.24
493.278	12072.69
493.648	12225.91
494.017	12313.59
494.387	12388.61
494.757	12474.94
495.126	12632.45
495.496	12766.91
495.866	12851.65
496.235	12998.77
496.605	13094.36
496.974	13234.02
497.344	13287.8
497.713	13462.26
498.082	13474.91
498.452	13644.63
498.821	13714.68
499.19	13860.89
499.559	13874
499.928	14046.88
500.298	14196.48
500.667	14315.57
501.036	14300.2
501.405	14495.68
501.774	14476.92
502.143	14704.49
502.512	14678.95
502.88	14847.08
503.249	14959.85
503.618	15122.78
503.987	15150.58
504.356	15240.97
504.724	15284.81
505.093	15419.27
505.462	15504.92
505.83	15599.6
506.199	15790.33
506.567	15988.97
506.936	15971.35
507.304	16181.28
507.672	16306.25
508.041	16371.11
508.409	16516.42
508.777	16705.11
509.145	16771.32
509.514	16824.88
509.882	16973.58
510.25	16982.84
510.618	17170.41
510.986	17266.9
511.354	17390.29
511.722	17502.38
512.09	17712.77
512.458	17823.73
512.826	17818.98
513.193	18056.71
513.561	18080.89
513.929	18314.33
514.297	18527.44
514.664	18605.17
515.032	18771.27
515.4	18918.39
515.767	18894.43
516.135	19105.73
516.502	19024.37
516.869	19446.06
517.237	19381.88
517.604	19442.89
517.972	19793.39
518.339	19831.81
518.706	20002.88
519.073	20024.8
519.44	20216.21
519.808	20549.76
520.175	20467.5
520.542	20774.61
520.909	20926.7
521.276	20900.26
521.643	21210.3
522.009	21359
522.376	21456.4
522.743	21588.15
523.11	21904.97
523.477	22185.19
523.843	22272.42
524.21	22469.03
524.577	22611.17
524.943	22618.85
525.31	22860.43
525.676	23165.05
526.043	23307.2
526.409	23316.69
526.776	23628.32
527.142	23636.91
527.508	23867.64
527.874	24021.53
528.241	24234.18
528.607	24278.92
528.973	24509.2
529.339	24563.66
529.705	24825.58
530.071	24979.92
530.437	25044.55
530.803	25305.56
531.169	25471.89
531.535	25455.84
531.901	25535.16
532.267	25814.48
532.632	25959.33
532.998	26080.91
533.364	26214.92
533.73	26286.1
534.095	26411.52
534.461	26541.46
534.826	26644.74
535.192	26798.63
535.557	26953.43
535.923	27065.52
536.288	27146.19
536.653	27313.65
537.019	27253.08
537.384	27450.14
537.749	27633.41
538.114	27614.88
538.479	27758.38
538.845	27830.24
539.21	27845.38
539.575	28039.95
539.94	28045.38
540.305	28315.2
540.67	28255.99
541.034	28273.85
541.399	28678.13
541.764	28641.97
542.129	28680.16
542.494	28838.35
542.858	29018.69
543.223	29006.94
543.587	29248.74
543.952	29198.79
544.316	29323.99
544.681	29291.45
545.045	29484.89
545.41	29592.23
545.774	29782.06
546.138	29730.98
546.503	29754.26
546.867	29886.01
547.231	30157.41
547.595	30156.51
547.959	30291.65
548.324	30450.96
548.688	30539.78
549.052	30646.67
549.416	30717.85
549.779	30798.75
550.143	30829.03
550.507	31069.25
550.871	31220.21
551.235	31214.11
551.599	31380.43
551.962	31526.19
552.326	31434.89
552.689	31776.13
553.053	31709.01
553.417	31754.89
553.78	32191.48
554.143	31973.18
554.507	32314.42
554.87	32312.84
555.234	32611.81
555.597	32455.66
555.96	32690.91
556.323	32863.56
556.686	32913.5
557.05	33094.06
557.413	33174.06
557.776	33294.05
558.139	33514.84
558.502	33570.43
558.865	33694.27
559.228	33827.83
559.59	34042.28
559.953	34024.88
560.316	34407.02
560.679	34334.7
561.041	34811.98
561.404	34650.85
561.767	35001.58
562.129	34842.26
562.492	35206.77
562.854	35221.46
563.217	35213.1
563.579	35512.98
563.941	35710.04
564.304	35766.31
564.666	35963.36
565.028	36074.09
565.39	36219.17
565.753	36416.68
566.115	36635.44
566.477	36704.59
566.839	36829.55
567.201	37090.34
567.563	37008.31
567.925	37287.85
568.287	37234.52
568.648	37348.18
569.01	37531
569.372	37734.84
569.734	37772.81
570.095	38091.22
570.457	38151.78
570.819	38204.89
571.18	38348.61
571.542	38539.34
571.903	38419.79
572.265	38692.78
572.626	38723.29
572.987	38779.33
573.349	38862.27
573.71	39019.1
574.071	39129.83
574.432	39254.12
574.794	39583.83
575.155	39412.99
575.516	39375.7
575.877	39671.74
576.238	39768.01
576.599	39635.58
576.96	39718.29
577.32	39777.05
577.681	39947.66
578.042	40050.71
578.403	40106.3
578.763	40107.43
579.124	40145.63
579.485	40238.73
579.845	40357.15
580.206	40264.04
580.566	40322.57
580.927	40289.8
581.287	40575.67
581.648	40353.98
582.008	40523.02
582.368	40492.06
582.728	40587.2
583.089	40577.7
583.449	40516.46
583.809	40592.62
584.169	40743.12
584.529	40574.31
584.889	40854.53
585.249	40509.68
585.609	40453.41
585.969	40752.16
586.329	40694.31
586.688	40692.05
587.048	40698.61
587.408	40683.24
587.768	40658.15
588.127	40732.5
588.487	40513.98
588.846	40878.94
589.206	40558.72
589.565	40644.14
589.925	40797.13
590.284	40676.91
590.643	40609.57
591.003	40738.38
591.362	40916.45
591.721	40796.68
592.08	40789.9
592.44	40859.05
592.799	40821.31
593.158	40831.26
593.517	40803.69
593.876	40843.91
594.235	40694.31
594.593	40770.47
594.952	40907.19
595.311	40757.13
595.67	40942.67
596.029	40978.82
596.387	41038.71
596.746	41147.18
597.104	40978.15
597.463	40996.45
597.822	40950.35
598.18	40830.35
598.538	40813.18
598.897	41067.41
599.255	40715.33
599.613	41257.69
599.972	41011.37
600.33	41074.64
600.688	40975.43
601.046	41127.75
601.404	41169.78
601.762	41180.4
602.12	41324.58
602.478	41272.83
602.836	41264.92
603.194	41091.82
603.552	41169.1
603.91	40942.89
604.268	41244.58
604.625	41046.39
604.983	41326.16
605.341	41139.05
605.698	41246.61
606.056	41480.51
606.413	41361.41
606.771	41541.07
607.128	41565.25
607.485	41418.36
607.843	41449.77
608.2	41638.69
608.557	41685.02
608.914	41553.95
609.272	41713.49
609.629	41928.63
609.986	42068.29
610.343	41734.96
610.7	42158.45
611.057	42010.21
611.414	41922.75
611.771	42152.35
612.127	41944.67
612.484	41994.62
612.841	42238.45
613.198	42070.55
613.554	42207.72
613.911	42468.73
614.267	42359.58
614.624	42411.33
614.98	42409.52
615.337	42549.86
615.693	42516.41
616.05	42560.48
616.406	42717.53
616.762	42488.61
617.118	42582.62
617.475	42503.3
617.831	42736.52
618.187	42717.31
618.543	42682.06
618.899	42981.26
619.255	42942.39
619.611	42858.32
619.967	43077.3
620.323	43090.86
620.678	42831.2
621.034	42903.07
621.39	42786.01
621.746	42767.48
622.101	43298.99
622.457	42982.16
622.812	43093.57
623.168	43182.16
623.523	43053.57
623.879	43259.89
624.234	43043.4
624.589	43102.38
624.945	43108.94
625.3	43157.3
625.655	43065.77
626.01	43196.62
626.365	43118.65
626.72	43084.76
627.075	43050.63
627.43	43042.95
627.785	43052.67
628.14	43087.47
628.495	42971.99
628.85	43188.26
629.205	42936.51
629.559	43204.3
629.914	42914.59
630.269	42901.94
630.623	42880.02
630.978	42864.2
631.332	42905.55
631.687	43112.1
632.041	42836.4
632.396	42869.4
632.75	42728.83
633.104	42833.24
633.459	42572
633.813	42623.98
634.167	42546.92
634.521	42566.13
634.875	42554.83
635.229	42395.51
635.583	42332.01
635.937	42307.83
636.291	42283.65
636.645	42280.94
636.999	42107.38
637.352	42412.91
637.706	41994.16
638.06	42049.76
638.413	41979.25
638.767	41904.68
639.121	41976.31
639.474	41719.82
639.828	41600.5
640.181	41852.92
640.534	41773.83
640.888	41522.09
641.241	41552.82
641.594	41450.22
641.947	41617.22
642.301	41477.34
642.654	41462.88
643.007	41335.42
643.36	41338.59
643.713	41401.19
644.066	41361.86
644.419	41177.24
644.771	40946.06
645.124	40511.94
645.477	40468.78
645.83	40128
646.182	40000.54
646.535	40010.71
646.888	40050.71
647.24	39828.57
647.593	40083.03
647.945	39945.63
648.298	39694.56
648.65	39749.7
649.002	39589.93
649.355	39712.42
649.707	39688.24
650.059	39708.35
650.411	40263.81
650.763	40317.82
651.115	40652.96
651.467	40467.42
651.819	40457.48
652.171	40436.01
652.523	40309.46
652.875	40312.4
653.227	40194.44
653.578	40352.4
653.93	40343.59
654.282	40029.92
654.633	40001.67
654.985	39984.73
655.337	39945.18
655.688	39965.29
656.039	40034.89
656.391	39811.62
656.742	39916.7
657.094	39771.85
657.445	40037.83
657.796	39918.06
658.147	39852.98
658.498	39733.21
658.849	39884.16
659.2	39769.59
659.551	39518.07
659.902	39768.46
660.253	39500.22
660.604	39606.2
660.955	39291.41
661.306	39622.93
661.656	39504.51
662.007	39443.5
662.358	39266.78
662.708	39342.71
663.059	39255.71
663.409	38955.6
663.76	39133
664.11	39111.08
664.461	39115.6
664.811	39098.2
665.161	38985.43
665.511	38903.85
665.862	38982.27
666.212	38841.03
666.562	38800.35
666.912	38631.54
667.262	38642.61
667.612	38392.22
667.962	38457.76
668.312	38456.86
668.662	38540.24
669.011	38226.58
669.361	38109.29
669.711	38051.67
670.06	37930.77
670.41	37744.56
670.76	37719.47
671.109	37818
671.459	37778.91
671.808	37674.5
672.157	37604.45
672.507	37218.92
672.856	37258.24
673.205	37386.83
673.554	37502.98
673.904	37126.5
674.253	37343.66
674.602	37281.75
674.951	36848.31
675.3	36492.61
675.649	37017.57
675.998	36986.61
676.346	36988.65
676.695	37131.47
677.044	36636.79
677.393	36881.76
677.741	36983.67
678.09	36805.83
678.438	36705.94
678.787	36789.78
679.135	36766.96
679.484	36592.27
679.832	36625.27
680.181	36511.6
680.529	36576.68
680.877	36602.22
681.225	36403.8
681.573	36680.41
681.922	36471.6
682.27	36421.88
682.618	36497.36
682.966	36473.18
683.314	36492.84
683.661	36536.91
684.009	36319.29
684.357	36250.36
684.705	36366.97
685.053	36378.94
685.4	36257.14
685.748	36211.49
686.095	36258.04
686.443	36204.26
686.79	36298.72
687.138	36303.47
687.485	36319.51
687.832	36167.2
688.18	36271.38
688.527	36131.04
688.874	36172.85
689.221	36185.5
689.568	36107.99
689.915	35931.72
690.262	35982.8
690.609	35967.2
690.956	35788.9
691.303	35842.01
691.65	35766.53
691.997	35930.59
692.344	35692.18
692.69	35589.13
693.037	35753.2
693.383	35531.74
693.73	35678.4
694.077	35434.56
694.423	35433.66
694.769	35437.5
695.116	35307.11
695.462	35293.1
695.808	35146.21
696.155	35246.09
696.501	35141.91
696.847	35150.28
697.193	34680.68
697.539	35116.6
697.885	34773.11
698.231	34719.78
698.577	34644.53
698.923	34595.04
699.269	34533.34
699.614	34321.6
699.96	34378.55
700.306	34365.89
700.651	34098.78
700.997	34087.25
701.342	34074.37
701.688	34069.17
702.033	33830.99
702.379	33899.24
702.724	33765.45
703.069	33816.98
703.415	33486.82
703.76	33420.6
704.105	33496.31
704.45	33418.8
704.795	33177.9
705.14	33128.18
705.485	33113.04
705.83	32899.71
706.175	32981.07
706.52	32874.63
706.865	32740.62
707.209	32770.45
707.554	32582.21
707.899	32740.17
708.243	32572.72
708.588	32459.95
708.932	32226.96
709.277	32361.42
709.621	32344.47
709.966	32154.42
710.31	32205.27
710.654	31933.19
710.998	31984.48
711.342	32004.14
711.687	32021.09
712.031	31804.15
712.375	31661.55
712.719	31583.14
713.063	31629.24
713.407	31615.23
713.75	31419.08
714.094	31499.98
714.438	31375.01
714.782	31371.84
715.125	31266.99
715.469	31306.76
715.812	31123.94
716.156	30845.98
716.499	31083.26
716.843	31069.71
717.186	30687.34
717.53	30913.78
717.873	30891.63
718.216	30859.77
718.559	30706.55
718.902	30554.24
719.246	30619.1
719.589	30485.54
719.932	30266.34
720.275	30311.53
720.617	30467.91
720.96	30315.83
721.303	30137.07
721.646	30284.42
721.989	30050.52
722.331	30104.31
722.674	30005.78
723.016	30098.66
723.359	30021.15
723.701	29962.84
724.044	29834.03
724.386	29710.42
724.729	29810.76
725.071	29724.88
725.413	29702.74
725.755	29714.26
726.097	29523.98
726.439	29481.95
726.782	29453.03
727.124	29447.83
727.465	29305.01
727.807	29319.24
728.149	29313.14
728.491	29189.98
728.833	29202.41
729.175	29122.86
729.516	29032.47
729.858	28923.77
730.199	28964.9
730.541	28938.69
730.882	28928.07
731.224	28969.2
731.565	28730.78
731.906	28745.7
732.248	28663.44
732.589	28587.96
732.93	28404.24
733.271	28465.48
733.612	28536.44
733.953	28484.46
734.294	28358.14
734.635	28338.93
734.976	28385.48
735.317	28249.21
735.658	28113.63
735.999	28207.86
736.339	28138.26
736.68	28236.56
737.021	27961.09
737.361	27934.42
737.702	28026.17
738.042	28075.89
738.383	27904.14
738.723	27893.74
739.063	27851.49
739.404	27938.49
739.744	27722.9
740.084	27743.01
740.424	27731.04
740.764	27621.43
741.104	27776.91
741.444	27580.98
741.784	27347.77
742.124	27494.43
742.464	27488.1
742.804	27396.36
743.143	27234.78
743.483	27287.43
743.823	27135.8
744.162	27249.92
744.502	27206.08
744.841	27037.04
745.181	27166.98
745.52	26990.49
745.86	27116.14
746.199	27089.02
746.538	26944.62
746.877	26931.74
747.216	26850.83
747.556	26825.98
747.895	26832.75
748.234	26713.21
748.573	26711.63
748.911	26734.68
749.25	26567.23
749.589	26447.23
749.928	26578.07
750.267	26453.78
750.605	26531.07
750.944	26386.21
751.283	26307.35
751.621	26392.31
751.96	26172.43
752.298	26168.14
752.636	26068.71
752.975	26036.84
753.313	25876.85
753.651	25976.51
