Data from whiteboard_FLMS001491_00008.txt Node
Date: Wed Feb 08 11:24:56 GMT 2017
User: dcchb
Spectrometer: FLMS00149
Trigger mode: 0
Integration Time (sec): 2.000000E-2
Scans to average: 10
Electric dark correction enabled: true
Nonlinearity correction enabled: false
Boxcar width: 0
XAxis mode: Wavelengths
Number of Pixels in Spectrum: 2048
>>>>>Begin Spectral Data<<<<<
341.393	-33.9
341.776	-33.9
342.16	-33.9
342.543	-60.56
342.927	-66.21
343.31	-44.74
343.693	-72.99
344.077	-56.5
344.46	-46.33
344.843	-60.56
345.226	-59.43
345.61	-34.58
345.993	-34.58
346.376	-21.69
346.759	8.14
347.142	18.76
347.525	66.66
347.908	54.46
348.291	89.26
348.674	108.7
349.057	85.42
349.44	136.72
349.823	151.63
350.206	166.55
350.588	228.02
350.971	242.71
351.354	259.43
351.737	275.02
352.119	288.13
352.502	278.18
352.884	311.63
353.267	325.19
353.65	311.63
354.032	327.67
354.414	339.65
354.797	346.43
355.179	348.24
355.562	355.7
355.944	357.28
356.326	379.88
356.709	399.09
357.091	371.52
357.473	380.78
357.855	362.48
358.238	359.31
358.62	384.85
359.002	402.25
359.384	381.68
359.766	381.68
360.148	353.89
360.53	388.92
360.912	385.3
361.294	379.2
361.676	360.22
362.057	372.87
362.439	377.17
362.821	371.52
363.203	379.2
363.584	372.19
363.966	378.07
364.348	380.55
364.729	367
365.111	376.49
365.493	384.85
365.874	385.98
366.256	375.58
366.637	348.92
367.019	366.54
367.4	389.14
367.781	378.52
368.163	367.45
368.544	372.87
368.925	368.35
369.306	386.43
369.688	381.91
370.069	375.81
370.45	364.06
370.831	386.66
371.212	421.68
371.593	393.21
371.974	385.98
372.355	389.37
372.736	392.31
373.117	397.96
373.498	374.45
373.879	410.16
374.26	380.55
374.641	403.15
375.021	391.18
375.402	388.69
375.783	411.29
376.163	428.69
376.544	434.34
376.925	425.75
377.305	410.61
377.686	416.26
378.066	406.77
378.447	435.47
378.827	454
379.208	435.02
379.588	435.92
379.968	451.29
380.349	435.47
380.729	440.89
381.109	457.84
381.489	456.26
381.87	454.23
382.25	441.34
382.63	477.95
383.01	472.08
383.39	460.1
383.77	467.78
384.15	479.99
384.53	484.06
384.91	485.86
385.29	483.6
385.67	497.61
386.049	508.91
386.429	496.71
386.809	521.12
387.189	543.04
387.568	519.99
387.948	533.32
388.328	534.22
388.707	524.73
389.087	550.04
389.466	580.55
389.846	556.82
390.225	556.14
390.605	567.89
390.984	572.64
391.363	598.63
391.743	591.4
392.122	593.66
392.501	604.05
392.881	619.64
393.26	616.03
393.639	613.77
394.018	640.89
394.397	638.18
394.776	671.62
395.155	659.42
395.534	640.21
395.913	657.38
396.292	698.29
396.671	683.15
397.05	698.51
397.429	696.48
397.808	715.24
398.186	701.9
398.565	708.91
398.944	718.17
399.323	766.08
399.701	773.31
400.08	780.54
400.458	784.84
400.837	802.24
401.215	813.76
401.594	817.83
401.972	821.45
402.351	853.31
402.729	860.99
403.107	867.77
403.486	884.04
403.864	897.83
404.242	901.45
404.62	922.46
404.999	936.47
405.377	944.61
405.755	962.23
406.133	973.08
406.511	980.09
406.889	1013.08
407.267	1041.1
407.645	1058.5
408.023	1074.55
408.401	1093.76
408.779	1109.8
409.156	1138.5
409.534	1140.53
409.912	1168.33
410.29	1187.54
410.667	1207.43
411.045	1249.01
411.422	1272.96
411.8	1282.68
412.178	1313.19
412.555	1324.48
412.933	1331.94
413.31	1360.64
413.687	1347.99
414.065	1375.33
414.442	1442.67
414.819	1427.53
415.197	1459.17
415.574	1497.59
415.951	1523.35
416.328	1527.64
416.705	1543.24
417.082	1555.44
417.46	1573.52
417.837	1618.71
418.214	1611.03
418.591	1649.45
418.967	1669.56
419.344	1680.63
419.721	1717.02
420.098	1712.72
420.475	1729.67
420.852	1739.62
421.228	1775.32
421.605	1815.09
421.982	1806.51
422.358	1849.44
422.735	1904.81
423.111	1880.18
423.488	1901.19
423.864	1919.27
424.241	1964.69
424.617	1980.74
424.994	1973.28
425.37	2029.78
425.746	2024.58
426.123	2078.14
426.499	2086.72
426.875	2105.26
427.251	2162.43
427.627	2231.35
428.003	2220.28
428.379	2251.47
428.756	2272.71
429.132	2304.12
429.507	2360.84
429.883	2388.19
430.259	2416.21
430.635	2458.24
431.011	2470.22
431.387	2533.27
431.763	2528.07
432.138	2572.14
432.514	2615.52
432.89	2662.08
433.265	2683.55
433.641	2735.3
434.016	2751.57
434.392	2827.95
434.767	2893.03
435.143	2891.9
435.518	2920.83
435.894	2932.35
436.269	3005.34
436.644	3031.78
437.02	3094.38
437.395	3085.79
437.77	3139.8
438.145	3225.45
438.52	3243.3
438.895	3258.45
439.271	3267.94
439.646	3363.53
440.021	3378.22
440.395	3380.02
440.77	3391.55
441.145	3429.74
441.52	3513.35
441.895	3487.37
442.27	3533.01
442.645	3507.93
443.019	3587.7
443.394	3600.58
443.769	3680.13
444.143	3603.52
444.518	3691.65
444.892	3664.31
445.267	3766.45
445.641	3775.72
446.016	3791.09
446.39	3830.41
446.764	3852.33
447.139	3873.57
447.513	3935.72
447.887	3920.35
448.262	3958.31
448.636	4033.34
449.01	4079.89
449.384	4116.95
449.758	4148.14
450.132	4199.66
450.506	4209.83
450.88	4235.82
451.254	4292.77
451.628	4337.74
452.002	4362.82
452.376	4412.09
452.75	4499.54
453.123	4521.92
453.497	4603.49
453.871	4637.62
454.244	4705.19
454.618	4756.71
454.992	4804.62
455.365	4837.16
455.739	4959.87
456.112	4993.09
456.486	5077.61
456.859	5093.2
457.232	5183.14
457.606	5156.47
457.979	5302.46
458.352	5368.45
458.725	5445.05
459.099	5541.1
459.472	5640.53
459.845	5730.47
460.218	5722.34
460.591	5792.39
460.964	5772.05
461.337	6003.91
461.71	6078.26
462.083	6109.44
462.456	6156
462.829	6198.71
463.201	6271.25
463.574	6307.63
463.947	6446.61
464.32	6513.73
464.692	6633.5
465.065	6703.55
465.438	6795.53
465.81	6898.12
466.183	7004.56
466.555	7107.16
466.928	7121.39
467.3	7141.06
467.672	7318.23
468.045	7524.55
468.417	7491.78
468.789	7590.76
469.161	7713.7
469.534	7874.14
469.906	7999.56
470.278	8098.09
470.65	8112.56
471.022	8310.97
471.394	8498.31
471.766	8602.03
472.138	8735.82
472.51	8898.52
472.882	9098.07
473.253	9157.05
473.625	9299.87
473.997	9501.45
474.369	9550.03
474.74	9656.02
475.112	9913.41
475.484	9983.01
475.855	10202.22
476.227	10309.33
476.598	10525.82
476.97	10721.53
477.341	10894.4
477.713	11055.08
478.084	11152.93
478.455	11501.84
478.827	11602.18
479.198	11956.75
479.569	11943.87
479.94	12258.21
480.311	12375.27
480.682	12671.98
481.053	12963.5
481.424	13136.83
481.795	13277.39
482.166	13523.49
482.537	13692.07
482.908	14002.34
483.279	14135.45
483.65	14404.59
484.021	14666.51
484.391	14745.38
484.762	15028.76
485.133	15094.74
485.503	15381.97
485.874	15640.72
486.244	15836.65
486.615	16111.21
486.985	16375.39
487.356	16634.36
487.726	16811.31
488.097	17186.21
488.467	17240.22
488.837	17744.62
489.207	17764.73
489.578	18096.25
489.948	18211.72
490.318	18515.67
490.688	18613.97
491.058	19042.21
491.428	19137.12
491.798	19265.26
492.168	19824.79
492.538	19811.23
492.908	20061.85
493.278	20361.72
493.648	20406.47
494.017	20666.12
494.387	20866.57
494.757	21060.92
495.126	21303.17
495.496	21452.09
495.866	21588.13
496.235	21815.92
496.605	22066.99
496.974	22237.61
497.344	22482.12
497.713	22602.8
498.082	22735
498.452	22951.03
498.821	23119.62
499.19	23167.07
499.559	23407.75
499.928	23651.36
500.298	23656.1
500.667	23983.78
501.036	23773.61
501.405	24133.6
501.774	24283.66
502.143	24354.61
502.512	24528.62
502.88	24847.71
503.249	24761.16
503.618	24969.51
503.987	25007.48
504.356	25272.33
504.724	25460.35
505.093	25614.69
505.462	25705.54
505.83	25999.09
506.199	26101.23
506.567	26480.89
506.936	26457.38
507.304	26906.41
507.672	26949.57
508.041	27179.17
508.409	27350.69
508.777	27631.14
509.145	27880.17
509.514	27829.55
509.882	28087.62
510.25	28229.54
510.618	28527.16
510.986	28572.36
511.354	28943.19
511.722	29101.38
512.09	29361.26
512.458	29417.98
512.826	29840.57
513.193	29817.3
513.561	29993.11
513.929	30237.4
514.297	30596.94
514.664	30765.52
515.032	30788.79
515.4	31182.23
515.767	31268.33
516.135	31497.48
516.502	31434.2
516.869	32163.67
517.237	32196.67
517.604	32128.65
517.972	32599.37
518.339	32818.57
518.706	32863.99
519.073	33037.55
519.44	33260.59
519.808	33659
520.175	33569.96
520.542	34100.57
520.909	34177.41
521.276	34195.71
521.643	34580.56
522.009	34970.83
522.376	35137.61
522.743	35253.76
523.11	35546.64
523.477	35870.7
523.843	36092.38
524.21	36497.57
524.577	36597.68
524.943	36870.44
525.31	37054.84
525.676	37581.61
526.043	37580.93
526.409	37881.49
526.776	38280.58
527.142	38337.75
527.508	38632.66
527.874	38834.23
528.241	39176.82
528.607	39242.13
528.973	39648.67
529.339	39656.58
529.705	40012.06
530.071	40474.19
530.437	40537.24
530.803	40865.59
531.169	41055.64
531.535	41112.59
531.901	41367.73
532.267	41480.49
532.632	41704.89
532.998	41949.86
533.364	42271.43
533.73	42327.47
534.095	42824.18
534.461	42872.55
534.826	43045.87
535.192	43109.6
535.557	43488.12
535.923	43509.36
536.288	43678.17
536.653	43773.09
537.019	43848.79
537.384	44153.64
537.749	44298.72
538.114	44396.35
538.479	44472.28
538.845	44675.66
539.21	44698.26
539.575	44879.27
539.94	45114.29
540.305	45290.11
540.67	45348.19
541.034	45552.25
541.399	45697.33
541.764	45823.65
542.129	45905.91
542.494	46029.52
542.858	46093.48
543.223	46104.78
543.587	46448.95
543.952	46278.33
544.316	46457.54
544.681	46502.05
545.045	46859.78
545.41	46973.23
545.774	47039.67
546.138	47062.94
546.503	47203.28
546.867	47133.22
547.231	47619.99
547.595	47540.67
547.959	47664.06
548.324	47723.72
548.688	47707.9
549.052	47876.71
549.416	48134.33
549.779	48072.41
550.143	48199.64
550.507	48518.95
550.871	48592.17
551.235	48680.75
551.599	48974.08
551.962	48940.18
552.326	49094.08
552.689	49281.64
553.053	49030.8
553.417	49368.19
553.78	49725.47
554.143	49597.11
554.507	49951.68
554.87	50010.89
555.234	50425.57
555.597	50244.78
555.96	50323.42
556.323	50667.82
556.686	50625.56
557.05	50986
557.413	51013.57
557.776	51040.24
558.139	51349.84
558.502	51464.41
558.865	51480.68
559.228	51735.36
559.59	51955.7
559.953	52057.84
560.316	52442.24
560.679	52436.36
561.041	52545.29
561.404	52740.99
561.767	52925.61
562.129	52798.61
562.492	53195.89
562.854	53144.14
563.217	53199.05
563.579	53393.17
563.941	53507.07
564.304	53685.82
564.666	53809.43
565.028	53848.08
565.39	53875.19
565.753	54109.99
566.115	54243.55
566.477	54321.51
566.839	54244.22
567.201	54512.01
567.563	54492.58
567.925	54695.06
568.287	54668.85
568.648	54813.7
569.01	54873.81
569.372	55108.61
569.734	54939.8
570.095	55103.41
570.457	55210.07
570.819	55268.83
571.18	55330.97
571.542	55447.81
571.903	55465.66
572.265	55535.71
572.626	55619.78
572.987	55647.12
573.349	55733.22
573.71	55928.92
574.071	55901.81
574.432	55949.49
574.794	56145.42
575.155	56089.37
575.516	56069.71
575.877	56217.05
576.238	56251.63
576.599	56370.27
576.96	56367.56
577.32	56482.58
577.681	56476.71
578.042	56648.91
578.403	56646.87
578.763	56643.03
579.124	56731.39
579.485	56767.77
579.845	56920.31
580.206	56904.27
580.566	56840.31
580.927	56889.13
581.287	57031.72
581.648	56977.48
582.008	57079.86
582.368	57127.76
582.728	57121.66
583.089	57166.41
583.449	57182.23
583.809	57170.7
584.169	57272.17
584.529	57170.02
584.889	57453.86
585.249	57245.5
585.609	57262
585.969	57393.52
586.329	57293.18
586.688	57377.93
587.048	57367.76
587.408	57280.53
587.768	57351.03
588.127	57305.39
588.487	57296.35
588.846	57498.6
589.206	57269.45
589.565	57315.33
589.925	57489.11
590.284	57323.92
590.643	57356.23
591.003	57340.19
591.362	57460.86
591.721	57426.06
592.08	57393.75
592.44	57479.17
592.799	57495.21
593.158	57398.72
593.517	57401.65
593.876	57450.01
594.235	57389.45
594.593	57408.89
594.952	57459.73
595.311	57382.9
595.67	57391.71
596.029	57534.31
596.387	57551.03
596.746	57553.06
597.104	57430.13
597.463	57459.28
597.822	57534.31
598.18	57412.5
598.538	57435.55
598.897	57623.12
599.255	57431.26
599.613	57737.46
599.972	57583.8
600.33	57599.62
600.688	57514.87
601.046	57659.05
601.404	57727.52
601.762	57720.06
602.12	57780.4
602.478	57862.43
602.836	57823.34
603.194	57642.1
603.552	57689.78
603.91	57678.48
604.268	57753.96
604.625	57682.1
604.983	57804.36
605.341	57741.31
605.698	57872.15
606.056	57935.2
606.413	57898.82
606.771	57968.87
607.128	58025.37
607.485	57901.3
607.843	57967.74
608.2	58134.29
608.557	58119.83
608.914	58079.15
609.272	58249.77
609.629	58274.63
609.986	58328.64
610.343	58192.59
610.7	58398.69
611.057	58293.61
611.414	58277.79
611.771	58394.17
612.127	58430.78
612.484	58401.18
612.841	58551.45
613.198	58357.34
613.554	58392.36
613.911	58516.65
614.267	58565.47
614.624	58539.93
614.98	58560.95
615.337	58628.29
615.693	58626.48
616.05	58584.22
616.406	58699.25
616.762	58584
617.118	58584
617.475	58637.78
617.831	58687.27
618.187	58717.33
618.543	58789.19
618.899	58868.73
619.255	58780.6
619.611	58700.83
619.967	58835.29
620.323	58910.09
620.678	58760.49
621.034	58779.25
621.39	58795.97
621.746	58740.15
622.101	59118.67
622.457	58895.85
622.812	58934.95
623.168	58942.18
623.523	58961.84
623.879	58985.79
624.234	58911.45
624.589	58901.05
624.945	58957.32
625.3	59011.78
625.655	58897.66
626.01	58975.62
626.365	58909.19
626.72	58936.08
627.075	58965.68
627.43	58871.45
627.785	58861.73
628.14	58904.44
628.495	58930.43
628.85	58901.95
629.205	58800.04
629.559	58972.46
629.914	58799.36
630.269	58824.22
630.623	58755.52
630.978	58658.57
631.332	58837.77
631.687	58787.83
632.041	58663.32
632.396	58766.59
632.75	58591
633.104	58675.07
633.459	58496.77
633.813	58452.02
634.167	58464.9
634.521	58386.26
634.875	58449.54
635.229	58313.27
635.583	58209.77
635.937	58241.41
636.291	58255.87
636.645	58218.58
636.999	58188.3
637.352	58090.22
637.706	58044.58
638.06	58154.63
638.413	58078.02
638.767	57967.52
639.121	57977.68
639.474	57854.98
639.828	57845.94
640.181	57887.07
640.534	57853.17
640.888	57771.14
641.241	57730.46
641.594	57657.02
641.947	57712.83
642.301	57601.88
642.654	57651.59
643.007	57597.36
643.36	57639.84
643.713	57589.67
644.066	57615.21
644.419	57380.41
644.771	57309.91
645.124	57057.71
645.477	57074.66
645.83	56956.02
646.182	56869.47
646.535	56733.2
646.888	56735.91
647.24	56613.88
647.593	56846.41
647.945	56745.4
648.298	56593.31
648.65	56613.43
649.002	56500.89
649.355	56649.36
649.707	56634.44
650.059	56775.23
650.411	57064.26
650.763	57087.54
651.115	57327.31
651.467	57151.94
651.819	57191.04
652.171	57147.42
652.523	57170.47
652.875	57172.06
653.227	56969.12
653.578	57241.43
653.93	57178.84
654.282	57111.49
654.633	57004.15
654.985	57095.22
655.337	57076.69
655.688	57070.14
656.039	57140.42
656.391	56899.52
656.742	56984.72
657.094	56963.47
657.445	57070.82
657.796	56896.58
658.147	56819.3
658.498	56838.05
658.849	56855.23
659.2	56812.52
659.551	56724.38
659.902	56679.19
660.253	56709.47
660.604	56725.29
660.955	56528.01
661.306	56612.75
661.656	56475.8
662.007	56513.77
662.358	56509.25
662.708	56539.08
663.059	56462.7
663.409	56314.9
663.76	56414.34
664.11	56403.04
664.461	56418.4
664.811	56300.21
665.161	56288.69
665.511	56262.02
665.862	56267
666.212	56257.96
666.562	56197.62
666.912	56186.55
667.262	56126.66
667.612	56108.13
667.962	56152.2
668.312	56029.26
668.662	56165.08
669.011	56004.4
669.361	56023.39
669.711	55944.07
670.06	55955.59
670.41	55909.49
670.76	55873.79
671.109	55912.2
671.459	55905.87
671.808	55872.43
672.157	55995.36
672.507	55795.82
672.856	55755.82
673.205	55825.42
673.554	55957.17
673.904	55747.23
674.253	55884.86
674.602	55755.37
674.951	55378.2
675.3	55248.26
675.649	55742.72
675.998	55645.77
676.346	55632.89
676.695	55791.53
677.044	55520.35
677.393	55644.19
677.741	55675.37
678.09	55624.3
678.438	55558.99
678.787	55662.72
679.135	55604.87
679.484	55373.91
679.832	55535.71
680.181	55327.13
680.529	55424.08
680.877	55361.26
681.225	55264.99
681.573	55473.8
681.922	55262.95
682.27	55169.85
682.618	55173.01
682.966	55171.2
683.314	55258.66
683.661	55052.11
684.009	54880.82
684.357	54829.74
684.705	54865.68
685.053	54843.76
685.4	54768.28
685.748	54574.38
686.095	54614.84
686.443	54569.41
686.79	54531.45
687.138	54538
687.485	54466.36
687.832	54402.41
688.18	54395.41
688.527	54095.75
688.874	54205.35
689.221	54226.37
689.568	54133.94
689.915	53862.76
690.262	53981.63
690.609	53841.75
690.956	53725.37
691.303	53611.47
691.65	53444.24
691.997	53484.7
692.344	53318.15
692.69	53289.9
693.037	53308.88
693.383	53053.75
693.73	53128.77
694.077	52911.6
694.423	52923.81
694.769	52714.55
695.116	52718.16
695.462	52739.18
695.808	52593.65
696.155	52630.03
696.501	52285.18
696.847	52324.05
697.193	52066.2
697.539	52245.41
697.885	51959.99
698.231	51908.47
698.577	51877.96
698.923	51742.82
699.269	51701.01
699.614	51532.88
699.96	51480.68
700.306	51535.59
700.651	51343.73
700.997	51217.64
701.342	51125.66
701.688	51018.32
702.033	50869.4
702.379	50907.81
702.724	50818.55
703.069	50926.8
703.415	50743.75
703.76	50671.21
704.105	50674.15
704.45	50467.6
704.795	50403.87
705.14	50221.96
705.485	50197.78
705.83	50023.09
706.175	50122.07
706.52	49861.51
706.865	49772.7
707.209	49752.59
707.554	49716.66
707.899	49844.57
708.243	49632.37
708.588	49444.12
708.932	49259.27
709.277	49233.06
709.621	49245.03
709.966	49096.56
710.31	49219.5
710.654	48776.12
710.998	48948.77
711.342	48773.41
711.687	48765.27
712.031	48475.56
712.375	48517.37
712.719	48457.26
713.063	48318.28
713.407	48482.12
713.75	48132.97
714.094	48243.7
714.438	47864.05
714.782	48028.79
715.125	47815.92
715.469	47884.84
715.812	47601.46
716.156	47441.92
716.499	47407.57
716.843	47463.84
717.186	47094.58
717.53	47175.71
717.873	47039.67
718.216	47091.87
718.559	46893.23
718.902	46614.37
719.246	46711.09
719.589	46421.38
719.932	46356.52
720.275	46337.09
720.617	46262.74
720.96	46214.38
721.303	46252.57
721.646	46226.58
721.989	46070.43
722.331	46045.57
722.674	45869.75
723.016	45976.64
723.359	45816.42
723.701	45908.62
724.044	45585.24
724.386	45377.56
724.729	45575.07
725.071	45272.93
725.413	45236.55
725.755	45264.35
726.097	45140.96
726.439	44992.72
726.782	45121.75
727.124	45023.45
727.465	44865.49
727.807	44796.79
728.149	44711.14
728.491	44736.68
728.833	44556.57
729.175	44396.12
729.516	44410.81
729.858	44269.57
730.199	44462.79
730.541	44356.57
730.882	44290.36
731.224	44235.22
731.565	43954.55
731.906	44109.12
732.248	44166.97
732.589	43870.03
732.93	43689.7
733.271	43541.23
733.612	43592.07
733.953	43765.85
734.294	43544.84
734.635	43422.14
734.976	43503.26
735.317	43282.03
735.658	43393.21
735.999	43334.45
736.339	43155.7
736.68	43216.04
737.021	43082.71
737.361	43102.14
737.702	43134.91
738.042	42972.43
738.383	42947.12
738.723	43044.97
739.063	42729.5
739.404	43051.07
739.744	42888.36
740.084	42645.66
740.424	42763.62
740.764	42608.82
741.104	42626.22
741.444	42401.37
741.784	42291.32
742.124	42320.7
742.464	42234.37
742.804	42211.09
743.143	42095.62
743.483	42183.52
743.823	41874.38
744.162	41853.36
744.502	41917.99
744.841	41820.6
745.181	41865.79
745.52	41607.04
745.86	41789.64
746.199	41613.37
746.538	41451.34
746.877	41598.91
747.216	41576.08
747.556	41435.97
747.895	41381.51
748.234	41196.88
748.573	41038.92
748.911	40829.43
749.25	40992.59
749.589	40781.3
749.928	40810.45
750.267	40850.23
750.605	40695.43
750.944	40603.9
751.283	40300.41
751.621	40496.11
751.96	40172.73
752.298	40199.62
