Data from White_paper_FLMS001491_082.txt Node
Date: Tue Feb 07 10:35:40 GMT 2017
User: dcchb
Spectrometer: FLMS00149
Trigger mode: 0
Integration Time (sec): 2.000000E-2
Scans to average: 10
Electric dark correction enabled: true
Nonlinearity correction enabled: false
Boxcar width: 0
XAxis mode: Wavelengths
Number of Pixels in Spectrum: 2048
>>>>>Begin Spectral Data<<<<<
341.393	-2.39
341.776	-2.39
342.16	-2.39
342.543	-54.81
342.927	-81.25
343.31	-62.27
343.693	-69.73
344.077	-64.53
344.46	-69.28
344.843	-69.96
345.226	-40.35
345.61	-5.55
345.993	-10.75
346.376	3.26
346.759	21.79
347.142	23.15
347.525	61.57
347.908	74
348.291	53.88
348.674	77.16
349.057	77.61
349.44	131.62
349.823	143.37
350.206	175.91
350.588	204.61
350.971	229.92
351.354	233.99
351.737	270.37
352.119	271.5
352.502	282.8
352.884	296.59
353.267	306.53
353.65	311.96
354.032	339.75
354.414	343.82
354.797	345.4
355.179	358.06
355.562	343.82
355.944	380.43
356.326	362.12
356.709	356.02
357.091	365.29
357.473	364.61
357.855	380.43
358.238	367.55
358.62	385.17
359.002	363.93
359.384	383.82
359.766	391.95
360.148	375.23
360.53	402.57
360.912	390.37
361.294	371.39
361.676	395.57
362.057	366.64
362.439	367.55
362.821	364.38
363.203	376.81
363.584	361.22
363.966	360.09
364.348	377.94
364.729	351.95
365.111	356.93
365.493	371.61
365.874	382.46
366.256	365.96
366.637	358.73
367.019	353.54
367.4	365.74
367.781	341.56
368.163	382.24
368.544	348.79
368.925	372.07
369.306	365.29
369.688	363.03
370.069	374.33
370.45	374.78
370.831	361.22
371.212	348.79
371.593	376.59
371.974	384.04
372.355	371.61
372.736	385.63
373.117	374.33
373.498	396.25
373.879	371.39
374.26	368
374.641	375.46
375.021	386.53
375.402	395.34
375.783	379.75
376.163	399.86
376.544	419.07
376.925	391.95
377.305	405.51
377.686	401.44
378.066	406.42
378.447	403.03
378.827	385.4
379.208	406.19
379.588	398.73
379.968	392.18
380.349	406.87
380.729	374.78
381.109	426.53
381.489	419.07
381.87	411.39
382.25	427.66
382.63	418.84
383.01	440.54
383.39	435.79
383.77	436.25
384.15	439.41
384.53	427.66
384.91	450.26
385.29	466.75
385.67	448
386.049	453.65
386.429	464.49
386.809	449.35
387.189	489.13
387.568	463.82
387.948	465.62
388.328	489.35
388.707	503.14
389.087	475.34
389.466	504.72
389.846	488
390.225	485.74
390.605	491.84
390.984	514.89
391.363	503.14
391.743	528.22
392.122	511.27
392.501	518.05
392.881	546.75
393.26	560.76
393.639	533.42
394.018	559.86
394.397	548.79
394.776	544.49
395.155	553.08
395.534	554.21
395.913	561.44
396.292	589.24
396.671	579.97
397.05	597.82
397.429	595.34
397.808	600.08
398.186	607.99
398.565	629.46
398.944	631.04
399.323	622.46
399.701	640.99
400.08	633.75
400.458	645.28
400.837	654.77
401.215	671.04
401.594	679.86
401.972	680.98
402.351	703.13
402.729	688.44
403.107	714.2
403.486	711.72
403.864	714.43
404.242	741.77
404.62	755.56
404.999	740.19
405.377	775.22
405.755	819.06
406.133	791.49
406.511	818.16
406.889	864.26
407.267	863.8
407.645	870.36
408.023	916.68
408.401	900.19
408.779	937.02
409.156	950.13
409.534	990.36
409.912	986.74
410.29	1003.69
410.667	1052.5
411.045	1079.17
411.422	1060.41
411.8	1111.71
412.178	1148.09
412.555	1193.06
412.933	1190.8
413.31	1210.69
413.687	1239.16
414.065	1286.39
414.442	1312.15
414.819	1325.49
415.197	1348.99
415.574	1417.69
415.951	1434.19
416.328	1457.01
416.705	1455.88
417.082	1480.29
417.46	1522.09
417.837	1550.79
418.214	1584.01
418.591	1616.78
418.967	1615.42
419.344	1677.34
419.721	1694.07
420.098	1715.08
420.475	1734.29
420.852	1751.92
421.228	1799.6
421.605	1803.44
421.982	1787.4
422.358	1858.58
422.735	1874.85
423.111	1896.77
423.488	1920.95
423.864	1929.54
424.241	2005.47
424.617	2017.9
424.994	2029.42
425.37	2050.89
425.746	2125.92
426.123	2130.89
426.499	2141.06
426.875	2169.08
427.251	2229.87
427.627	2273.03
428.003	2261.96
428.379	2332.69
428.756	2336.08
429.132	2364.1
429.507	2413.82
429.883	2430.54
430.259	2492.24
430.635	2494.95
431.011	2545.34
431.387	2597.32
431.763	2651.1
432.138	2666.92
432.514	2691.1
432.89	2741.72
433.265	2788.5
433.641	2876.41
434.016	2866.69
434.392	2909.85
434.767	3003.86
435.143	2982.17
435.518	3018.55
435.894	3052.9
436.269	3140.81
436.644	3215.38
437.02	3228.94
437.395	3233.69
437.77	3286.34
438.145	3286.11
438.52	3327.92
438.895	3337.86
439.271	3373.8
439.646	3445.43
440.021	3486.56
440.395	3513
440.77	3464.87
441.145	3532.21
441.52	3575.82
441.895	3631.42
442.27	3637.97
442.645	3605.88
443.019	3674.35
443.394	3674.58
443.769	3703.05
444.143	3691.3
444.518	3789.15
444.892	3770.85
445.267	3785.31
445.641	3815.59
446.016	3868.7
446.39	3940.33
446.764	3912.31
447.139	3901.69
447.513	3977.62
447.887	3982.59
448.262	4025.98
448.636	4013.33
449.01	4044.06
449.384	4106.43
449.758	4162.02
450.132	4197.5
450.506	4229.37
450.88	4283.83
451.254	4262.36
451.628	4330.15
452.002	4331.96
452.376	4428.91
452.75	4468.68
453.123	4459.87
453.497	4529.92
453.871	4590.71
454.244	4635.91
454.618	4664.61
454.992	4731.95
455.365	4768.11
455.739	4866.86
456.112	4890.37
456.486	4964.71
456.859	4988.67
457.232	5131.49
457.606	5099.4
457.979	5156.35
458.352	5228.44
458.725	5361.54
459.099	5338.26
459.472	5491.03
459.845	5567.64
460.218	5601.31
460.591	5614.87
460.964	5667.29
461.337	5788.2
461.71	5892.83
462.083	5990.22
462.456	5934.86
462.829	6010.11
463.201	6121.07
463.574	6117.9
463.947	6209.2
464.32	6360.16
464.692	6403.32
465.065	6484.9
465.438	6518.35
465.81	6662.3
466.183	6739.13
466.555	6897.09
466.928	6878.34
467.3	6909.3
467.672	6989.97
468.045	7243.52
468.417	7220.02
468.789	7249.85
469.161	7398.77
469.534	7519.45
469.906	7678.77
470.278	7716.05
470.65	7804.19
471.022	7947.46
471.394	8141.35
471.766	8217.96
472.138	8262.03
472.51	8415.47
472.882	8573.43
473.253	8683.94
473.625	8825.4
473.997	8986.3
474.369	9070.59
474.74	9119.63
475.112	9348.33
475.484	9409.57
475.855	9657.25
476.227	9700.86
476.598	9996.22
476.97	10059.27
477.341	10318.92
477.713	10411.58
478.084	10501.29
478.455	10809.08
478.827	10828.97
479.198	11153.7
479.569	11207.26
479.94	11510.3
480.311	11661.04
480.682	11861.48
481.053	12118.2
481.424	12353.22
481.795	12489.94
482.166	12643.83
482.537	12822.81
482.908	13065.74
483.279	13180.54
483.65	13359.07
484.021	13665.28
484.391	13806.06
484.762	13905.04
485.133	14100.97
485.503	14312.49
485.874	14533.28
486.244	14779.6
486.615	14986.37
486.985	15097.1
487.356	15402.18
487.726	15563.76
488.097	15824.77
488.467	15938.66
488.837	16244.64
489.207	16438.31
489.578	16643.73
489.948	16777.51
490.318	17038.97
490.688	17052.08
491.058	17434.44
491.428	17613.65
491.798	17766.86
492.168	18060.19
492.538	18146.29
492.908	18403
493.278	18607.75
493.648	18651.36
494.017	18840.96
494.387	19031.46
494.757	19272.13
495.126	19409.76
495.496	19413.37
495.866	19594.16
496.235	19887.71
496.605	19986.69
496.974	20005.9
497.344	20228.72
497.713	20361.82
498.082	20587.35
498.452	20825.99
498.821	20913.9
499.19	20952.77
499.559	21124.52
499.928	21318.41
500.298	21388.01
500.667	21651.06
501.036	21604.5
501.405	21701.68
501.774	21796.59
502.143	22027.32
502.512	22116.13
502.88	22300.08
503.249	22362.9
503.618	22501.43
503.987	22734.42
504.356	22766.05
504.724	23077.01
505.093	22983.68
505.462	23229.77
505.83	23373.27
506.199	23499.59
506.567	23756.76
506.936	23786.59
507.304	24047.83
507.672	24224.09
508.041	24341.83
508.409	24470.64
508.777	24810.97
509.145	24823.17
509.514	24865.21
509.882	25076.28
510.25	25081.02
510.618	25362.37
510.986	25369.15
511.354	25693.89
511.722	25866.99
512.09	26122.12
512.458	26191.73
512.826	26396.69
513.193	26522.79
513.561	26664.93
513.929	26874.42
514.297	27048.43
514.664	27301.3
515.032	27291.13
515.4	27569.32
515.767	27684.57
516.135	27806.37
516.502	27711.91
516.869	28241.16
517.237	28329.52
517.604	28317.32
517.972	28609.74
518.339	28786.69
518.706	28847.93
519.073	29011.99
519.44	29311.19
519.808	29583.95
520.175	29475.26
520.542	29913.44
520.909	30072.75
521.276	30030.5
521.643	30479.52
522.009	30646.3
522.376	30857.37
522.743	30976.23
523.11	31186.4
523.477	31605.14
523.843	31700.73
524.21	32115.19
524.577	32279.93
524.943	32373.48
525.31	32566.47
525.676	32754.49
526.043	33027.03
526.409	33093.01
526.776	33413.68
527.142	33644.64
527.508	33829.72
527.874	34078.75
528.241	34266.09
528.607	34408.69
528.973	34753.99
529.339	34588.12
529.705	35111.49
530.071	35313.75
530.437	35356.46
530.803	35518.94
531.169	35829.44
531.535	35849.55
531.901	35987.18
532.267	36137.23
532.632	36422.87
532.998	36563.21
533.364	36669.42
533.73	36723.43
534.095	37247.26
534.461	37277.99
534.826	37391.21
535.192	37456.74
535.557	37805.88
535.923	37858.99
536.288	37974.02
536.653	38127.23
537.019	38030.06
537.384	38359.77
537.749	38601.8
538.114	38882.24
538.479	38763.6
538.845	38972.63
539.21	38939.41
539.575	39135.12
539.94	39200.65
540.305	39489.91
540.67	39389.35
541.034	39644.71
541.399	39930.8
541.764	39932.83
542.129	40125.6
542.494	40185.71
542.858	40428.87
543.223	40484.46
543.587	40779.82
543.952	40806.48
544.316	40869.08
544.681	40910.44
545.045	41000.6
545.41	41200.82
545.774	41460.48
546.138	41461.61
546.503	41522.62
546.867	41632
547.231	41990.86
547.595	41952.22
547.959	42177.97
548.324	42377.52
548.688	42356.5
549.052	42599.2
549.416	42660.22
549.779	42714.46
550.143	42834
550.507	43043.71
550.871	43140.21
551.235	43150.83
551.599	43393.31
551.962	43672.17
552.326	43616.81
552.689	43924.14
553.053	43887.76
553.417	43949.9
553.78	44320.06
554.143	44184.02
554.507	44574.07
554.87	44562.09
555.234	45057.22
555.597	44727.51
555.96	44978.58
556.323	45194.39
556.686	45175.41
557.05	45506.92
557.413	45616.53
557.776	45704.43
558.139	45953.24
558.502	46008.38
558.865	46067.36
559.228	46373.34
559.59	46537.18
559.953	46636.39
560.316	47003.83
560.679	47005.42
561.041	47280.44
561.404	47364.05
561.767	47637.94
562.129	47589.81
562.492	47912.74
562.854	47936.47
563.217	48017.14
563.579	48171.04
563.941	48312.5
564.304	48483.8
564.666	48785.48
565.028	48895.31
565.39	48874.07
565.753	49196.09
566.115	49304.11
566.477	49448.52
566.839	49604.44
567.201	49767.83
567.563	49768.06
567.925	50031.55
568.287	49991.33
568.648	50104.32
569.01	50391.77
569.372	50531.43
569.734	50486
570.095	50710.63
570.457	50922.38
570.819	50902.72
571.18	50950.62
571.542	51248.02
571.903	51216.15
572.265	51439.65
572.626	51506.54
572.987	51624.96
573.349	51762.81
573.71	51719.42
574.071	52023.59
574.432	52030.6
574.794	52283.92
575.155	52253.87
575.516	52143.13
575.877	52382.22
576.238	52410.02
576.599	52553.52
576.96	52557.59
577.32	52587.87
577.681	52720.97
578.042	52829.44
578.403	52869.44
578.763	52844.59
579.124	52958.93
579.485	53073.51
579.845	53228.98
580.206	53110.79
580.566	53148.76
580.927	53157.12
581.287	53395.53
581.648	53205.25
582.008	53416.32
582.368	53445.93
582.728	53375.19
583.089	53509.2
583.449	53433.95
583.809	53544.91
584.169	53594.62
584.529	53505.36
584.889	53781.96
585.249	53654.73
585.609	53504.23
585.969	53713.94
586.329	53641.85
586.688	53682.76
587.048	53657.45
587.408	53750.1
587.768	53677.33
588.127	53731.79
588.487	53738.8
588.846	53940.6
589.206	53733.15
589.565	53808.63
589.925	53948.06
590.284	53865.35
590.643	53963.65
591.003	53976.53
591.362	53996.42
591.721	53990.09
592.08	54046.81
592.44	54088.85
592.799	54118.45
593.158	54077.1
593.517	54142.4
593.876	54116.64
594.235	54080.03
594.593	54078
594.952	54197.77
595.311	54062.41
595.67	54209.52
596.029	54278.45
596.387	54405.67
596.746	54446.12
597.104	54193.25
597.463	54196.64
597.822	54425.33
598.18	54377.43
598.538	54367.71
598.897	54564.77
599.255	54280.48
599.613	54584.88
599.972	54462.85
600.33	54552.34
600.688	54460.36
601.046	54542.17
601.404	54659.9
601.762	54567.48
602.12	54668.94
602.478	54727.25
602.836	54716.85
603.194	54586.91
603.552	54795.27
603.91	54654.93
604.268	54806.34
604.625	54771.09
604.983	54885.44
605.341	54696.97
605.698	54903.29
606.056	54925.66
606.413	54882.72
606.771	54974.02
607.128	54956.39
607.485	54880.46
607.843	54940.12
608.2	55054.47
608.557	55186.44
608.914	54980.35
609.272	55130.17
609.629	55241.81
609.986	55318.42
610.343	55169.5
610.7	55424.63
611.057	55317.51
611.414	55259.21
611.771	55354.8
612.127	55428.25
612.484	55356.84
612.841	55380.56
613.198	55321.36
613.554	55435.03
613.911	55606.09
614.267	55489.94
614.624	55413.33
614.98	55527.45
615.337	55633.21
615.693	55565.87
616.05	55538.75
616.406	55785.07
616.762	55697.39
617.118	55614.46
617.475	55635.7
617.831	55783.26
618.187	55677.05
618.543	55727.9
618.899	55789.14
619.255	55835.47
619.611	55797.05
619.967	55868.23
620.323	55954.11
620.678	55828.91
621.034	55805.64
621.39	55839.31
621.746	55800.44
622.101	56073.43
622.457	55855.58
622.812	55914.33
623.168	55944.62
623.523	55945.75
623.879	55989.36
624.234	55829.37
624.589	55929.7
624.945	56004.95
625.3	56037.5
625.655	55915.24
626.01	56009.93
626.365	56051.73
626.72	55950.04
627.075	55915.46
627.43	55969.02
627.785	55971.73
628.14	56081.34
628.495	55947.1
628.85	55973.32
629.205	55794.56
629.559	56095.57
629.914	55952.53
630.269	55978.51
630.623	55831.17
630.978	55819.87
631.332	55967.44
631.687	55978.51
632.041	55895.35
632.396	55956.59
632.75	55844.51
633.104	55892.41
633.459	55802.25
633.813	55789.14
634.167	55813.77
634.521	55757.05
634.875	55851.51
635.229	55785.07
635.583	55673.44
635.937	55642.7
636.291	55672.76
636.645	55672.76
636.999	55577.85
637.352	55686.77
637.706	55531.07
638.06	55686.54
638.413	55562.25
638.767	55521.35
639.121	55576.04
639.474	55476.38
639.828	55414.91
640.181	55511.63
640.534	55552.08
640.888	55450.39
641.241	55336.5
641.594	55374.01
641.947	55487.68
642.301	55299.21
642.654	55340.34
643.007	55426.44
643.36	55408.13
643.713	55293.33
644.066	55441.8
644.419	55220.79
644.771	55042.72
645.124	54899.22
645.477	54813.12
645.83	54630.98
646.182	54516.18
646.535	54470.53
646.888	54597.53
647.24	54430.08
647.593	54614.71
647.945	54468.27
648.298	54335.39
648.65	54308.73
649.002	54226.92
649.355	54397.99
649.707	54307.37
650.059	54491.32
650.411	54666.23
650.763	54787.81
651.115	55113
651.467	54979.67
651.819	55092.66
652.171	55002.95
652.523	54909.84
652.875	54874.14
653.227	54760.47
653.578	55015.83
653.93	54885.44
654.282	54788.04
654.633	54708.04
654.985	54766.12
655.337	54711.2
655.688	54817.87
656.039	54910.29
656.391	54605.89
656.742	54658.32
657.094	54638.21
657.445	54749.62
657.796	54764.53
658.147	54691.54
658.498	54639.79
658.849	54737.64
659.2	54696.97
659.551	54589.4
659.902	54648.15
660.253	54638.21
660.604	54680.7
660.955	54479.12
661.306	54615.16
661.656	54592.34
662.007	54562.96
662.358	54556.18
662.708	54584.65
663.059	54462.17
663.409	54314.83
663.76	54583.3
664.11	54479.34
664.461	54516.86
664.811	54568.38
665.161	54440.48
665.511	54311.67
665.862	54431.89
666.212	54501.94
666.562	54482.28
666.912	54450.42
667.262	54367.03
667.612	54356.86
667.962	54385.34
668.312	54280.48
668.662	54545.33
669.011	54415.62
669.361	54277.99
669.711	54291.55
670.06	54202.52
670.41	54269.63
670.76	54172.01
671.109	54266.92
671.459	54224.89
671.808	54101.95
672.157	54219.92
672.507	54078.45
672.856	53956.87
673.205	54112.35
673.554	54145.34
673.904	53970.88
674.253	54152.35
674.602	54063.99
674.951	53587.84
675.3	53409.32
675.649	53838.91
675.998	53864.9
676.346	53827.16
676.695	53960.49
677.044	53770.89
677.393	53831.45
677.741	53873.48
678.09	53741.06
678.438	53693.15
678.787	53694.96
679.135	53701.96
679.484	53431.24
679.832	53551.46
680.181	53334.52
680.529	53475.53
680.877	53409.54
681.225	53384.23
681.573	53558.24
681.922	53266.04
682.27	53212.49
682.618	53250.22
682.966	53104.47
683.314	53191.24
683.661	53068.31
684.009	52851.59
684.357	52867.64
684.705	52791.25
685.053	52789.22
685.4	52692.95
685.748	52599.17
686.095	52625.38
686.443	52488.44
686.79	52325.05
687.138	52394.2
687.485	52399.17
687.832	52198.73
688.18	52323.47
688.527	52063.14
688.874	52003.03
689.221	52000.31
689.568	51930.48
689.915	51839.41
690.262	51792.64
690.609	51662.47
690.956	51555.13
691.303	51575.69
691.65	51338.41
691.997	51349.03
692.344	51115.82
692.69	51143.39
693.037	51136.83
693.383	50814.36
693.73	51041.47
694.077	50734.13
694.423	50826.33
694.769	50573.68
695.116	50482.84
695.462	50514.02
695.808	50319.68
696.155	50456.17
696.501	50185.67
696.847	50184.32
697.193	49872.69
697.539	50041.49
697.885	49811.67
698.231	49655.06
698.577	49709.75
698.923	49543.88
699.269	49463.88
699.614	49297.11
699.96	49202.42
700.306	49225.02
700.651	49124.68
700.997	48998.81
701.342	48773.05
701.688	48914.29
702.033	48736.44
702.379	48724.02
702.724	48567.18
703.069	48623.68
703.415	48158.15
703.76	48202.9
704.105	48319.73
704.45	48069.8
704.795	47914.55
705.14	47858.05
705.485	47852.4
705.83	47616.93
706.175	47669.13
706.52	47559.53
706.865	47289.48
707.209	47257.39
707.554	47213.32
707.899	47311.4
708.243	47089.03
708.588	47049.71
708.932	46737.63
709.277	46732.43
709.621	46812.88
709.966	46433.23
710.31	46689.72
710.654	46278.2
710.998	46400.91
711.342	46246.79
711.687	46288.6
712.031	45993.92
712.375	45898.78
712.719	46167.92
713.063	45805.22
713.407	45990.75
713.75	45815.62
714.094	45704.89
714.438	45667.15
714.782	45515.06
715.125	45336.08
715.469	45376.53
715.812	45206.59
716.156	44969.09
716.499	45077.33
716.843	45026.03
717.186	44941.97
717.53	45098.12
717.873	44888.41
718.216	44887.73
718.559	44781.75
718.902	44522.09
719.246	44544.24
719.589	44336.11
719.932	44274.87
720.275	44254.53
720.617	44229.44
720.96	44165.27
721.303	44119.16
721.646	44061.09
721.989	43852.73
722.331	43995.55
722.674	43854.09
723.016	44008.66
723.359	43708.33
723.701	43742.45
724.044	43405.29
724.386	43359.86
724.729	43497.94
725.071	43425.17
725.413	43330.48
725.755	43256.59
726.097	43121.45
726.439	42947.67
726.782	42985.41
727.124	43136.37
727.465	42768.92
727.807	42845.75
728.149	42859.76
728.491	42758.3
728.833	42711.29
729.175	42641.69
729.516	42479.43
729.858	42424.75
730.199	42428.59
730.541	42317.4
730.882	42291.87
731.224	42493.67
731.565	42260.91
731.906	42260.91
732.248	42173.23
732.589	42091.87
732.93	41892.1
733.271	41905.21
733.612	41782.28
733.953	41972.55
734.294	41747.02
734.635	41606.91
734.976	41759.45
735.317	41414.38
735.658	41465
735.999	41484.21
736.339	41340.93
736.68	41451.21
737.021	41353.36
737.361	41145.91
737.702	41388.84
738.042	41177.32
738.383	41158.11
738.723	41116.98
739.063	41133.71
739.404	41082.86
739.744	40934.84
740.084	40856.65
740.424	40961.06
740.764	40834.51
741.104	40842.19
741.444	40556.09
741.784	40586.83
742.124	40753.6
742.464	40466.83
742.804	40452.14
743.143	40346.83
743.483	40392.48
743.823	40121.98
744.162	40089.89
744.502	40144.58
744.841	40070.46
745.181	40095.99
745.52	40037.92
745.86	40061.64
746.199	39980.97
746.538	39854.42
746.877	39893.74
747.216	39802.67
747.556	39751.6
747.895	39613.52
748.234	39441.1
748.573	39462.79
748.911	39434.32
749.25	39432.06
749.589	39201.55
749.928	39278.61
750.267	39281.1
750.605	39036.59
750.944	38961.33
751.283	39003.82
751.621	39016.02
751.96	38698.29
752.298	38739.19
752.636	38798.17
752.975	38637.5
