Data from white_poster_card_FLMS001491_00073.txt Node
Date: Wed Feb 08 11:51:58 GMT 2017
User: dcchb
Spectrometer: FLMS00149
Trigger mode: 0
Integration Time (sec): 2.000000E-2
Scans to average: 10
Electric dark correction enabled: true
Nonlinearity correction enabled: false
Boxcar width: 0
XAxis mode: Wavelengths
Number of Pixels in Spectrum: 2048
>>>>>Begin Spectral Data<<<<<
341.393	-3.29
341.776	-3.29
342.16	-3.29
342.543	-58.66
342.927	-63.63
343.31	-51.43
343.693	-73.35
344.077	-70.18
344.46	-65.21
344.843	-46
345.226	-53.01
345.61	-44.19
345.993	-23.63
346.376	-12.33
346.759	23.6
347.142	26.99
347.525	53.43
347.908	61.11
348.291	61.57
348.674	111.06
349.057	101.57
349.44	113.77
349.823	127.55
350.206	164.61
350.588	198.74
350.971	218.4
351.354	233.99
351.737	252.52
352.119	264.5
352.502	262.24
352.884	289.81
353.267	284.84
353.65	290.49
354.032	293.42
354.414	305.63
354.797	340.65
355.179	333.88
355.562	319.41
355.944	353.08
356.326	343.82
356.709	302.92
357.091	340.88
357.473	352.18
357.855	339.52
358.238	350.37
358.62	344.95
359.002	355.12
359.384	351.05
359.766	340.88
360.148	356.02
360.53	347.89
360.912	347.66
361.294	336.36
361.676	333.88
362.057	329.58
362.439	341.11
362.821	328.45
363.203	339.75
363.584	349.47
363.966	330.94
364.348	330.94
364.729	322.12
365.111	326.87
365.493	327.55
365.874	336.81
366.256	327.55
366.637	302.24
367.019	310.83
367.4	337.27
367.781	303.82
368.163	337.94
368.544	301.33
368.925	312.18
369.306	324.84
369.688	328.68
370.069	330.26
370.45	344.27
370.831	344.95
371.212	345.63
371.593	303.82
371.974	320.99
372.355	310.15
372.736	342.69
373.117	323.71
373.498	351.05
373.879	333.2
374.26	334.1
374.641	328.68
375.021	340.2
375.402	345.85
375.783	337.72
376.163	338.62
376.544	341.56
376.925	336.81
377.305	346.76
377.686	332.97
378.066	368.9
378.447	352.41
378.827	339.3
379.208	340.65
379.588	328
379.968	330.03
380.349	349.24
380.729	338.17
381.109	328.45
381.489	331.62
381.87	353.54
382.25	360.99
382.63	359.64
383.01	364.38
383.39	364.84
383.77	368.22
384.15	363.71
384.53	339.98
384.91	366.64
385.29	365.06
385.67	384.04
386.049	370.48
386.429	356.47
386.809	384.27
387.189	399.41
387.568	384.27
387.948	381.78
388.328	406.87
388.707	377.26
389.087	397.83
389.466	386.53
389.846	401.67
390.225	419.75
390.605	403.93
390.984	392.18
391.363	425.62
391.743	396.02
392.122	395.79
392.501	400.09
392.881	422.46
393.26	409.58
393.639	428.79
394.018	433.08
394.397	427.21
394.776	438.73
395.155	434.44
395.534	437.83
395.913	410.03
396.292	435.79
396.671	447.09
397.05	444.83
397.429	449.8
397.808	447.32
398.186	440.54
398.565	455.23
398.944	434.44
399.323	462.23
399.701	444.61
400.08	464.72
400.458	460.88
400.837	473.76
401.215	474.66
401.594	478.73
401.972	476.47
402.351	456.13
402.729	483.02
403.107	487.09
403.486	491.61
403.864	493.19
404.242	502.23
404.62	493.42
404.999	483.7
405.377	534.1
405.755	548.11
406.133	526.64
406.511	533.42
406.889	547.66
407.267	539.75
407.645	552.17
408.023	557.82
408.401	572.97
408.779	588.33
409.156	594.89
409.534	613.64
409.912	620.2
410.29	607.77
410.667	635.79
411.045	636.92
411.422	660.87
411.8	685.73
412.178	669.01
412.555	691.15
412.933	726.63
413.31	712.17
413.687	739.51
414.065	750.59
414.442	770.93
414.819	771.15
415.197	799.4
415.574	801.66
415.951	806.41
416.328	851.15
416.705	871.49
417.082	858.16
417.46	885.73
417.837	889.34
418.214	895.89
418.591	929.34
418.967	942.67
419.344	949
419.721	987.19
420.098	968.66
420.475	1009.11
420.852	1003.24
421.228	1018.38
421.605	1053.18
421.982	1052.5
422.358	1092.27
422.735	1104.93
423.111	1114.87
423.488	1110.35
423.864	1122.56
424.241	1156
424.617	1160.75
424.994	1198.26
425.37	1179.28
425.746	1193.29
426.123	1242.55
426.499	1236.68
426.875	1250.69
427.251	1286.62
427.627	1309.89
428.003	1319.16
428.379	1349.67
428.756	1353.51
429.132	1368.2
429.507	1399.16
429.883	1412.49
430.259	1443
430.635	1428.76
431.011	1466.28
431.387	1504.47
431.763	1517.57
432.138	1521.19
432.514	1562.77
432.89	1598.7
433.265	1628.53
433.641	1602.77
434.016	1639.6
434.392	1704.23
434.767	1711.47
435.143	1740.84
435.518	1718.47
435.894	1746.27
436.269	1752.82
436.644	1797.11
437.02	1827.85
437.395	1828.3
437.77	1877.11
438.145	1885.7
438.52	1906.04
438.895	1918.69
439.271	1928.86
439.646	1954.62
440.021	1991.46
440.395	1953.04
440.77	1968.63
441.145	1970.67
441.52	2032.14
441.895	2031.23
442.27	2084.11
442.645	2075.52
443.019	2115.75
443.394	2079.37
443.769	2118.46
444.143	2095.19
444.518	2165.92
444.892	2106.94
445.267	2141.06
445.641	2165.24
446.016	2171.12
446.39	2222.19
446.764	2204.56
447.139	2203.2
447.513	2248.18
447.887	2264.9
448.262	2246.14
448.636	2271.23
449.01	2319.36
449.384	2359.13
449.758	2320.26
450.132	2371.56
450.506	2369.98
450.88	2383.09
451.254	2375.86
451.628	2429.41
452.002	2440.03
452.376	2455.63
452.75	2514.38
453.123	2537.89
453.497	2576.75
453.871	2546.02
454.244	2609.97
454.618	2580.82
454.992	2670.54
455.365	2669.63
455.739	2706.92
456.112	2760.7
456.486	2783.98
456.859	2823.75
457.232	2833.47
457.606	2854.04
457.979	2856.52
458.352	2964.54
458.725	2981.49
459.099	3017.19
459.472	3079.34
459.845	3082.96
460.218	3098.55
460.591	3125.89
460.964	3121.6
461.337	3213.57
461.71	3273.01
462.083	3324.98
462.456	3318.88
462.829	3335.38
463.201	3364.53
463.574	3433
463.947	3462.83
464.32	3529.05
464.692	3570.4
465.065	3611.3
465.438	3636.39
465.81	3696.5
466.183	3685.43
466.555	3741.7
466.928	3790.06
467.3	3802.03
467.672	3898.53
468.045	3963.38
468.417	3967.68
468.789	4004.74
469.161	4129.26
469.534	4156.37
469.906	4210.61
470.278	4235.24
470.65	4287.22
471.022	4350.49
471.394	4432.98
471.766	4467.33
472.138	4492.41
472.51	4590.49
472.882	4675.46
473.253	4708.22
473.625	4812.18
473.997	4914.55
474.369	4924.94
474.74	4971.49
475.112	5025.73
475.484	5142.34
475.855	5164.03
476.227	5265.5
476.598	5397.47
476.97	5477.69
477.341	5540.07
477.713	5651.93
478.084	5670.91
478.455	5804.69
478.827	5844.92
479.198	6111.58
479.569	6072.71
479.94	6206.49
480.311	6279.93
480.682	6379.14
481.053	6547.72
481.424	6658.45
481.795	6698.23
482.166	6771.22
482.537	6894.38
482.908	7056.18
483.279	7082.62
483.65	7246.24
484.021	7389.06
484.391	7409.17
484.762	7468.83
485.133	7636.73
485.503	7688.03
485.874	7913.34
486.244	7941.13
486.615	8112.88
486.985	8220.67
487.356	8394.68
487.726	8400.56
488.097	8650.49
488.467	8595.58
488.837	8786.53
489.207	8872.41
489.578	9006.42
489.948	9147.65
490.318	9253.19
490.688	9251.16
491.058	9339.74
491.428	9568.89
491.798	9663.12
492.168	9794.64
492.538	9918.93
492.908	9995.77
493.278	10127.06
493.648	10140.17
494.017	10233.5
494.387	10397.57
494.757	10418.13
495.126	10625.58
495.496	10632.14
495.866	10666.94
496.235	10866.93
496.605	10867.16
496.974	10974.05
497.344	11118.68
497.713	11190.54
498.082	11245.68
498.452	11362.06
498.821	11485.45
499.19	11406.58
499.559	11609.29
499.928	11657.65
500.298	11738.55
500.667	11902.16
501.036	11893.35
501.405	12067.58
501.774	12087.92
502.143	12089.05
502.512	12212.66
502.88	12263.51
503.249	12308.02
503.618	12439.77
503.987	12506.44
504.356	12687.9
504.724	12744.85
505.093	12791.17
505.462	12911.62
505.83	12974.67
506.199	13027.33
506.567	13184.84
506.936	13210.15
507.304	13433.19
507.672	13444.94
508.041	13490.14
508.409	13622.79
508.777	13767.19
509.145	13917.47
509.514	13900.52
509.882	13973.29
510.25	14023.46
510.618	14213.74
510.986	14279.5
511.354	14383.9
511.722	14495.08
512.09	14707.96
512.458	14667.74
512.826	14744.8
513.193	14897.11
513.561	15008.29
513.929	15002.64
514.297	15292.35
514.664	15299.13
515.032	15477.88
515.4	15568.73
515.767	15686.47
516.135	15737.09
516.502	15644.43
516.869	16000.36
517.237	16013.24
517.604	15995.61
517.972	16229.95
518.339	16281.7
518.706	16458.65
519.073	16537.97
519.44	16624.75
519.808	16918.98
520.175	16799.43
520.542	17086.88
520.909	17126.43
521.276	17169.82
521.643	17408.91
522.009	17482.13
522.376	17677.83
522.743	17737.03
523.11	17994.2
523.477	18099.51
523.843	18174.31
524.21	18339.96
524.577	18566.84
524.943	18701.53
525.31	18773.16
525.676	18970.22
526.043	19044.34
526.409	19127.96
526.776	19382.19
527.142	19419.7
527.508	19540.6
527.874	19748.73
528.241	19821.05
528.607	19929.07
528.973	20152.11
529.339	20139.23
529.705	20392.33
530.071	20629.39
530.437	20623.06
530.803	20733.79
531.169	20896.5
531.535	20866.22
531.901	20895.82
532.267	21089.04
532.632	21241.35
532.998	21343.27
533.364	21465.3
533.73	21494.67
534.095	21726.99
534.461	21790.49
534.826	21880.65
535.192	22119.74
535.557	22162.91
535.923	22146.18
536.288	22251.04
536.653	22406.74
537.019	22282.9
537.384	22529.9
537.749	22650.58
538.114	22771.7
538.479	22679.28
538.845	22795.88
539.21	22838.59
539.575	22969.21
539.94	23167.85
540.305	23261.63
540.67	23287.4
541.034	23408.07
541.399	23532.59
541.764	23615.3
542.129	23567.16
542.494	23703.88
542.858	23778.68
543.223	23891.22
543.587	24076.08
543.952	23965.57
544.316	24036.53
544.681	24066.81
545.045	24206.47
545.41	24421.83
545.774	24415.73
546.138	24404.88
546.503	24596.51
546.867	24569.85
547.231	24860.24
547.595	24913.79
547.959	24865.21
548.324	24999.44
548.688	25036.5
549.052	25268.59
549.416	25178.65
549.779	25281.69
550.143	25278.76
550.507	25634
550.871	25653.21
551.235	25642.59
551.599	25823.6
551.962	25918.51
552.326	25978.62
552.689	26144.95
553.053	26085.51
553.417	26224.04
553.78	26510.81
554.143	26375.68
554.507	26539.97
554.87	26733.18
555.234	26798.49
555.597	26792.39
555.96	26947.64
556.323	27156.22
556.686	27089.56
557.05	27334.97
557.413	27419.49
557.776	27528.87
558.139	27779.71
558.502	27787.39
558.865	27858.12
559.228	28150.55
559.59	28172.92
559.953	28331.33
560.316	28558.9
560.679	28565.45
561.041	28636.18
561.404	28952.78
561.767	28984.2
562.129	28894.03
562.492	29135.83
562.854	29376.73
563.217	29252.21
563.579	29468.7
563.941	29599.32
564.304	29756.6
564.666	29926.09
565.028	29954.79
565.39	30125.86
565.753	30216.48
566.115	30406.76
566.477	30507.55
566.839	30609.92
567.201	30873.86
567.563	30826.63
567.925	31109.11
568.287	31061.88
568.648	31204.25
569.01	31418.48
569.372	31567.63
569.734	31463.23
570.095	31774.63
570.457	31767.63
570.819	31901.63
571.18	31908.41
571.542	32074.28
571.903	32191.79
572.265	32135.98
572.626	32316.31
572.987	32525.8
573.349	32462.3
573.71	32608.96
574.071	32621.39
574.432	32689.86
574.794	32984.09
575.155	32954.71
575.516	32872.23
575.877	32995.39
576.238	33169.17
576.599	33273.35
576.96	33257.08
577.32	33360.35
577.681	33514.92
578.042	33494.13
578.403	33627.69
578.763	33646.9
579.124	33689.38
579.485	33815.71
579.845	33798.31
580.206	33894.35
580.566	33921.47
580.927	33879.66
581.287	33917.17
581.648	33781.81
582.008	34029.94
582.368	33932.77
582.728	34108.35
583.089	33979.32
583.449	34031.29
583.809	34095.7
584.169	34213.89
584.529	33969.38
584.889	34378.18
585.249	34104.74
585.609	34096.83
585.969	34342.25
586.329	34203.04
586.688	34133.66
587.048	34204.62
587.408	34152.2
587.768	34154
588.127	34213.89
588.487	34135.92
588.846	34421.57
589.206	34149.26
589.565	34140.44
589.925	34497.27
590.284	34349.93
590.643	34305.64
591.003	34419.31
591.362	34462.7
591.721	34231.74
592.08	34423.83
592.44	34455.01
592.799	34432.41
593.158	34487.33
593.517	34438.29
593.876	34577.72
594.235	34485.97
594.593	34605.29
594.952	34521.68
595.311	34452.07
595.67	34490.72
596.029	34724.16
596.387	34690.03
596.746	34746.98
597.104	34557.16
597.463	34520.55
597.822	34692.07
598.18	34675.57
598.538	34711.5
598.897	34918.5
599.255	34519.87
599.613	35057.71
599.972	35000.08
600.33	34883.48
600.688	34790.82
601.046	34942
601.404	35074.2
601.762	34938.84
602.12	35206.63
602.478	35115.11
602.836	35207.99
603.194	35028.1
603.552	35047.31
603.91	34907.88
604.268	35156.24
604.625	35050.25
604.983	35196.46
605.341	34990.59
605.698	35386.29
606.056	35378.83
606.413	35357.36
606.771	35447.98
607.128	35485.27
607.485	35393.29
607.843	35390.81
608.2	35602.33
608.557	35661.99
608.914	35484.36
609.272	35718.26
609.629	35760.97
609.986	35828.31
610.343	35716.22
610.7	35934.07
611.057	35990.79
611.414	35857.01
611.771	35977.68
612.127	36064.24
612.484	36007.29
612.841	36191.24
613.198	36058.36
613.554	35942.2
613.911	36276.21
614.267	36162.31
614.624	36134.74
614.98	36159.15
615.337	36470.1
615.693	36349.88
616.05	36133.61
616.406	36489.99
616.762	36444.56
617.118	36274.4
617.475	36419.71
617.831	36533.15
618.187	36568.18
618.543	36580.15
618.899	36716.42
619.255	36640.94
619.611	36484.11
619.967	36695.18
620.323	36733.14
620.678	36565.01
621.034	36604.56
621.39	36545.8
621.746	36506.03
622.101	36942.18
622.457	36647.5
622.812	36645.24
623.168	36842.29
623.523	36703.54
623.879	36723.65
624.234	36562.08
624.589	36682.07
624.945	36865.57
625.3	36812.24
625.655	36786.7
626.01	36811.11
626.365	36773.6
626.72	36703.31
627.075	36754.16
627.43	36701.96
627.785	36648.85
628.14	36667.38
628.495	36676.42
628.85	36744.44
629.205	36497.22
629.559	36694.73
629.914	36619.02
630.269	36531.79
630.623	36488.86
630.978	36350.56
631.332	36611.34
631.687	36578.12
632.041	36408.41
632.396	36456.54
632.75	36383.55
633.104	36456.99
633.459	36231.91
633.813	36278.47
634.167	36126.15
634.521	36181.75
634.875	36155.31
635.229	36094.52
635.583	35926.84
635.937	36051.35
636.291	35983.79
636.645	35929.1
636.999	35881.19
637.352	35817.91
637.706	35760.97
638.06	35879.38
638.413	35792.15
638.767	35717.8
639.121	35862.43
639.474	35507.41
639.828	35530.24
640.181	35555.77
640.534	35519.16
640.888	35414.76
641.241	35262.67
641.594	35331.15
641.947	35356.23
642.301	35207.08
642.654	35282.34
643.007	35236.01
643.36	35118.95
643.713	35118.95
644.066	35169.57
644.419	34883.48
644.771	34884.61
645.124	34362.36
645.477	34389.48
645.83	34299.54
646.182	34065.42
646.535	33987
646.888	33930.51
647.24	33747.69
647.593	33993.1
647.945	33925.53
648.298	33721.92
648.65	33799.89
649.002	33650.74
649.355	33727.8
649.707	33792.66
650.059	33733.22
650.411	34262.93
650.763	34264.28
651.115	34433.32
651.467	34386.99
651.819	34194.23
652.171	34247.56
652.523	34198.52
652.875	34200.1
653.227	34003.5
653.578	34175.92
653.93	34155.36
654.282	33927.79
654.633	33911.07
654.985	33994.91
655.337	33886.67
655.688	34046.89
656.039	34073.1
656.391	33732.09
656.742	33910.39
657.094	33820.45
657.445	34042.82
657.796	33838.76
658.147	33622.94
658.498	33807.57
658.849	33758.08
659.2	33722.15
659.551	33674.92
659.902	33718.31
660.253	33620.23
660.604	33780.23
660.955	33538.43
661.306	33759.89
661.656	33468.82
662.007	33528.71
662.358	33550.18
662.708	33553.79
663.059	33537.52
663.409	33239.45
663.76	33496.85
664.11	33446.23
664.461	33503.62
664.811	33449.39
665.161	33383.18
665.511	33258.89
665.862	33301.14
666.212	33478.99
666.562	33414.81
666.912	33405.32
667.262	33260.69
667.612	33332.78
667.962	33247.13
668.312	33174.14
668.662	33443.51
669.011	33282.61
669.361	33248.26
669.711	33068.16
670.06	33186.34
670.41	33073.35
670.76	33111.09
671.109	33100.7
671.459	33084.2
671.808	32992
672.157	32981.83
672.507	32873.58
672.856	32883.75
673.205	32912.68
673.554	32888.95
673.904	32789.07
674.253	32936.41
674.602	32727.83
674.951	32341.62
675.3	32236.99
675.649	32561.28
675.998	32559.24
676.346	32734.83
676.695	32879.23
677.044	32571.67
677.393	32680.37
677.741	32727.6
678.09	32578.45
678.438	32557.66
678.787	32640.14
679.135	32560.37
679.484	32327.38
679.832	32505.68
680.181	32344.79
680.529	32500.94
680.877	32260.72
681.225	32281.06
681.573	32391.11
681.922	32220.27
682.27	31984.34
682.618	32100.72
682.966	31980.27
683.314	32077.45
683.661	31912.93
684.009	31794.97
684.357	31652.15
684.705	31633.17
685.053	31641.3
685.4	31599.72
685.748	31464.36
686.095	31576.22
686.443	31349.78
686.79	31339.61
687.138	31296.45
687.485	31310.01
687.832	31182.33
688.18	31078.83
688.527	31015.55
688.874	31027.31
689.221	30936.91
689.568	30739.63
689.915	30741.44
690.262	30779.85
690.609	30563.14
690.956	30598.84
691.303	30444.5
691.65	30395.46
691.997	30481.33
692.344	30186.2
692.69	30096.26
693.037	30158.18
693.383	29882.25
693.73	29924.51
694.077	29832.31
694.423	29917.73
694.769	29723.39
695.116	29618.98
695.462	29571.98
695.808	29434.81
696.155	29480
696.501	29262.83
696.847	29212.66
697.193	29077.3
697.539	29276.17
697.885	28976.51
698.231	28904.65
698.577	28973.8
698.923	28821.71
699.269	28642.28
699.614	28536.07
699.96	28525.45
700.306	28410.43
700.651	28329.52
700.997	28370.43
701.342	28279.36
701.688	28248.62
702.033	28150.32
702.379	28099.92
702.724	28070.55
703.069	28106.7
703.415	27664.91
703.76	27810.89
704.105	27790.33
704.45	27615.64
704.795	27533.61
705.14	27427.17
705.485	27434.41
705.83	27326.61
706.175	27366.84
706.52	27326.39
706.865	26977.47
707.209	27123.91
707.554	26919.17
707.899	27059.05
708.243	27023.8
708.588	26844.36
708.932	26664.03
709.277	26655.9
709.621	26754.42
709.966	26628.78
710.31	26668.1
710.654	26360.08
710.998	26492.96
711.342	26456.8
711.687	26352.63
712.031	26159.64
712.375	26175.68
712.719	26215.45
713.063	26072.41
713.407	26190.82
713.75	25994.44
714.094	25902.92
714.438	25837.16
714.782	25909.47
715.125	25673.77
715.469	25775.24
715.812	25728.24
716.156	25604.85
716.499	25544.51
716.843	25459.54
717.186	25291.41
717.53	25461.35
717.873	25425.65
718.216	25410.05
718.559	25263.16
718.902	25167.35
719.246	25199.89
719.589	25033.11
719.932	25100.68
720.275	25048.93
720.617	24931.19
720.96	24936.84
721.303	24850.74
721.646	24818.2
721.989	24784.08
722.331	24772.55
722.674	24603.52
723.016	24742.73
723.359	24626.57
723.701	24620.47
724.044	24341.61
724.386	24292.79
724.729	24450.53
725.071	24308.84
725.413	24261.38
725.755	24337.09
726.097	24151.78
726.439	24081.73
726.782	24105.45
727.124	24148.84
727.465	24060.48
727.807	24007.83
728.149	23988.17
728.491	23940.71
728.833	23876.08
729.175	23892.13
729.516	23831.56
729.858	23820.72
730.199	23692.36
730.541	23834.5
730.882	23683.77
731.224	23738.23
731.565	23515.86
731.906	23583.21
732.248	23570.78
732.589	23436.32
732.93	23420.5
733.271	23418.47
733.612	23432.7
733.953	23302.99
734.294	23280.39
734.635	23244.69
734.976	23318.13
735.317	23150.9
735.658	23075.65
735.999	23200.62
736.339	23071.58
736.68	23073.39
737.021	22897.58
737.361	22985.26
737.702	23031.13
738.042	22874.98
738.383	22861.19
738.723	22942.77
739.063	22777.13
739.404	22772.38
739.744	22728.99
740.084	22698.49
740.424	22581.43
740.764	22548.88
741.104	22806.05
741.444	22500.07
741.784	22404.93
742.124	22518.15
742.464	22550.01
742.804	22372.39
743.143	22343.69
743.483	22316.12
743.823	22253.07
744.162	22200.87
744.502	22187.54
744.841	22181.89
745.181	22190.25
745.52	22032.29
745.86	22116.58
746.199	22143.7
746.538	22021.21
746.877	22046.07
747.216	21984.38
747.556	21971.27
747.895	21931.73
748.234	21760.88
748.573	21781
748.911	21810.82
749.25	21748.68
749.589	21506.2
749.928	21609.47
750.267	21606.08
750.605	21493.09
750.944	21536.71
751.283	21430.72
751.621	21475.01
751.96	21420.1
752.298	21350.05
752.636	21357.28
752.975	21159.32
753.313	21197.73
753.651	21134.68
753.989	21130.84
