Data from white_steel_sheet_FLMS001491_044.txt Node
Date: Tue Feb 07 10:57:55 GMT 2017
User: dcchb
Spectrometer: FLMS00149
Trigger mode: 0
Integration Time (sec): 2.000000E-2
Scans to average: 10
Electric dark correction enabled: true
Nonlinearity correction enabled: false
Boxcar width: 0
XAxis mode: Wavelengths
Number of Pixels in Spectrum: 2048
>>>>>Begin Spectral Data<<<<<
341.393	-20.88
341.776	-20.88
342.16	-20.88
342.543	-84.83
342.927	-48.45
343.31	-66.3
343.693	-64.49
344.077	-83.25
344.46	-44.15
344.843	-49.8
345.226	-41.67
345.61	-42.8
345.993	-25.17
346.376	-1.21
346.759	9.18
347.142	32.23
347.525	54.83
347.908	44.43
348.291	65
348.674	93.47
349.057	119.69
349.44	130.53
349.823	147.03
350.206	171.66
350.588	211.66
350.971	221.15
351.354	243.75
351.737	246.24
352.119	239.46
352.502	251.66
352.884	267.03
353.267	290.76
353.65	302.73
354.032	309.06
354.414	295.27
354.797	325.56
355.179	316.29
355.562	334.82
355.944	343.86
356.326	321.71
356.709	342.73
357.091	311.09
357.473	349.96
357.855	337.53
358.238	349.96
358.62	345.67
359.002	346.35
359.384	347.48
359.766	348.15
360.148	342.73
360.53	353.13
360.912	344.09
361.294	334.82
361.676	357.19
362.057	350.64
362.439	323.07
362.821	348.38
363.203	331.43
363.584	320.36
363.966	326.91
364.348	308.38
364.729	323.07
365.111	347.25
365.493	338.21
365.874	319.23
366.256	333.24
366.637	313.13
367.019	328.27
367.4	333.24
367.781	303.86
368.163	331.88
368.544	332.56
368.925	332.79
369.306	344.31
369.688	335.5
370.069	320.36
370.45	315.61
370.831	328.95
371.212	326.46
371.593	327.36
371.974	320.81
372.355	355.84
372.736	329.4
373.117	322.17
373.498	362.84
373.879	333.92
374.26	335.5
374.641	338.44
375.021	322.39
375.402	319.91
375.783	331.21
376.163	336.86
376.544	343.41
376.925	326.91
377.305	331.66
377.686	345.44
378.066	337.31
378.447	344.09
378.827	341.83
379.208	350.41
379.588	348.61
379.968	351.54
380.349	364.2
380.729	353.35
381.109	378.44
381.489	355.16
381.87	355.39
382.25	353.35
382.63	344.54
383.01	374.14
383.39	389.28
383.77	377.98
384.15	394.03
384.53	372.79
384.91	368.27
385.29	375.72
385.67	382.5
386.049	398.77
386.429	384.54
386.809	376.18
387.189	380.92
387.568	395.39
387.948	394.03
388.328	395.16
388.707	387.02
389.087	393.35
389.466	403.29
389.846	405.33
390.225	415.95
390.605	415.95
390.984	419.11
391.363	425.44
391.743	434.03
392.122	435.16
392.501	442.39
392.881	443.97
393.26	436.29
393.639	443.52
394.018	451.65
394.397	448.94
394.776	457.08
395.155	454.14
395.534	456.17
395.913	477.19
396.292	462.5
396.671	462.5
397.05	474.25
397.429	509.51
397.808	493.01
398.186	511.31
398.565	515.61
398.944	517.42
399.323	530.3
399.701	508.83
400.08	524.65
400.458	537.53
400.837	535.27
401.215	566.68
401.594	564.19
401.972	563.74
402.351	540.92
402.729	571.65
403.107	609.62
403.486	598.54
403.864	591.54
404.242	620.69
404.62	624.76
404.999	614.59
405.377	628.37
405.755	653.91
406.133	671.76
406.511	643.97
406.889	692.55
407.267	696.39
407.645	715.38
408.023	705.89
408.401	744.3
408.779	736.17
409.156	754.92
409.534	775.94
409.912	770.97
410.29	801.7
410.667	777.75
411.045	824.53
411.422	824.53
411.8	825.88
412.178	831.98
412.555	845.32
412.933	862.72
413.31	883.06
413.687	893
414.065	883.73
414.442	910.4
414.819	909.95
415.197	916.28
415.574	918.99
415.951	940.91
416.328	942.49
416.705	944.52
417.082	936.84
417.46	990.85
417.837	1010.51
418.214	1019.55
418.591	1008.93
418.967	1019.55
419.344	1024.75
419.721	1043.28
420.098	1036.05
420.475	1071.75
420.852	1072.88
421.228	1080.34
421.605	1091.86
421.982	1140.9
422.358	1117.85
422.735	1134.57
423.111	1146.33
423.488	1155.59
423.864	1154.69
424.241	1200.56
424.617	1193.1
424.994	1172.09
425.37	1214.8
425.746	1240.11
426.123	1245.08
426.499	1233.78
426.875	1274.91
427.251	1306.1
427.627	1296.38
428.003	1305.19
428.379	1336.6
428.756	1342.7
429.132	1385.42
429.507	1391.52
429.883	1388.58
430.259	1448.69
430.635	1431.74
431.011	1442.82
431.387	1477.39
431.763	1544.06
432.138	1494.79
432.514	1520.33
432.89	1518.97
433.265	1579.31
433.641	1603.26
434.016	1603.94
434.392	1637.61
434.767	1676.71
435.143	1664.5
435.518	1658.63
435.894	1713.54
436.269	1753.99
436.644	1742.02
437.02	1761.45
437.395	1747.89
437.77	1798.51
438.145	1841.9
438.52	1832.64
438.895	1856.59
439.271	1857.49
439.646	1912.41
440.021	1927.77
440.395	1957.38
440.77	1930.71
441.145	1940.88
441.52	2002.57
441.895	1965.29
442.27	2008
442.645	2003.03
443.019	2062.91
443.394	2082.12
443.769	2074.66
444.143	2095.91
444.518	2130.03
444.892	2080.99
445.267	2119.18
445.641	2130.71
446.016	2163.47
446.39	2200.08
446.764	2176.36
447.139	2193.98
447.513	2208.9
447.887	2249.12
448.262	2249.12
448.636	2248.9
449.01	2285.73
449.384	2320.31
449.758	2335.22
450.132	2370.25
450.506	2378.84
450.88	2389.91
451.254	2402.56
451.628	2407.99
452.002	2483.24
452.376	2478.49
452.75	2515.1
453.123	2508.32
453.497	2561.88
453.871	2577.7
454.244	2626.06
454.618	2632.16
454.992	2703.57
455.365	2687.98
455.739	2784.25
456.112	2775.44
456.486	2813.4
456.859	2826.73
457.232	2873.51
457.606	2889.56
457.979	2930.01
458.352	2980.63
458.725	3027.86
459.099	3047.97
459.472	3097.01
459.845	3145.82
460.218	3176.1
460.591	3159.15
460.964	3176.33
461.337	3290.45
461.71	3337.91
462.083	3338.81
462.456	3350.56
462.829	3401.18
463.201	3445.47
463.574	3471.91
463.947	3527.73
464.32	3589.43
464.692	3588.3
465.065	3591.69
465.438	3712.81
465.81	3701.74
466.183	3783.09
466.555	3833.94
466.928	3861.96
467.3	3909.42
467.672	3931.79
468.045	3970.43
468.417	4009.98
468.789	4076.42
469.161	4156.42
469.534	4208.17
469.906	4278.45
470.278	4329.52
470.65	4374.04
471.022	4468.05
471.394	4525.45
471.766	4597.08
472.138	4607.7
472.51	4755.27
472.882	4803.18
473.253	4790.07
473.625	4906
473.997	5052.89
474.369	5058.09
474.74	5105.32
475.112	5155.71
475.484	5255.6
475.855	5321.58
476.227	5425.76
476.598	5589.6
476.97	5566.32
477.341	5717.96
477.713	5809.71
478.084	5811.29
478.455	5985.75
478.827	6023.71
479.198	6182.13
479.569	6208.34
479.94	6451.95
480.311	6450.37
480.682	6609.68
481.053	6795.22
481.424	6866.85
481.795	6923.8
482.166	7077.92
482.537	7100.75
482.908	7289.67
483.279	7358.59
483.65	7527.85
484.021	7673.16
484.391	7717.45
484.762	7811.24
485.133	7871.12
485.503	8002.64
485.874	8130.77
486.244	8260.49
486.615	8417.55
486.985	8545.45
487.356	8641.72
487.726	8677.88
488.097	8872.68
488.467	8926.91
488.837	9129.17
489.207	9239.22
489.578	9354.92
489.948	9449.61
490.318	9514.02
490.688	9626.1
491.058	9775.7
491.428	9908.81
491.798	10024.06
492.168	10201
492.538	10246.43
492.908	10363.03
493.278	10477.38
493.648	10573.2
494.017	10690.26
494.387	10800.76
494.757	10943.81
495.126	10905.17
495.496	11066.06
495.866	11046.86
496.235	11215.89
496.605	11322.1
496.974	11436.68
497.344	11455.89
497.713	11588.76
498.082	11699.04
498.452	11787.63
498.821	11892.48
499.19	11904.01
499.559	12054.06
499.928	12139.03
500.298	12267.16
500.667	12409.08
501.036	12396.88
501.405	12495.18
501.774	12541.05
502.143	12641.84
502.512	12679.13
502.88	12835.28
503.249	12882.06
503.618	12950.54
503.987	13103.75
504.356	13146.01
504.724	13174.48
505.093	13352.11
505.462	13413.35
505.83	13570.63
506.199	13644.53
506.567	13825.09
506.936	13820.57
507.304	14052.2
507.672	14094.69
508.041	14100.11
508.409	14266.43
508.777	14397.05
509.145	14367.22
509.514	14503.26
509.882	14590.72
510.25	14641.79
510.618	14801.79
510.986	14874.55
511.354	15033.42
511.722	15165.84
512.09	15318.83
512.458	15309.8
512.826	15449.23
513.193	15551.82
513.561	15601.09
513.929	15727.64
514.297	15858.93
514.664	16005.37
515.032	16012.15
515.4	16263.89
515.767	16265.48
516.135	16449.43
516.502	16357.9
516.869	16764.22
517.237	16846.03
517.604	16833.37
517.972	17046.92
518.339	17175.28
518.706	17134.61
519.073	17325.11
519.44	17459.57
519.808	17681.48
520.175	17673.12
520.542	17907.92
520.909	18011.65
521.276	18062.94
521.643	18266.33
522.009	18441.92
522.376	18633.32
522.743	18694.34
523.11	18809.59
523.477	19036.7
523.843	19190.6
524.21	19355.11
524.577	19601.21
524.943	19543.13
525.31	19699.96
525.676	19799.62
526.043	19997.36
526.409	20080.52
526.776	20360.74
527.142	20424.01
527.508	20568.87
527.874	20863.55
528.241	20796.2
528.607	20822.87
528.973	21051.79
529.339	21177.44
529.705	21426.7
530.071	21532
530.437	21633.24
530.803	21733.58
531.169	21959.79
531.535	21854.48
531.901	22007.02
532.267	22160.69
532.632	22354.58
532.998	22463.51
533.364	22581.92
533.73	22600
534.095	22905.98
534.461	22907.34
534.826	22964.51
535.192	23065.98
535.557	23348.23
535.923	23303.94
536.288	23394.33
536.653	23512.52
537.019	23502.8
537.384	23606.75
537.749	23770.14
538.114	23940.75
538.479	23913.64
538.845	24048.1
539.21	24025.27
539.575	24202.89
539.94	24222.56
540.305	24421.65
540.67	24345.72
541.034	24549.33
541.399	24656.89
541.764	24742.77
542.129	24767.63
542.494	24898.24
542.858	25007.39
543.223	25043.78
543.587	25217.56
543.952	25070.89
544.316	25179.14
544.681	25372.13
545.045	25446.48
545.41	25583.42
545.774	25653.03
546.138	25728.96
546.503	25854.6
546.867	25854.6
547.231	26056.18
547.595	26062.05
547.959	26142.05
548.324	26209.4
548.688	26229.73
549.052	26400.13
549.416	26457.75
549.779	26549.05
550.143	26624.3
550.507	26874.69
550.871	26800.34
551.235	26809.61
551.599	26936.38
551.962	27150.61
552.326	27147.9
552.689	27377.73
553.053	27332.53
553.417	27480.1
553.78	27797.38
554.143	27625.86
554.507	27797.15
554.87	27917.37
555.234	28181.32
555.597	27960.76
555.96	28210.25
556.323	28320.98
556.686	28355.33
557.05	28599.84
557.413	28672.38
557.776	28845.03
558.139	28920.28
558.502	28995.99
558.865	29158.47
559.228	29236.21
559.59	29384.68
559.953	29448.18
560.316	29714.61
560.679	29673.94
561.041	29835.29
561.404	29923.2
561.767	30265.11
562.129	30182.62
562.492	30543.52
562.854	30552.11
563.217	30577.64
563.579	30632.78
563.941	30945.54
564.304	30922.49
564.666	31187.34
565.028	31189.15
565.39	31374.23
565.753	31583.04
566.115	31571.51
566.477	31815.58
566.839	31740.32
567.201	32076.36
567.563	32020.32
567.925	32150.93
568.287	32257.82
568.648	32384.15
569.01	32557.48
569.372	32712.95
569.734	32624.59
570.095	33032.94
570.457	32919.5
570.819	33116.78
571.18	33143.45
571.542	33245.37
571.903	33264.8
572.265	33502.31
572.626	33498.24
572.987	33562.42
573.349	33778.69
573.71	33891.23
574.071	33943.43
574.432	34013.26
574.794	34188.39
575.155	34219.58
575.516	33986.82
575.877	34269.07
576.238	34343.19
576.599	34508.39
576.96	34480.14
577.32	34509.74
577.681	34711.32
578.042	34693.69
578.403	34584.77
578.763	34610.08
579.124	34761.71
579.485	34911.09
579.845	34923.06
580.206	34886.23
580.566	34933.01
580.927	35047.36
581.287	35035.6
581.648	34909.96
582.008	35083.29
582.368	34879.9
582.728	35097.07
583.089	35020.46
583.449	34978.66
583.809	35138.2
584.169	35165.32
584.529	35043.06
584.889	35271.76
585.249	35143.62
585.609	34994.7
585.969	35211.87
586.329	35158.76
586.688	35177.75
587.048	35208.26
587.408	35205.32
587.768	35026.56
588.127	35161.7
588.487	35145.88
588.846	35382.49
589.206	35031.54
589.565	35199.44
589.925	35388.59
590.284	35273.79
590.643	35164.64
591.003	35166.9
591.362	35264.3
591.721	35186.33
592.08	35258.42
592.44	35370.51
592.799	35376.84
593.158	35191.31
593.517	35256.39
593.876	35343.84
594.235	35126
594.593	35305.65
594.952	35257.75
595.311	35225.2
595.67	35240.8
596.029	35440.79
596.387	35621.35
596.746	35605.08
597.104	35459.32
597.463	35276.95
597.822	35524.63
598.18	35284.41
598.538	35232.44
598.897	35577.96
599.255	35350.85
599.613	35692.08
599.972	35485.76
600.33	35575.48
600.688	35507
601.046	35553.1
601.404	35722.14
601.762	35597.62
602.12	35750.61
602.478	35649.15
602.836	35691.86
603.194	35457.29
603.552	35708.58
603.91	35407.8
604.268	35634.46
604.625	35570.96
604.983	35727.79
605.341	35571.41
605.698	35707.9
606.056	35813.21
606.413	35938.18
606.771	35929.82
607.128	35984.96
607.485	35673.1
607.843	35898.18
608.2	35961.91
608.557	36099.98
608.914	35909.93
609.272	36145.63
609.629	36086.42
609.986	36311.28
610.343	36237.38
610.7	36433.53
611.057	36260.2
611.414	36227.89
611.771	36363.03
612.127	36511.5
612.484	36420.43
612.841	36550.37
613.198	36468.79
613.554	36417.04
613.911	36650.7
614.267	36554.66
614.624	36553.98
614.98	36724.37
615.337	36830.36
615.693	36799.4
616.05	36728.89
616.406	36926.63
616.762	36861.77
617.118	36934.76
617.475	36893.41
617.831	36991.03
618.187	37099.05
618.543	37030.81
618.899	37217.92
619.255	37115.78
619.611	37171.82
619.967	37104.93
620.323	37311.02
620.678	37148.54
621.034	37100.18
621.39	37041.43
621.746	37068.32
622.101	37569.1
622.457	37089.11
622.812	37247.75
623.168	37280.74
623.523	37472.83
623.879	37239.16
624.234	37312.83
624.589	37404.58
624.945	37351.48
625.3	37287.75
625.655	37362.55
626.01	37285.49
626.365	37393.73
626.72	37325.49
627.075	37336.33
627.43	37355.32
627.785	37160.07
628.14	37267.64
628.495	37227.64
628.85	37221.31
629.205	37072.16
629.559	37303.12
629.914	37053.18
630.269	37171.14
630.623	37045.72
630.978	36961.2
631.332	37160.97
631.687	37155.55
632.041	37055.21
632.396	37023.57
632.75	36806.41
633.104	36846.63
633.459	36727.09
633.813	36756.01
634.167	36699.74
634.521	36709.91
634.875	36713.3
635.229	36650.25
635.583	36465.85
635.937	36448.67
636.291	36401.44
636.645	36452.52
636.999	36345.85
637.352	36503.81
637.706	36251.17
638.06	36265.18
638.413	36244.61
638.767	36141.56
639.121	36319.64
639.474	36059.98
639.828	36097.95
640.181	36053.66
640.534	36057.5
640.888	35868.12
641.241	35849.82
641.594	35842.81
641.947	35895.47
642.301	35808.24
642.654	35673.33
643.007	35808.92
643.36	35631.52
643.713	35530.05
644.066	35618.64
644.419	35427.01
644.771	35201.48
645.124	34947.47
645.477	34810.53
645.83	34501.38
646.182	34421.84
646.535	34379.35
646.888	34560.59
647.24	34325.11
647.593	34454.38
647.945	34329.18
648.298	34175.97
648.65	34289.41
649.002	34173.48
649.355	34222.29
649.707	34154.72
650.059	34215.51
650.411	34586.12
650.763	34556.07
651.115	35060.24
651.467	34826.12
651.819	34787.25
652.171	34885.1
652.523	34653.92
652.875	34712.22
653.227	34478.1
653.578	34794.48
653.93	34705.9
654.282	34535.96
654.633	34463.64
654.985	34437.43
655.337	34541.38
655.688	34503.87
656.039	34581.6
656.391	34374.15
656.742	34332.35
657.094	34303.87
657.445	34481.27
657.796	34370.54
658.147	34242.18
658.498	34313.14
658.849	34204.67
659.2	34054.16
659.551	34005.12
659.902	34147.49
660.253	34004.44
660.604	33938.91
660.955	33856.88
661.306	33970.1
661.656	33777.56
662.007	33889.65
662.358	33825.01
662.708	33756.77
663.059	33687.62
663.409	33458.02
663.76	33660.05
664.11	33609.88
664.461	33597.9
664.811	33667.5
665.161	33493.72
665.511	33401.3
665.862	33339.83
666.212	33554.29
666.562	33411.01
666.912	33221.19
667.262	33142.77
667.612	32995.43
667.962	33150.68
668.312	32785.27
668.662	32936
669.011	32964.02
669.361	32710.47
669.711	32654.2
670.06	32591.15
670.41	32517.93
670.76	32385.5
671.109	32448.78
671.459	32311.38
671.808	32190.26
672.157	32395.67
672.507	32118.17
672.856	31965.18
673.205	32127.43
673.554	32062.8
673.904	31997.72
674.253	32101.44
674.602	31862.35
674.951	31345.31
675.3	31277.51
675.649	31727.44
675.998	31679.53
676.346	31706.88
676.695	31830.49
677.044	31461.46
677.393	31608.8
677.741	31667.33
678.09	31529.93
678.438	31389.15
678.787	31480.22
679.135	31568.8
679.484	31265.53
679.832	31373.33
680.181	31220.11
680.529	31459.88
680.877	31197.96
681.225	31295.59
681.573	31562.48
681.922	31394.12
682.27	31324.52
682.618	31323.61
682.966	31229.38
683.314	31281.58
683.661	31286.55
684.009	31258.3
684.357	31209.04
684.705	31168.14
685.053	31209.04
685.4	31114.58
685.748	31160
686.095	31162.49
686.443	31143.5
686.79	31065.77
687.138	31165.42
687.485	31053.34
687.832	31105.31
688.18	31162.49
688.527	31011.98
688.874	31027.35
689.221	30969.95
689.568	30901.25
689.915	30875.94
690.262	30949.38
690.609	30826.9
690.956	30889.5
691.303	30938.31
691.65	30735.38
691.997	30715.72
692.344	30648.15
692.69	30637.75
693.037	30662.16
693.383	30417.19
693.73	30535.16
694.077	30327.71
694.423	30352.34
694.769	30416.97
695.116	30353.69
695.462	30375.39
695.808	30249.29
696.155	30261.94
696.501	30087.03
696.847	30119.8
697.193	29858.11
697.539	30172.68
697.885	29740.83
698.231	29650.44
698.577	29813.82
698.923	29783.76
699.269	29627.84
699.614	29472.81
699.96	29475.75
700.306	29501.51
700.651	29306.04
700.997	29250.67
701.342	29095.65
701.688	29116.89
702.033	29053.39
702.379	28990.11
702.724	28944.01
703.069	28956.44
703.415	28800.97
703.76	28689.78
704.105	28792.38
704.45	28616.34
704.795	28487.53
705.14	28207.31
705.485	28401.2
705.83	28305.84
706.175	28177.71
706.52	28213.41
706.865	28111.72
707.209	28111.94
707.554	28012.96
707.899	28069.46
708.243	27709.47
708.588	27739.3
708.932	27671.5
709.277	27618.4
709.621	27597.61
709.966	27562.35
710.31	27537.04
710.654	27473.32
710.998	27416.37
711.342	27356.26
711.687	27269.25
712.031	27063.84
712.375	26963.05
712.719	27111.74
713.063	26960.56
713.407	27062.71
713.75	26938.19
714.094	26946.78
714.438	26889.38
714.782	26879.89
715.125	26645.32
715.469	26761.47
715.812	26524.19
716.156	26494.81
716.499	26511.53
716.843	26462.27
717.186	26348.83
717.53	26427.02
717.873	26367.58
718.216	26364.42
718.559	26096.4
718.902	26004.2
719.246	26006.24
719.589	25973.92
719.932	25794.49
720.275	25910.42
720.617	25787.03
720.96	25710.2
721.303	25741.16
721.646	25868.39
721.989	25664.55
722.331	25681.95
722.674	25554.95
723.016	25583.42
723.359	25601.95
723.701	25654.38
724.044	25443.77
724.386	25349.31
724.729	25485.35
725.071	25233.15
725.413	25318.8
725.755	25291.23
726.097	25161.06
726.439	25123.77
726.782	25037.22
727.124	25206.48
727.465	24995.87
727.807	25008.52
728.149	24847.4
728.491	24899.37
728.833	24863.22
729.175	24822.31
729.516	24873.39
729.858	24728.3
730.199	24750.68
730.541	24668.42
730.882	24647.85
731.224	24635.2
731.565	24560.63
731.906	24599.04
732.248	24493.28
732.589	24367.18
732.93	24362.89
733.271	24430.23
733.612	24372.38
733.953	24333.06
734.294	24242.44
734.635	24123.35
734.976	24214.87
735.317	24136.46
735.658	24082.67
735.999	24092.16
736.339	24056.91
736.68	23972.84
737.021	23905.95
737.361	23770.36
737.702	23836.35
738.042	23857.14
738.383	23820.31
738.723	23777.6
739.063	23660.08
739.404	23709.12
739.744	23688.78
740.084	23607.88
740.424	23632.51
740.764	23580.09
741.104	23636.13
741.444	23470.48
741.784	23336.02
742.124	23467.32
742.464	23425.06
742.804	23357.72
743.143	23267.55
743.483	23242.02
743.823	23206.99
744.162	23193.43
744.502	23222.81
744.841	23119.31
745.181	23146.88
745.52	22994.56
745.86	23032.3
746.199	22903.27
746.538	22978.75
746.877	22890.61
747.216	22930.16
747.556	22839.77
747.895	22811.74
748.234	22752.99
748.573	22693.33
748.911	22702.82
749.25	22704.4
749.589	22547.34
749.928	22553.67
750.267	22549.38
750.605	22366.33
750.944	22502.83
751.283	22306
751.621	22362.27
751.96	22269.84
752.298	22223.06
752.636	22261.02
752.975	22060.35
753.313	22058.32
753.651	22173.8
753.989	21897.19
