Data from whiteboard_FLMS001491_00054.txt Node
Date: Wed Feb 08 11:27:06 GMT 2017
User: dcchb
Spectrometer: FLMS00149
Trigger mode: 0
Integration Time (sec): 2.000000E-2
Scans to average: 10
Electric dark correction enabled: true
Nonlinearity correction enabled: false
Boxcar width: 0
XAxis mode: Wavelengths
Number of Pixels in Spectrum: 2048
>>>>>Begin Spectral Data<<<<<
341.393	0.92
341.776	0.92
342.16	0.92
342.543	-82.7
342.927	-71.62
343.31	-62.81
343.693	-69.14
344.077	-70.04
344.46	-63.49
344.843	-63.94
345.226	-40.21
345.61	-25.3
345.993	2.27
346.376	-9.03
346.759	-2.92
347.142	44.31
347.525	16.96
347.908	66.23
348.291	74.14
348.674	94.47
349.057	108.49
349.44	118.43
349.823	150.97
350.206	190.74
350.588	226.22
350.971	222.16
351.354	250.85
351.737	250.4
352.119	265.54
352.502	308.71
352.884	300.12
353.267	318.65
353.65	308.48
354.032	324.53
354.414	320.91
354.797	359.1
355.179	363.85
355.562	354.58
355.944	362.94
356.326	350.51
356.709	374.47
357.091	373.79
357.473	408.14
357.855	370.85
358.238	374.47
358.62	401.59
359.002	361.59
359.384	378.76
359.766	359.1
360.148	371.98
360.53	358.65
360.912	377.63
361.294	386.67
361.676	369.27
362.057	374.24
362.439	382.15
362.821	354.13
363.203	345.09
363.584	358.65
363.966	369.72
364.348	376.5
364.729	370.17
365.111	374.92
365.493	369.5
365.874	346.67
366.256	359.1
366.637	361.59
367.019	360.68
367.4	367.46
367.781	355.26
368.163	330.17
368.544	370.85
368.925	366.56
369.306	357.29
369.688	352.55
370.069	372.43
370.45	383.73
370.831	374.47
371.212	346.22
371.593	377.86
371.974	382.15
372.355	384.64
372.736	370.17
373.117	368.82
373.498	390.96
373.879	371.98
374.26	378.08
374.641	366.78
375.021	381.47
375.402	371.3
375.783	384.64
376.163	407.01
376.544	398.65
376.925	390.51
377.305	400.68
377.686	382.15
378.066	404.52
378.447	414.24
378.827	414.47
379.208	396.84
379.588	421.02
379.968	410.62
380.349	419.66
380.729	414.24
381.109	417.86
381.489	415.82
381.87	425.09
382.25	427.8
382.63	447.91
383.01	427.12
383.39	437.29
383.77	430.51
384.15	428.03
384.53	455.6
384.91	452.43
385.29	468.93
385.67	454.47
386.049	467.35
386.429	479.32
386.809	474.8
387.189	480
387.568	482.04
387.948	452.66
388.328	477.74
388.707	497.18
389.087	496.95
389.466	499.21
389.846	499.44
390.225	510.96
390.605	534.46
390.984	539.89
391.363	535.14
391.743	552.54
392.122	556.38
392.501	543.5
392.881	548.25
393.26	578.08
393.639	579.43
394.018	593.9
394.397	599.55
394.776	581.92
395.155	602.26
395.534	611.75
395.913	623.95
396.292	630.73
396.671	634.35
397.05	656.72
397.429	638.42
397.808	657.17
398.186	663.27
398.565	680
398.944	670.05
399.323	689.26
399.701	698.75
400.08	677.74
400.458	739.88
400.837	754.8
401.215	747.57
401.594	759.09
401.972	782.37
402.351	808.81
402.729	789.15
403.107	828.01
403.486	831.63
403.864	838.64
404.242	830.05
404.62	861.69
404.999	873.44
405.377	905.75
405.755	904.62
406.133	924.28
406.511	936.03
406.889	974.23
407.267	1013.32
407.645	1015.58
408.023	1037.27
408.401	1050.61
408.779	1067.78
409.156	1090.38
409.534	1093.77
409.912	1118.63
410.29	1135.58
410.667	1156.14
411.045	1192.3
411.422	1197.95
411.8	1199.98
412.178	1272.75
412.555	1262.35
412.933	1288.57
413.31	1301
413.687	1297.61
414.065	1348
414.442	1378.06
414.819	1413.08
415.197	1429.36
415.574	1476.36
415.951	1457.38
416.328	1498.73
416.705	1515.45
417.082	1477.94
417.46	1542.12
417.837	1593.19
418.214	1576.92
418.591	1595.23
418.967	1624.15
419.344	1650.82
419.721	1687.43
420.098	1677.48
420.475	1731.27
420.852	1693.53
421.228	1752.06
421.605	1742.34
421.982	1763.36
422.358	1816.01
422.735	1838.61
423.111	1811.94
423.488	1864.6
423.864	1907.76
424.241	1897.59
424.617	1949.79
424.994	1966.52
425.37	1968.32
425.746	1997.02
426.123	2020.53
426.499	2024.14
426.875	2089.45
427.251	2110.69
427.627	2164.03
428.003	2179.62
428.379	2215.32
428.756	2239.73
429.132	2268.88
429.507	2347.75
429.883	2343.91
430.259	2356.56
430.635	2387.3
431.011	2419.16
431.387	2510.68
431.763	2526.5
432.138	2523.11
432.514	2563.11
432.89	2583.9
433.265	2668.64
433.641	2719.04
434.016	2724.91
434.392	2766.04
434.767	2789.55
435.143	2796.32
435.518	2872.25
435.894	2921.97
436.269	2952.7
436.644	2997
437.02	2996.55
437.395	3024.12
437.77	3046.04
438.145	3114.96
438.52	3141.4
438.895	3213.49
439.271	3187.73
439.646	3275.18
440.021	3291
440.395	3258.91
440.77	3285.13
441.145	3359.7
441.52	3392.69
441.895	3409.87
442.27	3484.89
442.645	3430.43
443.019	3534.61
443.394	3478.57
443.769	3567.15
444.143	3552.69
444.518	3616.87
444.892	3587.94
445.267	3629.98
445.641	3645.79
446.016	3711.55
446.39	3746.13
446.764	3756.3
447.139	3713.81
447.513	3821.61
447.887	3869.52
448.262	3839.46
448.636	3911.78
449.01	3942.74
449.384	3986.58
449.758	4045.78
450.132	4064.31
450.506	4067.48
450.88	4110.64
451.254	4118.1
451.628	4176.4
452.002	4229.06
452.376	4287.59
452.75	4308.38
453.123	4390.63
453.497	4448.94
453.871	4441.71
454.244	4559.44
454.618	4622.49
454.992	4683.28
455.365	4703.39
455.739	4786.1
456.112	4843.28
456.486	4922.6
456.859	4950.84
457.232	5060.45
457.606	5052.54
457.979	5078.3
458.352	5238.07
458.725	5276.49
459.099	5335.02
459.472	5445.97
459.845	5487.1
460.218	5544.5
460.591	5599.64
460.964	5652.97
461.337	5730.03
461.71	5849.13
462.083	5892.06
462.456	5972.74
462.829	5951.72
463.201	6107.42
463.574	6121.89
463.947	6232.84
464.32	6326.4
464.692	6372.5
465.065	6478.04
465.438	6538.15
465.81	6659.73
466.183	6741.76
466.555	6900.85
466.928	6958.02
467.3	6947.4
467.672	7047.74
468.045	7271.91
468.417	7272.59
468.789	7323.44
469.161	7429.2
469.534	7584.9
469.906	7749.64
470.278	7822.86
470.65	7876.19
471.022	8022.18
471.394	8232.57
471.766	8274.37
472.138	8376.97
472.51	8496.06
472.882	8689.05
473.253	8829.16
473.625	8929.04
473.997	9084.97
474.369	9184.41
474.74	9307.34
475.112	9466.21
475.484	9673.66
475.855	9810.6
476.227	9877.27
476.598	10168.79
476.97	10222.8
477.341	10482.68
477.713	10588.44
478.084	10652.16
478.455	10914.76
478.827	11046.05
479.198	11416.89
479.569	11437.45
479.94	11780.27
480.311	11910.44
480.682	12149.53
481.053	12379.35
481.424	12564.66
481.795	12651.21
482.166	12903.4
482.537	13153.34
482.908	13326.9
483.279	13522.37
483.65	13723.04
484.021	14070.15
484.391	14129.36
484.762	14274.44
485.133	14500.65
485.503	14657.26
485.874	15113.74
486.244	15132.05
486.615	15463.79
486.985	15651.13
487.356	16064
487.726	16065.13
488.097	16469.64
488.467	16475.74
488.837	16873.69
489.207	17019.68
489.578	17386.68
489.948	17424.87
490.318	17713.9
490.688	17769.04
491.058	18053.55
491.428	18361.11
491.798	18505.29
492.168	18888.11
492.538	18992.74
492.908	19178.49
493.278	19506.39
493.648	19576.22
494.017	19804.01
494.387	19934.63
494.757	20098.02
495.126	20338.69
495.496	20456.2
495.866	20558.57
496.235	20756.76
496.605	21041.04
496.974	21041.04
497.344	21318.55
497.713	21541.59
498.082	21594.02
498.452	21787.24
498.821	21914.69
499.19	22109.04
499.559	22290.28
499.928	22438.52
500.298	22544.51
500.667	22873.54
501.036	22717.61
501.405	23008.9
501.774	23086.19
502.143	23301.77
502.512	23270.36
502.88	23695.21
503.249	23633.52
503.618	23821.08
503.987	23957.58
504.356	24022.66
504.724	24183.56
505.093	24370.45
505.462	24635.98
505.83	24701.74
506.199	24888.4
506.567	25268.73
506.936	25109.86
507.304	25474.15
507.672	25701.26
508.041	25841.37
508.409	25996.62
508.777	26255.59
509.145	26404.29
509.514	26448.58
509.882	26673.21
510.25	26779.42
510.618	26999.53
510.986	27044.73
511.354	27453.53
511.722	27647.65
512.09	27811.26
512.458	27896.91
512.826	28167.18
513.193	28338.7
513.561	28446.95
513.929	28846.71
514.297	28904.79
514.664	29280.83
515.032	29329.64
515.4	29554.27
515.767	29748.16
516.135	29987.93
516.502	29828.61
516.869	30340.01
517.237	30512.21
517.604	30506.56
517.972	30843.72
518.339	31043.94
518.706	31091.4
519.073	31476.93
519.44	31663.81
519.808	32025.61
520.175	31974.99
520.542	32440.07
520.909	32472.38
521.276	32540.85
521.643	33054.74
522.009	33173.83
522.376	33322.53
522.743	33627.83
523.11	33954.38
523.477	34295.84
523.843	34355.95
524.21	34779.66
524.577	34943.95
524.943	35147.56
525.31	35482.7
525.676	35621.45
526.043	35865.29
526.409	36014.89
526.776	36481.99
527.142	36628.88
527.508	36693.29
527.874	37152.71
528.241	37248.07
528.607	37458.92
528.973	37805.57
529.339	37765.12
529.705	38113.14
530.071	38418.21
530.437	38582.05
530.803	38749.05
531.169	39052.32
531.535	38968.93
531.901	39228.59
532.267	39357.4
532.632	39578.86
532.998	39695.24
533.364	39883.71
533.73	40146.98
534.095	40334.55
534.461	40489.34
534.826	40710.58
535.192	40865.83
535.557	41226.73
535.923	41133.17
536.288	41397.12
536.653	41612.25
537.019	41512.59
537.384	41658.35
537.749	41979.93
538.114	42166.59
538.479	42213.59
538.845	42428.5
539.21	42470.08
539.575	42674.37
539.94	42764.77
540.305	43174.7
540.67	43044.76
541.034	43301.02
541.399	43453.79
541.764	43675.93
542.129	43887.67
542.494	43909.14
542.858	44103.04
543.223	44102.36
543.587	44471.16
543.952	44428.9
544.316	44727.88
544.681	44457.38
545.045	45005.38
545.41	45191.82
545.774	45211.48
546.138	45259.16
546.503	45504.81
546.867	45501.19
547.231	45895.76
547.595	45921.07
547.959	46002.65
548.324	46148.63
548.688	46253.26
549.052	46334.62
549.416	46308.4
549.779	46509.53
550.143	46387.27
550.507	46860.7
550.871	46893.47
551.235	46859.57
551.599	47244.87
551.962	47182.73
552.326	47331.88
552.689	47537.3
553.053	47366.45
553.417	47522.38
553.78	47982.93
554.143	47866.78
554.507	48011.41
554.87	48161.23
555.234	48633.76
555.597	48401.68
555.96	48568.68
556.323	48713.76
556.686	48691.39
557.05	49040.53
557.413	49128.67
557.776	49259.51
558.139	49409.79
558.502	49465.15
558.865	49560.29
559.228	49791.02
559.59	49979.49
559.953	49958.25
560.316	50306.26
560.679	50316.21
561.041	50609.76
561.404	50797.77
561.767	50918.68
562.129	50852.24
562.492	51298.78
562.854	51277.31
563.217	51381.04
563.579	51466.23
563.941	51714.81
564.304	51907.12
564.666	52089.27
565.028	52069.83
565.39	52205.87
565.753	52406.55
566.115	52477.5
566.477	52630.04
566.839	52761.56
567.201	53054.44
567.563	52955.23
567.925	53299.4
568.287	53294.66
568.648	53269.8
569.01	53513.18
569.372	53684.93
569.734	53598.83
570.095	53816.9
570.457	53899.61
570.819	53907.75
571.18	54003.79
571.542	54214.18
571.903	54218.02
572.265	54430.9
572.626	54408.98
572.987	54485.81
573.349	54609.43
573.71	54687.16
574.071	54827.73
574.432	54885.8
574.794	55059.81
575.155	55020.94
575.516	55062.97
575.877	55151.33
576.238	55160.15
576.599	55309.52
576.96	55309.52
577.32	55297.54
577.681	55446.47
578.042	55452.79
578.403	55450.08
578.763	55493.7
579.124	55502.74
579.485	55671.54
579.845	55696.18
580.206	55662.96
580.566	55656.18
580.927	55739.57
581.287	55762.84
581.648	55609.85
582.008	55773.46
582.368	55763.07
582.728	55864.31
583.089	55780.24
583.449	55747.93
583.809	55758.55
584.169	55854.59
584.529	55818.21
584.889	55949.96
585.249	55813.91
585.609	55739.79
585.969	55929.17
586.329	55798.32
586.688	55835.38
587.048	55815.95
587.408	55759.23
587.768	55808.94
588.127	55785.21
588.487	55789.96
588.846	55898.43
589.206	55638.55
589.565	55758.1
589.925	55827.92
590.284	55771.2
590.643	55795.84
591.003	55860.01
591.362	55941.14
591.721	55843.29
592.08	55816.85
592.44	55901.82
592.799	55820.92
593.158	55834.25
593.517	55865.66
593.876	55906.11
594.235	55837.19
594.593	55837.19
594.952	55969.62
595.311	55923.97
595.67	55942.95
596.029	56038.54
596.387	56052.1
596.746	56119.89
597.104	55969.62
597.463	56064.98
597.822	56232.43
598.18	56107.47
598.538	56116.96
598.897	56258.2
599.255	56191.31
599.613	56514.46
599.972	56401.24
600.33	56467.91
600.688	56393.56
601.046	56464.97
601.404	56561.01
601.762	56478.08
602.12	56612.76
602.478	56557.85
602.836	56646.66
603.194	56449.83
603.552	56516.72
603.91	56562.59
604.268	56694.12
604.625	56558.53
604.983	56653.44
605.341	56544.52
605.698	56709.26
606.056	56819.54
606.413	56731.86
606.771	56803.72
607.128	56817.5
607.485	56652.08
607.843	56751.97
608.2	56899.53
608.557	56933.66
608.914	56866.99
609.272	57015.69
609.629	57011.62
609.986	57086.65
610.343	56923.04
610.7	57128.68
611.057	57014.11
611.414	57041.45
611.771	57044.16
612.127	57112.64
612.484	57089.59
612.841	57210.94
613.198	57088.91
613.554	57121.68
613.911	57248.23
614.267	57132.52
614.624	57143.14
614.98	57209.81
615.337	57335.91
615.693	57264.5
616.05	57240.09
616.406	57342.91
616.762	57255.46
617.118	57272.41
617.475	57188.57
617.831	57258.4
618.187	57300.88
618.543	57268.34
618.899	57400.09
619.255	57340.65
619.611	57340.2
619.967	57374.1
620.323	57447.09
620.678	57370.03
621.034	57245.06
621.39	57271.5
621.746	57239.19
622.101	57527.99
622.457	57214.33
622.812	57281.45
623.168	57333.87
623.523	57330.03
623.879	57366.87
624.234	57196.7
624.589	57338.85
624.945	57382.46
625.3	57302.46
625.655	57296.13
626.01	57235.35
626.365	57347.66
626.72	57291.62
627.075	57229.92
627.43	57272.86
627.785	57218.4
628.14	57206.65
628.495	57261.11
628.85	57242.35
629.205	57113.54
629.559	57278.51
629.914	57154.44
630.269	57125.29
630.623	57069.7
630.978	57068.34
631.332	57158.51
631.687	57212.75
632.041	57085.97
632.396	57087.78
632.75	57019.08
633.104	57012.98
633.459	56922.36
633.813	56958.06
634.167	56977.27
634.521	56932.08
634.875	56939.76
635.229	56972.53
635.583	56838.97
635.937	56866.32
636.291	56857.95
636.645	56832.19
636.999	56847.56
637.352	56908.35
637.706	56812.53
638.06	56877.84
638.413	56878.29
638.767	56753.32
639.121	56854.11
639.474	56625.87
639.828	56617.06
640.181	56646.21
640.534	56650.73
640.888	56576.15
641.241	56458.42
641.594	56568.7
641.947	56612.99
642.301	56581.58
642.654	56531.41
643.007	56602.82
643.36	56480.11
643.713	56456.38
644.066	56547.23
644.419	56376.61
644.771	56226.33
645.124	56026.56
645.477	55810.52
645.83	55662.96
646.182	55539.34
646.535	55401.72
646.888	55494.15
647.24	55377.99
647.593	55453.47
647.945	55412.57
648.298	55309.52
648.65	55182.74
649.002	55156.53
649.355	55152.01
649.707	55103.2
650.059	55263.19
650.411	55554.71
650.763	55598.55
651.115	55900.47
651.467	55611.43
651.819	55724.42
652.171	55590.19
652.523	55512
652.875	55510.19
653.227	55454.38
653.578	55609.85
653.93	55471.78
654.282	55342.29
654.633	55275.85
654.985	55298.22
655.337	55292.12
655.688	55189.52
656.039	55343.64
656.391	55059.58
656.742	55212.12
657.094	55101.84
657.445	55228.62
657.796	55119.24
658.147	55045.12
658.498	55074.95
658.849	55061.39
659.2	55016.42
659.551	54900.72
659.902	54963.09
660.253	54848.97
660.604	54950.66
660.955	54815.75
661.306	54927.84
661.656	54828.18
662.007	54840.38
662.358	54857.1
662.708	54800.16
663.059	54821.4
663.409	54572.82
663.76	54819.36
664.11	54732.13
664.461	54781.62
664.811	54629.76
665.161	54706.15
665.511	54599.26
665.862	54676.54
666.212	54596.77
666.562	54647.39
666.912	54576.66
667.262	54517.9
667.612	54508.86
667.962	54601.97
668.312	54485.81
668.662	54559.26
669.011	54384.12
669.361	54435.42
669.711	54384.12
670.06	54424.35
670.41	54312.48
670.76	54279.04
671.109	54364.91
671.459	54264.35
671.808	54157.69
672.157	54206.72
672.507	53987.75
672.856	53999.95
673.205	54018.48
673.554	54200.62
673.904	54119.5
674.253	54265.71
674.602	54085.15
674.951	53619.85
675.3	53463.92
675.649	53914.75
675.998	53823.91
676.346	53927.18
676.695	53987.07
677.044	53800.63
677.393	53786.17
677.741	53875.89
678.09	53782.33
678.438	53690.81
678.787	53745.95
679.135	53803.8
679.484	53631.15
679.832	53763.8
680.181	53583.01
680.529	53689.68
680.877	53564.26
681.225	53473.18
681.573	53712.05
681.922	53435.67
682.27	53269.57
682.618	53361.32
682.966	53239.97
683.314	53355.22
683.661	53337.37
684.009	53165.4
684.357	53239.97
684.705	53174.21
685.053	53197.94
685.4	53136.47
685.748	52995.68
686.095	52971.05
686.443	52822.13
686.79	52874.1
687.138	52968.34
687.485	52898.06
687.832	52765.18
688.18	52818.06
688.527	52639.53
688.874	52601.79
689.221	52603.38
689.568	52437.96
689.915	52385.08
690.262	52309.83
690.609	52410.16
690.956	52170.85
691.303	52146.21
691.65	51964.07
691.997	51938.31
692.344	51782.83
692.69	51771.99
693.037	51673.46
693.383	51398.66
693.73	51651.31
694.077	51175.62
694.423	51322.73
694.769	51122.51
695.116	51112.12
695.462	51021.72
695.808	50932.01
696.155	50953.48
696.501	50617.89
696.847	50595.07
697.193	50379.93
697.539	50529.76
697.885	50141.52
698.231	50031.24
698.577	50003.45
698.923	49898.59
699.269	49735.43
699.614	49503.35
699.96	49335.44
700.306	49386.96
700.651	49249.11
700.997	49006.86
701.342	48974.32
701.688	48800.09
702.033	48596.02
702.379	48619.53
702.724	48532.98
703.069	48693.65
703.415	48183.15
703.76	48041.91
704.105	48022.71
704.45	47912.43
704.795	47741.36
705.14	47707.91
705.485	47497.07
705.83	47401.71
706.175	47279.67
706.52	47171.66
706.865	47114.26
707.209	46960.59
707.554	46866.8
707.899	46931.89
708.243	46801.95
708.588	46582.97
708.932	46349.76
709.277	46272.24
709.621	46416.19
709.966	46187.05
710.31	46179.82
710.654	45896.89
710.998	45888.53
711.342	45905.7
711.687	45709.55
712.031	45535.31
712.375	45482.89
712.719	45492.15
713.063	45264.59
713.407	45482.66
713.75	45189.79
714.094	45116.79
714.438	45000.64
714.782	45144.82
715.125	44880.64
715.469	44973.29
715.812	44669.35
716.156	44508.9
716.499	44515.68
716.843	44550.93
717.186	44291.96
717.53	44607.43
717.873	44431.39
718.216	44286.08
718.559	44128.57
718.902	43989.82
719.246	44214.9
719.589	43832.99
719.932	43738.53
720.275	43904.62
720.617	43765.87
720.96	43599.77
721.303	43777.17
721.646	43771.29
721.989	43560.45
722.331	43574.46
722.674	43426.22
723.016	43393.22
723.359	43387.12
723.701	43392.32
724.044	43174.47
724.386	43000.69
724.729	42996.17
725.071	43022.39
725.413	42916.85
725.755	42926.12
726.097	42633.02
726.439	42663.98
726.782	42478.9
727.124	42809.06
727.465	42468.73
727.807	42513.7
728.149	42376.75
728.491	42128.85
728.833	42367.49
729.175	42155.52
729.516	42143.31
729.858	41957.78
730.199	42133.6
730.541	41788.97
730.882	41759.37
731.224	42023.09
731.565	41604.57
731.906	41639.37
732.248	41789.65
732.589	41505.36
732.93	41417.23
733.271	41560.73
733.612	41362.09
733.953	41447.96
734.294	41178.14
734.635	41204.81
734.976	41289.55
735.317	41014.75
735.658	41022.21
735.999	41017.47
736.339	40944.02
736.68	40842.78
737.021	40780.18
737.361	40588.33
737.702	40803.01
738.042	40700.19
738.383	40511.72
738.723	40619.06
739.063	40389.69
739.404	40458.16
739.744	40270.14
740.084	40231.27
740.424	40241.22
740.764	40083.03
741.104	40094.1
741.444	39816.59
741.784	39838.51
742.124	39770.04
742.464	39706.99
742.804	39779.76
743.143	39780.44
743.483	39528.24
743.823	39469.26
744.162	39359.66
744.502	39528.69
744.841	39178.42
745.181	39371.41
745.52	39089.38
745.86	39237.4
746.199	38966.9
746.538	39148.59
746.877	39078.31
747.216	38888.71
747.556	38864.53
747.895	38708.37
748.234	38546.57
748.573	38654.36
748.911	38467.7
749.25	38592.67
749.589	38288.5
749.928	38297.76
750.267	38182.74
750.605	38108.62
750.944	37886.48
751.283	37889.87
751.621	37924.21
751.96	37646.71
752.298	37579.59
752.636	37414.85
