Data from white_wall_FLMS001491_061.txt Node
Date: Tue Feb 07 11:05:23 GMT 2017
User: dcchb
Spectrometer: FLMS00149
Trigger mode: 0
Integration Time (sec): 2.000000E-2
Scans to average: 10
Electric dark correction enabled: true
Nonlinearity correction enabled: false
Boxcar width: 0
XAxis mode: Wavelengths
Number of Pixels in Spectrum: 2048
>>>>>Begin Spectral Data<<<<<
341.393	4.21
341.776	4.21
342.16	4.21
342.543	-56.58
342.927	-72.63
343.31	-82.79
343.693	-82.57
344.077	-81.21
344.46	-41.21
344.843	-68.11
345.226	-26.07
345.61	-32.17
345.993	-16.58
346.376	-1.67
346.759	18.45
347.142	34.72
347.525	43.76
347.908	57.31
348.291	71.33
348.674	96.41
349.057	110.42
349.44	146.8
349.823	143.19
350.206	156.75
350.588	216.41
350.971	244.65
351.354	240.81
351.737	250.08
352.119	268.16
352.502	270.19
352.884	314.03
353.267	304.99
353.65	323.52
354.032	324.88
354.414	304.54
354.797	345.67
355.179	336.63
355.562	339.57
355.944	354.93
356.326	359.68
356.709	362.39
357.091	377.08
357.473	367.14
357.855	357.42
358.238	368.95
358.62	347.25
359.002	354.26
359.384	359.91
359.766	375.05
360.148	382.5
360.53	342.05
360.912	351.54
361.294	356.29
361.676	372.56
362.057	379.57
362.439	360.13
362.821	351.09
363.203	361.49
363.584	344.31
363.966	337.31
364.348	352.67
364.729	339.79
365.111	337.31
365.493	336.63
365.874	321.94
366.256	328.04
366.637	330.75
367.019	348.83
367.4	331.21
367.781	328.04
368.163	347.7
368.544	335.05
368.925	339.57
369.306	329.4
369.688	335.27
370.069	343.18
370.45	342.05
370.831	344.09
371.212	330.98
371.593	351.09
371.974	326.23
372.355	341.38
372.736	366.23
373.117	345.22
373.498	336.18
373.879	349.06
374.26	363.07
374.641	351.77
375.021	366.46
375.402	331.43
375.783	356.52
376.163	371.43
376.544	361.71
376.925	342.28
377.305	351.77
377.686	365.78
378.066	348.61
378.447	377.31
378.827	372.79
379.208	370.75
379.588	362.84
379.968	374.14
380.349	368.04
380.729	387.25
381.109	402.84
381.489	385.89
381.87	361.71
382.25	373.24
382.63	377.53
383.01	407.36
383.39	392.45
383.77	393.58
384.15	405.1
384.53	388.15
384.91	417.08
385.29	377.08
385.67	396.51
386.049	416.18
386.429	382.28
386.809	408.72
387.189	422.28
387.568	428.83
387.948	412.56
388.328	431.99
388.707	441.03
389.087	453.24
389.466	432.67
389.846	448.49
390.225	469.73
390.605	468.38
390.984	464.76
391.363	464.08
391.743	475.61
392.122	483.74
392.501	482.16
392.881	490.98
393.26	501.15
393.639	514.25
394.018	533.46
394.397	523.29
394.776	534.36
395.155	537.75
395.534	536.62
395.913	551.31
396.292	547.02
396.671	560.13
397.05	559.45
397.429	578.43
397.808	599.9
398.186	586.34
398.565	620.69
398.944	582.95
399.323	625.44
399.701	637.41
400.08	664.76
400.458	685.09
400.837	671.08
401.215	704.08
401.594	676.28
401.972	707.24
402.351	736.62
402.729	722.61
403.107	733.68
403.486	775.26
403.864	749.95
404.242	781.59
404.62	780.23
404.999	820.68
405.377	803.96
405.755	838.09
406.133	857.29
406.511	870.63
406.889	889.61
407.267	913.11
407.645	881.47
408.023	923.28
408.401	951.75
408.779	926.44
409.156	982.26
409.534	992.43
409.912	1005.76
410.29	1056.61
410.667	1073.33
411.045	1042.83
411.422	1094.35
411.8	1080.34
412.178	1133.22
412.555	1153.33
412.933	1152.43
413.31	1152.65
413.687	1205.99
414.065	1234.23
414.442	1231.97
414.819	1267.9
415.197	1263.16
415.574	1281.01
415.951	1298.41
416.328	1297.28
416.705	1318.98
417.082	1340.67
417.46	1330.28
417.837	1373.89
418.214	1370.05
418.591	1407.11
418.967	1413.66
419.344	1435.36
419.721	1449.59
420.098	1443.27
420.475	1487.79
420.852	1495.7
421.228	1512.42
421.605	1515.36
421.982	1572.53
422.358	1596.26
422.735	1626.77
423.111	1563.26
423.488	1654.11
423.864	1645.75
424.241	1643.04
424.617	1666.99
424.994	1682.58
425.37	1713.99
425.746	1725.07
426.123	1752.86
426.499	1734.11
426.875	1767.1
427.251	1795.12
427.627	1814.78
428.003	1874.22
428.379	1890.71
428.756	1907.21
429.132	1960.09
429.507	1932.07
429.883	1985.85
430.259	2043.25
430.635	2002.35
431.011	2058.39
431.387	2116.7
431.763	2162.12
432.138	2186.07
432.514	2168.22
432.89	2177.26
433.265	2263.58
433.641	2244.83
434.016	2292.06
434.392	2317.37
434.767	2363.92
435.143	2352.4
435.518	2412.73
435.894	2424.94
436.269	2473.97
436.644	2515.78
437.02	2549.23
437.395	2598.72
437.77	2583.58
438.145	2619.51
438.52	2643.46
438.895	2638.26
439.271	2636.91
439.646	2732.72
440.021	2755.77
440.395	2781.09
440.77	2742.44
441.145	2783.34
441.52	2864.7
441.895	2830.35
442.27	2875.32
442.645	2921.87
443.019	2961.87
443.394	2970.91
443.769	2981.08
444.143	2963.91
444.518	3020.4
444.892	3021.76
445.267	3063.79
445.641	3074.64
446.016	3103.56
446.39	3111.92
446.764	3141.98
447.139	3184.46
447.513	3208.19
447.887	3218.59
448.262	3253.16
448.636	3253.62
449.01	3297.68
449.384	3383.33
449.758	3353.5
450.132	3435.98
450.506	3473.5
450.88	3455.87
451.254	3477.34
451.628	3514.17
452.002	3552.36
452.376	3599.59
452.75	3649.76
453.123	3677.56
453.497	3750.78
453.871	3787.84
454.244	3869.19
454.618	3848.63
454.992	3920.72
455.365	4000.71
455.739	4046.81
456.112	4094.5
456.486	4101.95
456.859	4152.8
457.232	4244.78
457.606	4201.39
457.979	4260.14
458.352	4378.11
458.725	4459.23
459.099	4460.14
459.472	4555.05
459.845	4634.82
460.218	4677.98
460.591	4690.19
460.964	4729.28
461.337	4823.74
461.71	4888.15
462.083	4976.28
462.456	4972.89
462.829	5014.7
463.201	5165.43
463.574	5150.06
463.947	5188.71
464.32	5350.51
464.692	5374.69
465.065	5447.68
465.438	5491.52
465.81	5587.11
466.183	5631.18
466.555	5798.63
466.928	5836.37
467.3	5840.44
467.672	5931.74
468.045	6033.43
468.417	6090.6
468.789	6139.87
469.161	6235.23
469.534	6347.54
469.906	6494.21
470.278	6515.68
470.65	6675.45
471.022	6728.78
471.394	6850.58
471.766	6980.97
472.138	7019.39
472.51	7187.75
472.882	7248.99
473.253	7352.49
473.625	7498.02
473.997	7619.15
474.369	7770.11
474.74	7907.28
475.112	7973.72
475.484	8141.62
475.855	8251.22
476.227	8326.48
476.598	8545.45
476.97	8665.22
477.341	8890.75
477.713	8975.27
478.084	9042.39
478.455	9321.03
478.827	9326
479.198	9703.16
479.569	9673.33
479.94	9962.14
480.311	10052.08
480.682	10290.27
481.053	10618.85
481.424	10674.44
481.795	10870.36
482.166	10969.12
482.537	11128.66
482.908	11371.59
483.279	11503.12
483.65	11752.37
484.021	12032.14
484.391	12173.38
484.762	12253.83
485.133	12344
485.503	12527.72
485.874	12808.17
486.244	13015.84
486.615	13220.36
486.985	13377.19
487.356	13638.88
487.726	13810.85
488.097	14056.27
488.467	14126.55
488.837	14395.92
489.207	14567.22
489.578	14695.12
489.948	14912.29
490.318	15181.89
490.688	15270.47
491.058	15444.93
491.428	15705.04
491.798	15835.43
492.168	16209.43
492.538	16226.83
492.908	16442.65
493.278	16731.68
493.648	16672.47
494.017	16968.28
494.387	17099.8
494.757	17214.15
495.126	17468.38
495.496	17617.76
495.866	17643.07
496.235	17962.15
496.605	18074.47
496.974	18142.49
497.344	18341.81
497.713	18497.06
498.082	18638.3
498.452	18812.08
498.821	18943.6
499.19	19021.11
499.559	19329.8
499.928	19441.21
500.298	19605.5
500.667	19749.68
501.036	19706.74
501.405	19986.06
501.774	19937.47
502.143	20271.47
502.512	20414.52
502.88	20529.32
503.249	20633.72
503.618	20737
503.987	20881.63
504.356	21090.66
504.724	21297.21
505.093	21407.26
505.462	21491.78
505.83	21612
506.199	21862.84
506.567	22122.05
506.936	22121.82
507.304	22311.19
507.672	22464.18
508.041	22539.44
508.409	22794.8
508.777	22965.64
509.145	23161.11
509.514	23183.94
509.882	23522.69
510.25	23529.47
510.618	23711.38
510.986	23879.29
511.354	24133.74
511.722	24361.08
512.09	24515.2
512.458	24540.74
512.826	24870
513.193	24976.43
513.561	25134.4
513.929	25361.28
514.297	25512.92
514.664	25674.04
515.032	25824.32
515.4	25979.8
515.767	26163.3
516.135	26247.81
516.502	26261.82
516.869	26747.91
517.237	26861.81
517.604	26763.05
517.972	27255.92
518.339	27433.32
518.706	27496.14
519.073	27672.41
519.44	27919.18
519.808	28367.3
520.175	28285.73
520.542	28532.72
520.909	28685.71
521.276	28814.3
521.643	29000.96
522.009	29221.29
522.376	29683.2
522.743	29922.29
523.11	29919.81
523.477	30357.08
523.843	30416.97
524.21	30759.33
524.577	31055.82
524.943	31092.21
525.31	31315.02
525.676	31641.12
526.043	31844.95
526.409	31956.82
526.776	32272.51
527.142	32339.63
527.508	32710.92
527.874	32824.14
528.241	33139.83
528.607	33103.9
528.973	33502.99
529.339	33557.22
529.705	33870.66
530.071	34194.27
530.437	34250.54
530.803	34507.71
531.169	34618.89
531.535	34653.47
531.901	34721.04
532.267	35060.46
532.632	35167.35
532.998	35324.64
533.364	35718.98
533.73	35692.99
534.095	35922.36
534.461	36019.31
534.826	36336.13
535.192	36440.31
535.557	36628.33
535.923	36685.28
536.288	36819.06
536.653	37181.54
537.019	37029.9
537.384	37345.6
537.749	37344.24
538.114	37646.61
538.479	37640.51
538.845	37784.46
539.21	37836.43
539.575	38030.78
539.94	38040.04
540.305	38403.88
540.67	38355.97
541.034	38593.48
541.399	38701.27
541.764	38782.17
542.129	39063.07
542.494	39129.96
542.858	39361.59
543.223	39354.36
543.587	39541.7
543.952	39630.29
544.316	39911.63
544.681	39842.03
545.045	40134.68
545.41	40268.23
545.774	40456.25
546.138	40515.23
546.503	40658.96
546.867	40569.7
547.231	40974.66
547.595	41165.61
547.959	41340.52
548.324	41284.93
548.688	41447.19
549.052	41608.09
549.416	41693.73
549.779	41871.81
550.143	41987.96
550.507	42314.96
550.871	42375.3
551.235	42426.6
551.599	42825
551.962	42886.7
552.326	43038.33
552.689	43269.96
553.053	43164.43
553.417	43477.19
553.78	43933.68
554.143	44002.83
554.507	44072.2
554.87	44384.28
555.234	44888.9
555.597	44554.68
555.96	44892.52
556.323	44985.63
556.686	44997.6
557.05	45363.69
557.413	45509
557.776	45586.74
558.139	45907.63
558.502	46090.23
558.865	46169.55
559.228	46536.32
559.59	46537.22
559.953	46608.18
560.316	47116.19
560.679	47098.11
561.041	47311.89
561.404	47572.9
561.767	47756.17
562.129	47675.95
562.492	48121.81
562.854	48108.93
563.217	48116.84
563.579	48324.29
563.941	48626.66
564.304	48682.48
564.666	49010.15
565.028	49059.64
565.39	49215.8
565.753	49368.79
566.115	49491.27
566.477	49807.42
566.839	49733.07
567.201	49993.18
567.563	49997.24
567.925	50234.75
568.287	50241.76
568.648	50262.55
569.01	50592.03
569.372	50767.17
569.734	50849.65
570.095	50963.77
570.457	51116.54
570.819	51199.25
571.18	51163.99
571.542	51393.37
571.903	51533.25
572.265	51626.35
572.626	51524.21
572.987	51693.47
573.349	51778.89
573.71	51897.08
574.071	52024.31
574.432	52130.97
574.794	52330.29
575.155	52425.43
575.516	52227.69
575.877	52483.51
576.238	52430.63
576.599	52634.01
576.96	52595.82
577.32	52681.69
577.681	52731.64
578.042	52797.85
578.403	52834.23
578.763	52775.7
579.124	52924.17
579.485	53104.28
579.845	53044.85
580.206	53027.22
580.566	53069.93
580.927	53111.51
581.287	53273.32
581.648	53164.17
582.008	53229.25
582.368	53123.49
582.728	53286.42
583.089	53258.85
583.449	53303.37
583.809	53328.23
584.169	53400.32
584.529	53320.1
584.889	53471.28
585.249	53324.39
585.609	53275.35
585.969	53499.98
586.329	53365.97
586.688	53356.03
587.048	53400.77
587.408	53413.43
587.768	53351.51
588.127	53336.82
588.487	53292.53
588.846	53506.53
589.206	53351.96
589.565	53341.11
589.925	53478.51
590.284	53346.08
590.643	53445.97
591.003	53545.85
591.362	53574.1
591.721	53483.03
592.08	53470.6
592.44	53499.98
592.799	53610.48
593.158	53534.78
593.517	53566.87
593.876	53586.98
594.235	53533.87
594.593	53580.2
594.952	53702.23
595.311	53477.38
595.67	53666.75
596.029	53848.22
596.387	53832.4
596.746	53831.72
597.104	53695
597.463	53720.31
597.822	53843.02
598.18	53635.57
598.538	53671.27
598.897	53907.65
599.255	53644.83
599.613	54017.48
599.972	53817.03
600.33	53891.38
600.688	53858.84
601.046	53914.43
601.404	54053.18
601.762	53930.7
602.12	54080.3
602.478	54152.84
602.836	54073.97
603.194	54020.64
603.552	54034.88
603.91	54003.47
604.268	54202.11
604.625	54057.7
604.983	54197.36
605.341	54005.73
605.698	54274.65
606.056	54247.75
606.413	54261.31
606.771	54304.02
607.128	54470.57
607.485	54304.48
607.843	54319.62
608.2	54473.29
608.557	54581.08
608.914	54488.2
609.272	54619.5
609.629	54652.49
609.986	54664.69
610.343	54608.87
610.7	54763.22
611.057	54684.58
611.414	54740.17
611.771	54739.27
612.127	54815.42
612.484	54847.51
612.841	54882.99
613.198	54785.14
613.554	54756.44
613.911	55001.18
614.267	54941.52
614.624	54910.11
614.98	54960.28
615.337	55045.47
615.693	55050.45
616.05	54980.62
616.406	55193.94
616.762	55096.32
617.118	55119.6
617.475	55184.45
617.831	55279.14
618.187	55204.11
618.543	55257.22
618.899	55438.01
619.255	55406.14
619.611	55291.12
619.967	55462.64
620.323	55537.66
620.678	55307.39
621.034	55306.03
621.39	55346.48
621.746	55369.53
622.101	55640.94
622.457	55422.64
622.812	55496.99
623.168	55505.35
623.523	55481.17
623.879	55602.52
624.234	55379.93
624.589	55492.02
624.945	55534.05
625.3	55578.11
625.655	55427.38
626.01	55435.29
626.365	55508.06
626.72	55481.17
627.075	55453.82
627.43	55454.73
627.785	55419.7
628.14	55489.98
628.495	55476.42
628.85	55424.67
629.205	55339.93
629.559	55459.47
629.914	55308.74
630.269	55391.23
630.623	55280.72
630.978	55249.54
631.332	55395.29
631.687	55370.89
632.041	55310.78
632.396	55341.74
632.75	55158.46
633.104	55262.87
633.459	55110.33
633.813	55135.87
634.167	55008.64
634.521	55020.84
634.875	55132.02
635.229	55057.45
635.583	54891.58
635.937	54953.05
636.291	54977
636.645	54976.1
636.999	54861.75
637.352	54952.82
637.706	54798.7
638.06	54964.12
638.413	54803.22
638.767	54740.62
639.121	54860.39
639.474	54558.25
639.828	54632.83
640.181	54743.11
640.534	54642.09
640.888	54643.9
641.241	54439.16
641.594	54590.57
641.947	54617.91
642.301	54477.58
642.654	54503.11
643.007	54480.74
643.36	54442.78
643.713	54364.59
644.066	54497.01
644.419	54351.03
644.771	54158.94
645.124	53811.61
645.477	53747.88
645.83	53513.76
646.182	53372.52
646.535	53333.88
646.888	53379.08
647.24	53311.96
647.593	53371.85
647.945	53303.15
648.298	53075.36
648.65	53126.43
649.002	53040.55
649.355	53133.89
649.707	53102.93
650.059	53166.88
650.411	53511.5
650.763	53663.81
651.115	53820.42
651.467	53744.72
651.819	53788.33
652.171	53688.45
652.523	53606.19
652.875	53597.38
653.227	53490.71
653.578	53685.06
653.93	53690.48
654.282	53476.02
654.633	53371.62
654.985	53433.54
655.337	53476.48
655.688	53514.89
656.039	53607.77
656.391	53234.22
656.742	53333.65
657.094	53309.47
657.445	53468.34
657.796	53336.14
658.147	53243.04
658.498	53236.48
658.849	53288.46
659.2	53176.82
659.551	53174.34
659.902	53275.35
660.253	53217.72
660.604	53171.62
660.955	53076.26
661.306	53161.23
661.656	53023.61
662.007	53026.54
662.358	52976.38
662.708	52950.61
663.059	53002.36
663.409	52707.68
663.76	52948.35
664.11	52995.58
664.461	52972.08
664.811	52955.36
665.161	52902.48
665.511	52850.28
665.862	52806.66
666.212	52921.01
666.562	52909.94
666.912	52918.98
667.262	52817.74
667.612	52819.32
667.962	52779.32
668.312	52745.65
668.662	52866.1
669.011	52780
669.361	52758.08
669.711	52667.91
670.06	52579.78
670.41	52550.62
670.76	52496.39
671.109	52691.19
671.459	52555.82
671.808	52562.6
672.157	52569.83
672.507	52369.84
672.856	52491.19
673.205	52489.61
673.554	52553.11
673.904	52429.27
674.253	52491.64
674.602	52434.47
674.951	51981.6
675.3	51788.61
675.649	52244.87
675.998	52277.18
676.346	52259.56
676.695	52335.04
677.044	52107.25
677.393	52119
677.741	52291.42
678.09	52055.95
678.438	51964.42
678.787	52074.7
679.135	51995.61
679.484	51845.56
679.832	52029.96
680.181	51691.89
680.529	51895.5
680.877	51908.38
681.225	51837.87
681.573	51904.99
681.922	51675.17
682.27	51554.49
682.618	51619.57
682.966	51453.25
683.314	51638.11
683.661	51413.7
684.009	51254.61
684.357	51159.02
684.705	51067.95
685.053	51081.51
685.4	51089.87
685.748	50867.5
686.095	50886.26
686.443	50886.49
686.79	50693.5
687.138	50779.6
687.485	50677.45
687.832	50453.73
688.18	50638.36
688.527	50275.2
688.874	50348.87
689.221	50243.57
689.568	50277.01
689.915	49999.96
690.262	50055.77
690.609	49847.19
690.956	49783.01
691.303	49742.11
691.65	49489.01
691.997	49533.08
692.344	49344.15
692.69	49308.45
693.037	49406.98
693.383	48932.19
693.73	49095.12
694.077	48896.26
694.423	48940.55
694.769	48856.03
695.116	48607.22
695.462	48693.55
695.808	48532.65
696.155	48518.87
696.501	48230.51
696.847	48343.73
697.193	47994.13
697.539	48291.98
697.885	48033.23
698.231	47845.89
698.577	47633.92
698.923	47840.92
699.269	47692.45
699.614	47370.87
699.96	47226.47
700.306	47307.82
700.651	47093.82
700.997	46961.17
701.342	46904.44
701.688	46866.48
702.033	46625.36
702.379	46736.77
702.724	46473.04
703.069	46713.04
703.415	46162.09
703.76	46141.75
704.105	46228.08
704.45	46001.42
704.795	45901.99
705.14	45776.79
705.485	45864.47
705.83	45697.7
706.175	45619.96
706.52	45487.31
706.865	45362.56
707.209	45311.72
707.554	45070.14
707.899	45378.61
708.243	45057.26
708.588	44956.02
708.932	44723.94
709.277	44796.93
709.621	44832.18
709.966	44561.91
710.31	44543.6
710.654	44183.16
710.998	44393.1
711.342	44215.25
711.687	44198.08
712.031	44055.48
712.375	43921.25
712.719	44022.49
713.063	43829.72
713.407	43919.66
713.75	43639.9
714.094	43534.36
714.438	43473.8
714.782	43601.93
715.125	43199.68
715.469	43377.08
715.812	43066.81
716.156	42980.71
716.499	42878.11
716.843	43037.88
717.186	42826.36
717.53	42950.88
717.873	42813.48
718.216	42646.48
718.559	42482.64
718.902	42322.64
719.246	42321.06
719.589	42162.42
719.932	41993.16
720.275	42119.71
720.617	42095.76
720.96	41905.48
721.303	42004.01
721.646	41904.58
721.989	41589.1
722.331	41743.45
722.674	41479.28
723.016	41677.01
723.359	41522.89
723.701	41605.37
724.044	41310.47
724.386	41231.83
724.729	41441.31
725.071	41183.92
725.413	41159.28
725.755	41059.63
726.097	41058.72
726.439	40785.28
726.782	40772.18
727.124	40921.55
727.465	40644.72
727.807	40585.29
728.149	40659.41
728.491	40533.99
728.833	40622.58
729.175	40397.95
729.516	40270.95
729.858	40297.84
730.199	40374.9
730.541	40280.21
730.882	40251.06
731.224	40293.55
731.565	39996.15
731.906	39834.35
732.248	39977.62
732.589	39782.37
732.93	39637.07
733.271	39658.31
733.612	39713.22
733.953	39769.94
734.294	39326.79
734.635	39477.52
734.976	39443.4
735.317	39260.58
735.658	39206.57
735.999	39236.85
736.339	39206.34
736.68	39407.47
737.021	39204.76
737.361	38884.54
737.702	39107.14
738.042	39010.19
738.383	38931.55
738.723	38768.61
739.063	38787.37
739.404	38676.86
739.744	38723.87
740.084	38572.91
740.424	38517.09
740.764	38403.65
741.104	38508.73
741.444	38263.77
741.784	38264.9
742.124	38375.18
742.464	38228.29
742.804	38104
743.143	38010.89
743.483	38058.58
743.823	37857.45
744.162	37817.9
744.502	37829.88
744.841	37771.58
745.181	37782.65
745.52	37639.83
745.86	37647.74
746.199	37637.8
746.538	37560.51
746.877	37625.82
747.216	37475.99
747.556	37395.32
747.895	37330.23
748.234	37305.38
748.573	37210.69
748.911	37073.97
749.25	37069.68
749.589	36876.46
749.928	37023.35
750.267	37111.71
750.605	36727.99
750.944	36739.06
751.283	36640.53
751.621	36693.64
751.96	36514.66
752.298	36536.36
752.636	36371.39
752.975	36261.79
