Data from white_poster_card_FLMS001491_00025.txt Node
Date: Wed Feb 08 11:51:17 GMT 2017
User: dcchb
Spectrometer: FLMS00149
Trigger mode: 0
Integration Time (sec): 2.000000E-2
Scans to average: 10
Electric dark correction enabled: true
Nonlinearity correction enabled: false
Boxcar width: 0
XAxis mode: Wavelengths
Number of Pixels in Spectrum: 2048
>>>>>Begin Spectral Data<<<<<
341.393	-7.97
341.776	-7.97
342.16	-7.97
342.543	-83.22
342.927	-76.66
343.31	-71.69
343.693	-72.14
344.077	-67.63
344.46	-48.42
344.843	-36.67
345.226	-45.48
345.61	-21.98
345.993	-38.47
346.376	5.14
346.759	-10
347.142	25.48
347.525	52.6
347.908	58.47
348.291	79.72
348.674	75.42
349.057	115.65
349.44	125.82
349.823	134.18
350.206	133.95
350.588	182.31
350.971	204.91
351.354	215.08
351.737	228.86
352.119	227.06
352.502	252.59
352.884	256.43
353.267	269.99
353.65	284.68
354.032	303.44
354.414	308.64
354.797	309.99
355.179	310.67
355.562	321.07
355.944	325.81
356.326	322.42
356.709	328.97
357.091	317.45
357.473	349.09
357.855	349.31
358.238	328.52
358.62	330.56
359.002	335.75
359.384	321.07
359.766	340.95
360.148	333.49
360.53	351.12
360.912	333.04
361.294	321.74
361.676	331.69
362.057	319.03
362.439	315.42
362.821	316.09
363.203	331.69
363.584	312.7
363.966	338.69
364.348	329.43
364.729	318.58
365.111	307.51
365.493	336.43
365.874	329.88
366.256	315.87
366.637	313.83
367.019	321.74
367.4	317.22
367.781	303.89
368.163	316.77
368.544	288.75
368.925	303.44
369.306	298.01
369.688	301.86
370.069	328.07
370.45	320.39
370.831	338.01
371.212	319.71
371.593	325.81
371.974	297.34
372.355	331.69
372.736	319.94
373.117	315.42
373.498	328.52
373.879	332.82
374.26	322.65
374.641	310.22
375.021	322.65
375.402	314.51
375.783	317.22
376.163	339.82
376.544	337.11
376.925	299.6
377.305	306.83
377.686	324.23
378.066	323.1
378.447	337.34
378.827	351.35
379.208	338.47
379.588	326.04
379.968	327.62
380.349	320.39
380.729	347.73
381.109	331.69
381.489	328.97
381.87	342.99
382.25	340.95
382.63	356.09
383.01	334.62
383.39	353.61
383.77	346.15
384.15	369.88
384.53	342.53
384.91	364.68
385.29	361.52
385.67	350.22
386.049	352.7
386.429	367.84
386.809	371.23
387.189	370.56
387.568	373.72
387.948	357.45
388.328	372.14
388.707	365.13
389.087	357.9
389.466	377.79
389.846	375.07
390.225	373.94
390.605	390.22
390.984	384.11
391.363	373.94
391.743	358.35
392.122	409.42
392.501	382.76
392.881	397.45
393.26	389.09
393.639	370.78
394.018	393.61
394.397	406.94
394.776	422.53
395.155	424.11
395.534	394.74
395.913	414.85
396.292	428.63
396.671	430.44
397.05	421.63
397.429	410.33
397.808	416.88
398.186	439.71
398.565	432.25
398.944	426.37
399.323	425.24
399.701	408.97
400.08	444.45
400.458	418.01
400.837	437.67
401.215	439.03
401.594	417.11
401.972	448.52
402.351	469.76
402.729	460.72
403.107	474.28
403.486	452.59
403.864	448.29
404.242	466.37
404.62	456.43
404.999	480.38
405.377	487.16
405.755	492.36
406.133	495.75
406.511	513.38
406.889	499.59
407.267	512.02
407.645	522.42
408.023	511.79
408.401	525.58
408.779	532.81
409.156	553.83
409.534	551.79
409.912	560.83
410.29	571.23
410.667	586.14
411.045	589.53
411.422	582.53
411.8	622.75
412.178	626.14
412.555	602.19
412.933	644.22
413.31	664.33
413.687	676.54
414.065	663.65
414.442	698.23
414.819	693.71
415.197	692.35
415.574	731.68
415.951	749.3
416.328	763.31
416.705	771
417.082	779.58
417.46	795.85
417.837	799.92
418.214	818
418.591	837.21
418.967	835.63
419.344	854.38
419.721	860.03
420.098	843.76
420.475	880.37
420.852	919.47
421.228	939.35
421.605	948.85
421.982	953.82
422.358	964.44
422.735	1015.96
423.111	972.57
423.488	1005.34
423.864	1039.01
424.241	1033.14
424.617	1031.33
424.994	1052.57
425.37	1082.4
425.746	1093.25
426.123	1092.34
426.499	1096.86
426.875	1119.24
427.251	1180.48
427.627	1168.05
428.003	1188.39
428.379	1217.54
428.756	1205.11
429.132	1234.49
429.507	1262.96
429.883	1268.38
430.259	1285.79
430.635	1277.42
431.011	1305.45
431.387	1360.59
431.763	1393.58
432.138	1344.99
432.514	1382.51
432.89	1407.14
433.265	1430.41
433.641	1445.78
434.016	1449.85
434.392	1490.53
434.767	1511.32
435.143	1497.98
435.518	1547.93
435.894	1556.29
436.269	1593.57
436.644	1594.48
437.02	1595.83
437.395	1610.3
437.77	1636.74
438.145	1674.48
438.52	1654.82
438.895	1676.28
439.271	1733.68
439.646	1739.78
440.021	1747.24
440.395	1789.95
440.77	1742.95
441.145	1779.33
441.52	1778.88
441.895	1805.09
442.27	1814.81
442.645	1847.13
443.019	1837.18
443.394	1864.53
443.769	1861.14
444.143	1885.32
444.518	1892.55
444.892	1864.3
445.267	1908.82
445.641	1906.79
446.016	1914.7
446.39	1932.55
446.764	1969.38
447.139	1943.17
447.513	1983.62
447.887	1997.63
448.262	1996.73
448.636	2028.14
449.01	2052.77
449.384	2066.33
449.758	2047.12
450.132	2080.57
450.506	2101.36
450.88	2117.4
451.254	2086.22
451.628	2163.95
452.002	2191.52
452.376	2172.32
452.75	2193.78
453.123	2234.01
453.497	2260.22
453.871	2272.65
454.244	2309.71
454.618	2344.06
454.992	2352.65
455.365	2348.36
455.739	2420.22
456.112	2454.34
456.486	2410.95
456.859	2479.65
457.232	2514.68
457.606	2517.84
457.979	2521.91
458.352	2603.04
458.725	2633.77
459.099	2646.88
459.472	2663.6
459.845	2721.91
460.218	2715.35
460.591	2758.06
460.964	2741.57
461.337	2825.18
461.71	2839.42
462.083	2901.79
462.456	2909.02
462.829	2929.36
463.201	2956.7
463.574	2974.1
463.947	3021.11
464.32	3079.18
464.692	3098.85
465.065	3128.22
465.438	3194.21
465.81	3215.45
466.183	3229.92
466.555	3338.84
466.928	3292.29
467.3	3355.11
467.672	3396.46
468.045	3485.05
468.417	3448.21
468.789	3512.17
469.161	3561.66
469.534	3604.82
469.906	3700.64
470.278	3710.35
470.65	3737.92
471.022	3786.06
471.394	3860.41
471.766	3883.23
472.138	3962.33
472.51	4034.19
472.882	4033.28
473.253	4111.93
473.625	4151.02
473.997	4240.28
474.369	4259.27
474.74	4301.75
475.112	4379.04
475.484	4415.19
475.855	4513.5
476.227	4588.98
476.598	4694.51
476.97	4726.15
477.341	4815.41
477.713	4927.5
478.084	4932.7
478.455	5012.24
478.827	5102.41
479.198	5252.23
479.569	5228.73
479.94	5416.07
480.311	5396.41
480.682	5492.45
481.053	5622.39
481.424	5722.28
481.795	5807.47
482.166	5863.29
482.537	5954.14
482.908	6078.2
483.279	6118.65
483.65	6257.41
484.021	6361.58
484.391	6452.88
484.762	6524.97
485.133	6557.74
485.503	6661.46
485.874	6786.88
486.244	6869.37
486.615	6940.1
486.985	7028.91
487.356	7153.2
487.726	7289.7
488.097	7428
488.467	7395.91
488.837	7612.17
489.207	7613.53
489.578	7789.12
489.948	7785.95
490.318	7973.97
490.688	7992.95
491.058	8160.18
491.428	8201.31
491.798	8289.9
492.168	8442.66
492.538	8405.82
492.908	8633.39
493.278	8766.72
493.648	8712.71
494.017	8827.96
494.387	8945.92
494.757	9024.11
495.126	9091.46
495.496	9079.03
495.866	9267.27
496.235	9304.56
496.605	9433.82
496.974	9458
497.344	9556.98
497.713	9587.04
498.082	9751.33
498.452	9824.54
498.821	9869.51
499.19	9903.41
499.559	9980.25
499.928	9997.87
500.298	10115.84
500.667	10125.55
501.036	10226.57
501.405	10365.32
501.774	10348.6
502.143	10502.49
502.512	10456.39
502.88	10631.53
503.249	10616.16
503.618	10750.62
503.987	10794.69
504.356	10834.69
504.724	10923.05
505.093	10984.97
505.462	11120.78
505.83	11129.59
506.199	11182.02
506.567	11374.56
506.936	11372.3
507.304	11520.77
507.672	11584.5
508.041	11599.64
508.409	11711.27
508.777	11802.8
509.145	11941.32
509.514	11936.8
509.882	12024.26
510.25	12098.38
510.618	12182.9
510.986	12219.28
511.354	12364.14
511.722	12540.18
512.09	12606.62
512.458	12610.46
512.826	12681.87
513.193	12805.93
513.561	12716.9
513.929	12977.68
514.297	13059.94
514.664	13165.02
515.032	13270.56
515.4	13423.55
515.767	13347.62
516.135	13566.14
516.502	13375.19
516.869	13708.51
517.237	13826.92
517.604	13777.21
517.972	14002.29
518.339	14083.87
518.706	14092.45
519.073	14187.37
519.44	14342.17
519.808	14386.68
520.175	14460.13
520.542	14634.13
520.909	14831.42
521.276	14796.84
521.643	14979.21
522.009	15097.17
522.376	15157.51
522.743	15313.67
523.11	15331.07
523.477	15629.59
523.843	15637.5
524.21	15756.37
524.577	16075
524.943	16058.96
525.31	16178.05
525.676	16294.43
526.043	16450.13
526.409	16543.46
526.776	16709.79
527.142	16689
527.508	16824.59
527.874	16988.88
528.241	17037.91
528.607	17189.1
528.973	17360.39
529.339	17291.69
529.705	17537.79
530.071	17672.7
530.437	17774.39
530.803	17901.39
531.169	17985.69
531.535	17966.7
531.901	18074.27
532.267	18194.72
532.632	18303.87
532.998	18345.9
533.364	18530.08
533.73	18516.29
534.095	18766.68
534.461	18741.37
534.826	18904.76
535.192	18852.56
535.557	18991.08
535.923	19088.03
536.288	19250.96
536.653	19270.62
537.019	19233.79
537.384	19368.25
537.749	19556.27
538.114	19497.74
538.479	19592.65
538.845	19787.67
539.21	19725.3
539.575	19782.7
539.94	19871.74
540.305	20084.16
540.67	19942.47
541.034	20100.21
541.399	20209.13
541.764	20212.75
542.129	20284.61
542.494	20440.76
542.858	20549.23
543.223	20550.36
543.587	20674.43
543.952	20630.59
544.316	20831.26
544.681	20783.35
545.045	20906.29
545.41	21060.86
545.774	21067.41
546.138	21100.86
546.503	21198.26
546.867	21223.79
547.231	21469.89
547.595	21444.58
547.959	21612.48
548.324	21504.91
548.688	21660.62
549.052	21723.44
549.416	21789.43
549.779	21764.79
550.143	21849.31
550.507	22048.4
550.871	22092.7
551.235	22111.45
551.599	22326.14
551.962	22341.95
552.326	22396.87
552.689	22522.29
553.053	22516.87
553.417	22586.02
553.78	22884.99
554.143	22749.85
554.507	22885.22
554.87	23103.52
555.234	23256.06
555.597	23141.93
555.96	23303.74
556.323	23435.49
556.686	23343.96
557.05	23535.37
557.413	23541.7
557.776	23731.07
558.139	23972.87
558.502	23922.93
558.865	24095.36
559.228	24132.19
559.59	24265.29
559.953	24416.25
560.316	24597.94
560.679	24547.55
561.041	24742.8
561.404	24868.22
561.767	25010.13
562.129	24952.73
562.492	25240.41
562.854	25290.8
563.217	25294.65
563.579	25383.68
563.941	25588.88
564.304	25724.92
564.666	25782.77
565.028	25808.3
565.39	25969.88
565.753	26135.53
566.115	26347.73
566.477	26391.79
566.839	26378.91
567.201	26619.58
567.563	26627.27
567.925	26936.18
568.287	26946.81
568.648	26967.14
569.01	27046.69
569.372	27276.97
569.734	27194.93
570.095	27427.7
570.457	27562.83
570.819	27597.41
571.18	27573.23
571.542	27764.64
571.903	27783.85
572.265	27965.31
572.626	28044.4
572.987	28099.32
573.349	28101.35
573.71	28265.64
574.071	28396.26
574.432	28480.32
574.794	28679.19
575.155	28614.56
575.516	28443.04
575.877	28665.4
576.238	28729.58
576.599	28783.82
576.96	28871.73
577.32	28746.53
577.681	29080.31
578.042	29045.06
578.403	29063.81
578.763	29170.48
579.124	29158.95
579.485	29288.89
579.845	29381.54
580.206	29230.14
580.566	29334.31
580.927	29326.18
581.287	29403.46
581.648	29317.36
582.008	29469.9
582.368	29492.28
582.728	29484.82
583.089	29553.52
583.449	29433.97
583.809	29629.67
584.169	29689.78
584.529	29483.46
584.889	29740.4
585.249	29553.29
585.609	29563.91
585.969	29724.13
586.329	29522.33
586.688	29829.89
587.048	29718.94
587.408	29489.34
587.768	29568.43
588.127	29557.36
588.487	29606.62
588.846	29709.67
589.206	29683.91
589.565	29690.24
589.925	29752.38
590.284	29670.8
590.643	29814.98
591.003	29779.05
591.362	29871.7
591.721	29756.68
592.08	29763
592.44	29832.61
592.799	29873.51
593.158	29808.43
593.517	29824.7
593.876	29953.51
594.235	29845.26
594.593	29880.51
594.952	29974.07
595.311	29861.76
595.67	29921.19
596.029	30071.7
596.387	30144.01
596.746	30182.43
597.104	29981.08
597.463	30099.49
597.822	30030.57
598.18	29956.22
598.538	29965.71
598.897	30060.17
599.255	29979.04
599.613	30344
599.972	30247.06
600.33	30223.1
600.688	30083.45
601.046	30295.42
601.404	30355.98
601.762	30340.84
602.12	30456.77
602.478	30538.12
602.836	30409.31
603.194	30327.96
603.552	30388.75
603.91	30325.47
604.268	30461.74
604.625	30391.46
604.983	30511.91
605.341	30367.28
605.698	30515.75
606.056	30593.94
606.413	30574.96
606.771	30708.51
607.128	30763.2
607.485	30540.16
607.843	30691.34
608.2	30730.43
608.557	30897.44
608.914	30806.37
609.272	31006.59
609.629	30947.6
609.986	31240.7
610.343	30967.72
610.7	31282.96
611.057	31030.99
611.414	31086.81
611.771	30988.73
612.127	31312.57
612.484	31171.1
612.841	31365.22
613.198	31186.47
613.554	31289.97
613.911	31374.26
614.267	31396.86
614.624	31488.16
614.98	31438.44
615.337	31607.7
615.693	31440.92
616.05	31534.71
616.406	31542.84
616.762	31523.86
617.118	31559.79
617.475	31535.39
617.831	31768.15
618.187	31609.51
618.543	31643.41
618.899	31769.5
619.255	31761.14
619.611	31756.4
619.967	31786.23
620.323	31921.14
620.678	31779.9
621.034	31627.13
621.39	31643.41
621.746	31803.85
622.101	32079.78
622.457	31753.46
622.812	31720.24
623.168	31931.08
623.523	31927.47
623.879	32047.91
624.234	31735.83
624.589	31872.33
624.945	31921.59
625.3	31852.89
625.655	31904.42
626.01	31863.51
626.365	31835.94
626.72	31746.91
627.075	31927.47
627.43	31855.38
627.785	31817.41
628.14	31722.5
628.495	31877.07
628.85	31708.94
629.205	31632.78
629.559	31773.12
629.914	31766.57
630.269	31657.64
630.623	31587.36
630.978	31646.57
631.332	31784.87
631.687	31734.25
632.041	31540.36
632.396	31571.99
632.75	31344.88
633.104	31610.41
633.459	31346.01
633.813	31534.71
634.167	31385.11
634.521	31292.91
634.875	31271.66
635.229	31321.61
635.583	31152.57
635.937	31136.53
636.291	31009.75
636.645	31124.1
636.999	31047.49
637.352	31113.7
637.706	30911.45
638.06	31035.51
638.413	30941.5
638.767	30871.67
639.121	30779.02
639.474	30688.85
639.828	30738.12
640.181	30822.18
640.534	30629.42
640.888	30612.02
641.241	30574.05
641.594	30692.92
641.947	30555.3
642.301	30456.77
642.654	30603.43
643.007	30558.91
643.36	30446.37
643.713	30329.09
644.066	30408.64
644.419	30356.21
644.771	30088.64
645.124	29815.2
645.477	29896.33
645.83	29510.81
646.182	29556.68
646.535	29336.12
646.888	29378.38
647.24	29260.64
647.593	29400.53
647.945	29362.11
648.298	29195.79
648.65	29136.8
649.002	29048.22
649.355	29095.9
649.707	29115.34
650.059	29137.03
650.411	29474.87
650.763	29564.82
651.115	29835.09
651.467	29831.48
651.819	29775.66
652.171	29651.37
652.523	29458.15
652.875	29564.82
653.227	29337.7
653.578	29556.91
653.93	29558.49
654.282	29449.34
654.633	29292.28
654.985	29455.89
655.337	29395.55
655.688	29379.06
656.039	29603.46
656.391	29163.7
656.742	29203.92
657.094	29271.04
657.445	29340.41
657.796	29264.48
658.147	29278.95
658.498	29170.48
658.849	29304.71
659.2	29148.56
659.551	29193.53
659.902	29196.69
660.253	29071.27
660.604	29171.38
660.955	28899.07
661.306	29077.37
661.656	28998.5
662.007	28900.88
662.358	28901.56
662.708	28834.89
663.059	28861.56
663.409	28770.71
663.76	29085.96
664.11	28915.79
664.461	28966.64
664.811	28879.86
665.161	28913.08
665.511	28754.44
665.862	28781.79
666.212	28806.87
666.562	28872.86
666.912	28773.65
667.262	28745.4
667.612	28737.27
667.962	28787.44
668.312	28682.13
668.662	28818.39
669.011	28624.95
669.361	28674.22
669.711	28670.38
670.06	28624.73
670.41	28570.94
670.76	28543.37
671.109	28671.51
671.459	28511.51
671.808	28527.1
672.157	28678.74
672.507	28341.8
672.856	28387.9
673.205	28350.16
673.554	28486.43
673.904	28325.53
674.253	28490.04
674.602	28373.43
674.951	27940.9
675.3	27896.61
675.649	28346.99
675.998	28387.9
676.346	28327.11
676.695	28424.73
677.044	28132.31
677.393	28211.86
677.741	28200.56
678.09	28199.65
678.438	28110.39
678.787	28098.41
679.135	28077.62
679.484	27908.81
679.832	28025.87
680.181	27859.32
680.529	27932.32
680.877	27878.98
681.225	27850.51
681.573	28005.53
681.922	27688.03
682.27	27602.83
682.618	27742.04
682.966	27533.68
683.314	27720.57
683.661	27548.15
684.009	27436.28
684.357	27445.1
684.705	27359.45
685.053	27321.26
685.4	27356.06
685.748	27205.56
686.095	27180.47
686.443	27040.14
686.79	26906.81
687.138	27170.75
687.485	27090.53
687.832	26937.09
688.18	27045.11
688.527	26835.85
688.874	26812.12
689.221	26716.98
689.568	26564.44
689.915	26537.1
690.262	26547.95
690.609	26505.69
690.956	26467.72
691.303	26331.91
691.65	26098.47
691.997	26202.87
692.344	25986.38
692.69	26119.71
693.037	25974.4
693.383	25782.54
693.73	25997.23
694.077	25725.82
694.423	25654.86
694.769	25647.4
695.116	25553.4
695.462	25580.29
695.808	25510.69
696.155	25454.87
696.501	25276.34
696.847	25321.76
697.193	25065.27
697.539	25194.08
697.885	25096.23
698.231	24957.03
698.577	24881.32
698.923	24945.28
699.269	24845.84
699.614	24675
699.96	24636.81
700.306	24634.32
700.651	24559.52
700.997	24372.64
701.342	24391.62
701.688	24395.69
702.033	24186.2
702.379	24166.09
702.724	24169.03
703.069	24178.29
703.415	23886.55
703.76	23957.28
704.105	23943.49
704.45	23880.45
704.795	23705.08
705.14	23711.86
705.485	23663.5
705.83	23600.9
706.175	23558.65
706.52	23487.24
706.865	23382.38
707.209	23377.63
707.554	23333.34
707.899	23376.96
708.243	23245.66
708.588	23186.9
708.932	22991.43
709.277	23012.45
709.621	22995.72
709.966	22787.14
710.31	22944.65
710.654	22758.44
710.998	22756.63
711.342	22765.22
711.687	22648.16
712.031	22567.26
712.375	22406.13
712.719	22566.81
713.063	22529.52
713.407	22587.15
713.75	22401.16
714.094	22361.39
714.438	22299.7
714.782	22366.14
715.125	22230.55
715.469	22288.62
715.812	22127.72
716.156	22045.47
716.499	21864.68
716.843	22036.43
717.186	21847.5
717.53	21913.04
717.873	21870.1
718.216	21807.28
718.559	21749.2
718.902	21642.31
719.246	21770.67
719.589	21577.68
719.932	21544.01
720.275	21582.2
720.617	21536.78
720.96	21497.01
721.303	21468.08
721.646	21457.01
721.989	21196.22
722.331	21473.96
722.674	21262.89
723.016	21261.98
723.359	21214.98
723.701	21238.03
724.044	21115.32
724.386	20955.32
724.729	21035.77
725.071	20992.84
725.413	21000.97
725.755	20914.65
726.097	20806.4
726.439	20854.08
726.782	20781.77
727.124	20794.2
727.465	20807.31
727.807	20676.01
728.149	20639.17
728.491	20614.54
728.833	20630.14
729.175	20530.25
729.516	20518.95
729.858	20481.66
730.199	20471.5
730.541	20436.69
730.882	20349.24
731.224	20475.79
731.565	20253.65
731.906	20285.74
732.248	20280.77
732.589	20252.52
732.93	20123.71
733.271	20182.46
733.612	20306.08
733.953	20237.6
734.294	20110.15
734.635	20030.15
734.976	20150.6
735.317	19962.81
735.658	20004.39
735.999	19963.94
736.339	19825.64
736.68	19959.64
737.021	19915.13
737.361	19712.19
737.702	19941.11
738.042	19815.47
738.383	19697.05
738.723	19802.59
739.063	19786.99
739.404	19759.2
739.744	19618.18
740.084	19475.36
740.424	19585.64
740.764	19483.95
741.104	19620.9
741.444	19399.66
741.784	19440.34
742.124	19389.04
742.464	19421.13
742.804	19265.43
743.143	19252.77
743.483	19314.24
743.823	19074.02
744.162	19052.55
744.502	19182.72
744.841	19037.64
745.181	19153.34
745.52	19068.14
745.86	19103.85
746.199	18991.76
746.538	18965.77
746.877	18998.09
747.216	18958.54
747.556	18829.96
747.895	18935.94
748.234	18869.96
748.573	18737.98
748.911	18711.54
749.25	18819.56
749.589	18629.96
749.928	18636.97
750.267	18639.45
750.605	18577.31
750.944	18457.54
751.283	18481.49
751.621	18512
751.96	18334.83
752.298	18356.75
752.636	18384.09
752.975	18253.25
753.313	18240.59
753.651	18276.3
753.989	18179.13
754.327	18153.59
754.666	18191.33
