Data from white_poster_card_FLMS001491_00074.txt Node
Date: Wed Feb 08 11:51:59 GMT 2017
User: dcchb
Spectrometer: FLMS00149
Trigger mode: 0
Integration Time (sec): 2.000000E-2
Scans to average: 10
Electric dark correction enabled: true
Nonlinearity correction enabled: false
Boxcar width: 0
XAxis mode: Wavelengths
Number of Pixels in Spectrum: 2048
>>>>>Begin Spectral Data<<<<<
341.393	19.73
341.776	19.73
342.16	19.73
342.543	-49.87
342.927	-71.79
343.31	-65.46
343.693	-71.57
344.077	-59.14
344.46	-52.36
344.843	-52.81
345.226	-53.04
345.61	-17.1
345.993	-26.14
346.376	-6.71
346.759	9.11
347.142	30.35
347.525	60.63
347.908	33.06
348.291	87.53
348.674	90.92
349.057	92.72
349.44	137.92
349.823	143.57
350.206	184.02
350.588	195.09
350.971	201.65
351.354	225.6
351.737	234.64
352.119	283
352.502	285.71
352.884	268.99
353.267	283.68
353.65	300.4
354.032	308.31
354.414	295.2
354.797	316.22
355.179	329.55
355.562	320.51
355.944	334.98
356.326	325.49
356.709	343.79
357.091	379.27
357.473	347.18
357.855	354.64
358.238	348.76
358.62	356.67
359.002	365.03
359.384	350.12
359.766	351.7
360.148	344.69
360.53	346.28
360.912	358.93
361.294	340.85
361.676	335.66
362.057	335.66
362.439	343.56
362.821	346.05
363.203	326.39
363.584	336.33
363.966	339.5
364.348	329.78
364.729	333.17
365.111	354.64
365.493	339.5
365.874	310.12
366.256	323.23
366.637	321.64
367.019	316.9
367.4	309.67
367.781	324.13
368.163	322.32
368.544	331.81
368.925	334.75
369.306	338.59
369.688	321.19
370.069	328.88
370.45	333.4
370.831	312.38
371.212	313.28
371.593	312.6
371.974	330.46
372.355	333.4
372.736	329.78
373.117	336.78
373.498	339.72
373.879	326.62
374.26	335.88
374.641	333.85
375.021	318.93
375.402	338.59
375.783	343.56
376.163	353.73
376.544	343.56
376.925	331.36
377.305	358.25
377.686	334.98
378.066	364.13
378.447	321.42
378.827	353.73
379.208	340.63
379.588	368.65
379.968	343.56
380.349	348.99
380.729	337.01
381.109	361.19
381.489	353.06
381.87	356.22
382.25	345.37
382.63	351.7
383.01	367.52
383.39	363.45
383.77	365.26
384.15	376.78
384.53	370.68
384.91	393.28
385.29	369.78
385.67	371.13
386.049	386.5
386.429	351.02
386.809	375.88
387.189	384.92
387.568	381.98
387.948	387.18
388.328	392.6
388.707	374.07
389.087	396.44
389.466	376.56
389.846	402.32
390.225	402.55
390.605	400.51
390.984	406.84
391.363	398.25
391.743	412.26
392.122	422.66
392.501	406.61
392.881	415.43
393.26	417.23
393.639	426.95
394.018	407.29
394.397	423.56
394.776	440.06
395.155	432.38
395.534	411.59
395.913	429.21
396.292	445.71
396.671	450.68
397.05	447.29
397.429	431.02
397.808	434.64
398.186	463.56
398.565	450.91
398.944	459.72
399.323	459.27
399.701	444.58
400.08	449.32
400.458	445.26
400.837	476.22
401.215	456.1
401.594	488.65
401.972	480.96
402.351	488.65
402.729	496.33
403.107	476.44
403.486	484.8
403.864	500.17
404.242	482.77
404.62	476.22
404.999	515.54
405.377	499.04
405.755	545.82
406.133	530
406.511	518.02
406.889	538.81
407.267	551.69
407.645	556.67
408.023	590.34
408.401	561.86
408.779	590.79
409.156	593.05
409.534	589.43
409.912	592.15
410.29	601.41
410.667	625.14
411.045	637.34
411.422	632.37
411.8	657
412.178	680.5
412.555	716.89
412.933	685.25
413.31	719.15
413.687	720.05
414.065	748.07
414.442	754.85
414.819	789.65
415.197	787.62
415.574	799.6
415.951	854.06
416.328	839.37
416.705	848.18
417.082	835.53
417.46	868.3
417.837	906.26
418.214	927.5
418.591	958.92
418.967	952.81
419.344	954.62
419.721	977.45
420.098	976.54
420.475	993.72
420.852	1026.03
421.228	1007.28
421.605	1047.05
421.982	1046.37
422.358	1060.83
422.735	1063.55
423.111	1093.38
423.488	1127.95
423.864	1111.91
424.241	1147.84
424.617	1167.27
424.994	1176.76
425.37	1186.93
425.746	1227.61
426.123	1238.23
426.499	1240.94
426.875	1262.64
427.251	1289.08
427.627	1309.41
428.003	1283.2
428.379	1340.37
428.756	1368.4
429.132	1392.8
429.507	1374.05
429.883	1425.57
430.259	1452.69
430.635	1450.2
431.011	1471.9
431.387	1514.16
431.763	1558.22
432.138	1548.05
432.514	1593.93
432.89	1574.27
433.265	1611.1
433.641	1640.03
434.016	1663.53
434.392	1670.54
434.767	1679.8
435.143	1687.48
435.518	1737.2
435.894	1732.68
436.269	1770.19
436.644	1813.58
437.02	1814.03
437.395	1853.36
437.77	1851.55
438.145	1874.15
438.52	1889.51
438.895	1942.39
439.271	1919.79
439.646	1934.93
440.021	1973.8
440.395	2008.38
440.77	1961.83
441.145	2014.71
441.52	2035.5
441.895	2007.7
442.27	2063.52
442.645	2061.26
443.019	2096.74
443.394	2074.59
443.769	2120.47
444.143	2086.8
444.518	2120.69
444.892	2134.7
445.267	2155.04
445.641	2200.69
446.016	2180.8
446.39	2205.66
446.764	2203.4
447.139	2227.36
447.513	2221.48
447.887	2223.97
448.262	2237.98
448.636	2292.44
449.01	2305.32
449.384	2322.95
449.758	2369.27
450.132	2368.14
450.506	2367.92
450.88	2402.27
451.254	2415.83
451.628	2453.11
452.002	2459.21
452.376	2490.85
452.75	2505.32
453.123	2529.95
453.497	2541.92
453.871	2598.42
454.244	2627.8
454.618	2660.34
454.992	2661.7
455.365	2671.64
455.739	2758.87
456.112	2768.59
456.486	2766.78
456.859	2780.11
457.232	2813.1
457.606	2868.24
457.979	2908.02
458.352	2966.32
458.725	2981.46
459.099	3022.82
459.472	3058.75
459.845	3079.99
460.218	3085.19
460.591	3134.9
460.964	3169.48
461.337	3224.62
461.71	3306.65
462.083	3340.55
462.456	3318.18
462.829	3362.24
463.201	3396.14
463.574	3444.5
463.947	3427.33
464.32	3581.67
464.692	3561.78
465.065	3609.47
465.438	3635.91
465.81	3710.03
466.183	3737.37
466.555	3770.37
466.928	3795.45
467.3	3791.16
467.672	3875.45
468.045	3957.48
468.417	3980.53
468.789	3993.41
469.161	4064.6
469.534	4088.32
469.906	4210.13
470.278	4220.75
470.65	4272.95
471.022	4345.72
471.394	4445.6
471.766	4502.78
472.138	4524.7
472.51	4601.76
472.882	4687.63
473.253	4757.46
473.625	4800.4
473.997	4944.57
474.369	4916.55
474.74	4978.24
475.112	5098.24
475.484	5137.11
475.855	5266.6
476.227	5256.2
476.598	5418.69
476.97	5446.71
477.341	5548.85
477.713	5638.57
478.084	5610.09
478.455	5822.06
478.827	5853.7
479.198	6044.21
479.569	6087.37
479.94	6280.36
480.311	6259.34
480.682	6406
481.053	6561.25
481.424	6707.24
481.795	6655.49
482.166	6828.14
482.537	6924.18
482.908	7049.15
483.279	7085.53
483.65	7259.09
484.021	7329.6
484.391	7466.77
484.762	7514.45
485.133	7596.48
485.503	7679.19
485.874	7876.25
486.244	7990.59
486.615	8107.2
486.985	8164.83
487.356	8353.52
487.726	8419.28
488.097	8541.31
488.467	8671.48
488.837	8821.08
489.207	8894.07
489.578	8987.4
489.948	9147.4
490.318	9228.98
490.688	9273.95
491.058	9441.18
491.428	9501.97
491.798	9631.91
492.168	9837.78
492.538	9835.52
492.908	10011.56
493.278	10124.78
493.648	10171.55
494.017	10301.95
494.387	10365.45
494.757	10476.63
495.126	10578.55
495.496	10607.7
495.866	10749.84
496.235	10818.32
496.605	10924.3
496.974	10977.41
497.344	11066.67
497.713	11197.06
498.082	11262.6
498.452	11410.39
498.821	11427.57
499.19	11464.63
499.559	11682.93
499.928	11675.7
500.298	11704.85
500.667	11900.77
501.036	11815.35
501.405	12046.76
501.774	12035.23
502.143	12191.61
502.512	12212.4
502.88	12344.6
503.249	12347.77
503.618	12502.79
503.987	12461.89
504.356	12654.88
504.724	12765.16
505.093	12741.2
505.462	12819.39
505.83	12890.81
506.199	13044.25
506.567	13209.89
506.936	13208.76
507.304	13436.1
507.672	13420.28
508.041	13586.61
508.409	13569.66
508.777	13794.06
509.145	13879.48
509.514	13892.81
509.882	13967.39
510.25	14078.57
510.618	14126.93
510.986	14200.6
511.354	14299.13
511.722	14504.32
512.09	14583.42
512.458	14625
512.826	14816.18
513.193	14863.86
513.561	14896.4
513.929	15103.85
514.297	15220.69
514.664	15319.89
515.032	15383.85
515.4	15617.29
515.767	15574.58
516.135	15750.62
516.502	15703.84
516.869	15963.49
517.237	16007.79
517.604	16019.08
517.972	16285.07
518.339	16342.92
518.706	16366.65
519.073	16509.92
519.44	16664.94
519.808	16725.96
520.175	16827.65
520.542	17143.57
520.909	17182.44
521.276	17226.96
521.643	17413.62
522.009	17585.82
522.376	17720.51
522.743	17811.13
523.11	17951.91
523.477	18100.61
523.843	18137.22
524.21	18444.11
524.577	18623.99
524.943	18662.4
525.31	18739.92
525.676	18980.59
526.043	19150.98
526.409	19161.37
526.776	19367.7
527.142	19437.07
527.508	19642.27
527.874	19751.42
528.241	19874.8
528.607	19994.57
528.973	20198.86
529.339	20153.89
529.705	20400.21
530.071	20563.37
530.437	20653.09
530.803	20741.9
531.169	20872.29
531.535	20848.79
531.901	21044.72
532.267	21164.71
532.632	21190.47
532.998	21252.39
533.364	21538.71
533.73	21495.55
534.095	21710.69
534.461	21816.67
534.826	21907.07
535.192	21985.93
535.557	22192.03
535.923	22245.36
536.288	22235.64
536.653	22476.09
537.019	22337.11
537.384	22562.42
537.749	22599.48
538.114	22672.69
538.479	22799.25
538.845	22968.51
539.21	22919.92
539.575	22973.03
539.94	23205.34
540.305	23267.26
540.67	23259.12
541.034	23436.06
541.399	23521.03
541.764	23524.88
542.129	23527.14
542.494	23726.45
542.858	23798.09
543.223	23918.54
543.587	23956.73
543.952	23967.58
544.316	23998.31
544.681	24070.17
545.045	24316.27
545.41	24336.15
545.774	24416.6
546.138	24471.52
546.503	24575.24
546.867	24605.75
547.231	24803.94
547.595	24791.96
547.959	24933.65
548.324	24979.98
548.688	25003.71
549.052	25138.62
549.416	25246.64
549.779	25403.24
550.143	25367.77
550.507	25575.22
550.871	25630.81
551.235	25702.45
551.599	25812.95
551.962	25908.54
552.326	25973.4
552.689	26163
553.053	26158.25
553.417	26204.35
553.78	26530.22
554.143	26573.16
554.507	26577
554.87	26756.66
555.234	27041.85
555.597	26785.13
555.96	27051.34
556.323	27078.91
556.686	27139.47
557.05	27315.28
557.413	27452.46
557.776	27506.69
558.139	27658.55
558.502	27754.82
558.865	28032.55
559.228	28088.6
559.59	28221.7
559.953	28347.12
560.316	28476.84
560.679	28494.46
561.041	28681.12
561.404	28762.25
561.767	29059.42
562.129	29003.15
562.492	29340.99
562.854	29226.42
563.217	29416.25
563.579	29516.36
563.941	29666.64
564.304	29747.99
564.666	29879.51
565.028	29977.14
565.39	30148.2
565.753	30272.95
566.115	30265.72
566.477	30414.64
566.839	30573.05
567.201	30810.79
567.563	30748.64
567.925	31011.23
568.287	31030.67
568.648	31099.59
569.01	31268.85
569.372	31525.8
569.734	31424.33
570.095	31654.15
570.457	31943.86
570.819	31961.94
571.18	31875.39
571.542	32161.03
571.903	32038.1
572.265	32249.62
572.626	32325.77
572.987	32415.49
573.349	32530.06
573.71	32722.6
574.071	32831.52
574.432	32897.51
574.794	32979.54
575.155	32969.15
575.516	32921.69
575.877	33198.52
576.238	33174.57
576.599	33299.31
576.96	33314.9
577.32	33369.81
577.681	33555.12
578.042	33639.64
578.403	33638.51
578.763	33671.28
579.124	33755.79
579.485	33840.31
579.845	33949.69
580.206	33853.19
580.566	33928.9
580.927	33859.97
581.287	34140.87
581.648	33834.66
582.008	33991.27
582.368	33893.42
582.728	34160.3
583.089	34063.58
583.449	34147.2
583.809	34045.96
584.169	34095.22
584.529	34096.58
584.889	34382.22
585.249	34085.95
585.609	34123.92
585.969	34263.35
586.329	34217.7
586.688	34344.03
587.048	34163.24
587.408	34233.07
587.768	34258.6
588.127	34255.67
588.487	34158.27
588.846	34300.41
589.206	34166.18
589.565	34217.7
589.925	34364.14
590.284	34202.79
590.643	34267.87
591.003	34458.83
591.362	34482.1
591.721	34403.23
592.08	34430.35
592.44	34513.51
592.799	34565.49
593.158	34490.69
593.517	34350.13
593.876	34584.47
594.235	34323.01
594.593	34527.52
594.952	34678.71
595.311	34494.98
595.67	34581.31
596.029	34911.47
596.387	34783.11
596.746	35011.35
597.104	34592.16
597.463	34554.42
597.822	34927.06
598.18	34602.1
598.538	34692.04
598.897	34814.75
599.255	34698.37
599.613	35185.36
599.972	34974.07
600.33	35028.53
600.688	34852.94
601.046	35101.29
601.404	35122.08
601.762	35075.31
602.12	35150.33
602.478	35181.29
602.836	35197.11
603.194	35066.95
603.552	34910.34
603.91	34873.73
604.268	35227.84
604.625	35137.45
604.983	35207.51
605.341	35022.43
605.698	35323.66
606.056	35343.77
606.413	35394.17
606.771	35469.19
607.128	35414.73
607.485	35436.65
607.843	35315.07
608.2	35549.64
608.557	35650.43
608.914	35521.62
609.272	35559.36
609.629	35721.62
609.986	35866.92
610.343	35600.94
610.7	35988.95
611.057	35950.09
611.414	35832.12
611.771	35961.38
612.127	36104.43
612.484	35995.28
612.841	36052.23
613.198	36096.97
613.554	35895.17
613.911	36352.79
614.267	36142.17
614.624	36259.91
614.98	36165.9
615.337	36422.62
615.693	36262.62
616.05	36359.57
616.406	36611.99
616.762	36406.34
617.118	36468.94
617.475	36556.62
617.831	36550.52
618.187	36573.57
618.543	36663.74
618.899	36764.75
619.255	36705.77
619.611	36566.34
619.967	36714.36
620.323	36714.13
620.678	36568.15
621.034	36625.32
621.39	36493.35
621.746	36566.79
622.101	36973.56
622.457	36658.09
622.812	36747.35
623.168	36922.26
623.523	36785.54
623.879	36715.26
624.234	36803.62
624.589	36792.32
624.945	36753.45
625.3	36745.09
625.655	36738.54
626.01	36790.74
626.365	36931.08
626.72	36830.74
627.075	36648.37
627.43	36641.59
627.785	36494.7
628.14	36680.91
628.495	36727.69
628.85	36698.77
629.205	36626.23
629.559	36739.9
629.914	36676.39
630.269	36665.55
630.623	36518.21
630.978	36382.16
631.332	36579
631.687	36673.46
632.041	36453.58
632.396	36588.94
632.75	36398.44
633.104	36485.21
633.459	36279.79
633.813	36161.15
634.167	36327.93
634.521	36227.37
634.875	36232.79
635.229	36206.8
635.583	35893.59
635.937	36033.47
636.291	36012.01
636.645	35913.02
636.999	35994.6
637.352	36010.88
637.706	35713.71
638.06	35905.57
638.413	35713.26
638.767	35677.78
639.121	35695.18
639.474	35628.29
639.828	35534.96
640.181	35641.17
640.534	35559.59
640.888	35438.69
641.241	35299.03
641.594	35384.9
641.947	35421.51
642.301	35314.4
642.654	35225.59
643.007	35349.65
643.36	35197.56
643.713	35309.88
644.066	35233.49
644.419	34908.08
644.771	34793.73
645.124	34434.19
645.477	34497.24
645.83	34121.66
646.182	34046.86
646.535	34020.19
646.888	34089.34
647.24	33786.3
647.593	33998.27
647.945	33962.79
648.298	33739.75
648.65	33704.5
649.002	33656.13
649.355	33734.55
649.707	33679.19
650.059	33799.86
650.411	34124.15
650.763	34128.89
651.115	34525.49
651.467	34403.46
651.819	34420.41
652.171	34224.48
652.523	34164.14
652.875	34176.12
653.227	34036.24
653.578	34316
653.93	34121.66
654.282	33930.7
654.633	33937.94
654.985	33980.42
655.337	33981.32
655.688	33983.36
656.039	33988.33
656.391	33878.05
656.742	33861.55
657.094	33916.24
657.445	33946.3
657.796	33827.43
658.147	33807.54
658.498	33852.29
658.849	33791.05
659.2	33893.42
659.551	33523.71
659.902	33721.22
660.253	33685.74
660.604	33677.6
660.955	33532.97
661.306	33633.99
661.656	33532.97
662.007	33653.2
662.358	33558.74
662.708	33470.6
663.059	33490.72
663.409	33296.14
663.76	33438.97
664.11	33464.73
664.461	33482.35
664.811	33441.68
665.161	33595.57
665.511	33492.3
665.862	33347.67
666.212	33439.64
666.562	33410.04
666.912	33427.44
667.262	33186.54
667.612	33299.31
667.962	33334.56
668.312	33125.3
668.662	33461.56
669.011	33243.72
669.361	33262.02
669.711	33191.06
670.06	33108.13
670.41	33158.52
670.76	33040.78
671.109	33237.16
671.459	33099.31
671.808	33072.42
672.157	33020.67
672.507	32862.03
672.856	32877.17
673.205	32950.62
673.554	32988.13
673.904	32780.23
674.253	33030.16
674.602	32918.75
674.951	32309.73
675.3	32245.1
675.649	32817.51
675.998	32720.79
676.346	32741.36
676.695	32851.64
677.044	32568.03
677.393	32712.2
677.741	32788.81
678.09	32608.48
678.438	32498.43
678.787	32594.24
679.135	32579.1
679.484	32369.39
679.832	32534.36
680.181	32392.44
680.529	32382.95
680.877	32404.64
681.225	32270.41
681.573	32585.2
681.922	32244.19
682.27	32075.84
682.618	32029.96
682.966	31981.15
683.314	31996.97
683.661	32022.96
684.009	31846.46
684.357	31696.19
684.705	31605.57
685.053	31726.47
685.4	31582.52
685.748	31461.16
686.095	31522.86
686.443	31438.57
686.79	31336.2
687.138	31478.79
687.485	31243.32
687.832	31107.5
688.18	31152.7
688.527	30878.35
688.874	31120.16
689.221	31005.13
689.568	30899.6
689.915	30819.83
690.262	30799.03
690.609	30665.03
690.956	30489.44
691.303	30474.98
691.65	30352.27
691.997	30378.25
692.344	30172.16
692.69	30179.39
693.037	30219.62
693.383	29841.77
693.73	29935.33
694.077	29839.96
694.423	29826.86
694.769	29630.25
695.116	29587.99
695.462	29601.55
695.808	29565.17
696.155	29524.94
696.501	29359.75
696.847	29320.2
697.193	29053.77
697.539	29289.47
697.885	29014
698.231	29014.9
698.577	28881.12
698.923	28854.91
699.269	28691.75
699.614	28545.76
699.96	28568.81
700.306	28516.16
700.651	28395.26
700.997	28336.5
701.342	28326.56
701.688	28247.46
702.033	28157.52
702.379	28098.31
702.724	28114.36
703.069	28223.74
703.415	27718.21
703.76	27843.18
704.105	27771.54
704.45	27719.12
704.795	27525.45
705.14	27599.57
705.485	27443.19
705.83	27391.89
706.175	27342.4
706.52	27251.78
706.865	27189.86
707.209	27251.78
707.554	27053.82
707.899	27133.14
708.243	26901.96
708.588	26981.51
708.932	26841.62
709.277	26676.43
709.621	26753.72
709.966	26607.73
710.31	26644.57
710.654	26383.78
710.998	26467.17
711.342	26458.58
711.687	26323.22
712.031	26303.56
712.375	26020.18
712.719	26106.73
713.063	26069.22
713.407	26144.24
713.75	25964.59
714.094	26024.47
714.438	25784.7
714.782	25801.2
715.125	25815.89
715.469	25864.93
715.812	25689.79
716.156	25501.32
716.499	25636.01
716.843	25628.78
717.186	25386.52
717.53	25393.08
717.873	25559.4
718.216	25369.57
718.559	25363.92
718.902	25175.23
719.246	25222.46
719.589	25046.64
719.932	25031.73
720.275	25043.93
720.617	24969.13
720.96	24874.67
721.303	24860.66
721.646	24888
721.989	24643.26
722.331	24819.98
722.674	24741.34
723.016	24696.14
723.359	24705.18
723.701	24610.5
724.044	24381.58
724.386	24355.14
724.729	24468.58
725.071	24375.25
725.413	24337.28
725.755	24321.47
726.097	24314.23
726.439	24069.49
726.782	24081.47
727.124	24220.9
727.465	24066.1
727.807	23961.93
728.149	23957.18
728.491	23935.94
728.833	23978.42
729.175	23888.03
729.516	23900.01
729.858	23706.11
730.199	23811.2
730.541	23752.21
730.882	23695.72
731.224	23611.43
731.565	23509.06
731.906	23487.59
732.248	23574.59
732.589	23382.96
732.93	23473.58
733.271	23413.01
733.612	23419.12
733.953	23450.98
734.294	23302.06
734.635	23229.52
734.976	23273.36
735.317	23103.87
735.658	23187.48
735.999	23189.07
736.339	23041.5
736.68	23152.46
737.021	23048.73
737.361	22902.75
737.702	23027.71
738.042	22896.64
738.383	22852.8
738.723	22839.7
739.063	22771.45
739.404	22822.3
739.744	22829.53
740.084	22723.09
740.424	22714.95
740.764	22587.73
741.104	22715.86
741.444	22559.93
741.784	22439.48
742.124	22413.72
742.464	22414.4
742.804	22392.02
743.143	22388.18
743.483	22268.19
743.823	22141.41
744.162	22352.7
744.502	22242.42
744.841	22167.62
745.181	22193.39
745.52	22076.55
745.86	22178.24
746.199	22054.63
746.538	22048.76
746.877	22037.23
747.216	21985.26
747.556	21924.01
747.895	21909.78
748.234	21918.59
748.573	21818.25
748.911	21760.4
749.25	21768.54
749.589	21647.19
749.928	21603.57
750.267	21598.15
750.605	21581.2
750.944	21464.59
751.283	21459.17
751.621	21423.46
751.96	21312.05
752.298	21281.77
752.636	21409.45
752.975	21310.7
753.313	21175.33
753.651	21233.41
753.989	21074.09
754.327	21002
754.666	20876.13
