Data from white_poster_card_FLMS001491_00011.txt Node
Date: Wed Feb 08 11:51:08 GMT 2017
User: dcchb
Spectrometer: FLMS00149
Trigger mode: 0
Integration Time (sec): 2.000000E-2
Scans to average: 10
Electric dark correction enabled: true
Nonlinearity correction enabled: false
Boxcar width: 0
XAxis mode: Wavelengths
Number of Pixels in Spectrum: 2048
>>>>>Begin Spectral Data<<<<<
341.393	-10.4
341.776	-10.4
342.16	-10.4
342.543	-79.09
342.927	-64.86
343.31	-71.18
343.693	-77.96
344.077	-44.29
344.46	-56.04
344.843	-49.72
345.226	-43.16
345.61	-29.83
345.993	-26.67
346.376	-12.88
346.759	-5.88
347.142	25.99
347.525	51.98
347.908	58.53
348.291	84.74
348.674	84.52
349.057	111.86
349.44	120.22
349.823	146.89
350.206	169.94
350.588	188.7
350.971	213.1
351.354	214.23
351.737	233.44
352.119	259.43
352.502	257.17
352.884	275.7
353.267	281.12
353.65	282.93
354.032	292.2
354.414	301.24
354.797	334.68
355.179	308.01
355.562	321.35
355.944	340.33
356.326	314.57
356.709	335.58
357.091	333.78
357.473	350.5
357.855	347.11
358.238	336.49
358.62	325.42
359.002	335.36
359.384	326.32
359.766	331.97
360.148	359.09
360.53	333.1
360.912	328.8
361.294	344.85
361.676	333.32
362.057	338.75
362.439	328.13
362.821	320.9
363.203	327.67
363.584	308.92
363.966	319.99
364.348	298.3
364.729	299.65
365.111	326.77
365.493	320.44
365.874	334.45
366.256	321.35
366.637	323.83
367.019	311.86
367.4	322.03
367.781	314.12
368.163	301.46
368.544	315.02
368.925	315.25
369.306	302.59
369.688	305.08
370.069	310.95
370.45	316.15
370.831	327
371.212	307.79
371.593	324.96
371.974	306.43
372.355	319.31
372.736	322.93
373.117	314.12
373.498	325.64
373.879	321.12
374.26	328.35
374.641	309.82
375.021	307.34
375.402	321.12
375.783	324.96
376.163	343.49
376.544	312.99
376.925	336.26
377.305	341.23
377.686	339.43
378.066	341.01
378.447	318.64
378.827	342.82
379.208	324.51
379.588	344.17
379.968	345.75
380.349	339.88
380.729	356.6
381.109	338.97
381.489	348.69
381.87	352.31
382.25	341.01
382.63	344.85
383.01	362.7
383.39	338.07
383.77	351.86
384.15	363.38
384.53	360.89
384.91	352.76
385.29	359.54
385.67	357.28
386.049	340.33
386.429	366.09
386.809	374.91
387.189	365.19
387.568	369.26
387.948	360.22
388.328	358.41
388.707	369.03
389.087	369.26
389.466	368.13
389.846	372.87
390.225	388.24
390.605	386.43
390.984	395.02
391.363	377.17
391.743	390.95
392.122	375.13
392.501	387.33
392.881	376.94
393.26	405.64
393.639	387.33
394.018	392.53
394.397	411.74
394.776	395.92
395.155	415.13
395.534	425.07
395.913	421.46
396.292	414.45
396.671	413.77
397.05	423.04
397.429	403.38
397.808	404.51
398.186	414
398.565	419.2
398.944	419.88
399.323	451.74
399.701	430.27
400.08	421.46
400.458	448.12
400.837	434.79
401.215	470.27
401.594	451.06
401.972	461.23
402.351	448.35
402.729	438.41
403.107	459.87
403.486	469.37
403.864	474.56
404.242	474.11
404.62	470.5
404.999	501
405.377	477.73
405.755	490.83
406.133	506.2
406.511	498.29
406.889	511.4
407.267	523.15
407.645	545.52
408.023	528.35
408.401	536.48
408.779	528.57
409.156	559.76
409.534	544.84
409.912	562.25
410.29	566.76
410.667	552.3
411.045	596.82
411.422	598.63
411.8	633.66
412.178	629.36
412.555	641.34
412.933	649.93
413.31	678.4
413.687	677.72
414.065	683.6
414.442	724.95
414.819	722.24
415.197	705.97
415.574	731.73
415.951	757.49
416.328	783.26
416.705	763.37
417.082	789.58
417.46	830.71
417.837	837.04
418.214	844.27
418.591	799.08
418.967	861.9
419.344	871.84
419.721	887.66
420.098	901.45
420.475	900.09
420.852	922.01
421.228	923.14
421.605	973.53
421.982	961.33
422.358	983.93
422.735	993.65
423.111	999.3
423.488	1037.71
423.864	1031.16
424.241	1043.36
424.617	1050.14
424.994	1067.32
425.37	1093.53
425.746	1106.64
426.123	1124.26
426.499	1101.67
426.875	1127.43
427.251	1149.12
427.627	1177.6
428.003	1200.65
428.379	1207.2
428.756	1212.62
429.132	1245.39
429.507	1291.49
429.883	1237.03
430.259	1298.27
430.635	1318.38
431.011	1322.9
431.387	1342.11
431.763	1379.17
432.138	1399.96
432.514	1394.77
432.89	1428.66
433.265	1428.89
433.641	1498.94
434.016	1480.87
434.392	1495.33
434.767	1531.03
435.143	1527.42
435.518	1583.91
435.894	1572.61
436.269	1636.79
436.644	1650.13
437.02	1660.97
437.395	1647.64
437.77	1674.98
438.145	1713.63
438.52	1703.23
438.895	1722.44
439.271	1697.36
439.646	1767.86
440.021	1777.13
440.395	1766.73
440.77	1793.85
441.145	1803.34
441.52	1825.71
441.895	1831.36
442.27	1860.29
442.645	1862.78
443.019	1883.57
443.394	1849.22
443.769	1895.32
444.143	1885.83
444.518	1926.95
444.892	1920.4
445.267	1929.89
445.641	1983
446.016	1980.74
446.39	1964.69
446.764	1971.7
447.139	1998.37
447.513	1990.68
447.887	2019.16
448.262	2014.18
448.636	2063.22
449.01	2051.02
449.384	2103.22
449.758	2112.03
450.132	2125.37
450.506	2162.43
450.88	2153.39
451.254	2170.34
451.628	2205.14
452.002	2255.99
452.376	2222.54
452.75	2238.36
453.123	2289.21
453.497	2299.6
453.871	2309.77
454.244	2335.76
454.618	2352.71
454.992	2419.15
455.365	2388.41
455.739	2500.27
456.112	2462.99
456.486	2503.21
456.859	2498.01
457.232	2555.41
457.606	2566.49
457.979	2599.93
458.352	2648.97
458.725	2681.74
459.099	2689.65
459.472	2761.06
459.845	2753.37
460.218	2770.32
460.591	2761.06
460.964	2844.22
461.337	2927.38
461.71	2908.4
462.083	2971.45
462.456	2968.28
462.829	2956.76
463.201	3043.31
463.574	3020.03
463.947	3129.86
464.32	3149.07
464.692	3140.48
465.065	3193.81
465.438	3257.32
465.81	3327.14
466.183	3335.96
466.555	3379.57
466.928	3382.74
467.3	3408.27
467.672	3472.23
468.045	3567.82
468.417	3580.92
468.789	3563.07
469.161	3618.21
469.534	3718.32
469.906	3721.71
470.278	3777.08
470.65	3825.89
471.022	3912.89
471.394	3926.9
471.766	3971.42
472.138	4028.14
472.51	4115.82
472.882	4161.7
473.253	4202.83
473.625	4259.77
473.997	4315.59
474.369	4379.09
474.74	4465.87
475.112	4518.98
475.484	4581.35
475.855	4679.42
476.227	4715.81
476.598	4803.72
476.97	4839.42
477.341	4941.34
477.713	5015.69
478.084	5004.84
478.455	5207.55
478.827	5234.44
479.198	5370.03
479.569	5373.87
479.94	5497.03
480.311	5549.46
480.682	5676.91
481.053	5811.6
481.424	5913.97
481.795	5937.02
482.166	6041.88
482.537	6118.48
482.908	6285.26
483.279	6255.43
483.65	6358.7
484.021	6562.54
484.391	6572.03
484.762	6638.24
485.133	6685.7
485.503	6789.2
485.874	6946.94
486.244	6965.01
486.615	7118.68
486.985	7252.01
487.356	7324.78
487.726	7408.39
488.097	7526.81
488.467	7646.58
488.837	7770.19
489.207	7830.53
489.578	8006.57
489.948	8034.14
490.318	8214.47
490.688	8199.56
491.058	8316.17
491.428	8511.41
491.798	8480.68
492.168	8661.92
492.538	8785.76
492.908	8840.45
493.278	8975.58
493.648	8976.04
494.017	9091.06
494.387	9206.76
494.757	9241.11
495.126	9370.83
495.496	9320.21
495.866	9443.14
496.235	9571.5
496.605	9707.99
496.974	9705.51
497.344	9809.23
497.713	9903.02
498.082	9966.07
498.452	10077.02
498.821	10136
499.19	10145.04
499.559	10323.57
499.928	10340.29
500.298	10462.32
500.667	10486.73
501.036	10480.4
501.405	10606.95
501.774	10683.79
502.143	10743.22
502.512	10820.51
502.88	10884.23
503.249	10972.59
503.618	10976.66
503.987	11049.43
504.356	11180.5
504.724	11232.47
505.093	11296.88
505.462	11269.99
505.83	11434.73
506.199	11511.11
506.567	11709.07
506.936	11803.53
507.304	11825
507.672	11884.43
508.041	11970.08
508.409	12119.68
508.777	12229.06
509.145	12267.47
509.514	12269.73
509.882	12423.85
510.25	12471.54
510.618	12523.96
510.986	12551.99
511.354	12790.17
511.722	12825.43
512.09	12903.62
512.458	12945.42
512.826	13047.57
513.193	13207.79
513.561	13255.47
513.929	13315.36
514.297	13465.18
514.664	13561.23
515.032	13661.34
515.4	13790.82
515.767	13791.05
516.135	13832.86
516.502	13920.31
516.869	14112.17
517.237	14181.55
517.604	14206.41
517.972	14416.57
518.339	14461.99
518.706	14442.56
519.073	14629.22
519.44	14770.46
519.808	14859.5
520.175	14896.11
520.542	15112.37
520.909	15140.39
521.276	15198.02
521.643	15391.46
522.009	15477.11
522.376	15631.68
522.743	15814.73
523.11	15925
523.477	16064.21
523.843	16114.38
524.21	16290.65
524.577	16398.66
524.943	16461.94
525.31	16570.86
525.676	16726.11
526.043	16915.26
526.409	16922.04
526.776	17205.42
527.142	17157.51
527.508	17331.07
527.874	17459.88
528.241	17451.29
528.607	17661.46
528.973	17901
529.339	17895.8
529.705	17994.56
530.071	18183.25
530.437	18281.1
530.803	18326.75
531.169	18408.78
531.535	18543.92
531.901	18524.94
532.267	18731.03
532.632	18817.81
532.998	18830.47
533.364	19019.39
533.73	19012.38
534.095	19215.99
534.461	19216.9
534.826	19361.75
535.192	19481.75
535.557	19572.14
535.923	19631.8
536.288	19681.06
536.653	19791.8
537.019	19737.11
537.384	19949.76
537.749	20077.89
538.114	20049.19
538.479	20034.73
538.845	20300.71
539.21	20257.77
539.575	20336.64
539.94	20389.07
540.305	20524.43
540.67	20510.87
541.034	20612.57
541.399	20707.48
541.764	20781.37
542.129	21017.53
542.494	20928.49
542.858	20960.58
543.223	21083.51
543.587	21295.49
543.952	21183.17
544.316	21322.15
544.681	21290.06
545.045	21487.57
545.41	21509.49
545.774	21585.2
546.138	21587.68
546.503	21701.35
546.867	21718.52
547.231	21945.19
547.595	21955.81
547.959	22088.46
548.324	22057.05
548.688	22097.95
549.052	22142.69
549.416	22241.45
549.779	22453.19
550.143	22398.28
550.507	22552.85
550.871	22650.7
551.235	22623.36
551.599	22861.55
551.962	22913.3
552.326	22927.98
552.689	23152.61
553.053	23045.27
553.417	23193.51
553.78	23392.61
554.143	23391.02
554.507	23477.35
554.87	23521.42
555.234	23760.51
555.597	23605.93
555.96	23778.81
556.323	23932.48
556.686	23975.87
557.05	24115.3
557.413	24279.36
557.776	24367.95
558.139	24469.87
558.502	24554.16
558.865	24593.03
559.228	24853.81
559.59	24898.1
559.953	24917.99
560.316	25213.57
560.679	25215.38
561.041	25270.97
561.404	25410.41
561.767	25624.86
562.129	25514.58
562.492	25837.29
562.854	25877.06
563.217	25912.99
563.579	25999.77
563.941	26122.25
564.304	26369.48
564.666	26402.92
565.028	26538.96
565.39	26707.09
565.753	26752.74
566.115	26927.2
566.477	26954.55
566.839	27132.62
567.201	27231.37
567.563	27293.52
567.925	27506.4
568.287	27542.55
568.648	27492.38
569.01	27847.18
569.372	27829.32
569.734	27854.41
570.095	28012.14
570.457	28099.6
570.819	28221.86
571.18	28211.69
571.542	28387.5
571.903	28446.71
572.265	28481.74
572.626	28621.39
572.987	28548.63
573.349	28798.11
573.71	28815.74
574.071	28930.54
574.432	29031.55
574.794	29350.19
575.155	29158.78
575.516	29049.41
575.877	29342.28
576.238	29399.9
576.599	29502.28
576.96	29386.57
577.32	29548.6
577.681	29578.66
578.042	29750.4
578.403	29608.94
578.763	29758.09
579.124	29706.79
579.485	29846.67
579.845	29860.01
580.206	29908.82
580.566	29834.24
580.927	29883.51
581.287	30015.26
581.648	29898.2
582.008	30102.03
582.368	30089.15
582.728	30061.58
583.089	30107
583.449	30137.06
583.809	30132.09
584.169	30240.11
584.529	30079.89
584.889	30513.32
585.249	30236.72
585.609	30154.46
585.969	30435.13
586.329	30208.02
586.688	30306.77
587.048	30239.66
587.408	30234.91
587.768	30340.9
588.127	30254.8
588.487	30208.47
588.846	30449.14
589.206	30309.71
589.565	30299.32
589.925	30421.35
590.284	30325.98
590.643	30374.34
591.003	30380.9
591.362	30554
591.721	30451.4
592.08	30360.33
592.44	30583.6
592.799	30523.49
593.158	30504.06
593.517	30506.99
593.876	30351.52
594.235	30458.86
594.593	30454.11
594.952	30624.28
595.311	30539.31
595.67	30556.94
596.029	30747.21
596.387	30715.12
596.746	30757.61
597.104	30552.87
597.463	30693.66
597.822	30704.73
598.18	30582.47
598.538	30644.39
598.897	30824.95
599.255	30555.58
599.613	31007.55
599.972	30847.1
600.33	30836.7
600.688	30834.44
601.046	30910.6
601.404	31012.52
601.762	30931.16
602.12	31204.38
602.478	31092.74
602.836	31173.42
603.194	30931.39
603.552	31142.23
603.91	30934.1
604.268	31210.7
604.625	30963.03
604.983	31033.08
605.341	30999.86
605.698	31186.3
606.056	31263.81
606.413	31229.69
606.771	31338.16
607.128	31355.56
607.485	31195.56
607.843	31318.27
608.2	31480.53
608.557	31652.28
608.914	31396.24
609.272	31532.05
609.629	31555.1
609.986	31715.1
610.343	31583.8
610.7	31770.24
611.057	31793.29
611.414	31741.99
611.771	31681.43
612.127	31876.9
612.484	31840.52
612.841	31851.14
613.198	31820.63
613.554	32071.7
613.911	32177.23
614.267	32019.5
614.624	31984.02
614.98	31979.95
615.337	32229.66
615.693	32142.21
616.05	32039.84
616.406	32313.73
616.762	32095.43
617.118	32130.91
617.475	32350.11
617.831	32344.46
618.187	32291.13
618.543	32285.93
618.899	32566.6
619.255	32332.03
619.611	32454.29
619.967	32384.91
620.323	32418.81
620.678	32421.75
621.034	32377
621.39	32399.15
621.746	32363.89
622.101	32562.99
622.457	32433.27
622.812	32376.55
623.168	32509.65
623.523	32419.71
623.879	32640.95
624.234	32359.15
624.589	32592.59
624.945	32558.24
625.3	32578.13
625.655	32456.77
626.01	32535.64
626.365	32459.03
626.72	32540.16
627.075	32422.2
627.43	32448.86
627.785	32355.53
628.14	32552.14
628.495	32495.64
628.85	32525.7
629.205	32195.31
629.559	32579.71
629.914	32268.53
630.269	32399.6
630.623	32332.48
630.978	32195.99
631.332	32390.79
631.687	32370.45
632.041	32153.96
632.396	32308.76
632.75	32112.38
633.104	32150.57
633.459	31935.43
633.813	32068.08
634.167	32121.19
634.521	31964.36
634.875	32129.55
635.229	31878.48
635.583	31784.02
635.937	31825.6
636.291	31787.19
636.645	31857.69
636.999	31789.45
637.352	31747.64
637.706	31587.19
638.06	31658.15
638.413	31631.03
638.767	31459.96
639.121	31553.97
639.474	31398.72
639.828	31267.65
640.181	31352.4
640.534	31439.85
640.888	31302.23
641.241	31097.26
641.594	31243.25
641.947	31265.84
642.301	31184.04
642.654	31037.15
643.007	31047.09
643.36	31093.19
643.713	31140.42
644.066	31113.98
644.419	30925.51
644.771	30682.36
645.124	30435.36
645.477	30330.5
645.83	30198.53
646.182	30019.78
646.535	29905.2
646.888	29962.15
647.24	29735.49
647.593	29988.36
647.945	29996.27
648.298	29804.19
648.65	29627.7
649.002	29580.69
649.355	29685.32
649.707	29673.8
650.059	29711.99
650.411	30194.23
650.763	30209.15
651.115	30436.49
651.467	30316.49
651.819	30281.01
652.171	30274.23
652.523	30132.09
652.875	30131.64
653.227	30039.89
653.578	30233.33
653.93	30208.02
654.282	29988.14
654.633	29932.09
654.985	29991.75
655.337	30020.23
655.688	29949.95
656.039	30000.34
656.391	29746.34
656.742	29868.59
657.094	29792.44
657.445	29848.48
657.796	29823.85
658.147	29790.18
658.498	29608.71
658.849	29842.15
659.2	29686
659.551	29587.7
659.902	29743.62
660.253	29732.78
660.604	29728.48
660.955	29539.56
661.306	29710.63
661.656	29639.67
662.007	29563.06
662.358	29673.8
662.708	29614.14
663.059	29488.26
663.409	29342.96
663.76	29543.86
664.11	29331.43
664.461	29477.42
664.811	29403.29
665.161	29442.62
665.511	29318.78
665.862	29362.17
666.212	29482.61
666.562	29464.99
666.912	29450.98
667.262	29275.16
667.612	29360.36
667.962	29321.26
668.312	29224.09
668.662	29405.78
669.011	29309.29
669.361	29212.34
669.711	29217.99
670.06	29211.44
670.41	29131.89
670.76	29124.66
671.109	29282.62
671.459	29034.72
671.808	29039.91
672.157	29145.45
672.507	28872.24
672.856	28962.63
673.205	29008.28
673.554	28931.44
673.904	28851.22
674.253	29003.98
674.602	28826.36
674.951	28512.92
675.3	28496.88
675.649	28950.43
675.998	28742.97
676.346	28817.77
676.695	28911.78
677.044	28684.67
677.393	28844.89
677.741	28856.19
678.09	28686.03
678.438	28676.31
678.787	28739.58
679.135	28622.3
679.484	28533.94
679.832	28668.62
680.181	28389.76
680.529	28462.3
680.877	28383.89
681.225	28437.9
681.573	28434.05
681.922	28273.61
682.27	28238.81
682.618	28273.61
682.966	28203.33
683.314	28264.57
683.661	28144.12
684.009	27971.47
684.357	27959.94
684.705	27926.72
685.053	27984.12
685.4	27784.35
685.748	27768.54
686.095	27552.5
686.443	27591.82
686.79	27565.6
687.138	27566.05
687.485	27601.31
687.832	27616.45
688.18	27460.97
688.527	27447.19
688.874	27276.12
689.221	27247.19
689.568	27124.94
689.915	27001.78
690.262	27091.04
690.609	26983.25
690.956	26922.91
691.303	26782.57
691.65	26757.94
691.997	26782.8
692.344	26539.64
692.69	26555.01
693.037	26586.42
693.383	26303.72
693.73	26341.23
694.077	26237.73
694.423	26259.87
694.769	26037.06
695.116	26103.04
695.462	26085.19
695.808	26044.06
696.155	26110.73
696.501	25799.77
696.847	25737.4
697.193	25560.68
697.539	25604.52
697.885	25544.19
698.231	25451.08
698.577	25358.43
698.923	25411.76
699.269	25226
699.614	25173.8
699.96	25175.38
700.306	25136.29
700.651	24917.76
700.997	24930.64
701.342	24902.17
701.688	24918.67
702.033	24804.55
702.379	24649.52
702.724	24624.21
703.069	24663.31
703.415	24480.26
703.76	24470.99
704.105	24490.2
704.45	24369.08
704.795	24209.76
705.14	24240.94
705.485	24120.04
705.83	24115.98
706.175	24138.12
706.52	23969.31
706.865	23826.49
707.209	23922.08
707.554	23857.68
707.899	23927.96
708.243	23732.71
708.588	23769.77
708.932	23494.75
709.277	23579.72
709.621	23547.18
709.966	23382.66
710.31	23436.22
710.654	23245.49
710.998	23252.72
711.342	23207.3
711.687	23079.39
712.031	23079.39
712.375	22902.67
712.719	22960.75
713.063	22993.52
713.407	23058.38
713.75	22878.04
714.094	22824.26
714.438	22699.52
714.782	22828.55
715.125	22679.86
715.469	22639.4
715.812	22626.07
716.156	22345.63
716.499	22462.69
716.843	22455.91
717.186	22229.92
717.53	22472.86
717.873	22384.95
718.216	22237.61
718.559	22254.78
718.902	22125.07
719.246	22205.07
719.589	22032.42
719.932	21945.86
720.275	21947.9
720.617	21836.94
720.96	21876.49
721.303	21966.2
721.646	21924.4
721.989	21793.55
722.331	21781.12
722.674	21599.43
723.016	21652.54
723.359	21662.03
723.701	21619.32
724.044	21546.33
724.386	21394.24
724.729	21507.01
725.071	21472.88
725.413	21457.74
725.755	21380
726.097	21405.54
726.439	21168.48
726.782	21164.87
727.124	21399.44
727.465	21137.98
727.807	21172.1
728.149	21073.8
728.491	21020.46
728.833	21111.31
729.175	20907.92
729.516	21002.84
729.858	20881.26
730.199	20926.23
730.541	20973.23
730.882	20898.43
731.224	20878.32
731.565	20732.34
731.906	20719.91
732.248	20666.58
732.589	20615.96
732.93	20582.06
733.271	20520.36
733.612	20599.01
733.953	20579.57
734.294	20422.29
734.635	20383.64
734.976	20393.14
735.317	20208.51
735.658	20260.26
735.999	20282.18
736.339	20230.88
736.68	20312.91
737.021	20164.22
737.361	20050.32
737.702	20232.69
738.042	20122.86
738.383	19986.59
738.723	19990.66
739.063	20031.79
739.404	20093.71
739.744	20013.03
740.084	19923.54
740.424	19877.67
740.764	19786.15
741.104	19919.93
741.444	19794.28
741.784	19735.75
742.124	19811.91
742.464	19819.14
742.804	19681.52
743.143	19606.04
743.483	19627.05
743.823	19543.89
744.162	19568.75
744.502	19578.47
744.841	19533.05
745.181	19555.64
745.52	19437.68
745.86	19483.56
746.199	19464.8
746.538	19461.64
746.877	19426.16
747.216	19401.52
747.556	19305.71
747.895	19397.23
748.234	19122.89
748.573	19115.66
748.911	19203.56
749.25	19205.82
749.589	19128.76
749.928	19079.95
750.267	19028.43
750.605	18950.91
750.944	18901.42
751.283	18878.15
751.621	18842.44
751.96	18745.27
752.298	18725.61
752.636	18731.94
752.975	18658.49
753.313	18559.96
753.651	18638.38
753.989	18600.87
754.327	18501.89
754.666	18415.11
