Data from whiteboard_FLMS001491_00060.txt Node
Date: Wed Feb 08 11:27:07 GMT 2017
User: dcchb
Spectrometer: FLMS00149
Trigger mode: 0
Integration Time (sec): 2.000000E-2
Scans to average: 10
Electric dark correction enabled: true
Nonlinearity correction enabled: false
Boxcar width: 0
XAxis mode: Wavelengths
Number of Pixels in Spectrum: 2048
>>>>>Begin Spectral Data<<<<<
341.393	7.99
341.776	7.99
342.16	7.99
342.543	-54.6
342.927	-73.59
343.31	-59.12
343.693	-67.03
344.077	-72.46
344.46	-58.22
344.843	-51.21
345.226	-63.42
345.61	-32.46
345.993	-23.19
346.376	-13.47
346.759	11.61
347.142	31.5
347.525	52.74
347.908	77.82
348.291	73.53
348.674	85.73
349.057	107.65
349.44	137.48
349.823	149.01
350.206	183.36
350.588	201.66
350.971	211.38
351.354	242.56
351.737	269.91
352.119	262.45
352.502	292.28
352.884	308.78
353.267	309.68
353.65	313.3
354.032	332.28
354.414	316.91
354.797	353.3
355.179	350.58
355.562	347.65
355.944	337.93
356.326	344.26
356.709	358.49
357.091	387.42
357.473	362.11
357.855	363.69
358.238	363.92
358.62	347.42
359.002	362.11
359.384	365.27
359.766	374.31
360.148	358.49
360.53	361.21
360.912	387.42
361.294	349.45
361.676	380.41
362.057	348.32
362.439	341.77
362.821	360.75
363.203	352.84
363.584	364.59
363.966	356.69
364.348	362.56
364.729	352.17
365.111	341.77
365.493	378.61
365.874	354.65
366.256	363.24
366.637	339.06
367.019	361.43
367.4	365.95
367.781	345.84
368.163	363.24
368.544	354.43
368.925	358.49
369.306	355.78
369.688	364.82
370.069	361.88
370.45	360.53
370.831	377.48
371.212	365.5
371.593	351.26
371.974	365.05
372.355	350.36
372.736	365.95
373.117	370.02
373.498	331.38
373.879	363.24
374.26	388.1
374.641	377.7
375.021	365.5
375.402	371.6
375.783	361.66
376.163	398.72
376.544	386.97
376.925	394.88
377.305	375.67
377.686	387.65
378.066	400.07
378.447	409.34
378.827	397.14
379.208	387.87
379.588	390.13
379.968	393.97
380.349	402.56
380.729	408.89
381.109	402.11
381.489	397.36
381.87	415.89
382.25	416.34
382.63	432.62
383.01	442.78
383.39	421.77
383.77	423.35
384.15	451.37
384.53	436.01
384.91	413.18
385.29	445.04
385.67	442.11
386.049	463.58
386.429	461.32
386.809	455.89
387.189	474.65
387.568	480.98
387.948	484.82
388.328	490.92
388.707	478.94
389.087	496.57
389.466	504.93
389.846	513.74
390.225	527.75
390.605	487.08
390.984	518.94
391.363	515.55
391.743	529.34
392.122	525.49
392.501	561.43
392.881	538.15
393.26	581.09
393.639	570.01
394.018	546.74
394.397	568.88
394.776	582.67
395.155	565.27
395.534	609.56
395.913	621.76
396.292	627.41
396.671	632.38
397.05	624.48
397.429	631.48
397.808	645.94
398.186	652.27
398.565	662.21
398.944	662.44
399.323	689.11
399.701	694.76
400.08	718.94
400.458	715.77
400.837	726.62
401.215	747.86
401.594	764.81
401.972	762.1
402.351	782.89
402.729	771.14
403.107	813.17
403.486	805.04
403.864	837.12
404.242	837.35
404.62	870.8
404.999	858.59
405.377	874.19
405.755	909.44
406.133	921.64
406.511	936.33
406.889	966.84
407.267	961.64
407.645	965.71
408.023	1004.35
408.401	1022.43
408.779	1045.03
409.156	1069.21
409.534	1081.19
409.912	1091.81
410.29	1120.73
410.667	1133.39
411.045	1149.89
411.422	1159.38
411.8	1210.9
412.178	1211.35
412.555	1260.84
412.933	1300.62
413.31	1285.7
413.687	1311.91
414.065	1381.97
414.442	1351.24
414.819	1368.86
415.197	1435.98
415.574	1424.45
415.951	1458.13
416.328	1479.37
416.705	1481.4
417.082	1507.62
417.46	1543.32
417.837	1573.38
418.214	1576.31
418.591	1595.52
418.967	1618.8
419.344	1626.93
419.721	1621.96
420.098	1678.01
420.475	1683.66
420.852	1723.2
421.228	1716.42
421.605	1730.89
421.982	1736.99
422.358	1794.84
422.735	1812.92
423.111	1838.23
423.488	1850.21
423.864	1902.41
424.241	1913.03
424.617	1925.46
424.994	1959.36
425.37	1951.45
425.746	1949.19
426.123	2020.6
426.499	1990.54
426.875	2029.64
427.251	2094.27
427.627	2155.06
428.003	2157.54
428.379	2207.48
428.756	2191.44
429.132	2241.38
429.507	2280.7
429.883	2336.52
430.259	2332
430.635	2374.03
431.011	2407.93
431.387	2493.13
431.763	2523.63
432.138	2532
432.514	2547.14
432.89	2565.67
433.265	2631.43
433.641	2705.55
434.016	2685.44
434.392	2741.03
434.767	2805.21
435.143	2800.46
435.518	2839.33
435.894	2870.52
436.269	2922.04
436.644	2957.97
437.02	2987.8
437.395	3009.05
437.77	3037.29
438.145	3087.46
438.52	3116.61
438.895	3171.75
439.271	3192.77
439.646	3231.41
440.021	3251.52
440.395	3307.79
440.77	3275.7
441.145	3332.43
441.52	3322.48
441.895	3379.2
442.27	3428.7
442.645	3377.4
443.019	3462.82
443.394	3475.93
443.769	3505.3
444.143	3511.63
444.518	3585.98
444.892	3583.95
445.267	3634.11
445.641	3642.7
446.016	3693.77
446.39	3719.08
446.764	3742.36
447.139	3747.56
447.513	3780.78
447.887	3822.81
448.262	3807.67
448.636	3910.26
449.01	3901.45
449.384	3955.23
449.758	4016.48
450.132	4022.58
450.506	4071.84
450.88	4102.8
451.254	4105.74
451.628	4166.53
452.002	4214.21
452.376	4286.98
452.75	4316.58
453.123	4394.55
453.497	4432.96
453.871	4473.41
454.244	4561.32
454.618	4608.33
454.992	4638.38
455.365	4661.66
455.739	4765.84
456.112	4810.81
456.486	4853.29
456.859	4922.67
457.232	4979.39
457.606	5008.54
457.979	5102.32
458.352	5190
458.725	5260.06
459.099	5262.77
459.472	5392.49
459.845	5480.84
460.218	5523.33
460.591	5544.8
460.964	5561.07
461.337	5714.74
461.71	5769.88
462.083	5862.98
462.456	5916.31
462.829	5921.28
463.201	6069.53
463.574	6059.59
463.947	6123.99
464.32	6246.93
464.692	6369.18
465.065	6398.11
465.438	6538.67
465.81	6651.89
466.183	6706.58
466.555	6854.14
466.928	6877.87
467.3	6891.2
467.672	7038.54
468.045	7209.61
468.417	7241.7
468.789	7324.19
469.161	7414.81
469.534	7513.79
469.906	7666.78
470.278	7765.76
470.65	7828.13
471.022	8047.78
471.394	8151.28
471.766	8205.52
472.138	8339.53
472.51	8559.18
472.882	8617.26
473.253	8726.41
473.625	8888.66
473.997	9141.31
474.369	9064.48
474.74	9239.62
475.112	9397.8
475.484	9643
475.855	9709.66
476.227	9777
476.598	10077.79
476.97	10194.62
477.341	10440.04
477.713	10515.06
478.084	10654.27
478.455	10882.28
478.827	11021.04
479.198	11439.33
479.569	11412.21
479.94	11714.13
480.311	11756.39
480.682	12044.74
481.053	12352.75
481.424	12458.97
481.795	12631.62
482.166	12844.72
482.537	13034.32
482.908	13321.99
483.279	13411.48
483.65	13777.8
484.021	14013.73
484.391	14154.74
484.762	14259.6
485.133	14364.9
485.503	14545.24
485.874	14835.63
486.244	15041.05
486.615	15343.64
486.985	15484.2
487.356	15822.49
487.726	15926.22
488.097	16281.92
488.467	16321.24
488.837	16682.81
489.207	16970.49
489.578	17104.95
489.948	17320.08
490.318	17542
490.688	17649.79
491.058	17970.91
491.428	18290.68
491.798	18465.59
492.168	18825.13
492.538	18907.38
492.908	19107.38
493.278	19331.55
493.648	19420.14
494.017	19662.62
494.387	19848.6
494.757	20010.18
495.126	20173.11
495.496	20298.31
495.866	20486.78
496.235	20738.07
496.605	20938.07
496.974	20950.49
497.344	21286.08
497.713	21401.56
498.082	21517.71
498.452	21736.24
498.821	21711.83
499.19	21917.25
499.559	22153.85
499.928	22300.06
500.298	22508.87
500.667	22662.77
501.036	22659.83
501.405	22871.12
501.774	22968.75
502.143	23170.77
502.512	23232.92
502.88	23489.41
503.249	23444.67
503.618	23588.17
503.987	23813.92
504.356	24011.66
504.724	24153.35
505.093	24158.55
505.462	24448.48
505.83	24457.07
506.199	24834.23
506.567	25135.7
506.936	25002.59
507.304	25359.87
507.672	25442.13
508.041	25555.35
508.409	25799.18
508.777	26032.39
509.145	26283.69
509.514	26286.17
509.882	26556.22
510.25	26572.72
510.618	26912.6
510.986	26942.2
511.354	27328.18
511.722	27451.57
512.09	27742.63
512.458	27830.54
512.826	28078.67
513.193	28221.49
513.561	28293.8
513.929	28668.71
514.297	28835.94
514.664	28964.52
515.032	29150.05
515.4	29455.58
515.767	29469.14
516.135	29753.88
516.502	29645.41
516.869	30227.54
517.237	30354.77
517.604	30411.26
517.972	30666.4
518.339	30975.77
518.706	31018.93
519.073	31216.89
519.44	31343.67
519.808	31875.63
520.175	31944.56
520.542	32254.38
520.909	32467.71
521.276	32333.47
521.643	32668.6
522.009	32937.75
522.376	33283.05
522.743	33479.88
523.11	33709.93
523.477	34005.07
523.843	34276.47
524.21	34584.49
524.577	34777.93
524.943	35112.38
525.31	35205.71
525.676	35578.58
526.043	35698.13
526.409	35894.28
526.776	36353.25
527.142	36409.52
527.508	36626.92
527.874	36882.05
528.241	36939.23
528.607	37164.31
528.973	37553.9
529.339	37457.86
529.705	37888.58
530.071	38052.87
530.437	38391.39
530.803	38521.11
531.169	38744.6
531.535	38779.4
531.901	38890.14
532.267	39072.5
532.632	39401.53
532.998	39541.42
533.364	39596.11
533.73	39842.43
534.095	40256.2
534.461	40262.3
534.826	40432.47
535.192	40676.98
535.557	40937.31
535.923	40901.16
536.288	41024.09
536.653	41268.15
537.019	41261.6
537.384	41644.41
537.749	41719.44
538.114	41919.89
538.479	42064.29
538.845	42170.5
539.21	42261.35
539.575	42434.45
539.94	42636.93
540.305	42987.2
540.67	42926.64
541.034	43015
541.399	43154.43
541.764	43560.3
542.129	43640.29
542.494	43663.12
542.858	43989.66
543.223	44064.01
543.587	44388.75
543.952	44232.59
544.316	44456.77
544.681	44406.6
545.045	44854.27
545.41	44964.1
545.774	45049.52
546.138	45179.24
546.503	45275.28
546.867	45344.43
547.231	45782.16
547.595	45771.99
547.959	45804.98
548.324	45932.89
548.688	46114.13
549.052	46123.84
549.416	46231.64
549.779	46326.1
550.143	46475.02
550.507	46614.68
550.871	46731.96
551.235	46701
551.599	46920.66
551.962	47042.24
552.326	47136.92
552.689	47412.85
553.053	47181.44
553.417	47260.99
553.78	47719.73
554.143	47500.76
554.507	47742.78
554.87	47928.99
555.234	48291.24
555.597	48200.85
555.96	48255.99
556.323	48354.29
556.686	48509.54
557.05	48705.92
557.413	48829.99
557.776	48918.57
558.139	49191.11
558.502	49211.22
558.865	49257.55
559.228	49634.03
559.59	49597.42
559.953	49805.55
560.316	50199.22
560.679	50169.61
561.041	50357.63
561.404	50541.81
561.767	50667.68
562.129	50658.41
562.492	51045.52
562.854	51005.3
563.217	51138.63
563.579	51281.22
563.941	51491.39
564.304	51732.28
564.666	51864.48
565.028	51880.98
565.39	51987.19
565.753	52203.01
566.115	52303.12
566.477	52506.05
566.839	52598.02
567.201	52834.85
567.563	52904.68
567.925	53057.9
568.287	53089.99
568.648	53108.74
569.01	53364.78
569.372	53600.94
569.734	53370.43
570.095	53594.83
570.457	53751.67
570.819	53844.54
571.18	53866.01
571.542	54042.73
571.903	54129.96
572.265	54229.85
572.626	54296.74
572.987	54313.68
573.349	54451.08
573.71	54583.06
574.071	54691.98
574.432	54739.44
574.794	54870.51
575.155	54818.76
575.516	54765.65
575.877	55054.68
576.238	55060.11
576.599	55218.29
576.96	55199.54
577.32	55127.45
577.681	55246.09
578.042	55298.97
578.403	55277.5
578.763	55331.96
579.124	55387.55
579.485	55493.31
579.845	55522.92
580.206	55488.8
580.566	55452.64
580.927	55600.2
581.287	55608.79
581.648	55500.32
582.008	55602.69
582.368	55641.56
582.728	55711.61
583.089	55580.32
583.449	55644.27
583.809	55655.8
584.169	55641.56
584.529	55628.68
584.889	55704.61
585.249	55616.25
585.609	55642.69
585.969	55763.59
586.329	55582.35
586.688	55654.21
587.048	55730.14
587.408	55621
587.768	55582.13
588.127	55506.42
588.487	55526.31
588.846	55723.82
589.206	55562.24
589.565	55587.55
589.925	55680.65
590.284	55616.02
590.643	55659.41
591.003	55735.34
591.362	55726.08
591.721	55633.65
592.08	55704.61
592.44	55779.64
592.799	55771.73
593.158	55764.95
593.517	55773.99
593.876	55775.12
594.235	55703.93
594.593	55675.68
594.952	55853.98
595.311	55778.28
595.67	55743.48
596.029	55861.21
596.387	55919.74
596.746	56032.28
597.104	55878.62
597.463	55836.13
597.822	56054.43
598.18	55996.8
598.538	56003.13
598.897	56112.06
599.255	56024.6
599.613	56392.27
599.972	56201.09
600.33	56301.2
600.688	56204.03
601.046	56289.45
601.404	56392.05
601.762	56442.67
602.12	56498.49
602.478	56470.24
602.836	56491.93
603.194	56306.63
603.552	56453.29
603.91	56369.68
604.268	56477.7
604.625	56398.15
604.983	56570.12
605.341	56423.46
605.698	56503.91
606.056	56568.31
606.413	56654.19
606.771	56696.67
607.128	56678.59
607.485	56599.73
607.843	56604.25
608.2	56747.52
608.557	56885.14
608.914	56731.93
609.272	56835.65
609.629	56844.24
609.986	56950.23
610.343	56795.88
610.7	57004.69
611.057	56970.56
611.414	56852.6
611.771	56902.32
612.127	57067.74
612.484	56973.5
612.841	57055.08
613.198	56947.29
613.554	56931.02
613.911	57099.6
614.267	57050.11
614.624	57004.46
614.98	57054.86
615.337	57199.71
615.693	57162.2
616.05	57091.24
616.406	57186.6
616.762	57123.33
617.118	57099.6
617.475	57027.51
617.831	57094.63
618.187	57072.03
618.543	57120.39
618.899	57276.77
619.255	57188.41
619.611	57152.25
619.967	57272.25
620.323	57261.63
620.678	57202.2
621.034	57084.91
621.39	57055.31
621.746	57039.26
622.101	57314.51
622.457	57106.61
622.812	57064.35
623.168	57077.91
623.523	57148.41
623.879	57201.97
624.234	57053.05
624.589	57157.9
624.945	57143.67
625.3	57098.7
625.655	57112.03
626.01	57154.29
626.365	57242.2
626.72	57096.44
627.075	57081.3
627.43	57096.21
627.785	57057.57
628.14	57124.91
628.495	57117.45
628.85	56999.49
629.205	56953.84
629.559	57069.54
629.914	56957.68
630.269	56992.71
630.623	56925.37
630.978	56905.93
631.332	57025.25
631.687	57052.82
632.041	56839.72
632.396	56983.45
632.75	56792.26
633.104	56969.89
633.459	56844.92
633.813	56753.17
634.167	56872.49
634.521	56837.23
634.875	56879.72
635.229	56832.94
635.583	56783.22
635.937	56732.83
636.291	56683.34
636.645	56773.96
636.999	56657.35
637.352	56812.6
637.706	56705.71
638.06	56768.31
638.413	56702.77
638.767	56596.34
639.121	56601.99
639.474	56590.69
639.828	56507.3
640.181	56526.73
640.534	56493.29
640.888	56484.93
641.241	56343.24
641.594	56449
641.947	56550.24
642.301	56459.17
642.654	56500.75
643.007	56481.09
643.36	56392.5
643.713	56353.41
644.066	56414.87
644.419	56228.89
644.771	55977.37
645.124	55843.14
645.477	55769.92
645.83	55533.31
646.182	55439.53
646.535	55315.69
646.888	55382.13
647.24	55162.02
647.593	55359.53
647.945	55228.69
648.298	55178.52
648.65	55033.44
649.002	54968.13
649.355	55035.47
649.707	55008.58
650.059	55175.81
650.411	55419.42
650.763	55439.08
651.115	55646.76
651.467	55589.58
651.819	55469.59
652.171	55430.49
652.523	55422.36
652.875	55266.43
653.227	55262.13
653.578	55420.77
653.93	55382.58
654.282	55133.55
654.633	55110.73
654.985	55063.04
655.337	55163.83
655.688	55056.04
656.039	55159.99
656.391	54930.39
656.742	55014.46
657.094	54932.2
657.445	55041.8
657.796	55026.21
658.147	54877.51
658.498	54822.82
658.849	54939.66
659.2	54837.74
659.551	54743.73
659.902	54757.29
660.253	54706.44
660.604	54803.39
660.955	54625.32
661.306	54693.11
661.656	54567.69
662.007	54649.27
662.358	54639.55
662.708	54594.81
663.059	54494.92
663.409	54441.59
663.76	54553.9
664.11	54532.21
664.461	54541.48
664.811	54574.02
665.161	54490.63
665.511	54428.94
665.862	54426.68
666.212	54496.05
666.562	54437.3
666.912	54379.67
667.262	54407.69
667.612	54321.14
667.962	54325.21
668.312	54274.82
668.662	54428.03
669.011	54265.1
669.361	54299
669.711	54270.3
670.06	54187.81
670.41	54185.78
670.76	54090.64
671.109	54125.67
671.459	54075.27
671.808	53981.72
672.157	54105.33
672.507	53898.1
672.856	53863.08
673.205	53843.64
673.554	54000.02
673.904	53964.32
674.253	54071.66
674.602	53998.66
674.951	53447.49
675.3	53297.67
675.649	53816.75
675.998	53650.2
676.346	53715.51
676.695	53802.06
677.044	53624.21
677.393	53716.19
677.741	53713.02
678.09	53647.71
678.438	53651.78
678.787	53653.59
679.135	53692.91
679.484	53513.71
679.832	53660.14
680.181	53389.42
680.529	53503.54
680.877	53415.18
681.225	53405.91
681.573	53577.43
681.922	53299.25
682.27	53153.49
682.618	53195.75
682.966	53207.95
683.314	53221.96
683.661	53189.87
684.009	53062.42
684.357	53025.36
684.705	53060.16
685.053	53053.38
685.4	53004.34
685.748	52833.5
686.095	52846.38
686.443	52818.36
686.79	52754.86
687.138	52691.35
687.485	52803.44
687.832	52496.11
688.18	52598.25
688.527	52494.52
688.874	52419.72
689.221	52355.09
689.568	52435.99
689.915	52309.9
690.262	52211.82
690.609	52109
690.956	52037.81
691.303	52010.92
691.65	51824.71
691.997	51800.3
692.344	51609.12
692.69	51566.19
693.037	51545.62
693.383	51268.57
693.73	51437.83
694.077	51074.67
694.423	51092.98
694.769	50976.82
695.116	50943.38
695.462	50792.2
695.808	50669.03
696.155	50735.25
696.501	50421.81
696.847	50401.47
697.193	50278.31
697.539	50290.29
697.885	49979.79
698.231	49866.12
698.577	49831.09
698.923	49662.73
699.269	49392.68
699.614	49323.31
699.96	49101.62
700.306	49126.48
700.651	48868.63
700.997	48844.68
701.342	48586.83
701.688	48648.3
702.033	48548.64
702.379	48454.4
702.724	48226.84
703.069	48364.69
703.415	47950.01
703.76	47848.09
704.105	47708.89
704.45	47630.02
704.795	47487.65
705.14	47361.1
705.485	47343.02
705.83	47097.6
706.175	47112.07
706.52	47023.26
706.865	46857.84
707.209	46778.74
707.554	46649.48
707.899	46769.93
708.243	46478.86
708.588	46410.39
708.932	46019.67
709.277	46148.7
709.621	46020.57
709.966	45906.67
710.31	45876.62
710.654	45530.64
710.998	45669.39
711.342	45616.06
711.687	45351.66
712.031	45213.36
712.375	45061.72
712.719	45200.48
713.063	45040.71
713.407	45183.53
713.75	44763.2
714.094	44868.74
714.438	44773.37
714.782	44880.49
715.125	44627.61
715.469	44689.31
715.812	44392.36
716.156	44222.65
716.499	44287.73
716.843	44316.89
717.186	44014.97
717.53	44210
717.873	44139.49
718.216	44228.98
718.559	43951.47
718.902	43692.72
719.246	43831.7
719.589	43738.6
719.932	43520.52
720.275	43506.96
720.617	43509.9
720.96	43453.18
721.303	43466.29
721.646	43454.54
721.989	43155.33
722.331	43480.75
722.674	43085.73
723.016	43155.56
723.359	43102.68
723.701	43121.21
724.044	42883.25
724.386	42694.1
724.729	42995.34
725.071	42786.76
725.413	42744.05
725.755	42654.1
726.097	42707.21
726.439	42476.03
726.782	42523.71
727.124	42526.88
727.465	42228.58
727.807	42199.88
728.149	42153.1
728.491	42053.22
728.833	42088.02
729.175	41949.04
729.516	41823.62
729.858	41857.97
730.199	41815.93
730.541	41828.36
730.882	41657.97
731.224	41791.3
731.565	41487.13
731.906	41575.94
732.248	41534.59
732.589	41379.56
732.93	41274.25
733.271	41258.66
733.612	41342.73
733.953	41268.15
734.294	41147.7
734.635	41201.26
734.976	41022.06
735.317	40960.59
735.658	40813.02
735.999	40830.2
736.339	40574.61
736.68	40773.48
737.021	40598.34
737.361	40360.15
737.702	40664.55
738.042	40441.73
738.383	40420.04
738.723	40461.17
739.063	40239.93
739.404	40294.39
739.744	40082.65
740.084	40002.65
740.424	40091.46
740.764	39909.77
741.104	39945.48
741.444	39633.62
741.784	39582.09
742.124	39656.44
742.464	39586.16
742.804	39484.7
743.143	39558.37
743.483	39590.68
743.823	39215.78
744.162	39237.7
744.502	39251.48
744.841	39036.57
745.181	39223.91
745.52	38914.09
745.86	39115.21
746.199	38893.07
746.538	38754.09
746.877	38804.94
747.216	38774.43
747.556	38596.58
747.895	38621.89
748.234	38320.66
748.573	38216.71
748.911	38216.48
749.25	38228.68
749.589	38113.21
749.928	38115.24
750.267	37899.43
750.605	37926.77
750.944	37742.37
751.283	37685.87
751.621	37574.46
751.96	37417.63
752.298	37315.04
752.636	37363.85
752.975	37051.99
