Data from whiteboard_FLMS001491_00007.txt Node
Date: Wed Feb 08 11:24:55 GMT 2017
User: dcchb
Spectrometer: FLMS00149
Trigger mode: 0
Integration Time (sec): 2.000000E-2
Scans to average: 10
Electric dark correction enabled: true
Nonlinearity correction enabled: false
Boxcar width: 0
XAxis mode: Wavelengths
Number of Pixels in Spectrum: 2048
>>>>>Begin Spectral Data<<<<<
341.393	-9.63
341.776	-9.63
342.16	-9.63
342.543	-62.51
342.927	-50.31
343.31	-74.04
343.693	-61.83
344.077	-49.86
344.46	-64.32
344.843	-69.29
345.226	-22.97
345.61	-22.97
345.993	-17.32
346.376	9.35
346.759	1.67
347.142	16.13
347.525	51.38
347.908	41.67
348.291	58.16
348.674	91.83
349.057	112.4
349.44	109.69
349.823	155.79
350.206	173.41
350.588	214.09
350.971	234.65
351.354	266.29
351.737	272.39
352.119	276.91
352.502	302.9
352.884	295.9
353.267	330.25
353.65	336.12
354.032	325.27
354.414	349.45
354.797	342
355.179	351.49
355.562	380.64
355.944	340.87
356.326	355.56
356.709	372.05
357.091	400.75
357.473	379.06
357.855	384.71
358.238	390.36
358.62	393.75
359.002	387.42
359.384	385.84
359.766	378.15
360.148	383.35
360.53	392.16
360.912	397.81
361.294	377.02
361.676	383.35
362.057	358.72
362.439	363.92
362.821	389.45
363.203	385.61
363.584	364.37
363.966	396.46
364.348	360.98
364.729	383.8
365.111	383.35
365.493	368.21
365.874	368.44
366.256	366.63
366.637	350.36
367.019	389.45
367.4	385.61
367.781	377.02
368.163	372.73
368.544	364.82
368.925	380.64
369.306	400.3
369.688	375.22
370.069	366.85
370.45	375.44
370.831	396.01
371.212	370.92
371.593	382.67
371.974	398.27
372.355	393.07
372.736	401.66
373.117	395.1
373.498	383.8
373.879	388.78
374.26	390.13
374.641	394.65
375.021	362.34
375.402	388.1
375.783	415.89
376.163	425.38
376.544	408.66
376.925	418.6
377.305	442.56
377.686	421.77
378.066	410.47
378.447	436.46
378.827	428.55
379.208	430.81
379.588	428.1
379.968	438.94
380.349	447.98
380.729	455.21
381.109	450.24
381.489	445.72
381.87	465.84
382.25	497.92
382.63	469.22
383.01	451.6
383.39	483.46
383.77	465.84
384.15	474.2
384.53	473.52
384.91	487.08
385.29	476.46
385.67	499.96
386.049	511.26
386.429	518.94
386.809	511.03
387.189	526.17
387.568	523.46
387.948	527.3
388.328	535.21
388.707	556.91
389.087	535.66
389.466	556.45
389.846	568.21
390.225	549
390.605	574.31
390.984	579.5
391.363	585.15
391.743	593.52
392.122	611.82
392.501	606.62
392.881	611.14
393.26	610.24
393.639	632.38
394.018	624.93
394.397	646.62
394.776	653.17
395.155	661.54
395.534	662.21
395.913	684.81
396.292	691.59
396.671	706.96
397.05	694.76
397.429	695.89
397.808	708.31
398.186	731.82
398.565	729.78
398.944	716.68
399.323	734.53
399.701	759.39
400.08	790.8
400.458	788.99
400.837	806.62
401.215	799.61
401.594	804.81
401.972	823.57
402.351	858.59
402.729	870.34
403.107	847.52
403.486	866.05
403.864	882.1
404.242	882.77
404.62	913.28
404.999	960.96
405.377	959.16
405.755	956.22
406.133	985.37
406.511	981.3
406.889	1026.5
407.267	1028.08
407.645	1048.19
408.023	1063.33
408.401	1101.07
408.779	1107.17
409.156	1145.59
409.534	1140.17
409.912	1157.57
410.29	1167.29
410.667	1177.68
411.045	1215.87
411.422	1224.46
411.8	1237.34
412.178	1321.63
412.555	1303.55
412.933	1326.38
413.31	1347.17
413.687	1381.74
414.065	1408.41
414.442	1438.69
414.819	1441.4
415.197	1452.48
415.574	1500.84
415.951	1487.5
416.328	1538.35
416.705	1540.61
417.082	1556.43
417.46	1583.77
417.837	1601.62
418.214	1630.1
418.591	1620.38
418.967	1658.8
419.344	1667.39
419.721	1689.31
420.098	1706.71
420.475	1719.81
420.852	1744.22
421.228	1767.27
421.605	1794.61
421.982	1811.11
422.358	1855.18
422.735	1863.31
423.111	1887.04
423.488	1910.32
423.864	1945.57
424.241	1916.87
424.617	1984.21
424.994	2006.36
425.37	2016.08
425.746	2033.7
426.123	2092.69
426.499	2108.96
426.875	2113.93
427.251	2150.31
427.627	2198.22
428.003	2229.86
428.379	2259.01
428.756	2265.34
429.132	2335.16
429.507	2356.63
429.883	2369.06
430.259	2392.34
430.635	2451.32
431.011	2503.07
431.387	2530.64
431.763	2610.19
432.138	2597.08
432.514	2653.12
432.89	2694.93
433.265	2725.66
433.641	2725.21
434.016	2776.73
434.392	2816.73
434.767	2872.55
435.143	2852.21
435.518	2924.53
435.894	2954.81
436.269	3001.81
436.644	3044.75
437.02	3033
437.395	3110.51
437.77	3127.23
438.145	3217.85
438.52	3183.05
438.895	3255.82
439.271	3322.71
439.646	3299.88
440.021	3405.42
440.395	3379.88
440.77	3374.01
441.145	3440.67
441.52	3508.47
441.895	3509.37
442.27	3537.17
442.645	3508.02
443.019	3594.11
443.394	3583.27
443.769	3670.27
444.143	3632.08
444.518	3690.84
444.892	3670.95
445.267	3714.79
445.641	3807.67
446.016	3778.74
446.39	3831.4
446.764	3843.37
447.139	3873.2
447.513	3888.8
447.887	3965.86
448.262	3925.86
448.636	4019.64
449.01	4060.54
449.384	4100.77
449.758	4120.88
450.132	4226.64
450.506	4201.33
450.88	4220.54
451.254	4243.36
451.628	4353.42
452.002	4378.27
452.376	4433.41
452.75	4438.84
453.123	4513.19
453.497	4594.77
453.871	4614.88
454.244	4689.45
454.618	4763.35
454.992	4800.41
455.365	4862.33
455.739	5004.7
456.112	4998.82
456.486	5041.99
456.859	5106.17
457.232	5215.54
457.606	5256.9
457.979	5301.19
458.352	5354.75
458.725	5470.45
459.099	5465.03
459.472	5633.83
459.845	5691.46
460.218	5740.05
460.591	5774.62
460.964	5820.5
461.337	5962.64
461.71	6055.52
462.083	6155.18
462.456	6170.32
462.829	6196.08
463.201	6278.56
463.574	6360.82
463.947	6437.88
464.32	6590.19
464.692	6639.23
465.065	6741.83
465.438	6824.09
465.81	6917.19
466.183	6988.6
466.555	7145.66
466.928	7154.92
467.3	7206
467.672	7328.93
468.045	7510.85
468.417	7518.76
468.789	7568.93
469.161	7746.1
469.534	7868.13
469.906	8021.79
470.278	8118.06
470.65	8141.11
471.022	8351.96
471.394	8496.13
471.766	8581.78
472.138	8680.53
472.51	8866.07
472.882	9090.92
473.253	9117.81
473.625	9245.72
473.997	9514.86
474.369	9598.48
474.74	9638.93
475.112	9834.85
475.484	9991.69
475.855	10198.46
476.227	10312.36
476.598	10566.13
476.97	10711.67
477.341	10936.52
477.713	11095.39
478.084	11099.91
478.455	11423.97
478.827	11611.53
479.198	11871.64
479.569	11945.76
479.94	12270.04
480.311	12395.69
480.682	12686.53
481.053	12983.47
481.424	13225.73
481.795	13289.68
482.166	13461.88
482.537	13604.92
482.908	13943.22
483.279	14107.28
483.65	14353.61
484.021	14723.31
484.391	14861.39
484.762	14890.09
485.133	15151.55
485.503	15371.43
485.874	15705.43
486.244	15789.05
486.615	16185.2
486.985	16403.27
487.356	16583.83
487.726	16778.63
488.097	17127.77
488.467	17162.8
488.837	17580.19
489.207	17850.69
489.578	18071.25
489.948	18214.07
490.318	18493.84
490.688	18650.44
491.058	18988.06
491.428	19162.07
491.798	19339.46
492.168	19747.81
492.538	19785.1
492.908	20007.24
493.278	20334.69
493.648	20475.7
494.017	20630.05
494.387	20897.39
494.757	21084.5
495.126	21418.28
495.496	21441.55
495.866	21604.49
496.235	21768.1
496.605	22037.92
496.974	22130.35
497.344	22408.76
497.713	22570.34
498.082	22736.89
498.452	23024.11
498.821	23023.89
499.19	23084
499.559	23327.16
499.928	23535.51
500.298	23717.88
500.667	23887.14
501.036	23902.06
501.405	24142.5
501.774	24133.24
502.143	24414.36
502.512	24694.12
502.88	24765.99
503.249	24844.63
503.618	24969.37
503.987	25043.27
504.356	25358.51
504.724	25426.99
505.093	25619.07
505.462	25620.88
505.83	25891.38
506.199	26287.76
506.567	26485.94
506.936	26560.52
507.304	26798.93
507.672	26915.31
508.041	27198.01
508.409	27447.72
508.777	27580.83
509.145	27840.71
509.514	27844.55
509.882	27974.72
510.25	28245.9
510.618	28469.17
510.986	28604.53
511.354	28857.63
511.722	29086.78
512.09	29218.98
512.458	29423.94
512.826	29627.1
513.193	29841.56
513.561	29927.21
513.929	30244.04
514.297	30508.89
514.664	30713.4
515.032	30902.55
515.4	31149.55
515.767	31395.42
516.135	31391.58
516.502	31420.95
516.869	32094.38
517.237	32206.24
517.604	32196.3
517.972	32601.94
518.339	32898.43
518.706	32882.38
519.073	33043.96
519.44	33270.85
519.808	33539.77
520.175	33632.42
520.542	34022.24
520.909	34210.48
521.276	34238.96
521.643	34563.92
522.009	34870.13
522.376	34973.4
522.743	35364.8
523.11	35610
523.477	35885.92
523.843	36160.04
524.21	36448.39
524.577	36776.29
524.943	36895.16
525.31	37179.9
525.676	37445.65
526.043	37735.59
526.409	37751.63
526.776	38309.13
527.142	38453.31
527.508	38703.25
527.874	38905.5
528.241	39085.16
528.607	39256.68
528.973	39722.88
529.339	39730.11
529.705	40079.71
530.071	40380.72
530.437	40568.96
530.803	40775.06
531.169	41039.91
531.535	41016.41
531.901	41172.56
532.267	41482.38
532.632	41822.26
532.998	41955.37
533.364	42172.76
533.73	42205.53
534.095	42758.51
534.461	42875.79
534.826	42988.56
535.192	43203.47
535.557	43491.14
535.923	43352.84
536.288	43668.54
536.653	43874.86
537.019	43821.98
537.384	44077.57
537.749	44321.63
538.114	44371.12
538.479	44533.15
538.845	44771.11
539.21	44715.52
539.575	44953.93
539.94	45053.14
540.305	45338.55
540.67	45276.18
541.034	45517.08
541.399	45574.25
541.764	45811.76
542.129	45954.13
542.494	45993.68
542.858	46152.77
543.223	46164.07
543.587	46404.51
543.952	46267.79
544.316	46564.28
544.681	46489.26
545.045	46772.64
545.41	47052.86
545.774	47124.95
546.138	47128.34
546.503	47104.38
546.867	47146.64
547.231	47580.75
547.595	47550.47
547.959	47753.41
548.324	47691.71
548.688	47814.42
549.052	47924.93
549.416	48024.36
549.779	48080.63
550.143	48312.49
550.507	48463.44
550.871	48588.86
551.235	48627.28
551.599	49016.2
551.962	48918.35
552.326	49066.14
552.689	49240.15
553.053	49183.88
553.417	49290.99
553.78	49809.62
554.143	49593.36
554.507	49851.43
554.87	50039.45
555.234	50322.83
555.597	50171.87
555.96	50369.61
556.323	50533.67
556.686	50611.64
557.05	50982.47
557.413	51008.91
557.776	51006.65
558.139	51283.48
558.502	51421.78
558.865	51531.61
559.228	51826.29
559.59	51972.96
559.953	51982.45
560.316	52389.22
560.679	52364.58
561.041	52595.99
561.404	52741.07
561.767	52974.06
562.129	52772.48
562.492	53106.48
562.854	53176.31
563.217	53169.76
563.579	53395.74
563.941	53594.83
564.304	53652.69
564.666	53770.42
565.028	53894.26
565.39	53940.59
565.753	54079.57
566.115	54151.88
566.477	54194.59
566.839	54355.94
567.201	54548.71
567.563	54498.76
567.925	54623.06
568.287	54652.43
568.648	54702.6
569.01	54860.79
569.372	55079.99
569.734	54972.42
570.095	55152.76
570.457	55241.8
570.819	55335.35
571.18	55301.23
571.542	55465.74
571.903	55440.89
572.265	55597.04
572.626	55583.71
572.987	55665.74
573.349	55713.42
573.71	55950.7
574.071	55938.95
574.432	56020.76
574.794	56145.28
575.155	56202.45
575.516	56131.04
575.877	56281.09
576.238	56331.94
576.599	56390.01
576.96	56396.34
577.32	56376
577.681	56465.49
578.042	56640.86
578.403	56622.32
578.763	56672.49
579.124	56707.52
579.485	56808.76
579.845	56890.57
580.206	56893.73
580.566	56906.61
580.927	56905.93
581.287	57022.54
581.648	56901.64
582.008	57104.8
582.368	57043.56
582.728	57171.24
583.089	57156.1
583.449	57208.52
583.809	57207.39
584.169	57274.74
584.529	57208.52
584.889	57466.14
585.249	57250.78
585.609	57155.64
585.969	57445.81
586.329	57279.03
586.688	57397.9
587.048	57366.49
587.408	57320.39
587.768	57291.46
588.127	57310.67
588.487	57297.34
588.846	57493.26
589.206	57284
589.565	57281.29
589.925	57383.43
590.284	57322.65
590.643	57345.24
591.003	57443.32
591.362	57499.14
591.721	57340.5
592.08	57427.05
592.44	57474.73
592.799	57505.24
593.158	57396.99
593.517	57397.9
593.876	57481.06
594.235	57386.82
594.593	57408.29
594.952	57463.21
595.311	57416.65
595.67	57475.41
596.029	57582.07
596.387	57589.08
596.746	57554.5
597.104	57428.63
597.463	57413.49
597.822	57531.23
598.18	57473.15
598.538	57438.8
598.897	57572.58
599.255	57370.55
599.613	57744.33
599.972	57586.37
600.33	57656.42
600.688	57524.22
601.046	57637.67
601.404	57788.4
601.762	57631.79
602.12	57824.78
602.478	57802.41
602.836	57823.42
603.194	57656.87
603.552	57752.92
603.91	57590.89
604.268	57783.2
604.625	57689.87
604.983	57830.2
605.341	57718.12
605.698	57840.15
606.056	57927.83
606.413	57927.15
606.771	57981.61
607.128	58004.89
607.485	57919.01
607.843	57898.45
608.2	58144.77
608.557	58192.45
608.914	58094.15
609.272	58254.37
609.629	58278.78
609.986	58322.62
610.343	58236.75
610.7	58326.23
611.057	58340.47
611.414	58297.99
611.771	58364.43
612.127	58427.25
612.484	58431.32
612.841	58479.23
613.198	58377.76
613.554	58477.42
613.911	58522.84
614.267	58532.11
614.624	58516.96
614.98	58553.35
615.337	58672.89
615.693	58641.71
616.05	58561.48
616.406	58674.25
616.762	58585.21
617.118	58572.33
617.475	58616.85
617.831	58754.02
618.187	58751.08
618.543	58739.78
618.899	58844.41
619.255	58780.69
619.611	58761.7
619.967	58807.58
620.323	58852.32
620.678	58763.29
621.034	58766.68
621.39	58774.58
621.746	58759.9
622.101	59060
622.457	58849.38
622.812	58907.24
623.168	58993.11
623.523	58911.98
623.879	58996.95
624.234	58785.88
624.589	58930.51
624.945	58935.48
625.3	58933.68
625.655	58904.07
626.01	58964.18
626.365	58932.77
626.72	58940.46
627.075	58919.89
627.43	58884.64
627.785	58848.03
628.14	58893.68
628.495	58899.55
628.85	58844.87
629.205	58783.17
629.559	58951.98
629.914	58766.9
630.269	58817.3
630.623	58734.36
630.978	58712.21
631.332	58775.71
631.687	58801.02
632.041	58642.38
632.396	58683.74
632.75	58671.08
633.104	58653.91
633.459	58498.21
633.813	58497.3
634.167	58448.72
634.521	58398.32
634.875	58412.11
635.229	58349.51
635.583	58214.83
635.937	58276.52
636.291	58253.92
636.645	58221.38
636.999	58069.74
637.352	58187.03
637.706	58005.11
638.06	58058.45
638.413	57961.27
638.767	57970.99
639.121	58026.58
639.474	57772.35
639.828	57873.14
640.181	57845.12
640.534	57942.29
640.888	57749.3
641.241	57621.39
641.594	57636.31
641.947	57640.6
642.301	57608.97
642.654	57579.36
643.007	57634.95
643.36	57608.97
643.713	57515.41
644.066	57614.16
644.419	57505.24
644.771	57288.3
645.124	57149.32
645.477	57101.18
645.83	56962.65
646.182	56828.65
646.535	56717.46
646.888	56738.25
647.24	56605.15
647.593	56748.2
647.945	56681.31
648.298	56573.06
648.65	56578.03
649.002	56519.28
649.355	56637.69
649.707	56674.98
650.059	56782.09
650.411	57152.03
650.763	57064.12
651.115	57349.99
651.467	57201.97
651.819	57216.21
652.171	57206.04
652.523	57162.2
652.875	57146.83
653.227	57053.05
653.578	57282.42
653.93	57138.7
654.282	57020.51
654.633	56981.86
654.985	57002.65
655.337	57042.2
655.688	57039.04
656.039	57122.65
656.391	56869.32
656.742	56921.3
657.094	57003.33
657.445	57008.53
657.796	56935.31
658.147	56918.36
658.498	56871.36
658.849	56890.11
659.2	56776.67
659.551	56745.49
659.902	56812.38
660.253	56675.2
660.604	56670.46
660.955	56514.08
661.306	56689.22
661.656	56471.82
662.007	56520.18
662.358	56508.43
662.708	56449.67
663.059	56481.31
663.409	56177.82
663.76	56434.53
664.11	56384.82
664.461	56408.77
664.811	56384.59
665.161	56306.85
665.511	56211.49
665.862	56244.03
666.212	56294.42
666.562	56254.42
666.912	56168.78
667.262	56117.71
667.612	56137.82
667.962	56100.98
668.312	56098.95
668.662	56098.04
669.011	56018.05
669.361	56098.27
669.711	55948.22
670.06	56023.02
670.41	55955.68
670.76	55882.91
671.109	55954.55
671.459	55881.78
671.808	55847.88
672.157	55901.44
672.507	55709.13
672.856	55764.72
673.205	55764.72
673.554	55886.07
673.904	55785.06
674.253	55890.59
674.602	55751.61
674.951	55394.79
675.3	55223.94
675.649	55700.77
675.998	55578.96
676.346	55664.16
676.695	55790.93
677.044	55604.72
677.393	55638.62
677.741	55670.03
678.09	55592.07
678.438	55556.82
678.787	55644.05
679.135	55605.63
679.484	55456.93
679.832	55575.8
680.181	55388.91
680.529	55424.62
680.877	55362.47
681.225	55296.48
681.573	55516.82
681.922	55246.77
682.27	55191.18
682.618	55174.45
682.966	55134.45
683.314	55181.68
683.661	55024.4
684.009	54896.72
684.357	54871.18
684.705	54834.35
685.053	54852.2
685.4	54755.03
685.748	54667.57
686.095	54666.22
686.443	54593.23
686.79	54506.67
687.138	54540.57
687.485	54493.12
687.832	54405.21
688.18	54414.7
688.527	54169.96
688.874	54238.43
689.221	54190.3
689.568	54061.04
689.915	53945.78
690.262	53943.75
690.609	53890.42
690.956	53786.69
691.303	53702.18
691.65	53523.65
691.997	53597.32
692.344	53286.59
692.69	53273.94
693.037	53277.78
693.383	52999.37
693.73	53094.51
694.077	52976.32
694.423	52880.05
694.769	52819.49
695.116	52693.61
695.462	52691.81
695.808	52504.69
696.155	52676.67
696.501	52373.85
696.847	52297.24
697.193	52147.41
697.539	52236.23
697.885	51996.23
698.231	51894.09
698.577	51909.23
698.923	51848.44
699.269	51582.68
699.614	51531.84
699.96	51424.5
700.306	51452.52
700.651	51326.19
700.997	51171.39
701.342	51098.4
701.688	51115.58
702.033	50976.37
702.379	50940.89
702.724	50881.23
703.069	50931.4
703.415	50538.64
703.76	50654.35
704.105	50527.8
704.45	50457.06
704.795	50269.5
705.14	50213.23
705.485	50260.91
705.83	50004.87
706.175	50036.51
706.52	49892.56
706.865	49823.86
707.209	49663.86
707.554	49676.97
707.899	49788.61
708.243	49583.41
708.588	49501.61
708.932	49283.99
709.277	49333.93
709.621	49246.02
709.966	48982.53
710.31	49156.08
710.654	48806.71
710.998	48791.57
711.342	48845.35
711.687	48643.78
712.031	48572.14
712.375	48473.16
712.719	48392.48
713.063	48373.05
713.407	48395.42
713.75	48183.22
714.094	48264.58
714.438	47927.19
714.782	47979.16
715.125	47856
715.469	47855.55
715.812	47675.67
716.156	47428.44
716.499	47519.97
716.843	47447.88
717.186	47101.45
717.53	47265.73
717.873	47210.82
718.216	47037.49
718.559	46893.09
718.902	46648.58
719.246	46658.07
719.589	46608.8
719.932	46381.01
720.275	46350.05
720.617	46254.91
720.96	46224.41
721.303	46171.98
721.646	46276.38
721.989	46030.06
722.331	46106.67
722.674	45808.6
723.016	45818.77
723.359	45806.56
723.701	45843.4
724.044	45636.17
724.386	45389.63
724.729	45464.43
725.071	45335.62
725.413	45268.72
725.755	45193.7
726.097	45054.95
726.439	44975.63
726.782	44920.26
727.124	45098.11
727.465	44770.43
727.807	44975.4
728.149	44651.57
728.491	44615.18
728.833	44608.18
729.175	44372.93
729.516	44297.68
729.858	44368.86
730.199	44372.7
730.541	44223.78
730.882	44246.15
731.224	44200.96
731.565	43918.93
731.906	44099.94
732.248	43969.32
732.589	43672.16
732.93	43682.78
733.271	43565.94
733.612	43560.97
733.953	43700.4
734.294	43394.2
734.635	43402.56
734.976	43512.16
735.317	43240.98
735.658	43260.87
735.999	43358.72
736.339	43224.94
736.68	43293.18
737.021	43257.48
737.361	42973.64
737.702	43089.35
738.042	42799.64
738.383	42790.6
738.723	43095
739.063	42722.8
739.404	42990.82
739.744	42930.71
740.084	42676.48
740.424	42732.52
740.764	42687.55
741.104	42769.13
741.444	42444.17
741.784	42370.5
742.124	42359.87
742.464	42282.59
742.804	42190.16
743.143	42116.27
743.483	42209.37
743.823	42015.03
744.162	41998.75
744.502	42054.12
744.841	41796.05
745.181	41960.11
745.52	41720.12
745.86	41762.15
746.199	41576.62
746.538	41436.74
746.877	41633.79
747.216	41506.11
747.556	41386.79
747.895	41215.05
748.234	41114.94
748.573	40930.08
748.911	41113.58
749.25	40901.38
749.589	40663.2
749.928	40794.27
750.267	40879.46
750.605	40676.08
750.944	40518.34
751.283	40374.39
751.621	40545.46
751.96	40086.04
752.298	40066.15
752.636	40112.25
