Data from white_steel_sheet_FLMS001491_015.txt Node
Date: Tue Feb 07 10:57:28 GMT 2017
User: dcchb
Spectrometer: FLMS00149
Trigger mode: 0
Integration Time (sec): 2.000000E-2
Scans to average: 10
Electric dark correction enabled: true
Nonlinearity correction enabled: false
Boxcar width: 0
XAxis mode: Wavelengths
Number of Pixels in Spectrum: 2048
>>>>>Begin Spectral Data<<<<<
341.393	-24.63
341.776	-24.63
342.16	-24.63
342.543	-71.86
342.927	-79.55
343.31	-46.55
343.693	-76.38
344.077	-63.73
344.46	-44.29
344.843	-53.11
345.226	-47
345.61	-34.12
345.993	-31.64
346.376	-0.45
346.759	12.66
347.142	46.1
347.525	22.6
347.908	63.95
348.291	72.54
348.674	89.72
349.057	89.72
349.44	113.22
349.823	125.42
350.206	164.29
350.588	193.22
350.971	202.25
351.354	213.1
351.737	233.89
352.119	249.94
352.502	249.48
352.884	268.92
353.267	284.06
353.65	296.94
354.032	289.48
354.414	299.88
354.797	306.43
355.179	322.93
355.562	331.29
355.944	299.65
356.326	323.83
356.709	334.68
357.091	312.08
357.473	328.13
357.855	346.66
358.238	329.93
358.62	342.14
359.002	342.14
359.384	324.51
359.766	329.03
360.148	337.17
360.53	340.1
360.912	314.79
361.294	337.84
361.676	329.26
362.057	337.17
362.439	317.96
362.821	325.42
363.203	290.61
363.584	316.38
363.966	308.01
364.348	304.62
364.729	309.6
365.111	308.01
365.493	319.77
365.874	293.1
366.256	331.97
366.637	299.88
367.019	335.36
367.4	295.59
367.781	309.14
368.163	315.47
368.544	319.99
368.925	325.64
369.306	324.29
369.688	307.11
370.069	307.34
370.45	317.96
370.831	319.09
371.212	315.25
371.593	302.36
371.974	321.12
372.355	320.22
372.736	294.68
373.117	310.95
373.498	323.16
373.879	319.31
374.26	322.48
374.641	340.33
375.021	315.02
375.402	321.12
375.783	312.08
376.163	341.01
376.544	315.47
376.925	341.23
377.305	336.49
377.686	338.3
378.066	321.57
378.447	341.46
378.827	329.93
379.208	327.45
379.588	333.32
379.968	335.58
380.349	345.53
380.729	346.21
381.109	328.58
381.489	355.92
381.87	347.79
382.25	343.27
382.63	349.14
383.01	351.63
383.39	357.28
383.77	357.96
384.15	359.99
384.53	359.09
384.91	365.41
385.29	362.7
385.67	357.5
386.049	365.87
386.429	352.76
386.809	382.81
387.189	366.77
387.568	404.96
387.948	390.05
388.328	399.76
388.707	388.69
389.087	407.45
389.466	389.82
389.846	419.88
390.225	435.92
390.605	397.96
390.984	400.89
391.363	392.98
391.743	419.42
392.122	416.49
392.501	427.33
392.881	422.59
393.26	441.8
393.639	426.2
394.018	439.08
394.397	447.45
394.776	437.5
395.155	434.79
395.534	461.91
395.913	459.42
396.292	468.24
396.671	470.04
397.05	492.64
397.429	483.38
397.808	498.52
398.186	489.03
398.565	487.22
398.944	503.49
399.323	501.68
399.701	514.34
400.08	506.88
400.458	538.06
400.837	530.61
401.215	530.16
401.594	560.89
401.972	553.43
402.351	541.68
402.729	572.41
403.107	601.57
403.486	588.69
403.864	583.04
404.242	616.25
404.62	591.62
404.999	635.92
405.377	618.51
405.755	627.1
406.133	627.33
406.511	649.93
406.889	664.62
407.267	673.88
407.645	676.59
408.023	683.37
408.401	679.08
408.779	716.59
409.156	715.46
409.534	730.6
409.912	738.29
410.29	752.3
410.667	757.72
411.045	780.32
411.422	781.22
411.8	818.51
412.178	802.01
412.555	818.28
412.933	840.88
413.31	859.19
413.687	872.29
414.065	850.37
414.442	889.47
414.819	882.46
415.197	907.09
415.574	912.52
415.951	935.12
416.328	928.11
416.705	923.59
417.082	952.07
417.46	959.97
417.837	957.71
418.214	957.26
418.591	986.41
418.967	993.87
419.344	989.8
419.721	1013.76
420.098	1003.59
420.475	1045.85
420.852	1037.71
421.228	1074.1
421.605	1077.71
421.982	1083.59
422.358	1107.32
422.735	1076.58
423.111	1105.28
423.488	1144.15
423.864	1106.41
424.241	1149.57
424.617	1179.86
424.994	1180.76
425.37	1173.08
425.746	1157.26
426.123	1183.92
426.499	1215.11
426.875	1216.01
427.251	1242.45
427.627	1271.38
428.003	1262.11
428.379	1293.3
428.756	1303.92
429.132	1311.6
429.507	1343.69
429.883	1371.49
430.259	1374.2
430.635	1367.87
431.011	1411.71
431.387	1439.51
431.763	1428.44
432.138	1459.85
432.514	1479.28
432.89	1530.36
433.265	1503.92
433.641	1546.63
434.016	1541.2
434.392	1583.24
434.767	1615.32
435.143	1591.82
435.518	1639.05
435.894	1648.09
436.269	1646.51
436.644	1722.21
437.02	1725.15
437.395	1702.78
437.77	1719.5
438.145	1764.25
438.52	1787.3
438.895	1810.8
439.271	1780.29
439.646	1888.09
440.021	1883.79
440.395	1892.61
440.77	1890.12
441.145	1904.36
441.52	1938.71
441.895	1938.48
442.27	1958.82
442.645	1973.06
443.019	1993.17
443.394	1988.2
443.769	2013.28
444.143	1994.75
444.518	2027.52
444.892	2061.41
445.267	2077.91
445.641	2077.46
446.016	2123.33
446.39	2113.16
446.764	2117.91
447.139	2130.57
447.513	2171.47
447.887	2225.48
448.262	2208.53
448.636	2213.5
449.01	2247.4
449.384	2266.83
449.758	2283.33
450.132	2291.92
450.506	2333.72
450.88	2318.58
451.254	2287.4
451.628	2386.38
452.002	2375.98
452.376	2416.89
452.75	2433.38
453.123	2480.16
453.497	2521.97
453.871	2527.17
454.244	2596.09
454.618	2568.07
454.992	2591.8
455.365	2606.94
455.739	2696.43
456.112	2691.91
456.486	2715.63
456.859	2722.64
457.232	2799.25
457.606	2846.93
457.979	2848.06
458.352	2877.44
458.725	2909.75
459.099	2945.91
459.472	2985.23
459.845	3011.22
460.218	3069.3
460.591	3075.4
460.964	3096.87
461.337	3144.55
461.71	3208.73
462.083	3243.98
462.456	3224.1
462.829	3252.8
463.201	3299.8
463.574	3295.73
463.947	3403.3
464.32	3455.95
464.692	3487.14
465.065	3483.75
465.438	3546.35
465.81	3634.93
466.183	3648.94
466.555	3763.52
466.928	3782.95
467.3	3742.05
467.672	3808.94
468.045	3940.91
468.417	3925.32
468.789	3955.83
469.161	4011.87
469.534	4096.39
469.906	4135.48
470.278	4169.61
470.65	4239.44
471.022	4324.18
471.394	4400.56
471.766	4441.69
472.138	4503.84
472.51	4589.94
472.882	4618.86
473.253	4725.3
473.625	4788.57
473.997	4855.01
474.369	4865.18
474.74	4935.69
475.112	5043.71
475.484	5105.85
475.855	5210.94
476.227	5252.52
476.598	5404.83
476.97	5495.45
477.341	5576.8
477.713	5652.51
478.084	5631.26
478.455	5807.76
478.827	5883.01
479.198	6009.11
479.569	6068.54
479.94	6169.1
480.311	6292.94
480.682	6450
481.053	6534.07
481.424	6622.65
481.795	6654.06
482.166	6809.54
482.537	6914.85
482.908	7018.35
483.279	7104.22
483.65	7202.3
484.021	7357.55
484.391	7460.59
484.762	7547.6
485.133	7632.12
485.503	7771.32
485.874	7948.27
486.244	8014.03
486.615	8146.68
486.985	8173.34
487.356	8418.31
487.726	8427.35
488.097	8635.25
488.467	8672.77
488.837	8873.44
489.207	8883.16
489.578	9126.77
489.948	9133.09
490.318	9279.53
490.688	9360.43
491.058	9440.66
491.428	9552.74
491.798	9762
492.168	9901.89
492.538	9897.82
492.908	10067.98
493.278	10124.25
493.648	10152.73
494.017	10348.88
494.387	10391.14
494.757	10575.32
495.126	10655.99
495.496	10749.32
495.866	10778.02
496.235	10889.21
496.605	11049.65
496.974	11053.72
497.344	11163.32
497.713	11244.68
498.082	11318.8
498.452	11468.62
498.821	11521.5
499.19	11599.92
499.559	11712.46
499.928	11702.07
500.298	11891.44
500.667	11997.65
501.036	11972.57
501.405	12119.91
501.774	12114.94
502.143	12228.15
502.512	12378.66
502.88	12460.24
503.249	12503.4
503.618	12622.72
503.987	12674.24
504.356	12859.32
504.724	12864.07
505.093	12968.25
505.462	13064.29
505.83	13118.98
506.199	13291.18
506.567	13374.34
506.936	13358.97
507.304	13596.03
507.672	13718.74
508.041	13655.91
508.409	13752.41
508.777	13922.8
509.145	13997.15
509.514	14102.45
509.882	14217.25
510.25	14235.33
510.618	14360.98
510.986	14451.6
511.354	14561.43
511.722	14703.34
512.09	14883
512.458	14837.8
512.826	14987.18
513.193	15137.91
513.561	15182.65
513.929	15293.61
514.297	15419.48
514.664	15569.76
515.032	15628.52
515.4	15781.51
515.767	15900.6
516.135	16007.26
516.502	15915.06
516.869	16159.8
517.237	16322.28
517.604	16210.42
517.972	16478.44
518.339	16523.41
518.706	16613.8
519.073	16812.89
519.44	16891.53
519.808	17102.15
520.175	17090.4
520.542	17310.96
520.909	17388.92
521.276	17477.51
521.643	17762.24
522.009	17787.55
522.376	17988.23
522.743	18078.39
523.11	18316.81
523.477	18433.87
523.843	18611.04
524.21	18641.77
524.577	18939.84
524.943	19014.42
525.31	19101.42
525.676	19370.56
526.043	19421.86
526.409	19486.49
526.776	19814.85
527.142	19747.28
527.508	19846.48
527.874	20194.5
528.241	20256.64
528.607	20249.41
528.973	20481.04
529.339	20498.22
529.705	20820.92
530.071	20907.02
530.437	21029.05
530.803	21091.2
531.169	21254.13
531.535	21274.47
531.901	21392.21
532.267	21454.35
532.632	21595.59
532.998	21707.68
533.364	21883.72
533.73	21938.41
534.095	22179.53
534.461	22205.97
534.826	22281
535.192	22455.45
535.557	22648.67
535.923	22536.36
536.288	22640.31
536.653	22783.36
537.019	22750.14
537.384	22866.97
537.749	23054.08
538.114	23140.86
538.479	23228.54
538.845	23295.66
539.21	23278.94
539.575	23424.02
539.94	23554.18
540.305	23653.16
540.67	23694.52
541.034	23785.14
541.399	23846.6
541.764	23922.76
542.129	23875.53
542.494	24128.18
542.858	24008.86
543.223	24230.1
543.587	24419.02
543.952	24470.32
544.316	24478.45
544.681	24493.37
545.045	24766.81
545.41	24748.5
545.774	24860.36
546.138	24940.59
546.503	24951.66
546.867	25051.32
547.231	25246.57
547.595	25250.18
547.959	25284.31
548.324	25448.37
548.688	25558.42
549.052	25693.34
549.416	25658.99
549.779	25711.41
550.143	25682.04
550.507	26009.26
550.871	25966.1
551.235	25987.79
551.599	26254
551.962	26328.35
552.326	26310.95
552.689	26470.94
553.053	26470.72
553.417	26495.35
553.78	26870.25
554.143	26797.26
554.507	26966.3
554.87	27064.37
555.234	27273.41
555.597	27166.07
555.96	27312.5
556.323	27453.06
556.686	27531.03
557.05	27681.08
557.413	27636.34
557.776	27796.11
558.139	28014.18
558.502	28091.92
558.865	28169.43
559.228	28317.67
559.59	28403.55
559.953	28441.51
560.316	28743.2
560.679	28786.59
561.041	28943.42
561.404	28991.78
561.767	29232
562.129	29253.69
562.492	29541.82
562.854	29634.7
563.217	29550.64
563.579	29678.32
563.941	29802.61
564.304	29950.17
564.666	30185.2
565.028	30266.55
565.39	30298.19
565.753	30408.47
566.115	30642.81
566.477	30794.22
566.839	30850.71
567.201	31009.58
567.563	31046.64
567.925	31328.89
568.287	31333.19
568.648	31222
569.01	31521.66
569.372	31627.19
569.734	31631.94
570.095	31797.36
570.457	31883.46
570.819	32156.44
571.18	32198.02
571.542	32234.63
571.903	32319.83
572.265	32539.71
572.626	32511.01
572.987	32504.68
573.349	32697.45
573.71	32895.86
574.071	32751.91
574.432	32929.53
574.794	33217.43
575.155	33038.91
575.516	33067.38
575.877	33266.02
576.238	33168.39
576.599	33345.56
576.96	33334.49
577.32	33459.23
577.681	33528.16
578.042	33642.05
578.403	33604.54
578.763	33614.26
579.124	33706.01
579.485	33898.32
579.845	33884.53
580.206	33840.92
580.566	33892.67
580.927	33859
581.287	33913.23
581.648	33673.01
582.008	34069.61
582.368	33924.31
582.728	34016.96
583.089	33963.85
583.449	33943.06
583.809	34081.59
584.169	34053.12
584.529	33997.98
584.889	34287.69
585.249	34137.18
585.609	34006.79
585.969	34150.74
586.329	34058.09
586.688	34106.9
587.048	34060.8
587.408	34030.74
587.768	34180.8
588.127	34082.04
588.487	34006.11
588.846	34320.23
589.206	33982.38
589.565	33972.89
589.925	34341.7
590.284	34151.64
590.643	34250.85
591.003	34223.28
591.362	34316.16
591.721	34295.6
592.08	34124.07
592.44	34297.63
592.799	34242.26
593.158	34133.79
593.517	34171.53
593.876	34377.4
594.235	34094.02
594.593	34184.19
594.952	34226.9
595.311	34166.11
595.67	34329.72
596.029	34447.46
596.387	34404.75
596.746	34367.68
597.104	34309.83
597.463	34163.85
597.822	34478.87
598.18	34199.55
598.538	34227.35
598.897	34371.07
599.255	34155.03
599.613	34627.34
599.972	34325.2
600.33	34472.31
600.688	34387.34
601.046	34439.09
601.404	34627.79
601.762	34488.13
602.12	34569.94
602.478	34497.62
602.836	34582.59
603.194	34431.41
603.552	34390.06
603.91	34342.15
604.268	34762.02
604.625	34388.25
604.983	34585.08
605.341	34512.09
605.698	34662.59
606.056	34721.8
606.413	34661.01
606.771	34895.13
607.128	34847.67
607.485	34663.04
607.843	34629.37
608.2	34854.68
608.557	34970.38
608.914	34684.74
609.272	34983.03
609.629	34910.72
609.986	35089.02
610.343	34881.79
610.7	35256.02
611.057	35112.98
611.414	35116.36
611.771	35089.25
612.127	35228.68
612.484	35158.85
612.841	35333.99
613.198	35355
613.554	35351.39
613.911	35508.44
614.267	35463.25
614.624	35377.83
614.98	35656.24
615.337	35697.37
615.693	35587.76
616.05	35642.23
616.406	35869.79
616.762	35728.1
617.118	35741.43
617.475	35725.61
617.831	35696.46
618.187	35861.66
618.543	35795.22
618.899	36030.69
619.255	35911.37
619.611	35899.17
619.967	36040.63
620.323	36190.23
620.678	36106.4
621.034	36038.15
621.39	35884.71
621.746	35976.91
622.101	36281.31
622.457	36086.96
622.812	35988.21
623.168	36291.48
623.523	36280.4
623.879	36440.62
624.234	35916.12
624.589	36151.59
624.945	36176
625.3	36250.35
625.655	36093.51
626.01	36157.24
626.365	36234.98
626.72	36263.68
627.075	36033.4
627.43	36051.03
627.785	36009.9
628.14	36248.99
628.495	36213.51
628.85	36086.51
629.205	36028.43
629.559	36238.82
629.914	36004.03
630.269	36086.96
630.623	35955.66
630.978	35884.48
631.332	36090.8
631.687	36083.57
632.041	35862.33
632.396	35953.86
632.75	35764.26
633.104	35752.51
633.459	35625.96
633.813	35592.51
634.167	35602.23
634.521	35701.43
634.875	35610.36
635.229	35547.54
635.583	35277.94
635.937	35403.36
636.291	35285.17
636.645	35377.83
636.999	35318.39
637.352	35318.39
637.706	35115.23
638.06	35253.54
638.413	35184.84
638.767	35074.11
639.121	35130.6
639.474	34925.18
639.828	34877.73
640.181	34874.56
640.534	34926.77
640.888	34807.22
641.241	34743.27
641.594	34664.4
641.947	34751.4
642.301	34603.38
642.654	34668.24
643.007	34636.38
643.36	34419.89
643.713	34503.95
644.066	34504.18
644.419	34295.6
644.771	34118.88
645.124	33774.71
645.477	33668.72
645.83	33409.52
646.182	33344.89
646.535	33283.19
646.888	33365.9
647.24	33231.89
647.593	33372
647.945	33328.16
648.298	33163.2
648.65	33004.33
649.002	32971.11
649.355	33123.42
649.707	32958.91
650.059	33062.41
650.411	33398.22
650.763	33703.75
651.115	33828.72
651.467	33772.9
651.819	33784.2
652.171	33681.83
652.523	33598.21
652.875	33628.49
653.227	33595.95
653.578	33719.57
653.93	33604.99
654.282	33490.19
654.633	33433.02
654.985	33438.22
655.337	33338.56
655.688	33518.44
656.039	33490.64
656.391	33114.38
656.742	33232.12
657.094	33298.11
657.445	33354.38
657.796	33331.1
658.147	33254.27
658.498	33181.05
658.849	33129.3
659.2	33029.64
659.551	32979.47
659.902	33120.03
660.253	33019.02
660.604	32932.24
660.955	32808.63
661.306	33062.86
661.656	32960.94
662.007	32816.76
662.358	32878.68
662.708	32743.09
663.059	32625.81
663.409	32438.92
663.76	32720.5
664.11	32562.76
664.461	32699.93
664.811	32500.84
665.161	32485.47
665.511	32296.55
665.862	32477.34
666.212	32429.2
666.562	32456.32
666.912	32186.27
667.262	32113.05
667.612	32148.99
667.962	32113.73
668.312	31951.48
668.662	32013.62
669.011	31823.8
669.361	31800.07
669.711	31764.59
670.06	31626.06
670.41	31475.78
670.76	31439.4
671.109	31593.75
671.459	31415.22
671.808	31277.14
672.157	31263.58
672.507	31068.56
672.856	31034.66
673.205	31011.39
673.554	31069.47
673.904	30914.67
674.253	31063.36
674.602	30952.41
674.951	30477.62
675.3	30226.1
675.649	30831.05
675.998	30744.28
676.346	30645.75
676.695	30798.06
677.044	30628.8
677.393	30594.45
677.741	30572.08
678.09	30459.99
678.438	30420.22
678.787	30601
679.135	30589.48
679.484	30374.79
679.832	30395.81
680.181	30428.13
680.529	30271.52
680.877	30329.15
681.225	30260
681.573	30373.21
681.922	30214.8
682.27	30299.77
682.618	30377.96
682.966	30195.59
683.314	30380.9
683.661	30339.54
684.009	30049.15
684.357	30266.77
684.705	30092.09
685.053	30204.63
685.4	30193.1
685.748	30089.83
686.095	30158.08
686.443	30055.25
686.79	30073.56
687.138	30096.61
687.485	30116.72
687.832	30108.59
688.18	30268.81
688.527	29935.71
688.874	30041.7
689.221	30017.74
689.568	30018.19
689.915	30002.83
690.262	29805.09
690.609	29909.5
690.956	29905.88
691.303	29882.15
691.65	29629.96
691.997	29796.5
692.344	29631.09
692.69	29750.63
693.037	29736.62
693.383	29423.41
693.73	29620.92
694.077	29480.35
694.423	29384.99
694.769	29509.28
695.116	29403.97
695.462	29383.41
695.808	29314.48
696.155	29344.54
696.501	29101.16
696.847	29167.82
697.193	29050.31
697.539	29092.12
697.885	28909.75
698.231	28715.4
698.577	28870.88
698.923	28753.82
699.269	28615.52
699.614	28524.9
699.96	28502.08
700.306	28618.46
700.651	28338.92
700.997	28231.8
701.342	28282.65
701.688	28260.95
702.033	28153.38
702.379	28010.56
702.724	28025.93
703.069	27996.78
703.415	27811.25
703.76	27855.31
704.105	27716.56
704.45	27606.28
704.795	27534.64
705.14	27469.56
705.485	27489.9
705.83	27348.43
706.175	27433.18
706.52	27220.53
706.865	27190.7
707.209	27177.82
707.554	27037.03
707.899	27030.02
708.243	26939.18
708.588	26985.96
708.932	26724.72
709.277	26644.05
709.621	26616.93
709.966	26596.36
710.31	26614.89
710.654	26442.47
710.998	26494.22
711.342	26515.24
711.687	26476.14
712.031	26334.45
712.375	26281.57
712.719	26358.85
713.063	26102.59
713.407	26200.44
713.75	26011.75
714.094	26135.81
714.438	25943.72
714.782	26033.21
715.125	25810.39
715.469	25954.35
715.812	25743.5
716.156	25663.05
716.499	25598.65
716.843	25560.01
717.186	25578.31
717.53	25621.93
717.873	25695.82
718.216	25586.22
718.559	25352.1
718.902	25245.66
719.246	25295.38
719.589	25255.61
719.932	25153.69
720.275	25143.52
720.617	25058.32
720.96	24927.03
721.303	25094.93
721.646	25171.54
721.989	24825.11
722.331	24847.48
722.674	24868.5
723.016	24873.24
723.359	24799.35
723.701	24756.41
724.044	24615.4
724.386	24519.13
724.729	24616.08
725.071	24555.96
725.413	24569.98
725.755	24517.1
726.097	24356.42
726.439	24275.52
726.782	24450.66
727.124	24455.63
727.465	24220.61
727.807	24266.93
728.149	24178.12
728.491	24206.14
728.833	24229.19
729.175	24099.93
729.516	24174.51
729.858	24040.72
730.199	23989.2
730.541	23951.23
730.882	23958.92
731.224	24028.75
731.565	23820.62
731.906	23848.41
732.248	23751.01
732.589	23707.17
732.93	23708.08
733.271	23612.49
733.612	23598.25
733.953	23528.19
734.294	23450.23
734.635	23348.31
734.976	23397.12
735.317	23402.1
735.658	23295.66
735.999	23372.04
736.339	23271.48
736.68	23408.65
737.021	23270.35
737.361	23069.68
737.702	23165.49
738.042	23104.93
738.383	23041.65
738.723	23136.34
739.063	22861.32
739.404	23039.17
739.744	22960.98
740.084	22882.56
740.424	22991.26
740.764	22865.16
741.104	22952.62
741.444	22828.78
741.784	22774.09
742.124	22745.16
742.464	22750.59
742.804	22697.03
743.143	22549.24
743.483	22655.9
743.823	22547.66
744.162	22486.19
744.502	22509.24
744.841	22393.76
745.181	22317.61
745.52	22323.93
745.86	22356.02
746.199	22309.7
746.538	22239.87
746.877	22273.09
747.216	22294.56
747.556	22122.36
747.895	22077.16
748.234	22037.39
748.573	22017.05
748.911	22015.47
749.25	21973.89
749.589	21840.78
749.928	21902.7
750.267	21854.11
750.605	21813.89
750.944	21711.75
751.283	21651.18
751.621	21752.42
751.96	21622.71
752.298	21595.14
752.636	21526.21
752.975	21486.44
753.313	21465.42
753.651	21476.27
753.989	21296.62
754.327	21399.89
