Data from white_steel_sheet_FLMS001491_063.txt Node
Date: Tue Feb 07 10:58:16 GMT 2017
User: dcchb
Spectrometer: FLMS00149
Trigger mode: 0
Integration Time (sec): 2.000000E-2
Scans to average: 10
Electric dark correction enabled: true
Nonlinearity correction enabled: false
Boxcar width: 0
XAxis mode: Wavelengths
Number of Pixels in Spectrum: 2048
>>>>>Begin Spectral Data<<<<<
341.393	-4.75
341.776	-4.75
342.16	-4.75
342.543	-64.86
342.927	-62.82
343.31	-50.62
343.693	-65.08
344.077	-72.99
344.46	-68.7
344.843	-66.44
345.226	-36.38
345.61	-25.31
345.993	-2.03
346.376	-14.46
346.759	1.58
347.142	40.68
347.525	32.99
347.908	65.31
348.291	67.79
348.674	95.59
349.057	98.08
349.44	122.26
349.823	130.39
350.206	161.13
350.588	183.05
350.971	215.14
351.354	230.5
351.737	244.06
352.119	256.94
352.502	261.91
352.884	256.26
353.267	308.69
353.65	301.01
354.032	278.86
354.414	328.35
354.797	317.96
355.179	328.35
355.562	318.41
355.944	317.28
356.326	344.4
356.709	333.1
357.091	327.45
357.473	342.82
357.855	340.56
358.238	357.05
358.62	341.91
359.002	341.46
359.384	329.26
359.766	328.35
360.148	353.44
360.53	350.05
360.912	354.57
361.294	332.65
361.676	323.38
362.057	346.88
362.439	329.93
362.821	338.3
363.203	336.04
363.584	333.78
363.966	321.8
364.348	313.44
364.729	337.84
365.111	336.94
365.493	325.19
365.874	313.89
366.256	323.38
366.637	318.41
367.019	335.36
367.4	312.76
367.781	320.22
368.163	329.93
368.544	317.05
368.925	325.42
369.306	341.23
369.688	307.79
370.069	348.01
370.45	323.16
370.831	332.65
371.212	320.44
371.593	326.32
371.974	330.61
372.355	345.98
372.736	331.29
373.117	332.19
373.498	321.57
373.879	319.99
374.26	329.03
374.641	326.32
375.021	308.24
375.402	333.78
375.783	328.35
376.163	303.72
376.544	343.49
376.925	358.63
377.305	356.83
377.686	343.04
378.066	351.4
378.447	359.31
378.827	345.3
379.208	347.56
379.588	366.09
379.968	356.15
380.349	345.53
380.729	358.18
381.109	366.09
381.489	375.81
381.87	346.21
382.25	381.01
382.63	348.01
383.01	377.17
383.39	361.57
383.77	371.74
384.15	357.28
384.53	367.45
384.91	374
385.29	370.16
385.67	387.56
386.049	403.61
386.429	399.54
386.809	404.28
387.189	392.31
387.568	384.4
387.948	394.11
388.328	376.94
388.707	382.14
389.087	416.49
389.466	421.23
389.846	412.19
390.225	407.45
390.605	395.47
390.984	416.49
391.363	408.35
391.743	442.47
392.122	419.65
392.501	447.45
392.881	448.8
393.26	429.37
393.639	449.48
394.018	443.6
394.397	439.54
394.776	454.23
395.155	476.37
395.534	475.47
395.913	476.6
396.292	488.35
396.671	470.5
397.05	490.83
397.429	479.76
397.808	474.11
398.186	505.52
398.565	500.78
398.944	525.18
399.323	532.64
399.701	524.28
400.08	509.82
400.458	552.3
400.837	535.81
401.215	554.56
401.594	551.62
401.972	565.18
402.351	568.8
402.729	566.99
403.107	588.69
403.486	591.85
403.864	636.59
404.242	618.06
404.62	633.43
404.999	622.36
405.377	655.12
405.755	659.42
406.133	672.98
406.511	670.49
406.889	684.95
407.267	702.35
407.645	696.48
408.023	743.94
408.401	729.47
408.779	726.08
409.156	751.84
409.534	775.12
409.912	757.27
410.29	779.19
410.667	767.66
411.045	804.5
411.422	801.79
411.8	816.25
412.178	829.36
412.555	858.28
412.933	859.64
413.31	860.77
413.687	882.24
414.065	882.01
414.442	905.74
414.819	926.08
415.197	926.76
415.574	935.57
415.951	933.08
416.328	939.41
416.705	950.94
417.082	979.18
417.46	985.06
417.837	985.28
418.214	979.41
418.591	1014.44
418.967	1009.92
419.344	1003.59
419.721	1016.02
420.098	1032.06
420.475	1057.6
420.852	1074.32
421.228	1078.84
421.605	1086.3
421.982	1100.54
422.358	1136.47
422.735	1117.94
423.111	1112.29
423.488	1152.06
423.864	1171.49
424.241	1164.49
424.617	1192.74
424.994	1215.79
425.37	1178.73
425.746	1218.95
426.123	1248.33
426.499	1245.39
426.875	1252.85
427.251	1289.68
427.627	1284.26
428.003	1273.41
428.379	1328.33
428.756	1325.84
429.132	1368.1
429.507	1345.28
429.883	1363.81
430.259	1404.71
430.635	1417.59
431.011	1428.66
431.387	1468.89
431.763	1474.99
432.138	1489
432.514	1509.34
432.89	1522.67
433.265	1596.79
433.641	1566.74
434.016	1575.1
434.392	1627.08
434.767	1655.78
435.143	1658.71
435.518	1653.97
435.894	1680.86
436.269	1707.3
436.644	1749.33
437.02	1767.19
437.395	1780.07
437.77	1807.18
438.145	1828.2
438.52	1821.42
438.895	1836.34
439.271	1894.87
439.646	1906.39
440.021	1882.44
440.395	1917.01
440.77	1916.11
441.145	1918.37
441.52	1956.33
441.895	1964.24
442.27	1990.46
442.645	2021.64
443.019	2028.42
443.394	2034.75
443.769	2059.83
444.143	2060.28
444.518	2105.48
444.892	2104.35
445.267	2123.79
445.641	2151.36
446.016	2139.15
446.39	2145.48
446.764	2187.74
447.139	2171.47
447.513	2210.79
447.887	2220.51
448.262	2254.86
448.636	2245.36
449.01	2286.72
449.384	2318.81
449.758	2315.87
450.132	2375.76
450.506	2334.18
450.88	2378.92
451.254	2382.76
451.628	2422.08
452.002	2447.17
452.376	2483.78
452.75	2477.45
453.123	2494.17
453.497	2565.13
453.871	2576.88
454.244	2622.3
454.618	2625.02
454.992	2672.7
455.365	2677.22
455.739	2733.26
456.112	2775.75
456.486	2821.85
456.859	2869.76
457.232	2851.22
457.606	2883.31
457.979	2921.51
458.352	2966.25
458.725	3010.54
459.099	3030.2
459.472	3095.74
459.845	3110.65
460.218	3123.08
460.591	3165.34
460.964	3210.09
461.337	3231.1
461.71	3288.95
462.083	3299.8
462.456	3351.55
462.829	3318.1
463.201	3396.07
463.574	3494.82
463.947	3491.66
464.32	3554.26
464.692	3554.26
465.065	3594.48
465.438	3680.36
465.81	3709.28
466.183	3749.73
466.555	3839.67
466.928	3831.99
467.3	3843.29
467.672	3874.02
468.045	4010.97
468.417	4017.3
468.789	4083.96
469.161	4116.5
469.534	4151.76
469.906	4283.96
470.278	4263.16
470.65	4311.98
471.022	4402.82
471.394	4481.69
471.766	4544.51
472.138	4601.91
472.51	4707.67
472.882	4711.97
473.253	4793.77
473.625	4893.88
473.997	4969.81
474.369	4984.5
474.74	5034.67
475.112	5168.9
475.484	5247.32
475.855	5276.25
476.227	5356.7
476.598	5511.72
476.97	5541.78
477.341	5685.5
477.713	5721.21
478.084	5817.47
478.455	5961.2
478.827	5957.13
479.198	6150.8
479.569	6236.45
479.94	6297.46
480.311	6386.05
480.682	6605.02
481.053	6685.25
481.424	6786.04
481.795	6870.33
482.166	6970.89
482.537	7029.87
482.908	7217.21
483.279	7288.62
483.65	7429.18
484.021	7573.81
484.391	7661.49
484.762	7721.38
485.133	7741.04
485.503	7930.86
485.874	8118.88
486.244	8139
486.615	8359.1
486.985	8386.22
487.356	8536.05
487.726	8647
488.097	8831.86
488.467	8871.86
488.837	9087.9
489.207	9223.71
489.578	9253.09
489.948	9379.19
490.318	9550.48
490.688	9510.03
491.058	9670.48
491.428	9766.07
491.798	9907.31
492.168	10167.42
492.538	10200.41
492.908	10234.99
493.278	10330.12
493.648	10512.27
494.017	10606.05
494.387	10754.75
494.757	10796.78
495.126	10914.74
495.496	10909.77
495.866	11028.41
496.235	11150.44
496.605	11318.57
496.974	11397.89
497.344	11436.08
497.713	11545.23
498.082	11639.24
498.452	11734.38
498.821	11831.78
499.19	11855.73
499.559	11953.13
499.928	12081.49
500.298	12164.88
500.667	12280.81
501.036	12385.66
501.405	12410.07
501.774	12542.5
502.143	12560.57
502.512	12640.8
502.88	12861.36
503.249	12819.55
503.618	12914.46
503.987	13019.54
504.356	13091.41
504.724	13184.96
505.093	13260.89
505.462	13289.59
505.83	13458.86
506.199	13469.93
506.567	13726.64
506.936	13626.31
507.304	13868.56
507.672	13918.28
508.041	13987.65
508.409	14122.57
508.777	14264.03
509.145	14384.71
509.514	14465.38
509.882	14488.21
510.25	14529.79
510.618	14714.42
510.986	14719.39
511.354	14874.19
511.722	15110.34
512.09	15184.69
512.458	15147.85
512.826	15322.76
513.193	15449.54
513.561	15504.9
513.929	15686.37
514.297	15836.19
514.664	15903.31
515.032	15970.88
515.4	16122.51
515.767	16274.37
516.135	16337.88
516.502	16263.98
516.869	16598.89
517.237	16618.55
517.604	16628.04
517.972	16847.47
518.339	16951.87
518.706	17010.17
519.073	17152.32
519.44	17260.56
519.808	17492.87
520.175	17442.48
520.542	17827.55
520.909	17913.2
521.276	17885.63
521.643	18137.38
522.009	18231.61
522.376	18338.27
522.743	18580.98
523.11	18735.1
523.477	18932.16
523.843	19048.09
524.21	19127.18
524.577	19321.98
524.943	19426.38
525.31	19499.6
525.676	19714.96
526.043	19849.87
526.409	19849.65
526.776	20247.83
527.142	20262.29
527.508	20434.26
527.874	20601.04
528.241	20691.43
528.607	20831.32
528.973	20975.27
529.339	20982.27
529.705	21289.61
530.071	21460
530.437	21488.02
530.803	21669.26
531.169	21743.16
531.535	21795.59
531.901	21899.76
532.267	22000.1
532.632	22189.47
532.998	22158.06
533.364	22407.55
533.73	22522.12
534.095	22723.47
534.461	22715.56
534.826	22861.32
535.192	22929.79
535.557	23129.56
535.923	23033.29
536.288	23217.24
536.653	23250.69
537.019	23391.48
537.384	23428.76
537.749	23620.62
538.114	23691.35
538.479	23786.95
538.845	23955.53
539.21	23892.48
539.575	23972.03
539.94	24115.52
540.305	24312.81
540.67	24238.68
541.034	24371.11
541.399	24574.5
541.764	24519.13
542.129	24657.88
542.494	24713.25
542.858	24849.74
543.223	24954.15
543.587	25027.59
543.952	24990.76
544.316	25085.89
544.681	25203.86
545.045	25364.98
545.41	25455.15
545.774	25406.56
546.138	25599.55
546.503	25581.93
546.867	25658.99
547.231	25861.92
547.595	26002.25
547.959	25960.9
548.324	26074.34
548.688	26093.78
549.052	26289.25
549.416	26336.48
549.779	26271.63
550.143	26431.62
550.507	26609.92
550.871	26670.71
551.235	26763.82
551.599	26989.8
551.962	26940.76
552.326	27102.34
552.689	27179.4
553.053	27072.73
553.417	27257.59
553.78	27565.6
554.143	27488.99
554.507	27621.19
554.87	27749.55
555.234	28031.58
555.597	27907.97
555.96	28015.99
556.323	28156.1
556.686	28290.1
557.05	28404
557.413	28525.8
557.776	28496.2
558.139	28716.99
558.502	28911.33
558.865	28956.53
559.228	29088.5
559.59	29134.83
559.953	29356.74
560.316	29502.95
560.679	29519
561.041	29782.72
561.404	29943.39
561.767	30117.4
562.129	29951.75
562.492	30251.18
562.854	30352.2
563.217	30347.45
563.579	30563.49
563.941	30736.14
564.304	30775.46
564.666	30986.08
565.028	30949.47
565.39	31139.07
565.753	31300.87
566.115	31410.47
566.477	31549.45
566.839	31728.66
567.201	31749.22
567.563	31925.26
567.925	32041.42
568.287	32049.33
568.648	32214.75
569.01	32228.08
569.372	32433.27
569.734	32383.78
570.095	32715.07
570.457	32798.23
570.819	32947.16
571.18	32964.78
571.542	33127.72
571.903	33130.65
572.265	33186.92
572.626	33367.26
572.987	33279.12
573.349	33441.61
573.71	33666.69
574.071	33574.71
574.432	33787.59
574.794	34026
575.155	33999.33
575.516	33940.58
575.877	34026.68
576.238	34024.87
576.599	34218.08
576.96	34353.9
577.32	34286.33
577.681	34397.74
578.042	34453.56
578.403	34397.06
578.763	34558.87
579.124	34609.94
579.485	34621.46
579.845	34730.84
580.206	34756.83
580.566	34804.96
580.927	34736.94
581.287	34967.44
581.648	34731.52
582.008	34901.23
582.368	34887.44
582.728	34898.97
583.089	34801.57
583.449	34889.7
583.809	34999.98
584.169	34929.93
584.529	34861.91
584.889	35173.31
585.249	34900.55
585.609	34874.34
585.969	35088.12
586.329	34966.76
586.688	34989.59
587.048	35020.1
587.408	34908.23
587.768	34998.18
588.127	34845.19
588.487	34993.88
588.846	35279.75
589.206	34832.98
589.565	34981.91
589.925	35052.41
590.284	35110.04
590.643	35192.52
591.003	35234.55
591.362	35321.56
591.721	35081.79
592.08	35158.85
592.44	35290.15
592.799	35165.4
593.158	35150.26
593.517	35081.79
593.876	35119.3
594.235	35027.1
594.593	35057.16
594.952	35143.71
595.311	34989.14
595.67	34994.33
596.029	35335.57
596.387	35212.41
596.746	35257.83
597.104	35057.61
597.463	35192.97
597.822	35194.1
598.18	35256.93
598.538	35096.03
598.897	35267.32
599.255	34973.54
599.613	35446.75
599.972	35299.64
600.33	35472.29
600.688	35200.43
601.046	35444.49
601.404	35436.36
601.762	35369.92
602.12	35575.79
602.478	35550.03
602.836	35518.16
603.194	35308.9
603.552	35426.41
603.91	35343.93
604.268	35592.74
604.625	35323.82
604.983	35321.56
605.341	35346.87
605.698	35504.6
606.056	35670.02
606.413	35506.19
606.771	35726.07
607.128	35831.83
607.485	35630.25
607.843	35616.01
608.2	35754.31
608.557	35960.64
608.914	35720.42
609.272	35945.5
609.629	36122.89
609.986	36058.03
610.343	35840.19
610.7	36286.5
611.057	36066.62
611.414	36137.58
611.771	36096
612.127	36275.66
612.484	36164.02
612.841	36309.33
613.198	36283.79
613.554	36253.51
613.911	36426.61
614.267	36283.57
614.624	36440.62
614.98	36499.83
615.337	36554.75
615.693	36625.7
616.05	36581.41
616.406	36678.36
616.762	36667.96
617.118	36638.13
617.475	36592.48
617.831	36846.49
618.187	36690.11
618.543	36788.64
618.899	36917
619.255	37047.16
619.611	36933.94
619.967	36999.03
620.323	36916.32
620.678	36915.64
621.034	36772.82
621.39	36825.25
621.746	36818.24
622.101	37225.01
622.457	36880.39
622.812	37091.91
623.168	37030.44
623.523	37025.24
623.879	37163.54
624.234	36883.78
624.589	37081.74
624.945	37049.65
625.3	37133.49
625.655	36996.99
626.01	37070.21
626.365	37133.03
626.72	37008.29
627.075	36966.71
627.43	37000.84
627.785	36920.39
628.14	36956.99
628.495	37031.12
628.85	36959.71
629.205	36825.47
629.559	37094.39
629.914	36711.13
630.269	36959.48
630.623	36734.18
630.978	36727.85
631.332	36888.75
631.687	36868.86
632.041	36679.49
632.396	36926.49
632.75	36699.6
633.104	36751.35
633.459	36511.36
633.813	36479.72
634.167	36525.59
634.521	36589.77
634.875	36584.8
635.229	36447.63
635.583	36249.67
635.937	36373.51
636.291	36263.45
636.645	36297.35
636.999	36148.65
637.352	36337.58
637.706	36041.54
638.06	36300.74
638.413	35990.01
638.767	35923.58
639.121	36005.61
639.474	35772.17
639.828	35791.6
640.181	35888.55
640.534	35709.57
640.888	35709.8
641.241	35450.14
641.594	35573.53
641.947	35689.23
642.301	35584.38
642.654	35604.71
643.007	35408.11
643.36	35331.27
643.713	35421.22
644.066	35356.58
644.419	35305.96
644.771	35061
645.124	34727.22
645.477	34508.47
645.83	34401.13
646.182	34282.04
646.535	34172.66
646.888	34307.8
647.24	34127.01
647.593	34246.33
647.945	34218.76
648.298	34126.33
648.65	33897.41
649.002	33887.02
649.355	34037.07
649.707	33884.08
650.059	34031.65
650.411	34377.85
650.763	34270.74
651.115	34726.77
651.467	34747.56
651.819	34607.9
652.171	34567.68
652.523	34473.22
652.875	34476.61
653.227	34367.23
653.578	34509.83
653.93	34455.59
654.282	34339.89
654.633	34226.67
654.985	34331.75
655.337	34206.56
655.688	34237.29
656.039	34387.57
656.391	33992.33
656.742	34010.41
657.094	34047.24
657.445	34219.89
657.796	34168.59
658.147	33976.06
658.498	33975.83
658.849	34067.8
659.2	33979.67
659.551	33915.49
659.902	33864.42
660.253	33845.89
660.604	33715.5
660.955	33572.22
661.306	33779.9
661.656	33572.68
662.007	33628.27
662.358	33541.49
662.708	33531.77
663.059	33482.51
663.409	33281.16
663.76	33395.05
664.11	33322.51
664.461	33384.88
664.811	33313.02
665.161	33370.65
665.511	33192.35
665.862	33038.45
666.212	33035.52
666.562	33121.84
666.912	33050.43
667.262	32866.25
667.612	32882.3
667.962	32760.72
668.312	32743.32
668.662	32789.87
669.011	32631.01
669.361	32516.21
669.711	32460.16
670.06	32434.63
670.41	32252.94
670.76	32257
671.109	32235.99
671.459	32151.25
671.808	32099.04
672.157	32178.36
672.507	31818.15
672.856	31890.46
673.205	31905.15
673.554	31922.55
673.904	31814.98
674.253	31927.75
674.602	31656.79
674.951	31376.58
675.3	31181.55
675.649	31602.78
675.998	31435.11
676.346	31457.48
676.695	31607.3
677.044	31361.21
677.393	31500.41
677.741	31473.75
678.09	31239.63
678.438	31183.13
678.787	31348.1
679.135	31478.49
679.484	31098.17
679.832	31240.08
680.181	31068.56
680.529	31254.55
680.877	31008.22
681.225	30975.46
681.573	31280.99
681.922	31142.23
682.27	30975.91
682.618	31116.47
682.966	31083.02
683.314	31249.57
683.661	31049.81
684.009	30857.27
684.357	30936.14
684.705	30827.89
685.053	31050.48
685.4	30925.97
685.748	30905.4
686.095	30894.55
686.443	30930.26
686.79	30883.48
687.138	30952.86
687.485	30869.7
687.832	30868.34
688.18	30867.44
688.527	30734.11
688.874	30893.2
689.221	30710.38
689.568	30701.34
689.915	30676.26
690.262	30627.9
690.609	30568.69
690.956	30514.23
691.303	30564.85
691.65	30487.56
691.997	30521.91
692.344	30340.9
692.69	30326.21
693.037	30335.7
693.383	30196.95
693.73	30249.15
694.077	30091.19
694.423	30257.51
694.769	30102.26
695.116	30123.05
695.462	30081.24
695.808	29988.36
696.155	30039.89
696.501	29833.79
696.847	29862.49
697.193	29695.72
697.539	29802.15
697.885	29481.94
698.231	29415.95
698.577	29422.73
698.923	29446.68
699.269	29343.18
699.614	29198.78
699.96	29130.76
700.306	29210.08
700.651	28970.99
700.997	28967.15
701.342	28957.2
701.688	28938
702.033	28850.31
702.379	28773.03
702.724	28735.74
703.069	28576.88
703.415	28458.01
703.76	28522.19
704.105	28327.16
704.45	28328.07
704.795	28265.25
705.14	28194.51
705.485	28176.43
705.83	27924.24
706.175	27956.55
706.52	27977.57
706.865	27804.01
707.209	27789.78
707.554	27688.76
707.899	27797.91
708.243	27573.51
708.588	27577.58
708.932	27420.07
709.277	27467.75
709.621	27383.46
709.966	27117.71
710.31	27258.72
710.654	26981.89
710.998	27172.62
711.342	27071.6
711.687	27082.45
712.031	26832.06
712.375	26891.27
712.719	26906.19
713.063	26768.34
713.407	26812.18
713.75	26740.77
714.094	26642.46
714.438	26597.27
714.782	26574.22
715.125	26471.17
715.469	26472.3
715.812	26362.02
716.156	26289.93
716.499	26257.84
716.843	26245.64
717.186	26122.03
717.53	26162.93
717.873	26190.72
718.216	26079.99
718.559	26033.44
718.902	25849.26
719.246	25931.3
719.589	25780.79
719.932	25799.1
720.275	25698.31
720.617	25648.59
720.96	25569.5
721.303	25646.33
721.646	25532.66
721.989	25437.75
722.331	25481.14
722.674	25411.31
723.016	25355.94
723.359	25321.14
723.701	25437.52
724.044	25285.89
724.386	25089.28
724.729	25210.86
725.071	25219.68
725.413	25093.35
725.755	24954.82
726.097	24878.22
726.439	24924.77
726.782	24863.53
727.124	24914.6
727.465	24820.14
727.807	24804.09
728.149	24708.28
728.491	24757.32
728.833	24732.46
729.175	24617.43
729.516	24559.58
729.858	24470.54
730.199	24494.95
730.541	24419.24
730.882	24533.14
731.224	24480.26
731.565	24291.34
731.906	24315.29
732.248	24254.96
732.589	24111.23
732.93	24148.97
733.271	24124.79
733.612	24146.94
733.953	24065.36
734.294	23955.98
734.635	23988.75
734.976	24077.78
735.317	23764.57
735.658	23802.09
735.999	23796.89
736.339	23805.25
736.68	23831.24
737.021	23779.04
737.361	23592.83
737.702	23780.17
738.042	23580.17
738.383	23435.54
738.723	23555.31
739.063	23419.95
739.404	23507.63
739.744	23327.07
740.084	23256.11
740.424	23355.32
740.764	23321.42
741.104	23368.88
741.444	23216.11
741.784	23250.24
742.124	23107.19
742.464	23116
742.804	23052.73
743.143	22953.97
743.483	23080.75
743.823	22872.62
744.162	22915.78
744.502	23034.2
744.841	22904.71
745.181	22883.47
745.52	22775.45
745.86	22841.89
746.199	22693.87
746.538	22763.02
746.877	22783.81
747.216	22688.67
747.556	22621.1
747.895	22604.6
748.234	22432.63
748.573	22455.23
748.911	22420.65
749.25	22463.36
749.589	22240.77
749.928	22282.13
750.267	22250.71
750.605	22144.5
750.944	22227.21
751.283	22125.75
751.621	22081.45
751.96	21975.02
752.298	21862.02
752.636	22039.42
752.975	21968.46
753.313	21764.4
753.651	21899.31
753.989	21752.42
754.327	21711.29
