Data from White_reflection_standard_FLMS001491_100.txt Node
Date: Tue Feb 07 10:32:15 GMT 2017
User: dcchb
Spectrometer: FLMS00149
Trigger mode: 0
Integration Time (sec): 2.000000E-2
Scans to average: 10
Electric dark correction enabled: true
Nonlinearity correction enabled: false
Boxcar width: 0
XAxis mode: Wavelengths
Number of Pixels in Spectrum: 2048
>>>>>Begin Spectral Data<<<<<
341.393	-15.79
341.776	-15.79
342.16	-15.79
342.543	-44.26
342.927	-44.04
343.31	-61.44
343.693	-83.81
344.077	-61.44
344.46	-51.72
344.843	-42.68
345.226	-31.61
345.61	-35.23
345.993	-15.56
346.376	2.29
346.759	-13.3
347.142	40.03
347.525	26.24
347.908	63.08
348.291	87.03
348.674	91.55
349.057	86.58
349.44	107.6
349.823	112.57
350.206	178.78
350.588	229.85
350.971	242.51
351.354	266.91
351.737	291.32
352.119	292.45
352.502	295.61
352.884	324.54
353.267	328.38
353.65	328.38
354.032	355.27
354.414	349.17
354.797	354.14
355.179	362.5
355.562	384.88
355.944	391.2
356.326	382.62
356.709	399.34
357.091	385.1
357.473	390.75
357.855	422.16
358.238	418.1
358.62	401.15
359.002	411.77
359.384	397.31
359.766	404.31
360.148	436.85
360.53	414.48
360.912	410.41
361.294	413.12
361.676	409.96
362.057	399.11
362.439	412.45
362.821	401.6
363.203	428.27
363.584	399.79
363.966	392.11
364.348	392.11
364.729	393.69
365.111	419.68
365.493	422.16
365.874	400.24
366.256	413.12
366.637	437.76
367.019	431.43
367.4	412.9
367.781	409.73
368.163	427.36
368.544	420.36
368.925	416.97
369.306	434.37
369.688	414.93
370.069	418.32
370.45	440.02
370.831	437.98
371.212	430.3
371.593	430.3
371.974	440.02
372.355	457.19
372.736	454.48
373.117	488.6
373.498	472.11
373.879	451.54
374.26	453.35
374.641	455.61
375.021	428.94
375.402	472.56
375.783	474.14
376.163	501.94
376.544	507.36
376.925	491.77
377.305	474.82
377.686	500.35
378.066	508.26
378.447	489.28
378.827	516.62
379.208	482.95
379.588	503.07
379.968	505.78
380.349	541.48
380.729	531.54
381.109	544.19
381.489	523.86
381.87	544.42
382.25	541.48
382.63	553.46
383.01	575.38
383.39	575.61
383.77	592.1
384.15	584.19
384.53	611.09
384.91	580.13
385.29	583.74
385.67	604.08
386.049	606.57
386.429	607.47
386.809	633.46
387.189	619.45
387.568	641.14
387.948	651.76
388.328	639.79
388.707	656.28
389.087	662.84
389.466	679.11
389.846	669.62
390.225	672.1
390.605	689.95
390.984	708.71
391.363	710.97
391.743	727.24
392.122	737.64
392.501	728.6
392.881	753.91
393.26	755.26
393.639	750.52
394.018	791.42
394.397	771.08
394.776	796.84
395.155	757.75
395.534	783.28
395.913	815.37
396.292	825.77
396.671	824.64
397.05	842.49
397.429	842.49
397.808	852.66
398.186	836.62
398.565	842.04
398.944	849.95
399.323	848.82
399.701	884.3
400.08	903.96
400.458	899.21
400.837	902.83
401.215	939.44
401.594	924.98
401.972	947.35
402.351	950.74
402.729	955.71
403.107	974.92
403.486	994.8
403.864	987.8
404.242	1021.7
404.62	1030.06
404.999	1009.27
405.377	1030.28
405.755	1063.73
406.133	1077.74
406.511	1073.22
406.889	1102.6
407.267	1108.93
407.645	1142.37
408.023	1132.65
408.401	1134.91
408.779	1155.7
409.156	1169.04
409.534	1208.13
409.912	1225.53
410.29	1252.88
410.667	1227.79
411.045	1275.7
411.422	1287.9
411.8	1308.47
412.178	1330.84
412.555	1354.57
412.933	1330.84
413.31	1389.37
413.687	1418.07
414.065	1415.58
414.442	1431.4
414.819	1456.94
415.197	1435.7
415.574	1499.42
415.951	1518.41
416.328	1526.32
416.705	1516.82
417.082	1501.46
417.46	1569.7
417.837	1589.82
418.214	1613.09
418.591	1604.05
418.967	1627.56
419.344	1672.98
419.721	1628.01
420.098	1667.33
420.475	1685.18
420.852	1711.62
421.228	1733.77
421.605	1738.29
421.982	1760.89
422.358	1778.51
422.735	1815.35
423.111	1814.9
423.488	1860.77
423.864	1880.2
424.241	1861.9
424.617	1915.01
424.994	1921.79
425.37	1952.52
425.746	1958.62
426.123	2012.63
426.499	1995.23
426.875	2035.91
427.251	2073.65
427.627	2117.03
428.003	2127.2
428.379	2161.1
428.756	2154.77
429.132	2220.76
429.507	2267.77
429.883	2246.75
430.259	2299.4
430.635	2340.08
431.011	2386.86
431.387	2437.03
431.763	2455.78
432.138	2442.9
432.514	2480.19
432.89	2529.45
433.265	2525.84
433.641	2638.6
434.016	2649.9
434.392	2674.08
434.767	2723.57
435.143	2718.83
435.518	2799.73
435.894	2795.43
436.269	2839.05
436.644	2856.45
437.02	2896.22
437.395	2910.46
437.77	2933.96
438.145	2987.97
438.52	3054.64
438.895	3059.16
439.271	3074.98
439.646	3178.7
440.021	3153.62
440.395	3183.9
440.77	3158.36
441.145	3226.84
441.52	3277.68
441.895	3256.44
442.27	3327.4
442.645	3318.13
443.019	3366.04
443.394	3364.46
443.769	3407.17
444.143	3390
444.518	3479.03
444.892	3465.7
445.267	3496.21
445.641	3544.12
446.016	3585.47
446.39	3573.49
446.764	3611.91
447.139	3618.24
447.513	3665.92
447.887	3662.3
448.262	3717.22
448.636	3768.74
449.01	3741.17
449.384	3825.69
449.758	3843.99
450.132	3874.5
450.506	3950.21
450.88	3989.98
451.254	3971.45
451.628	4020.94
452.002	4090.99
452.376	4100.03
452.75	4114.27
453.123	4163.99
453.497	4222.97
453.871	4307.94
454.244	4340.03
454.618	4416.41
454.992	4448.05
455.365	4438.33
455.739	4571.21
456.112	4609.62
456.486	4730.53
456.859	4698.21
457.232	4875.83
457.606	4785.21
457.979	4859.56
458.352	4967.81
458.725	5044.87
459.099	5078.54
459.472	5190.85
459.845	5218.87
460.218	5293
460.591	5303.84
460.964	5366.21
461.337	5467
461.71	5522.37
462.083	5584.97
462.456	5670.39
462.829	5659.77
463.201	5839.65
463.574	5820.44
463.947	5960.1
464.32	6062.24
464.692	6124.16
465.065	6131.17
465.438	6285.29
465.81	6344.49
466.183	6349.01
466.555	6519.63
466.928	6575.22
467.3	6591.04
467.672	6688.67
468.045	6821.32
468.417	6909.23
468.789	6953.74
469.161	7026.51
469.534	7185.6
469.906	7295.2
470.278	7374.07
470.65	7472.6
471.022	7652.93
471.394	7765.25
471.766	7824.68
472.138	7912.14
472.51	8153.94
472.882	8206.59
473.253	8323.43
473.625	8410.65
473.997	8655.62
474.369	8693.36
474.74	8736.07
475.112	8932.22
475.484	9126.57
475.855	9303.51
476.227	9359.33
476.598	9595.03
476.97	9688.81
477.341	9895.14
477.713	10067.11
478.084	10139.42
478.455	10342.13
478.827	10504.38
479.198	10782.12
479.569	10796.58
479.94	11120.41
480.311	11201.09
480.682	11500.06
481.053	11757.69
481.424	11898.25
481.795	12060.05
482.166	12191.8
482.537	12376.65
482.908	12585.69
483.279	12738.45
483.65	13065.45
484.021	13368.26
484.391	13362.61
484.762	13566.68
485.133	13733.45
485.503	13881.7
485.874	14193.1
486.244	14344.74
486.615	14632.19
486.985	14814.55
487.356	14973.87
487.726	15149.46
488.097	15600.3
488.467	15482.33
488.837	15858.14
489.207	16068.98
489.578	16332.71
489.948	16497
490.318	16711
490.688	16729.08
491.058	17047.49
491.428	17266.47
491.798	17432.56
492.168	17793.01
492.538	17818.99
492.908	18188.7
493.278	18320.68
493.648	18357.06
494.017	18603.15
494.387	18791.85
494.757	18922.47
495.126	19145.06
495.496	19156.36
495.866	19299.41
496.235	19613.07
496.605	19702.79
496.974	19830.24
497.344	20044.47
497.713	20215.09
498.082	20403.11
498.452	20598.36
498.821	20672.25
499.19	20717
499.559	21027.5
499.928	21149.75
500.298	21247.83
500.667	21574.6
501.036	21536.86
501.405	21670.42
501.774	21805.56
502.143	21977.53
502.512	22166.23
502.88	22363.06
503.249	22412.77
503.618	22496.61
503.987	22666.32
504.356	22780.45
504.724	23003.49
505.093	23081
505.462	23171.4
505.83	23306.53
506.199	23554.66
506.567	23926.18
506.936	23868.33
507.304	24163.46
507.672	24262.44
508.041	24356
508.409	24587.4
508.777	24849.09
509.145	24948.07
509.514	25007.05
509.882	25207.28
510.25	25259.7
510.618	25535.85
510.986	25682.97
511.354	26055.16
511.722	26163.18
512.09	26429.39
512.458	26443.63
512.826	26691.76
513.193	26977.4
513.561	26957.74
513.929	27108.02
514.297	27361.79
514.664	27694.44
515.032	27679.98
515.4	28012.63
515.767	28076.8
516.135	28338.94
516.502	28191.6
516.869	28736.67
517.237	28757.46
517.604	28746.39
517.972	29156.78
518.339	29540.95
518.706	29526.71
519.073	29583.43
519.44	29913.59
519.808	30278.78
520.175	30207.6
520.542	30711.54
520.909	30898.65
521.276	30846.67
521.643	31261.13
522.009	31443.04
522.376	31698.63
522.743	31981.79
523.11	32253.64
523.477	32450.47
523.843	32751.48
524.21	33131.59
524.577	33287.51
524.943	33372.03
525.31	33651.8
525.676	33994.16
526.043	34193.93
526.409	34389.18
526.776	34865.1
527.142	34744.65
527.508	34986.68
527.874	35267.12
528.241	35579.88
528.607	35689.03
528.973	36037.5
529.339	36045.86
529.705	36496.02
530.071	36635
530.437	36613.98
530.803	36938.72
531.169	37160.18
531.535	37165.15
531.901	37476.78
532.267	37641.52
532.632	37818.47
532.998	37994.28
533.364	38222.98
533.73	38339.36
534.095	38602.4
534.461	38746.58
534.826	38898.67
535.192	39139.79
535.557	39388.15
535.923	39364.42
536.288	39628.59
536.653	39777.74
537.019	39833.56
537.384	39941.8
537.749	40067.22
538.114	40234.22
538.479	40386.99
538.845	40668.34
539.21	40506.31
539.575	40765.96
539.94	40862.23
540.305	41235.33
540.67	41026.75
541.034	41350.13
541.399	41512.61
541.764	41598.03
542.129	41707.86
542.494	41816.78
542.858	42036.89
543.223	42082.76
543.587	42322.53
543.952	42286.37
544.316	42515.52
544.681	42526.14
545.045	42753.03
545.41	42946.47
545.774	43061.04
546.138	43088.61
546.503	43273.69
546.867	43351.88
547.231	43612.21
547.595	43790.97
547.959	44012.66
548.324	43906.9
548.688	44047.91
549.052	44327.9
549.416	44284.97
549.779	44498.52
550.143	44527.22
550.507	44959.98
550.871	45036.81
551.235	44972.41
551.599	45272.28
551.962	45458.95
552.326	45508.44
552.689	45721.76
553.053	45692.39
553.417	45801.76
553.78	46298.47
554.143	46156.1
554.507	46322.2
554.87	46554.28
555.234	46886.03
555.597	46660.95
555.96	46958.57
556.323	46985.69
556.686	47133.25
557.05	47377.77
557.413	47549.06
557.776	47668.61
558.139	47882.39
558.502	47998.77
558.865	48056.39
559.228	48384.52
559.59	48562.59
559.953	48630.84
560.316	49047.55
560.679	49024.28
561.041	49260.65
561.404	49455.23
561.767	49608.89
562.129	49546.97
562.492	49937.25
562.854	49971.82
563.217	49913.97
563.579	50207.07
563.941	50450.23
564.304	50533.84
564.666	50781.29
565.028	50936.99
565.39	50936.09
565.753	51120.94
566.115	51331.56
566.477	51419.02
566.839	51530.2
567.201	51753.47
567.563	51695.84
567.925	51968.61
568.287	51994.82
568.648	51957.08
569.01	52212.44
569.372	52418.76
569.734	52380.57
570.095	52511.19
570.457	52720
570.819	52769.49
571.18	52840.9
571.542	52995.92
571.903	52993.89
572.265	53065.3
572.626	53216.71
572.987	53300.55
573.349	53410.38
573.71	53491.05
574.071	53568.56
574.432	53718.39
574.794	53818.27
575.155	53756.35
575.516	53747.77
575.877	53947.31
576.238	54009.68
576.599	54122.22
576.96	54093.97
577.32	54131.26
577.681	54225.27
578.042	54323.8
578.403	54301.88
578.763	54366.51
579.124	54405.83
579.485	54460.52
579.845	54569.89
580.206	54483.57
580.566	54449.67
580.927	54599.72
581.287	54688.31
581.648	54583.23
582.008	54727.85
582.368	54694.18
582.728	54771.24
583.089	54698.7
583.449	54666.39
583.809	54849.66
584.169	54838.36
584.529	54739.38
584.889	54964.46
585.249	54786.61
585.609	54678.59
585.969	54844.69
586.329	54874.52
586.688	54785.48
587.048	54802.2
587.408	54862.99
587.768	54717.91
588.127	54769.44
588.487	54801.98
588.846	54963.33
589.206	54744.58
589.565	54814.86
589.925	54993.38
590.284	54812.82
590.643	54915.42
591.003	54933.27
591.362	54986.61
591.721	54924.23
592.08	54989.99
592.44	55046.26
592.799	54968.3
593.158	54945.93
593.517	55041.29
593.876	54971.01
594.235	54966.27
594.593	54986.15
594.952	55057.79
595.311	54994.29
595.67	55066.15
596.029	55176.43
596.387	55234.06
596.746	55232.7
597.104	55112.93
597.463	55135.3
597.822	55317.44
598.18	55116.55
598.538	55048.52
598.897	55277.9
599.255	55095.08
599.613	55390.66
599.972	55219.82
600.33	55366.03
600.688	55251.46
601.046	55338.23
601.404	55446.93
601.762	55396.31
602.12	55452.36
602.478	55476.31
602.836	55492.13
603.194	55333.49
603.552	55446.93
603.91	55378.01
604.268	55526.7
604.625	55426.82
604.983	55636.08
605.341	55456.65
605.698	55595.4
606.056	55669.3
606.413	55629.98
606.771	55691.22
607.128	55731.9
607.485	55665.68
607.843	55696.19
608.2	55819.58
608.557	55921.95
608.914	55759.69
609.272	55941.38
609.629	55910.42
609.986	55970.99
610.343	55910.2
610.7	56129.85
611.057	56004.66
611.414	55977.54
611.771	56081.72
612.127	56178.89
612.484	56139.12
612.841	56202.17
613.198	56124.43
613.554	56160.59
613.911	56311.77
614.267	56295.05
614.624	56204.43
614.98	56292.79
615.337	56461.14
615.693	56323.29
616.05	56331.88
616.406	56460.69
616.762	56295.05
617.118	56396.29
617.475	56468.6
617.831	56462.72
618.187	56520.35
618.543	56559.9
618.899	56655.26
619.255	56616.17
619.611	56540.46
619.967	56671.98
620.323	56615.49
620.678	56610.07
621.034	56533.23
621.39	56579.33
621.746	56530.07
622.101	56735.71
622.457	56481.93
622.812	56603.06
623.168	56576.62
623.523	56674.92
623.879	56739.78
624.234	56512.67
624.589	56589.73
624.945	56657.52
625.3	56703.62
625.655	56640.12
626.01	56667.01
626.365	56702.94
626.72	56588.6
627.075	56633.79
627.43	56558.77
627.785	56617.07
628.14	56573.46
628.495	56640.57
628.85	56507.69
629.205	56526.68
629.559	56570.52
629.914	56440.8
630.269	56532.33
630.623	56361.94
630.978	56387.92
631.332	56493.68
631.687	56454.59
632.041	56348.83
632.396	56435.15
632.75	56280.36
633.104	56406.68
633.459	56231.32
633.813	56199.45
634.167	56168.04
634.521	56224.31
634.875	56261.6
635.229	56151.09
635.583	56034.04
635.937	55989.97
636.291	55967.6
636.645	55942.29
636.999	55896.41
637.352	55978.9
637.706	55818.9
638.06	55856.64
638.413	55849.41
638.767	55672.01
639.121	55769.86
639.474	55644.44
639.828	55629.75
640.181	55650.99
640.534	55642.86
640.888	55545.91
641.241	55487.16
641.594	55488.51
641.947	55515.63
642.301	55473.82
642.654	55502.3
643.007	55384.79
643.36	55422.07
643.713	55320.38
644.066	55404.9
644.419	55195.19
644.771	55008.98
645.124	54686.73
645.477	54667.74
645.83	54510.46
646.182	54415.77
646.535	54333.29
646.888	54354.98
647.24	54158.15
647.593	54367.41
647.945	54220.3
648.298	54100.75
648.65	54162.67
649.002	53966.97
649.355	54070.02
649.707	54034.99
650.059	54176.23
650.411	54469.56
650.763	54443.79
651.115	54791.36
651.467	54663
651.819	54608.76
652.171	54556.11
652.523	54533.06
652.875	54463.45
653.227	54401.08
653.578	54569.21
653.93	54429.78
654.282	54314.31
654.633	54291.71
654.985	54276.34
655.337	54229.11
655.688	54255.1
656.039	54405.6
656.391	54109.11
656.742	54053.75
657.094	54141.2
657.445	54245.38
657.796	54178.26
658.147	54013.75
658.498	54041.09
658.849	54178.26
659.2	54048.55
659.551	53969.91
659.902	53997.7
660.253	53990.02
660.604	53960.19
660.955	53879.52
661.306	54022.79
661.656	53988.67
662.007	53909.35
662.358	53879.97
662.708	53897.37
663.059	53818.27
663.409	53751.16
663.76	53888.55
664.11	53872.51
664.461	53874.77
664.811	53852.4
665.161	53766.3
665.511	53664.61
665.862	53729.01
666.212	53788.67
666.562	53752.97
666.912	53602.46
667.262	53676.81
667.612	53721.55
667.962	53634.78
668.312	53635.68
668.662	53705.73
669.011	53570.6
669.361	53531.95
669.711	53516.59
670.06	53428.91
670.41	53412.18
670.76	53353.2
671.109	53421.22
671.459	53332.41
671.808	53340.77
672.157	53415.12
672.507	53251.28
672.856	53306.88
673.205	53294.67
673.554	53338.06
673.904	53251.96
674.253	53367.66
674.602	53214.67
674.951	52742.6
675.3	52612.43
675.649	53122.7
675.998	53030.27
676.346	52979.2
676.695	53206.54
677.044	52920.22
677.393	52999.76
677.741	53013.78
678.09	52854.91
678.438	52808.13
678.787	52850.84
679.135	52856.04
679.484	52602.94
679.832	52829.37
680.181	52696.95
680.529	52714.35
680.877	52523.84
681.225	52593.67
681.573	52690.17
681.922	52427.58
682.27	52385.77
682.618	52442.27
682.966	52190.52
683.314	52374.7
683.661	52241.37
684.009	52083.63
684.357	52080.01
684.705	51928.61
685.053	51989.17
685.4	51920.92
685.748	51845.9
686.095	51764.32
686.443	51680.48
686.79	51604.1
687.138	51629.63
687.485	51620.37
687.832	51423.99
688.18	51545.34
688.527	51315.52
688.874	51273.71
689.221	51191.45
689.568	51065.58
689.915	51007.73
690.262	50892.25
690.609	50814.96
690.956	50768.86
691.303	50668.07
691.65	50452.49
691.997	50448.65
692.344	50332.49
692.69	50322.55
693.037	50273.73
693.383	49925.72
693.73	50115.77
694.077	49934.76
694.423	49935.21
694.769	49780.64
695.116	49594.43
695.462	49551.27
695.808	49497.03
696.155	49529.12
696.501	49182.46
696.847	49170.49
697.193	48966.65
697.539	49138.62
697.885	48849.59
698.231	48706.09
698.577	48755.81
698.923	48578.41
699.269	48501.13
699.614	48262.26
699.96	48307.01
700.306	48223.39
700.651	48067.24
700.997	47846.23
701.342	47866.34
701.688	47735.5
702.033	47692.56
702.379	47580.25
702.724	47458.44
703.069	47514.71
703.415	47098.45
703.76	47087.15
704.105	47064.33
704.45	47056.87
704.795	46835.86
705.14	46587.96
705.485	46601.06
705.83	46359.94
706.175	46561.29
706.52	46302.77
706.865	46163.33
707.209	46163.56
707.554	46119.04
707.899	46035.43
708.243	45826.17
708.588	45754.31
708.932	45433.18
709.277	45519.51
709.621	45553.41
709.966	45215.79
710.31	45406.07
710.654	44965.17
710.998	45031.84
711.342	45116.58
711.687	44868.9
712.031	44798.17
712.375	44563.6
712.719	44706.88
713.063	44598.18
713.407	44605.64
713.75	44488.12
714.094	44278.86
714.438	44172.2
714.782	44214.68
715.125	43975.37
715.469	44122.03
715.812	43953.67
716.156	43661.93
716.499	43598.88
716.843	43591.2
717.186	43474.59
717.53	43586.45
717.873	43578.77
718.216	43434.37
718.559	43268.72
718.902	42987.37
719.246	43021.5
719.589	42924.78
719.932	42887.04
720.275	42802.97
720.617	42735.18
720.96	42689.75
721.303	42586.25
721.646	42556.2
721.989	42283.44
722.331	42384.68
722.674	42349.65
723.016	42429.42
723.359	42193.72
723.701	42241.63
724.044	42032.82
724.386	41862.2
724.729	41978.13
725.071	41847.06
725.413	41814.97
725.755	41854.97
726.097	41477.58
726.439	41420.41
726.782	41408.21
727.124	41515.55
727.465	41369.56
727.807	41151.94
728.149	41181.32
728.491	41071.94
728.833	41165.05
729.175	40977.26
729.516	40920.31
729.858	41014.32
730.199	40888.22
730.541	40783.36
730.882	40882.12
731.224	40810.93
731.565	40566.65
731.906	40460.43
732.248	40549.7
732.589	40246.43
732.93	40274.22
733.271	40132.76
733.612	40244.39
733.953	40176.37
734.294	40252.98
734.635	39972.54
734.976	40048.24
735.317	39915.59
735.658	39849.38
735.999	39664.97
736.339	39541.36
736.68	39651.87
737.021	39546.11
737.361	39397.86
737.702	39706.33
738.042	39510.63
738.383	39276.74
738.723	39295.49
739.063	39029.51
739.404	39282.84
739.744	39046.91
740.084	38925.56
740.424	38915.84
740.764	38933.69
741.104	39028.61
741.444	38703.64
741.784	38563.31
742.124	38622.74
742.464	38621.39
742.804	38550.43
743.143	38458.23
743.483	38477.43
743.823	38271.79
744.162	38288.06
744.502	38347.72
744.841	37996.77
745.181	38217.78
745.52	37885.13
745.86	38096.43
746.199	37766.49
746.538	37789.32
746.877	37922.65
747.216	37787.74
747.556	37700.96
747.895	37687.4
748.234	37559.27
748.573	37455.99
748.911	37378.48
749.25	37381.64
749.589	37196.11
749.928	37395.43
750.267	37259.16
750.605	37145.49
750.944	37113.18
751.283	36978.49
751.621	37036.79
751.96	36798.83
752.298	36592.96
752.636	36709.57
