Data from white_steel_sheet_FLMS001491_052.txt Node
Date: Tue Feb 07 10:58:04 GMT 2017
User: dcchb
Spectrometer: FLMS00149
Trigger mode: 0
Integration Time (sec): 2.000000E-2
Scans to average: 10
Electric dark correction enabled: true
Nonlinearity correction enabled: false
Boxcar width: 0
XAxis mode: Wavelengths
Number of Pixels in Spectrum: 2048
>>>>>Begin Spectral Data<<<<<
341.393	-7.7
341.776	-7.7
342.16	-7.7
342.543	-62.39
342.927	-59.67
343.31	-59.67
343.693	-80.69
344.077	-58.09
344.46	-55.61
344.843	-42.5
345.226	-40.47
345.61	-28.26
345.993	-32.33
346.376	-12.44
346.759	19.42
347.142	6.09
347.525	49.93
347.908	52.87
348.291	71.17
348.674	89.48
349.057	121.11
349.44	135.35
349.823	132.41
350.206	172.41
350.588	202.01
350.971	246.08
351.354	229.13
351.737	261.9
352.119	265.74
352.502	278.4
352.884	272.3
353.267	298.28
353.65	310.26
354.032	287.89
354.414	318.62
354.797	326.08
355.179	309.58
355.562	336.47
355.944	335.57
356.326	347.77
356.709	341.9
357.091	346.64
357.473	334.67
357.855	329.69
358.238	380.31
358.62	330.37
359.002	345.29
359.384	352.97
359.766	351.62
360.148	340.77
360.53	351.16
360.912	359.98
361.294	365.85
361.676	337.38
362.057	345.29
362.439	361.56
362.821	334.21
363.203	355.46
363.584	340.09
363.966	321.79
364.348	340.99
364.729	348.9
365.111	343.25
365.493	343.93
365.874	356.36
366.256	327.89
366.637	340.77
367.019	352.52
367.4	347.55
367.781	307.77
368.163	339.19
368.544	323.37
368.925	336.02
369.306	340.32
369.688	333.54
370.069	317.27
370.45	341.22
370.831	349.81
371.212	314.78
371.593	333.99
371.974	332.63
372.355	340.77
372.736	330.6
373.117	337.15
373.498	320.88
373.879	352.52
374.26	360.2
374.641	330.6
375.021	347.32
375.402	344.38
375.783	348.45
376.163	353.2
376.544	359.3
376.925	358.39
377.305	348
377.686	352.97
378.066	348.9
378.447	350.71
378.827	364.04
379.208	357.26
379.588	357.04
379.968	366.76
380.349	370.37
380.729	378.73
381.109	364.27
381.489	379.86
381.87	376.7
382.25	371.95
382.63	378.96
383.01	366.53
383.39	359.75
383.77	366.3
384.15	421.67
384.53	386.19
384.91	397.94
385.29	380.77
385.67	391.39
386.049	387.55
386.429	399.3
386.809	392.97
387.189	410.37
387.568	410.82
387.948	413.31
388.328	432.29
388.707	422.35
389.087	422.35
389.466	421.22
389.846	426.42
390.225	429.81
390.605	420.54
390.984	428.68
391.363	448.34
391.743	453.08
392.122	456.25
392.501	458.96
392.881	470.48
393.26	480.65
393.639	467.77
394.018	464.15
394.397	466.64
394.776	496.02
395.155	479.52
395.534	476.81
395.913	489.46
396.292	494.21
396.671	512.97
397.05	518.84
397.429	510.03
397.808	536.92
398.186	537.6
398.565	532.4
398.944	540.08
399.323	555.68
399.701	562.46
400.08	570.59
400.458	568.33
400.837	595.22
401.215	612.85
401.594	601.78
401.972	590.7
402.351	601.78
402.729	599.52
403.107	643.13
403.486	647.43
403.864	651.27
404.242	651.27
404.62	639.52
404.999	664.15
405.377	672.28
405.755	693.07
406.133	719.74
406.511	719.51
406.889	741.66
407.267	737.82
407.645	740.08
408.023	778.72
408.401	752.96
408.779	787.08
409.156	810.81
409.534	824.37
409.912	805.16
410.29	848.1
410.667	861.88
411.045	857.14
411.422	872.51
411.8	878.83
412.178	910.24
412.555	913.18
412.933	901.66
413.31	945.05
413.687	965.38
414.065	948.21
414.442	969.68
414.819	994.76
415.197	997.93
415.574	973.75
415.951	1014.65
416.328	1029.34
416.705	1059.85
417.082	1059.62
417.46	1065.95
417.837	1070.47
418.214	1074.99
418.591	1110.01
418.967	1095.78
419.344	1130.58
419.721	1145.49
420.098	1129.45
420.475	1139.84
420.852	1159.05
421.228	1161.99
421.605	1195.21
421.982	1224.36
422.358	1204.7
422.735	1227.98
423.111	1228.65
423.488	1265.26
423.864	1292.83
424.241	1248.09
424.617	1296.22
424.994	1293.96
425.37	1322.44
425.746	1316.79
426.123	1329.67
426.499	1366.05
426.875	1345.04
427.251	1433.85
427.627	1414.41
428.003	1426.39
428.379	1416.9
428.756	1429.1
429.132	1470.91
429.507	1501.19
429.883	1531.25
430.259	1528.99
430.635	1563.79
431.011	1554.75
431.387	1602.66
431.763	1646.27
432.138	1664.57
432.514	1687.85
432.89	1663.22
433.265	1726.49
433.641	1740.96
434.016	1739.15
434.392	1790.45
434.767	1807.4
435.143	1815.08
435.518	1804.68
435.894	1885.81
436.269	1879.94
436.644	1932.14
437.02	1926.71
437.395	1936.66
437.77	1962.42
438.145	1997.9
438.52	2022.98
438.895	2032.93
439.271	2026.83
439.646	2119.03
440.021	2094.39
440.395	2101.4
440.77	2083.09
441.145	2136.88
441.52	2165.13
441.895	2203.32
442.27	2187.27
442.645	2220.94
443.019	2227.05
443.394	2243.77
443.769	2260.27
444.143	2237.22
444.518	2336.65
444.892	2274.5
445.267	2309.08
445.641	2354.27
446.016	2336.87
446.39	2387.72
446.764	2385.23
447.139	2411.9
447.513	2414.16
447.887	2442.86
448.262	2483.76
448.636	2481.95
449.01	2543.65
449.384	2528.96
449.758	2545.68
450.132	2563.76
450.506	2562.63
450.88	2619.13
451.254	2628.17
451.628	2700.25
452.002	2716.07
452.376	2723.08
452.75	2755.62
453.123	2744.32
453.497	2836.75
453.871	2852.11
454.244	2911.77
454.618	2916.75
454.992	2978.89
455.365	2956.52
455.739	3053.46
456.112	3052.56
456.486	3064.09
456.859	3113.8
457.232	3150.86
457.606	3182.5
457.979	3222.27
458.352	3246
458.725	3297.53
459.099	3348.15
459.472	3415.49
459.845	3420.91
460.218	3474.24
460.591	3506.56
460.964	3530.74
461.337	3604.41
461.71	3626.11
462.083	3737.74
462.456	3692.54
462.829	3714.46
463.201	3739.55
463.574	3784.97
463.947	3835.82
464.32	3951.75
464.692	3978.41
465.065	4012.08
465.438	4068.13
465.81	4121.69
466.183	4137.05
466.555	4252.08
466.928	4285.52
467.3	4206.43
467.672	4322.36
468.045	4500.88
468.417	4451.17
468.789	4525.97
469.161	4542.47
469.534	4617.04
469.906	4732.06
470.278	4767.54
470.65	4805.96
471.022	4920.99
471.394	4975.45
471.766	5051.6
472.138	5080.08
472.51	5210.7
472.882	5301.32
473.253	5318.04
473.625	5414.53
473.997	5534.53
474.369	5587.18
474.74	5628.99
475.112	5717.35
475.484	5794.18
475.855	5885.48
476.227	5993.05
476.598	6110.56
476.97	6160.73
477.341	6292.48
477.713	6389.65
478.084	6464.67
478.455	6708.74
478.827	6672.13
479.198	6918.9
479.569	6876.42
479.94	7113.92
480.311	7161.15
480.682	7316.86
481.053	7474.14
481.424	7621.48
481.795	7633.01
482.166	7772.66
482.537	7914.81
482.908	8087.46
483.279	8159.77
483.65	8283.38
484.021	8435.02
484.391	8553.66
484.762	8646.76
485.133	8739.42
485.503	8834.56
485.874	9066.41
486.244	9131.95
486.615	9293.07
486.985	9359.06
487.356	9547.08
487.726	9645.16
488.097	9865.49
488.467	9892.83
488.837	10062.55
489.207	10245.82
489.578	10328.75
489.948	10467.51
490.318	10608.97
490.688	10662.08
491.058	10761.74
491.428	10931.68
491.798	11021.62
492.168	11282.18
492.538	11345.68
492.908	11435.39
493.278	11717.64
493.648	11666.12
494.017	11818.88
494.387	11948.6
494.757	12068.82
495.126	12242.83
495.496	12156.95
495.866	12336.61
496.235	12514.01
496.605	12643.04
496.974	12717.39
497.344	12784.28
497.713	12866.54
498.082	13001.9
498.452	13132.75
498.821	13223.59
499.19	13240.99
499.559	13451.16
499.928	13491.16
500.298	13546.75
500.667	13713.75
501.036	13736.12
501.405	13881.2
501.774	13857.47
502.143	14122.1
502.512	14093.85
502.88	14281.87
503.249	14351.02
503.618	14448.19
503.987	14546.04
504.356	14636.21
504.724	14711.01
505.093	14776.55
505.462	14862.65
505.83	14949.65
506.199	15173.37
506.567	15329.07
506.936	15308.28
507.304	15501.27
507.672	15565.68
508.041	15695.17
508.409	15773.13
508.777	15928.83
509.145	16048.6
509.514	16105.1
509.882	16343.28
510.25	16286.79
510.618	16435.26
510.986	16447.24
511.354	16719.09
511.722	16792.54
512.09	17091.51
512.458	16994.12
512.826	17100.1
513.193	17187.56
513.561	17380.55
513.929	17408.12
514.297	17677.49
514.664	17865.96
515.032	17884.71
515.4	18107.08
515.767	18147.31
516.135	18308.88
516.502	18173.07
516.869	18673.85
517.237	18524.47
517.604	18645.37
517.972	18885.14
518.339	19007.62
518.706	19084.23
519.073	19139.6
519.44	19335.97
519.808	19552.47
520.175	19510.89
520.542	19899.12
520.909	19964.66
521.276	19949.74
521.643	20302.95
522.009	20378.66
522.376	20584.08
522.743	20772.55
523.11	21041.24
523.477	21110.39
523.843	21290.27
524.21	21458.86
524.577	21601.9
524.943	21713.09
525.31	21886.19
525.676	22047.99
526.043	22294.09
526.409	22403.69
526.776	22622.44
527.142	22705.15
527.508	22778.6
527.874	22862.44
528.241	23127.51
528.607	23283.67
528.973	23422.42
529.339	23429.2
529.705	23778.34
530.071	23857.66
530.437	23988.06
530.803	24214.72
531.169	24325.45
531.535	24425.11
531.901	24459
532.267	24682.95
532.632	24917.3
532.998	24868.03
533.364	25158.19
533.73	25177.4
534.095	25312.31
534.461	25432.31
534.826	25581.01
535.192	25597.5
535.557	25838.85
535.923	25770.38
536.288	25818.06
536.653	26202.69
537.019	26200.65
537.384	26296.7
537.749	26529.01
538.114	26378.73
538.479	26573.3
538.845	26690.36
539.21	26671.6
539.575	26854.2
539.94	26875.66
540.305	27019.61
540.67	27015.09
541.034	27255.09
541.399	27376.44
541.764	27393.16
542.129	27555.19
542.494	27640.39
542.858	27658.69
543.223	27711.57
543.587	27881.74
543.952	28001.28
544.316	28134.16
544.681	28077.67
545.045	28256.19
545.41	28391.33
545.774	28394.49
546.138	28499.8
546.503	28552.23
546.867	28700.02
547.231	28884.42
547.595	28930.3
547.959	28985.66
548.324	28959
548.688	29075.61
549.052	29311.31
549.416	29262.04
549.779	29309.95
550.143	29623.84
550.507	29728.24
550.871	29848.69
551.235	29730.96
551.599	30031.96
551.962	29950.16
552.326	30186.54
552.689	30377.94
553.053	30170.72
553.417	30254.78
553.78	30835.11
554.143	30582.01
554.507	30828.78
554.87	30918.72
555.234	31162.33
555.597	31090.24
555.96	31278.03
556.323	31252.27
556.686	31459.95
557.05	31742.43
557.413	31741.07
557.776	31843.22
558.139	32068.3
558.502	32164.11
558.865	32144.45
559.228	32571.11
559.59	32559.81
559.953	32653.14
560.316	33019.46
560.679	32898.56
561.041	33205.21
561.404	33355.27
561.767	33496.05
562.129	33363.4
562.492	33775.59
562.854	33844.75
563.217	33854.24
563.579	33941.69
563.941	34202.25
564.304	34277.73
564.666	34522.24
565.028	34581.22
565.39	34667.1
565.753	34888.79
566.115	34948.45
566.477	35078.16
566.839	35240.19
567.201	35486.51
567.563	35350.02
567.925	35671.82
568.287	35742.55
568.648	35858.03
569.01	36095.31
569.372	36165.14
569.734	36095.99
570.095	36429.08
570.457	36604.45
570.819	36612.36
571.18	36594.05
571.542	36883.99
571.903	36922.18
572.265	37103.42
572.626	37208.95
572.987	37166.01
573.349	37321.04
573.71	37417.08
574.071	37426.8
574.432	37643.74
574.794	37988.14
575.155	37745.43
575.516	37733.68
575.877	37940.01
576.238	38107.01
576.599	38062.49
576.96	38152.88
577.32	38033.11
577.681	38293.22
578.042	38253.9
578.403	38415.92
578.763	38446.43
579.124	38568.24
579.485	38648.46
579.845	38619.08
580.206	38647.78
580.566	38730.94
580.927	38607.78
581.287	38795.35
581.648	38629.93
582.008	38892.75
582.368	38786.54
582.728	38946.31
583.089	38771.17
583.449	38821.79
583.809	38883.94
584.169	39030.15
584.529	38812.52
584.889	39211.84
585.249	38831.06
585.609	38786.31
585.969	38893.88
586.329	38914.44
586.688	39022.01
587.048	38910.6
587.408	38779.98
587.768	38939.3
588.127	38848.46
588.487	38981.11
588.846	39166.19
589.206	38902.92
589.565	38823.82
589.925	39008.68
590.284	39105.4
590.643	38886.87
591.003	39006.19
591.362	39114.21
591.721	38957.83
592.08	38962.8
592.44	39084.16
592.799	38985.18
593.158	38924.16
593.517	39092.52
593.876	39023.14
594.235	39133.87
594.593	39113.08
594.952	39128.22
595.311	38994.21
595.67	39124.61
596.029	39216.13
596.387	39309.91
596.746	39224.04
597.104	39148.79
597.463	39170.26
597.822	39275.79
598.18	39149.46
598.538	39074.21
598.897	39309.69
599.255	38915.12
599.613	39582.45
599.972	39300.42
600.33	39354.43
600.688	39145.17
601.046	39423.13
601.404	39470.59
601.762	39504.26
602.12	39506.97
602.478	39550.58
602.836	39544.71
603.194	39417.93
603.552	39502.22
603.91	39347.65
604.268	39577.25
604.625	39489.34
604.983	39428.78
605.341	39299.07
605.698	39515.78
606.056	39692.05
606.413	39606.63
606.771	39572.05
607.128	39831.71
607.485	39654.54
607.843	39699.73
608.2	39765.04
608.557	39919.39
608.914	39886.85
609.272	39974.3
609.629	40060.85
609.986	40136.78
610.343	40085.49
610.7	40365.48
611.057	40217.01
611.414	40240.51
611.771	40226.5
612.127	40346.5
612.484	40282.77
612.841	40501.52
613.198	40351.47
613.554	40488.86
613.911	40710.78
614.267	40608.64
614.624	40525.93
614.98	40592.59
615.337	40785.13
615.693	40658.8
616.05	40682.76
616.406	40950.1
616.762	40820.83
617.118	40752.59
617.475	40871
617.831	40856.54
618.187	40861.06
618.543	41104.67
618.899	41165.91
619.255	41161.16
619.611	41116.19
619.967	41187.6
620.323	41275.28
620.678	41127.94
621.034	41012.01
621.39	41107.38
621.746	41119.58
622.101	41473.47
622.457	41162.07
622.812	41414.04
623.168	41357.99
623.523	41241.16
623.879	41432.12
624.234	41228.05
624.589	41292.01
624.945	41402.74
625.3	41426.47
625.655	41393.93
626.01	41307.6
626.365	41317.09
626.72	41327.71
627.075	41313.93
627.43	41216.53
627.785	41230.31
628.14	41231.9
628.495	41308.5
628.85	41227.83
629.205	41099.02
629.559	41320.03
629.914	41090.66
630.269	41157.55
630.623	41078.23
630.978	41022.18
631.332	41212.24
631.687	41151.22
632.041	40989.19
632.396	41189.41
632.75	40827.61
633.104	40919.36
633.459	40805.69
633.813	40657.45
634.167	40562.76
634.521	40674.62
634.875	40714.62
635.229	40725.69
635.583	40400.73
635.937	40347.85
636.291	40393.95
636.645	40472.14
636.999	40310.56
637.352	40430.11
637.706	40267.85
638.06	40236.67
638.413	40278.02
638.767	40042.77
639.121	40188.53
639.474	39848.43
639.828	39944.47
640.181	40056.79
640.534	40024.92
640.888	39804.14
641.241	39704.93
641.594	39623.35
641.947	39828.32
642.301	39639.85
642.654	39726.4
643.007	39637.81
643.36	39565.73
643.713	39393.3
644.066	39729.34
644.419	39503.81
644.771	39151.5
645.124	38735.46
645.477	38579.08
645.83	38372.76
646.182	38276.04
646.535	38105.88
646.888	38309.94
647.24	38085.76
647.593	38319.43
647.945	38100.23
648.298	37979.1
648.65	37981.36
649.002	37953.34
649.355	37928.93
649.707	37773.91
650.059	37912.89
650.411	38514
650.763	38361.46
651.115	38951.05
651.467	38667.67
651.819	38669.7
652.171	38651.85
652.523	38631.96
652.875	38619.76
653.227	38425.87
653.578	38452.53
653.93	38586.09
654.282	38293.89
654.633	38164.18
654.985	38313.33
655.337	38409.82
655.688	38309.26
656.039	38419.99
656.391	38031.75
656.742	38145.2
657.094	38230.62
657.445	38266.78
657.796	38269.71
658.147	38100.68
658.498	38067.46
658.849	38112.66
659.2	38063.84
659.551	37996.95
659.902	37920.12
660.253	37887.13
660.604	37881.02
660.955	37601.94
661.306	37751.08
661.656	37619.79
662.007	37627.25
662.358	37620.47
662.708	37670.41
663.059	37599.45
663.409	37365.56
663.76	37439.23
664.11	37430.87
664.461	37503.41
664.811	37473.12
665.161	37215.5
665.511	37010.09
665.862	37100.48
666.212	37107.94
666.562	37129.86
666.912	36924.21
667.262	36858
667.612	36765.8
667.962	36732.81
668.312	36453.72
668.662	36857.1
669.011	36674.05
669.361	36555.18
669.711	36413.72
670.06	36291.24
670.41	36087.4
670.76	36099.38
671.109	36202.65
671.459	36107.06
671.808	35971.24
672.157	36104.57
672.507	35643.12
672.856	35604.47
673.205	35626.62
673.554	35664.13
673.904	35608.77
674.253	35807.18
674.602	35493.06
674.951	35020.76
675.3	34715.01
675.649	35408.77
675.998	35333.29
676.346	35243.13
676.695	35327.64
677.044	35030.93
677.393	35220.08
677.741	35177.14
678.09	35020.76
678.438	34995.22
678.787	34980.99
679.135	35107.76
679.484	34780.54
679.832	35063.24
680.181	34839.3
680.529	34926.53
680.877	34857.83
681.225	34693.31
681.573	34923.81
681.922	34750.71
682.27	34635.46
682.618	34807.43
682.966	34745.74
683.314	34937.37
683.661	34778.28
684.009	34629.58
684.357	34609.25
684.705	34482.47
685.053	34740.54
685.4	34584.16
685.748	34472.3
686.095	34646.76
686.443	34419.65
686.79	34431.62
687.138	34654.22
687.485	34655.12
687.832	34578.29
688.18	34494.22
688.527	34447.44
688.874	34502.36
689.221	34305.75
689.568	34464.84
689.915	34227.11
690.262	34438.4
690.609	34326.99
690.956	34202.7
691.303	34319.99
691.65	34202.25
691.997	34163.38
692.344	33972.88
692.69	33985.98
693.037	34178.97
693.383	33853.11
693.73	34103.04
694.077	33841.58
694.423	33840.68
694.769	33783.05
695.116	33746.22
695.462	33698.53
695.808	33721.81
696.155	33858.53
696.501	33543.74
696.847	33550.52
697.193	33345.1
697.539	33585.32
697.885	33143.52
698.231	33213.35
698.577	33153.69
698.923	33003.64
699.269	32936.75
699.614	32728.84
699.96	32792.57
700.306	32680.71
700.651	32693.82
700.997	32537.21
701.342	32520.03
701.688	32438.91
702.033	32223.32
702.379	32287.27
702.724	32218.57
703.069	32376.54
703.415	31910.56
703.76	31964.34
704.105	31850
704.45	31983.1
704.795	31693.84
705.14	31736.33
705.485	31505.6
705.83	31520.96
706.175	31636.44
706.52	31511.47
706.865	31247.75
707.209	31228.32
707.554	31145.16
707.899	31307.64
708.243	31235.32
708.588	30909.23
708.932	30867.42
709.277	30851.83
709.621	30787.42
709.966	30638.95
710.31	30777.48
710.654	30440.99
710.998	30553.31
711.342	30539.75
711.687	30403.03
712.031	30241.45
712.375	30255.91
712.719	30253.2
713.063	30124.84
713.407	30213.43
713.75	30017.95
714.094	29895.02
714.438	29907.45
714.782	29848.47
715.125	29766.43
715.469	29836.94
715.812	29785.42
716.156	29566.89
716.499	29513.11
716.843	29555.37
717.186	29349.27
717.53	29465.88
717.873	29443.73
718.216	29304.07
718.559	29310.4
718.902	29123.51
719.246	29168.71
719.589	29030.41
719.932	28856.85
720.275	28912.67
720.617	28982.95
720.96	28815.27
721.303	28820.47
721.646	28772.11
721.989	28550.87
722.331	28677.42
722.674	28577.31
723.016	28625
723.359	28510.42
723.701	28488.28
724.044	28406.47
724.386	28243.99
724.729	28403.31
725.071	28250.54
725.413	28223.65
725.755	28295.06
726.097	28093.94
726.439	27978.91
726.782	28121.73
727.124	28166.48
727.465	27989.53
727.807	27908.4
728.149	27929.42
728.491	27905.92
728.833	27931.68
729.175	27733.95
729.516	27613.5
729.858	27599.71
730.199	27658.69
730.541	27629.32
730.882	27488.98
731.224	27570.11
731.565	27401.75
731.906	27329.44
732.248	27376.22
732.589	27218.03
732.93	27155.66
733.271	27238.14
733.612	27234.07
733.953	27231.36
734.294	27054.64
734.635	26991.82
734.976	27090.8
735.317	26915.66
735.658	26841.31
735.999	26971.71
736.339	26835.44
736.68	26965.6
737.021	26748.89
737.361	26771.26
737.702	26894.19
738.042	26507.99
738.383	26599.74
738.723	26628.66
739.063	26443.13
739.404	26625.95
739.744	26439.29
740.084	26378.5
740.424	26392.96
740.764	26306.64
741.104	26487.43
741.444	26192.29
741.784	26316.81
742.124	26299.63
742.464	26193.42
742.804	26161.11
743.143	26044.72
743.483	26124.5
743.823	25868.68
744.162	25962.02
744.502	25918.17
744.841	25835.01
745.181	25948.91
745.52	25813.32
745.86	25814.45
746.199	25738.07
746.538	25582.14
746.877	25697.62
747.216	25601.35
747.556	25504.63
747.895	25527
748.234	25405.87
748.573	25403.39
748.911	25366.78
749.25	25396.83
749.589	25272.99
749.928	25167.69
750.267	25151.41
750.605	25145.31
750.944	25092.21
751.283	24997.52
751.621	25140.34
751.96	24908.71
752.298	24841.37
752.636	24869.16
752.975	24687.47
753.313	24613.58
753.651	24725.21
