Data from white_poster_card_FLMS001491_00080.txt Node
Date: Wed Feb 08 11:52:00 GMT 2017
User: dcchb
Spectrometer: FLMS00149
Trigger mode: 0
Integration Time (sec): 2.000000E-2
Scans to average: 10
Electric dark correction enabled: true
Nonlinearity correction enabled: false
Boxcar width: 0
XAxis mode: Wavelengths
Number of Pixels in Spectrum: 2048
>>>>>Begin Spectral Data<<<<<
341.393	-15.58
341.776	-15.58
342.16	-15.58
342.543	-63.49
342.927	-77.05
343.31	-80.44
343.693	-62.13
344.077	-73.2
344.46	-77.27
344.843	-70.04
345.226	-30.95
345.61	-33.21
345.993	-40.66
346.376	-11.96
346.759	10.41
347.142	47.24
347.525	43.63
347.908	78.43
348.291	83.18
348.674	104.42
349.057	112.55
349.44	135.6
349.823	155.49
350.206	149.84
350.588	212.21
350.971	213.34
351.354	213.57
351.737	225.32
352.119	251.76
352.502	255.6
352.884	288.37
353.267	279.55
353.65	290.4
354.032	308.03
354.414	319.55
354.797	312.77
355.179	315.71
355.562	336.95
355.944	328.14
356.326	350.97
356.709	338.31
357.091	350.51
357.473	341.02
357.855	342.15
358.238	359.78
358.62	327.92
359.002	350.06
359.384	343.06
359.766	336.28
360.148	370.17
360.53	334.02
360.912	351.19
361.294	345.09
361.676	337.41
362.057	337.63
362.439	341.47
362.821	344.19
363.203	345.54
363.584	334.02
363.966	338.76
364.348	337.18
364.729	328.59
365.111	348.93
365.493	315.26
365.874	332.21
366.256	338.31
366.637	319.33
367.019	321.81
367.4	302.15
367.781	311.87
368.163	318.88
368.544	327.01
368.925	325.88
369.306	346.22
369.688	320.68
370.069	324.3
370.45	316.84
370.831	324.98
371.212	316.84
371.593	311.64
371.974	324.3
372.355	338.99
372.736	328.82
373.117	306.45
373.498	339.21
373.879	330.63
374.26	326.79
374.641	314.36
375.021	306.9
375.402	338.99
375.783	339.44
376.163	333.34
376.544	330.17
376.925	322.72
377.305	343.96
377.686	325.66
378.066	324.53
378.447	359.55
378.827	348.03
379.208	332.89
379.588	359.55
379.968	350.06
380.349	348.25
380.729	357.52
381.109	363.39
381.489	330.63
381.87	345.99
382.25	374.69
382.63	361.59
383.01	364.3
383.39	355.94
383.77	354.81
384.15	372.21
384.53	367.69
384.91	360
385.29	362.04
385.67	362.26
386.049	362.49
386.429	357.52
386.809	373.11
387.189	369.5
387.568	384.86
387.948	366.56
388.328	380.8
388.707	377.41
389.087	389.38
389.466	388.48
389.846	383.28
390.225	401.59
390.605	404.52
390.984	413.79
391.363	405.2
391.743	401.59
392.122	414.47
392.501	407.46
392.881	414.92
393.26	416.05
393.639	416.05
394.018	425.31
394.397	409.72
394.776	419.44
395.155	433
395.534	440.91
395.913	420.57
396.292	430.51
396.671	449.27
397.05	439.55
397.429	421.02
397.808	432.09
398.186	450.17
398.565	451.53
398.944	450.85
399.323	465.76
399.701	461.92
400.08	456.27
400.458	470.74
400.837	465.99
401.215	488.36
401.594	454.01
401.972	461.92
402.351	468.25
402.729	494.46
403.107	499.21
403.486	512.54
403.864	495.37
404.242	490.17
404.62	495.59
404.999	515.03
405.377	511.19
405.755	503.5
406.133	517.51
406.511	533.56
406.889	532.2
407.267	560.68
407.645	558.87
408.023	568.59
408.401	599.77
408.779	569.94
409.156	596.61
409.534	602.03
409.912	596.16
410.29	597.96
410.667	629.83
411.045	637.51
411.422	660.56
411.8	673.44
412.178	663.5
412.555	679.77
412.933	709.37
413.31	708.02
413.687	736.04
414.065	736.94
414.442	756.38
414.819	766.77
415.197	773.55
415.574	812.87
415.951	798.19
416.328	842.25
416.705	856.26
417.082	864.4
417.46	894.45
417.837	865.08
418.214	900.78
418.591	930.16
418.967	924.51
419.344	962.02
419.721	955.24
420.098	981.91
420.475	1012.19
420.852	1003.6
421.228	1011.29
421.605	1046.54
421.982	1038.86
422.358	1092.41
422.735	1059.42
423.111	1106.88
423.488	1122.24
423.864	1153.88
424.241	1169.02
424.617	1171.96
424.994	1198.63
425.37	1196.59
425.746	1210.15
426.123	1244.05
426.499	1257.16
426.875	1258.29
427.251	1269.36
427.627	1294.22
428.003	1330.37
428.379	1329.7
428.756	1329.7
429.132	1387.55
429.507	1392.52
429.883	1408.34
430.259	1445.85
430.635	1477.26
431.011	1454.21
431.387	1508.45
431.763	1504.16
432.138	1535.79
432.514	1560.88
432.89	1579.18
433.265	1591.38
433.641	1610.82
434.016	1632.29
434.392	1681.55
434.767	1718.39
435.143	1719.97
435.518	1742.34
435.894	1771.27
436.269	1776.01
436.644	1801.77
437.02	1843.81
437.395	1827.54
437.77	1867.54
438.145	1894.2
438.52	1893.3
438.895	1902.56
439.271	1934.2
439.646	1956.35
440.021	1980.75
440.395	1990.24
440.77	2012.62
441.145	2018.94
441.52	2041.54
441.895	2031.83
442.27	2041.32
442.645	2061.65
443.019	2084.03
443.394	2113.86
443.769	2110.02
444.143	2114.31
444.518	2181.65
444.892	2124.03
445.267	2176.91
445.641	2148.21
446.016	2177.36
446.39	2198.15
446.764	2241.09
447.139	2199.05
447.513	2227.53
447.887	2267.3
448.262	2261.2
448.636	2285.6
449.01	2310.69
449.384	2338.26
449.758	2349.1
450.132	2379.39
450.506	2339.61
450.88	2374.87
451.254	2407.86
451.628	2440.4
452.002	2455.54
452.376	2447.86
452.75	2503
453.123	2489.89
453.497	2553.39
453.871	2591.58
454.244	2639.94
454.618	2638.14
454.992	2683.56
455.365	2688.76
455.739	2763.78
456.112	2713.62
456.486	2799.71
456.859	2818.25
457.232	2824.35
457.606	2880.16
457.979	2920.84
458.352	2917.45
458.725	2997.9
459.099	2965.81
459.472	3057.11
459.845	3119.03
460.218	3129.2
460.591	3153.15
460.964	3125.58
461.337	3255.97
461.71	3257.56
462.083	3326.93
462.456	3342.75
462.829	3333.94
463.201	3403.99
463.574	3428.62
463.947	3453.48
464.32	3571.67
464.692	3580.26
465.065	3591.56
465.438	3634.72
465.81	3721.5
466.183	3676.3
466.555	3798.33
466.928	3780.03
467.3	3804.43
467.672	3857.99
468.045	3992.23
468.417	3947.25
468.789	4019.12
469.161	4084.65
469.534	4134.37
469.906	4233.12
470.278	4253.24
470.65	4266.57
471.022	4390.41
471.394	4416.85
471.766	4469.5
472.138	4524.87
472.51	4593.79
472.882	4678.54
473.253	4730.96
473.625	4831.3
473.997	4901.35
474.369	4932.54
474.74	4982.93
475.112	5097.96
475.484	5152.65
475.855	5198.97
476.227	5288.69
476.598	5391.51
476.97	5425.18
477.341	5556.25
477.713	5668.11
478.084	5689.58
478.455	5855.23
478.827	5919.18
479.198	6023.81
479.569	6074.88
479.94	6294.09
480.311	6273.07
480.682	6397.36
481.053	6565.49
481.424	6643
481.795	6686.62
482.166	6807.07
482.537	6836.44
482.908	7032.82
483.279	7104.46
483.65	7224.68
484.021	7415.41
484.391	7457.9
484.762	7566.14
485.133	7620.38
485.503	7728.62
485.874	7842.52
486.244	7936.08
486.615	8069.18
486.985	8227.37
487.356	8394.6
487.726	8415.16
488.097	8547.36
488.467	8611.09
488.837	8786.45
489.207	8932.89
489.578	9055.37
489.948	9106.22
490.318	9217.62
490.688	9247.23
491.058	9470.95
491.428	9570.38
491.798	9679.76
492.168	9804.73
492.538	9884.5
492.908	10007.21
493.278	10120.65
493.648	10129.47
494.017	10254.43
494.387	10389.57
494.757	10465.95
495.126	10602
495.496	10644.48
495.866	10716.34
496.235	10835.44
496.605	10901.42
496.974	10953.17
497.344	11192.04
497.713	11262.54
498.082	11294.86
498.452	11399.94
498.821	11547.51
499.19	11540.05
499.559	11657.79
499.928	11719.93
500.298	11810.55
500.667	11907.5
501.036	11895.52
501.405	11991.56
501.774	12048.06
502.143	12215.29
502.512	12251.9
502.88	12312.23
503.249	12349.07
503.618	12457.09
503.987	12522.17
504.356	12676.97
504.724	12727.14
505.093	12759
505.462	12865.21
505.83	12932.1
506.199	13068.15
506.567	13238.08
506.936	13168.71
507.304	13411.41
507.672	13547
508.041	13591.75
508.409	13682.59
508.777	13762.59
509.145	13843.94
509.514	13961.45
509.882	14043.49
510.25	14051.4
510.618	14191.73
510.986	14266.08
511.354	14381.56
511.722	14520.76
512.09	14641.66
512.458	14693.64
512.826	14821.09
513.193	14838.49
513.561	15021.77
513.929	15184.47
514.297	15286.84
514.664	15357.8
515.032	15417.69
515.4	15567.74
515.767	15637.34
516.135	15725.25
516.502	15677.79
516.869	15864.46
517.237	16069.2
517.604	16114.39
517.972	16260.6
518.339	16433.03
518.706	16357.78
519.073	16608.62
519.44	16708.05
519.808	16841.61
520.175	16775.17
520.542	17064.2
520.909	17195.27
521.276	17190.3
521.643	17463.06
522.009	17568.37
522.376	17636.61
522.743	17693.33
523.11	17943.05
523.477	18099.2
523.843	18203.15
524.21	18468
524.577	18520.88
524.943	18696.25
525.31	18762.91
525.676	19005.62
526.043	19105.27
526.409	19203.13
526.776	19432.95
527.142	19463.46
527.508	19638.59
527.874	19741.19
528.241	19790.45
528.607	19956.55
528.973	20163.78
529.339	20136.21
529.705	20359.93
530.071	20666.82
530.437	20614.39
530.803	20854.38
531.169	20901.16
531.535	20900.03
531.901	21071.55
532.267	21014.83
532.632	21321.49
532.998	21437.19
533.364	21481.71
533.73	21549.05
534.095	21727.35
534.461	21765.32
534.826	21920.12
535.192	21998.31
535.557	22173.22
535.923	22220.9
536.288	22407.79
536.653	22430.84
537.019	22419.31
537.384	22574.34
537.749	22648.23
538.114	22675.12
538.479	22777.27
538.845	22986.53
539.21	22913.08
539.575	23052.97
539.94	23032.4
540.305	23300.42
540.67	23304.49
541.034	23385.16
541.399	23543.35
541.764	23630.35
542.129	23632.84
542.494	23636.68
542.858	23930.23
543.223	23897.92
543.587	24023.11
543.952	24010
544.316	24099.72
544.681	24077.57
545.045	24279.15
545.41	24401.41
545.774	24504.68
546.138	24511.91
546.503	24680.5
546.867	24582.64
547.231	24834.39
547.595	24799.81
547.959	24938.79
548.324	25073.25
548.688	25095.17
549.052	25144.44
549.416	25244.77
549.779	25321.38
550.143	25361.16
550.507	25599.57
550.871	25626.68
551.235	25643.41
551.599	25868.26
551.962	25713.01
552.326	25981.03
552.689	26217.86
553.053	26125.65
553.417	26161.81
553.78	26599.54
554.143	26534.01
554.507	26674.34
554.87	26661.23
555.234	26945.52
555.597	26900.1
555.96	26874.34
556.323	27096.93
556.686	27195.01
557.05	27415.34
557.413	27465.28
557.776	27545.73
558.139	27684.03
558.502	27787.31
558.865	27901.43
559.228	28112.5
559.59	28177.58
559.953	28304.35
560.316	28566.95
560.679	28603.33
561.041	28740.5
561.404	28895.07
561.767	29069.31
562.129	28991.12
562.492	29262.52
562.854	29347.27
563.217	29349.52
563.579	29540.71
563.941	29544.32
564.304	29749.29
564.666	29967.36
565.028	30029.51
565.39	30065.66
565.753	30270.86
566.115	30353.34
566.477	30524.64
566.839	30610.73
567.201	30886.43
567.563	30691.86
567.925	31052.53
568.287	31113.09
568.648	31128.24
569.01	31276.48
569.372	31506.98
569.734	31430.6
570.095	31717.82
570.457	31756.47
570.819	31869.01
571.18	31847.31
571.542	32130.47
571.903	32054.76
572.265	32332.95
572.626	32309.67
572.987	32473.51
573.349	32507.18
573.71	32638.03
574.071	32701.3
574.432	32807.06
574.794	33121.4
575.155	33042.08
575.516	33025.13
575.877	33146.04
576.238	33295.18
576.599	33350.78
576.96	33414.05
577.32	33367.05
577.681	33522.75
578.042	33603.42
578.403	33658.79
578.763	33623.08
579.124	33711.9
579.485	33809.97
579.845	33878.9
580.206	33926.58
580.566	33875.96
580.927	33896.75
581.287	34071.21
581.648	33923.87
582.008	34155.5
582.368	33958.22
582.728	34157.53
583.089	34094.48
583.449	34092
583.809	34049.51
584.169	34210.19
584.529	34074.82
584.889	34318.66
585.249	34113.92
585.609	34089.74
585.969	34411.31
586.329	34334.7
586.688	34222.84
587.048	34204.76
587.408	34131.77
587.768	34244.99
588.127	34251.77
588.487	34103.98
588.846	34440.01
589.206	34167.25
589.565	34211.54
589.925	34445.89
590.284	34210.64
590.643	34472.33
591.003	34499.9
591.362	34389.62
591.721	34367.47
592.08	34471.88
592.44	34504.42
592.799	34477.98
593.158	34479.56
593.517	34520.69
593.876	34505.32
594.235	34363.63
594.593	34500.58
594.952	34511.65
595.311	34471.42
595.67	34643.62
596.029	34837.52
596.387	34708.48
596.746	34836.84
597.104	34781.92
597.463	34670.29
597.822	34851.08
598.18	34688.37
598.538	34776.95
598.897	34854.92
599.255	34597.07
599.613	35134.01
599.972	34880.9
600.33	34977.17
600.688	34811.98
601.046	34966.33
601.404	34965.87
601.762	34946.21
602.12	35309.14
602.478	35188.02
602.836	35124.97
603.194	35043.84
603.552	35065.98
603.91	35031.41
604.268	35328.58
604.625	35158.64
604.983	35311.63
605.341	35056.49
605.698	35315.47
606.056	35386.2
606.413	35327.9
606.771	35399.08
607.128	35380.78
607.485	35304.4
607.843	35421.68
608.2	35498.74
608.557	35711.39
608.914	35534.45
609.272	35599.53
609.629	35778.06
609.986	35895.34
610.343	35649.92
610.7	35904.83
611.057	36086.3
611.414	35873.87
611.771	35932.18
612.127	36019.41
612.484	36098.05
612.841	36150.48
613.198	35978.73
613.554	36055.56
613.911	36279.74
614.267	36183.7
614.624	36213.3
614.98	36241.77
615.337	36500.75
615.693	36354.31
616.05	36348.89
616.406	36523.57
616.762	36454.87
617.118	36407.64
617.475	36496.91
617.831	36559.28
618.187	36439.51
618.543	36598.6
618.899	36810.12
619.255	36632.95
619.611	36685.38
619.967	36850.57
620.323	36926.05
620.678	36593.4
621.034	36662.55
621.39	36725.83
621.746	36571.26
622.101	37037.91
622.457	36587.07
622.812	36762.44
623.168	36816.45
623.523	36827.07
623.879	36933.73
624.234	36691.25
624.589	36772.61
624.945	36752.49
625.3	36933.28
625.655	36786.84
626.01	36893.28
626.365	36813.96
626.72	36706.85
627.075	36760.18
627.43	36663.46
627.785	36604.48
628.14	36776.67
628.495	36710.69
628.85	36716.79
629.205	36633.18
629.559	36873.62
629.914	36513.63
630.269	36611.93
630.623	36536
630.978	36521.99
631.332	36647.19
631.687	36616
632.041	36446.97
632.396	36559.28
632.75	36420.3
633.104	36409.23
633.459	36282.68
633.813	36324.71
634.167	36357.48
634.521	36194.32
634.875	36233.41
635.229	36049.24
635.583	36012.4
635.937	35984.83
636.291	35929.24
636.645	35912.97
636.999	35995.23
637.352	36050.37
637.706	35856.47
638.06	35918.17
638.413	35825.06
638.767	35711.39
639.121	35651.96
639.474	35465.75
639.828	35568.34
640.181	35608.34
640.534	35537.16
640.888	35493.09
641.241	35280.89
641.594	35443.83
641.947	35426.65
642.301	35261.69
642.654	35319.76
643.007	35350.95
643.36	35261.69
643.713	35118.64
644.066	35245.87
644.419	34988.92
644.771	34780.12
645.124	34544.64
645.477	34346.68
645.83	34184.65
646.182	34074.82
646.535	33929.52
646.888	34037.99
647.24	33772.23
647.593	34112.79
647.945	33936.97
648.298	33824.21
648.65	33693.82
649.002	33661.73
649.355	33750.31
649.707	33765.91
650.059	33842.51
650.411	34222.62
650.763	34136.29
651.115	34578.54
651.467	34440.69
651.819	34252.9
652.171	34166.12
652.523	34136.97
652.875	34134.48
653.227	34039.35
653.578	34173.8
653.93	34156.18
654.282	33964.32
654.633	33884.55
654.985	33981.27
655.337	33989.85
655.688	34038.22
656.039	34059.68
656.391	33788.05
656.742	33734.72
657.094	33837.99
657.445	33889.52
657.796	33868.5
658.147	33802.06
658.498	33781.05
658.849	33807.26
659.2	33782.4
659.551	33561.62
659.902	33880.93
660.253	33737.88
660.604	33708.96
660.955	33557.32
661.306	33656.3
661.656	33668.73
662.007	33633.93
662.358	33649.75
662.708	33496.53
663.059	33545.12
663.409	33351.45
663.76	33512.13
664.11	33346.26
664.461	33574.95
664.811	33521.62
665.161	33489.98
665.511	33397.1
665.862	33376.09
666.212	33436.88
666.562	33442.07
666.912	33497.21
667.262	33376.54
667.612	33373.6
667.962	33255.41
668.312	33292.7
668.662	33449.53
669.011	33369.31
669.361	33136.32
669.711	33090.9
670.06	33154.17
670.41	33059.48
670.76	32898.36
671.109	33148.52
671.459	33097.67
671.808	32999.82
672.157	33238.69
672.507	32890.9
672.856	32866.49
673.205	32995.08
673.554	32856.55
673.904	32907.85
674.253	33048.41
674.602	32829.89
674.951	32383.12
675.3	32363.68
675.649	32824.01
675.998	32743.33
676.346	32713.73
676.695	32927.51
677.044	32711.02
677.393	32711.7
677.741	32687.06
678.09	32714.18
678.438	32599.38
678.787	32731.58
679.135	32464.02
679.484	32285.04
679.832	32456.34
680.181	32239.84
680.529	32400.52
680.877	32312.38
681.225	32498.14
681.573	32497.92
681.922	32176.34
682.27	32077.36
682.618	32187.64
682.966	32009.12
683.314	32127.98
683.661	32046.18
684.009	31801.89
684.357	31758.28
684.705	31697.03
685.053	31813.64
685.4	31660.2
685.748	31498.85
686.095	31540.65
686.443	31475.12
686.79	31385.18
687.138	31423.59
687.485	31456.36
687.832	31271.96
688.18	31209.36
688.527	31028.58
688.874	30959.43
689.221	30841.92
689.568	30821.35
689.915	30674.01
690.262	30779.09
690.609	30748.13
690.956	30438.08
691.303	30522.6
691.65	30391.31
691.997	30381.14
692.344	30238.09
692.69	30160.13
693.037	30167.36
693.383	29955.16
693.73	30162.84
694.077	29871.55
694.423	29825.9
694.769	29815.28
695.116	29638.78
695.462	29611.66
695.808	29474.04
696.155	29481.95
696.501	29275.85
696.847	29395.4
697.193	29037.67
697.539	29276.31
697.885	29138.68
698.231	28934.39
698.577	28912.7
698.923	28876.77
699.269	28689.66
699.614	28670.9
699.96	28532.82
700.306	28596.1
700.651	28369.89
700.997	28311.13
701.342	28306.16
701.688	28274.75
702.033	28159.73
702.379	28092.38
702.724	28030.01
703.069	28120.86
703.415	27891.26
703.76	27871.82
704.105	27890.81
704.45	27703.24
704.795	27565.84
705.14	27508.44
705.485	27437.48
705.83	27435.45
706.175	27308.9
706.52	27281.78
706.865	27246.98
707.209	27119.3
707.554	27046.99
707.899	27124.72
708.243	26898.29
708.588	26835.69
708.932	26766.99
709.277	26658.97
709.621	26712.08
709.966	26604.96
710.31	26517.51
710.654	26376.72
710.998	26423.73
711.342	26493.33
711.687	26265.54
712.031	26214.92
712.375	26215.82
712.719	26159.33
713.063	26084.75
713.407	26221.47
713.75	25928.15
714.094	26016.28
714.438	25815.83
714.782	25822.84
715.125	25614.03
715.469	25830.52
715.812	25696.06
716.156	25534.48
716.499	25589.17
716.843	25561.6
717.186	25459.91
717.53	25518.67
717.873	25592.11
718.216	25433.47
718.559	25351.66
718.902	25107.83
719.246	25278.45
719.589	25164.55
719.932	25013.59
720.275	25063.76
720.617	25065.57
720.96	24937.89
721.303	24946.93
721.646	24959.58
721.989	24578.58
722.331	24780.83
722.674	24674.62
723.016	24795.97
723.359	24640.95
723.701	24638.01
724.044	24426.04
724.386	24285.25
724.729	24548.97
725.071	24387.17
725.413	24425.36
725.755	24320.05
726.097	24261.75
726.439	24173.62
726.782	24084.8
727.124	24334.74
727.465	24009.55
727.807	24024.69
728.149	23970.46
728.491	23902.89
728.833	23987.41
729.175	23932.72
729.516	23890.91
729.858	23692.27
730.199	23805.72
730.541	23782.44
730.882	23724.36
731.224	23752.16
731.565	23583.35
731.906	23589.9
732.248	23641.88
732.589	23457.48
732.93	23339.97
733.271	23417.48
733.612	23351.04
733.953	23410.47
734.294	23266.97
734.635	23233.08
734.976	23306.07
735.317	23159.63
735.658	23148.33
735.999	23177.71
736.339	23153.53
736.68	23137.71
737.021	23029.24
737.361	22921.45
737.702	23012.29
738.042	22939.52
738.383	22882.58
738.723	22916.7
739.063	22855.68
739.404	22827.66
739.744	22708.57
740.084	22600.32
740.424	22709.47
740.764	22622.92
741.104	22742.69
741.444	22566.2
741.784	22598.29
742.124	22508.8
742.464	22433.77
742.804	22410.95
743.143	22385.64
743.483	22298.64
743.823	22325.08
744.162	22133.9
744.502	22338.18
744.841	22144.74
745.181	22271.29
745.52	22128.92
745.86	22117.85
746.199	22074.24
746.538	22132.09
746.877	22107.68
747.216	22029.04
747.556	21961.02
747.895	21937.29
748.234	21833.34
748.573	21853.9
748.911	21726
749.25	21625.43
749.589	21584.76
749.928	21686.22
750.267	21628.6
750.605	21578.43
750.944	21492.33
751.283	21388.38
751.621	21457.98
751.96	21356.06
752.298	21331.88
752.636	21368.04
752.975	21247.37
753.313	21068.61
753.651	21222.51
753.989	21096.41
