Data from White_reflection_standard_FLMS001491_055.txt Node
Date: Tue Feb 07 10:32:06 GMT 2017
User: dcchb
Spectrometer: FLMS00149
Trigger mode: 0
Integration Time (sec): 2.000000E-2
Scans to average: 10
Electric dark correction enabled: true
Nonlinearity correction enabled: false
Boxcar width: 0
XAxis mode: Wavelengths
Number of Pixels in Spectrum: 2048
>>>>>Begin Spectral Data<<<<<
341.393	1.92
341.776	1.92
342.16	1.92
342.543	-64.97
342.927	-64.29
343.31	-81.47
343.693	-85.08
344.077	-64.74
344.46	-50.73
344.843	-56.38
345.226	-41.92
345.61	-15.48
345.993	-16.84
346.376	-6.67
346.759	3.95
347.142	44.18
347.525	22.94
347.908	64.29
348.291	86.44
348.674	98.87
349.057	98.64
349.44	133.22
349.823	149.71
350.206	187
350.588	221.58
350.971	271.74
351.354	274.91
351.737	273.55
352.119	297.73
352.502	295.7
352.884	320.56
353.267	314
353.65	326.21
354.032	329.6
354.414	351.97
354.797	351.74
355.179	359.43
355.562	362.59
355.944	389.93
356.326	356.49
356.709	392.19
357.091	384.74
357.473	404.62
357.855	403.04
358.238	404.4
358.62	414.79
359.002	399.88
359.384	401.91
359.766	406.66
360.148	386.09
360.53	385.41
360.912	402.81
361.294	397.39
361.676	402.81
362.057	436.94
362.439	410.95
362.821	394.23
363.203	394.9
363.584	417.28
363.966	407.11
364.348	413.89
364.729	404.85
365.111	408.01
365.493	407.11
365.874	422.93
366.256	380.67
366.637	421.12
367.019	431.97
367.4	404.62
367.781	419.76
368.163	398.75
368.544	415.7
368.925	414.34
369.306	432.87
369.688	410.95
370.069	389.93
370.45	430.61
370.831	439.88
371.212	427.67
371.593	413.66
371.974	436.26
372.355	434.23
372.736	450.72
373.117	446.43
373.498	448.46
373.879	438.97
374.26	432.64
374.641	409.82
375.021	446.2
375.402	456.15
375.783	501.79
376.163	505.86
376.544	499.31
376.925	491.63
377.305	461.57
377.686	470.38
378.066	506.09
378.447	497.28
378.827	504.96
379.208	507.67
379.588	531.4
379.968	516.03
380.349	516.26
380.729	522.81
381.109	525.75
381.489	526.43
381.87	556.71
382.25	532.08
382.63	551.74
383.01	545.41
383.39	551.96
383.77	545.18
384.15	574.34
384.53	566.43
384.91	577.95
385.29	585.63
385.67	587.67
386.049	610.27
386.429	623.83
386.809	606.65
387.189	619.08
387.568	620.89
387.948	617.27
388.328	638.97
388.707	639.19
389.087	678.97
389.466	657.95
389.846	686.42
390.225	664.5
390.605	707.44
390.984	682.58
391.363	704.73
391.743	698.4
392.122	715.8
392.501	712.41
392.881	715.12
393.26	768.23
393.639	752.18
394.018	759.87
394.397	761.45
394.776	769.13
395.155	786.53
395.534	789.02
395.913	799.87
396.292	821.11
396.671	796.93
397.05	822.01
397.429	829.7
397.808	834.44
398.186	838.28
398.565	838.06
398.944	857.72
399.323	865.4
399.701	889.58
400.08	892.29
400.458	900.65
400.837	934.33
401.215	913.99
401.594	921.67
401.972	929.35
402.351	975.91
402.729	956.47
403.107	964.83
403.486	970.48
403.864	990.37
404.242	1019.75
404.62	1006.41
404.999	1037.6
405.377	1032.4
405.755	1052.29
406.133	1057.26
406.511	1091.16
406.889	1085.51
407.267	1130.25
407.645	1094.77
408.023	1136.81
408.401	1136.58
408.779	1145.85
409.156	1188.33
409.534	1203.25
409.912	1234.2
410.29	1266.97
410.667	1239.4
411.045	1267.42
411.422	1298.84
411.8	1298.61
412.178	1336.12
412.555	1320.98
412.933	1334.09
413.31	1372.05
413.687	1385.84
414.065	1429.45
414.442	1405.05
414.819	1438.27
415.197	1456.12
415.574	1488.66
415.951	1483.46
416.328	1524.37
416.705	1525.04
417.082	1525.5
417.46	1548.55
417.837	1579.96
418.214	1574.53
418.591	1591.48
418.967	1611.37
419.344	1628.32
419.721	1675.78
420.098	1649.34
420.475	1703.57
420.852	1718.03
421.228	1718.26
421.605	1718.71
421.982	1777.92
422.358	1769.11
422.735	1811.14
423.111	1801.65
423.488	1848.65
423.864	1836
424.241	1876.22
424.617	1922.77
424.994	1915.77
425.37	1916.45
425.746	1927.07
426.123	1998.03
426.499	1977.69
426.875	2018.59
427.251	2062.66
427.627	2112.6
428.003	2115.54
428.379	2141.98
428.756	2173.84
429.132	2219.04
429.507	2243.9
429.883	2248.42
430.259	2304.91
430.635	2318.47
431.011	2340.16
431.387	2435.08
431.763	2438.01
432.138	2431.69
432.514	2501.74
432.89	2525.7
433.265	2588.29
433.641	2580.38
434.016	2621.74
434.392	2658.12
434.767	2722.53
435.143	2721.17
435.518	2760.72
435.894	2788.97
436.269	2837.33
436.644	2864.9
437.02	2902.41
437.395	2918
437.77	2982.41
438.145	3005.68
438.52	3012.92
438.895	3051.33
439.271	3066.25
439.646	3138.56
440.021	3173.59
440.395	3193.93
440.77	3139.24
441.145	3203.64
441.52	3230.99
441.895	3281.83
442.27	3296.07
442.645	3354.38
443.019	3363.87
443.394	3330.19
443.769	3399.8
444.143	3355.96
444.518	3469.85
444.892	3432.57
445.267	3497.87
445.641	3523.41
446.016	3543.52
446.39	3546.01
446.764	3592.33
447.139	3581.26
447.513	3659.23
447.887	3684.08
448.262	3681.15
448.636	3714.14
449.01	3778.77
449.384	3829.39
449.758	3835.04
450.132	3898.09
450.506	3971.31
450.88	3941.7
451.254	3958.2
451.628	4030.52
452.002	4090.17
452.376	4124.52
452.75	4091.76
453.123	4157.97
453.497	4230.96
453.871	4280.9
454.244	4335.59
454.618	4366.33
454.992	4487
455.365	4499.66
455.739	4589.14
456.112	4613.33
456.486	4636.38
456.859	4722.02
457.232	4834.56
457.606	4813.09
457.979	4875.69
458.352	4982.13
458.725	4978.06
459.099	5071.17
459.472	5170.15
459.845	5225.74
460.218	5247.66
460.591	5314.78
460.964	5399.07
461.337	5447.2
461.71	5593.86
462.083	5621.43
462.456	5657.37
462.829	5674.31
463.201	5811.94
463.574	5776.68
463.947	5867.08
464.32	6091.48
464.692	6075.66
465.065	6136.45
465.438	6219.84
465.81	6294.18
466.183	6364.69
466.555	6564.23
466.928	6545.93
467.3	6561.52
467.672	6652.14
468.045	6875.86
468.417	6859.37
468.789	6923.32
469.161	7019.36
469.534	7157.66
469.906	7333.03
470.278	7393.36
470.65	7470.65
471.022	7652.34
471.394	7717.2
471.766	7777.08
472.138	7905.67
472.51	8067.47
472.882	8179.56
473.253	8293.23
473.625	8418.87
473.997	8629.26
474.369	8727.57
474.74	8801.69
475.112	9029.48
475.484	9157.61
475.855	9251.17
476.227	9339.53
476.598	9655.9
476.97	9626.07
477.341	9893.41
477.713	9993.97
478.084	10113.52
478.455	10398.26
478.827	10510.8
479.198	10782.88
479.569	10832.6
479.94	11065.58
480.311	11230.78
480.682	11470.55
481.053	11800.71
481.424	11957.99
481.795	12076.41
482.166	12219.45
482.537	12361.82
482.908	12675.49
483.279	12793.22
483.65	12978.53
484.021	13216.71
484.391	13436.14
484.762	13518.18
485.133	13725.18
485.503	13866.64
485.874	14204.94
486.244	14296.46
486.615	14631.59
486.985	14768.76
487.356	14994.97
487.726	15134.63
488.097	15448.07
488.467	15488.07
488.837	15878.34
489.207	16054.61
489.578	16261.83
489.948	16361.49
490.318	16768.71
490.688	16741.59
491.058	17142.94
491.428	17317.85
491.798	17437.62
492.168	17743.15
492.538	17858.4
492.908	18131.16
493.278	18282.57
493.648	18320.31
494.017	18650.24
494.387	18770.24
494.757	19010.46
495.126	19129.33
495.496	19217.91
495.866	19328.87
496.235	19666.04
496.605	19801.17
496.974	19852.02
497.344	20028.96
497.713	20215.63
498.082	20311.9
498.452	20574.94
498.821	20706.24
499.19	20757.53
499.559	20871.88
499.928	21091.99
500.298	21223.96
500.667	21431.41
501.036	21495.82
501.405	21698.3
501.774	21712.99
502.143	21947.78
502.512	22103.49
502.88	22312.75
503.249	22397.72
503.618	22527.66
503.987	22630.25
504.356	22813.75
504.724	23004.93
505.093	23028.89
505.462	23171.48
505.83	23348.2
506.199	23593.39
506.567	23910.9
506.936	23889.43
507.304	24129.65
507.672	24332.13
508.041	24348.63
508.409	24643.08
508.777	24784.55
509.145	25082.17
509.514	24959.68
509.882	25349.05
510.25	25272.22
510.618	25479.44
510.986	25678.53
511.354	25827.46
511.722	26198.52
512.09	26302.92
512.458	26499.53
512.826	26653.88
513.193	26822.91
513.561	26995.79
513.929	27109.68
514.297	27516.23
514.664	27661.76
515.032	27774.07
515.4	27942.2
515.767	28131.35
516.135	28167.96
516.502	28205.47
516.869	28782.18
517.237	28836.42
517.604	28800.49
517.972	29146.92
518.339	29450.41
518.706	29502.16
519.073	29715.94
519.44	29969.72
519.808	30228.47
520.175	30174.46
520.542	30702.13
520.909	30771.96
521.276	30807.66
521.643	31312.74
522.009	31477.93
522.376	31648.55
522.743	31930.8
523.11	32253.73
523.477	32541.4
523.843	32658.69
524.21	32926.48
524.577	33176.42
524.943	33371.89
525.31	33597.42
525.676	33968.71
526.043	34248.7
526.409	34242.6
526.776	34676.94
527.142	34782.02
527.508	34970.04
527.874	35350.6
528.241	35528.44
528.607	35748.1
528.973	35924.37
529.339	36016.79
529.705	36546.04
530.071	36634.63
530.437	36762.31
530.803	36901.97
531.169	37237.33
531.535	37160.04
531.901	37390.99
532.267	37590.31
532.632	37992.79
532.998	37923.64
533.364	38257.86
533.73	38301.03
534.095	38570.4
534.461	38749.15
534.826	38991.18
535.192	39069.37
535.557	39307.78
535.923	39371.96
536.288	39593.87
536.653	39759.29
537.019	39734.89
537.384	39797.71
537.749	40139.85
538.114	40269.11
538.479	40355.89
538.845	40627.52
539.21	40489.22
539.575	40718.59
539.94	41063.44
540.305	41161.97
540.67	41142.76
541.034	41267.5
541.399	41455.75
541.764	41560.15
542.129	41819.13
542.494	41914.94
542.858	42028.84
543.223	42064.54
543.587	42297.31
543.952	42192.68
544.316	42523.06
544.681	42472.22
545.045	42836.95
545.41	42930.51
545.774	43003.28
546.138	43181.8
546.503	43250.5
546.867	43331.4
547.231	43707.44
547.595	43742.92
547.959	43873.08
548.324	43932.29
548.688	44037.15
549.052	44259.51
549.416	44312.62
549.779	44352.62
550.143	44543.8
550.507	44833.74
550.871	45065.14
551.235	44980.63
551.599	45267.17
551.962	45418.35
552.326	45603.66
552.689	45759.81
553.053	45671.45
553.417	45738.35
553.78	46187.83
554.143	46137.2
554.507	46390.76
554.87	46457.2
555.234	46818.77
555.597	46768.37
555.96	46873.23
556.323	47075.26
556.686	47115.26
557.05	47448.81
557.413	47553.44
557.776	47665.75
558.139	47975.35
558.502	48045.4
558.865	48138.28
559.228	48504.37
559.59	48548.89
559.953	48646.29
560.316	48959.5
560.679	48965.61
561.041	49271.13
561.404	49399.49
561.767	49674.29
562.129	49524.91
562.492	49895.98
562.854	49926.94
563.217	49991.57
563.579	50108.85
563.941	50463.19
564.304	50545
564.666	50824.77
565.028	50773.69
565.39	50924.42
565.753	51205.55
566.115	51225.43
566.477	51456.16
566.839	51490.51
567.201	51688.47
567.563	51666.1
567.925	51985.64
568.287	51957.16
568.648	52189.02
569.01	52284.61
569.372	52417.94
569.734	52393.76
570.095	52587.43
570.457	52743.36
570.819	52870.59
571.18	52754.66
571.542	52975.44
571.903	53085.04
572.265	53214.76
572.626	53163.01
572.987	53317.13
573.349	53384.7
573.71	53481.87
574.071	53527.07
574.432	53595.77
574.794	53847.51
575.155	53863.78
575.516	53756.21
575.877	53966.83
576.238	54041.86
576.599	54111.23
576.96	54092.02
577.32	54171.57
577.681	54282.08
578.042	54275.75
578.403	54319.59
578.763	54326.37
579.124	54359.36
579.485	54462.18
579.845	54546.7
580.206	54458.34
580.566	54521.62
580.927	54597.77
581.287	54731.33
581.648	54499.24
582.008	54737.88
582.368	54647.26
582.728	54748.96
583.089	54706.02
583.449	54641.84
583.809	54729.52
584.169	54738.11
584.529	54711.67
584.889	54900.36
585.249	54747.6
585.609	54663.99
585.969	54851.78
586.329	54695.85
586.688	54802.29
587.048	54740.82
587.408	54711.67
587.768	54814.72
588.127	54781.95
588.487	54711.22
588.846	54970.87
589.206	54745.34
589.565	54776.75
589.925	54923.87
590.284	54797.32
590.643	54895.62
591.003	55000.02
591.362	54985.33
591.721	54929.74
592.08	54995.73
592.44	55003.19
592.799	54965.9
593.158	54993.92
593.517	55033.92
593.876	54960.7
594.235	54875.28
594.593	54917.54
594.952	55078.66
595.311	54951.89
595.67	55012.23
596.029	55190.07
596.387	55157.08
596.746	55237.76
597.104	55074.82
597.463	55091.55
597.822	55214.48
598.18	55070.3
598.538	55092.9
598.897	55224.2
599.255	55008.38
599.613	55453.8
599.972	55291.99
600.33	55339.45
600.688	55274.14
601.046	55375.38
601.404	55455.38
601.762	55385.1
602.12	55519.33
602.478	55447.47
602.836	55471.2
603.194	55334.48
603.552	55481.82
603.91	55440.24
604.268	55515.04
604.625	55414.25
604.983	55548.93
605.341	55481.59
605.698	55599.78
606.056	55603.17
606.413	55580.12
606.771	55761.13
607.128	55745.54
607.485	55670.29
607.843	55604.98
608.2	55816.72
608.557	55873.67
608.914	55769.72
609.272	55891.75
609.629	55981.24
609.986	56046.77
610.343	55852.88
610.7	56127.68
611.057	56013.56
611.414	56031.18
611.771	56076.6
612.127	56155.7
612.484	56151.18
612.841	56234.79
613.198	56092.2
613.554	56138.07
613.911	56267.56
614.267	56281.12
614.624	56230.05
614.98	56294.23
615.337	56395.24
615.693	56355.47
616.05	56329.25
616.406	56425.75
616.762	56395.24
617.118	56311.4
617.475	56448.35
617.831	56526.54
618.187	56506.65
618.543	56534.67
618.899	56661.45
619.255	56559.3
619.611	56540.55
619.967	56660.09
620.323	56645.63
620.678	56531.51
621.034	56527.67
621.39	56517.95
621.746	56533.54
622.101	56772.86
622.457	56509.14
622.812	56634.1
623.168	56623.93
623.523	56604.95
623.879	56716.14
624.234	56455.8
624.589	56559.98
624.945	56697.15
625.3	56649.47
625.655	56641.11
626.01	56648.12
626.365	56666.65
626.72	56623.03
627.075	56552.07
627.43	56576.25
627.785	56509.36
628.14	56567.67
628.495	56628.23
628.85	56543.71
629.205	56426.43
629.559	56670.49
629.914	56443.6
630.269	56515.46
630.623	56446.76
630.978	56376.26
631.332	56489.02
631.687	56470.72
632.041	56353.89
632.396	56440.89
632.75	56210.61
633.104	56305.75
633.459	56190.5
633.813	56266.88
634.167	56190.73
634.521	56203.38
634.875	56243.83
635.229	56089.03
635.583	56010.62
635.937	55979.43
636.291	55946.21
636.645	55984.63
636.999	55931.52
637.352	55976.27
637.706	55821.7
638.06	55839.1
638.413	55829.61
638.767	55743.28
639.121	55751.64
639.474	55586.45
639.828	55640.46
640.181	55660.34
640.534	55649.05
640.888	55567.24
641.241	55392.55
641.594	55446.56
641.947	55568.6
642.301	55506.22
642.654	55461.71
643.007	55376.28
643.36	55320.47
643.713	55237.53
644.066	55380.35
644.419	55188.94
644.771	55007.93
645.124	54712.57
645.477	54706.25
645.83	54519.58
646.182	54370.89
646.535	54254.28
646.888	54358.68
647.24	54229.65
647.593	54344.67
647.945	54298.35
648.298	54096.09
648.65	54086.37
649.002	54056.77
649.355	54120.27
649.707	53979.71
650.059	54142.64
650.411	54524.1
650.763	54445.91
651.115	54781.95
651.467	54718.67
651.819	54608.85
652.171	54534.72
652.523	54542.86
652.875	54478.91
653.227	54395.07
653.578	54492.01
653.93	54463.77
654.282	54319.59
654.633	54267.16
654.985	54256.09
655.337	54292.47
655.688	54233.49
656.039	54268.29
656.391	54131.35
656.742	54186.94
657.094	54147.62
657.445	54293.83
657.796	54137.45
658.147	54117.79
658.498	54028.3
658.849	54118.69
659.2	54049.54
659.551	53897.23
659.902	54029.43
660.253	54029.43
660.604	54052.7
660.955	53922.76
661.306	53920.73
661.656	53840.73
662.007	53931.8
662.358	53894.52
662.708	53851.58
663.059	53810.22
663.409	53584.01
663.76	53877.11
664.11	53799.15
664.461	53812.94
664.811	53818.36
665.161	53674.86
665.511	53692.94
665.862	53682.77
666.212	53822.2
666.562	53770.22
666.912	53638.02
667.262	53604.58
667.612	53675.76
667.962	53612.04
668.312	53583.79
668.662	53683.67
669.011	53627.4
669.361	53506.95
669.711	53521.87
670.06	53484.36
670.41	53351.03
670.76	53357.35
671.109	53454.07
671.459	53398.71
671.808	53328.2
672.157	53414.53
672.507	53244.81
672.856	53213.63
673.205	53251.82
673.554	53285.94
673.904	53190.58
674.253	53396.68
674.602	53167.53
674.951	52762.34
675.3	52527.09
675.649	53089.11
675.998	52933.41
676.346	53049.79
676.695	53185.61
677.044	52954.65
677.393	52978.16
677.741	52994.2
678.09	52918.95
678.438	52790.59
678.787	52913.52
679.135	52827.88
679.484	52668.78
679.832	52769.57
680.181	52609.58
680.529	52669.69
680.877	52595.34
681.225	52571.39
681.573	52645.51
681.922	52404.84
682.27	52389.7
682.618	52444.61
682.966	52263.15
683.314	52314.9
683.661	52213.2
684.009	52088.46
684.357	51953.78
684.705	51944.96
685.053	51907.22
685.4	51995.36
685.748	51717.62
686.095	51688.25
686.443	51673.56
686.79	51537.97
687.138	51612.54
687.485	51624.74
687.832	51444.64
688.18	51429.27
688.527	51270.4
688.874	51247.81
689.221	51189.95
689.568	51076.96
689.915	50986.79
690.262	50850.98
690.609	50871.32
690.956	50742.51
691.303	50758.1
691.65	50500.71
691.997	50544.77
692.344	50329.41
692.69	50300.71
693.037	50240.6
693.383	49999.25
693.73	50140.49
694.077	49984.34
694.423	49918.12
694.769	49745.47
695.116	49648.07
695.462	49624.34
695.808	49386.16
696.155	49456.89
696.501	49239.72
696.847	49256.9
697.193	48989.56
697.539	49173.74
697.885	48858.49
698.231	48614.88
698.577	48580.76
698.923	48583.02
699.269	48492.4
699.614	48329.46
699.96	48139.19
700.306	48298.28
700.651	48062.58
700.997	47944.84
701.342	47857.61
701.688	47706.43
702.033	47740.55
702.379	47637.28
702.724	47512.54
703.069	47545.53
703.415	47115.71
703.76	47140.57
704.105	47147.35
704.45	46991.87
704.795	46684.08
705.14	46716.17
705.485	46704.2
705.83	46542.62
706.175	46452.68
706.52	46440.7
706.865	46281.83
707.209	46087.49
707.554	46106.02
707.899	46219.24
708.243	45792.58
708.588	45783.32
708.932	45514.4
709.277	45478.24
709.621	45508.07
709.966	45309.43
710.31	45421.29
710.654	44908.99
710.998	44956.22
711.342	45001.87
711.687	44892.04
712.031	44625.38
712.375	44572.5
712.719	44644.81
713.063	44516.23
713.407	44673.74
713.75	44387.19
714.094	44245.73
714.438	44171.15
714.782	44265.16
715.125	43981.56
715.469	44206.63
715.812	43848.23
716.156	43556.03
716.499	43690.94
716.843	43699.98
717.186	43397.39
717.53	43567.56
717.873	43601.23
718.216	43480.33
718.559	43160.79
718.902	43067.91
719.246	43046.89
719.589	42921.92
719.932	42839.21
720.275	42826.11
720.617	42828.59
720.96	42658.88
721.303	42615.04
721.646	42655.49
721.989	42386.8
722.331	42549.05
722.674	42362.61
723.016	42345.44
723.359	42131.66
723.701	42297.53
724.044	42117.88
724.386	41804.21
724.729	41985
725.071	41848.5
725.413	41894.38
725.755	41684.21
726.097	41621.62
726.439	41429.08
726.782	41433.15
727.124	41441.51
727.465	41312.47
727.807	41306.37
728.149	41167.62
728.491	41096.89
728.833	41081.07
729.175	40865.93
729.516	40753.84
729.858	40925.59
730.199	40980.28
730.541	40788.87
730.882	40723.79
731.224	40797.68
731.565	40529.44
731.906	40585.03
732.248	40535.77
732.589	40276.12
732.93	40180.53
733.271	40169.23
733.612	40289.22
733.953	40293.06
734.294	39941.44
734.635	39991.15
734.976	39957.93
735.317	39922.91
735.658	39778.95
735.999	39693.53
736.339	39617.83
736.68	39576.7
737.021	39480.66
737.361	39382.58
737.702	39687.21
738.042	39410.38
738.383	39362.47
738.723	39212.64
739.063	39143.94
739.404	39193.21
739.744	39087.22
740.084	38960.67
740.424	39099.65
740.764	38965.42
741.104	38940.11
741.444	38619.66
741.784	38658.08
742.124	38674.12
742.464	38600.45
742.804	38506.22
743.143	38408.37
743.483	38462.38
743.823	38076.4
744.162	38167.47
744.502	38157.3
744.841	38044.54
745.181	38210.41
745.52	38082.95
745.86	38080.69
746.199	37827.37
746.538	37796.86
746.877	37902.17
747.216	37723.64
747.556	37601.61
747.895	37781.72
748.234	37636.86
748.573	37365.68
748.911	37563.42
749.25	37393.03
749.589	37256.76
749.928	37212.92
750.267	37136.31
750.605	37111
750.944	37046.14
751.283	36837.11
751.621	36924.79
751.96	36703.33
752.298	36673.27
