Data from White_reflection_standard_FLMS001491_064.txt Node
Date: Tue Feb 07 10:32:08 GMT 2017
User: dcchb
Spectrometer: FLMS00149
Trigger mode: 0
Integration Time (sec): 2.000000E-2
Scans to average: 10
Electric dark correction enabled: true
Nonlinearity correction enabled: false
Boxcar width: 0
XAxis mode: Wavelengths
Number of Pixels in Spectrum: 2048
>>>>>Begin Spectral Data<<<<<
341.393	-8.93
341.776	-8.93
342.16	-8.93
342.543	-45.54
342.927	-71.3
343.31	-48.25
343.693	-72.43
344.077	-69.94
344.46	-73.11
344.843	-51.64
345.226	-41.24
345.61	-25.88
345.993	-15.25
346.376	-6.89
346.759	-3.05
347.142	36.04
347.525	42.15
347.908	72.88
348.291	68.81
348.674	88.02
349.057	99.77
349.44	123.73
349.823	129.38
350.206	182.26
350.588	224.29
350.971	251.41
351.354	291.63
351.737	288.92
352.119	293.21
352.502	288.92
352.884	316.04
353.267	345.87
353.65	328.01
354.032	332.99
354.414	353.32
354.797	367.11
355.179	376.83
355.562	374.57
355.944	377.73
356.326	391.52
356.709	384.96
357.091	389.93
357.473	398.07
357.855	387.67
358.238	407.56
358.62	399.88
359.002	411.18
359.384	396.03
359.766	419.99
360.148	416.83
360.53	393.1
360.912	392.87
361.294	403.72
361.676	396.26
362.057	397.16
362.439	386.32
362.821	390.39
363.203	391.29
363.584	414.57
363.966	409.14
364.348	400.78
364.729	400.33
365.111	393.77
365.493	406.88
365.874	394.9
366.256	407.79
366.637	411.4
367.019	426.77
367.4	423.15
367.781	404.85
368.163	420.67
368.544	412.98
368.925	433.77
369.306	434
369.688	435.81
370.069	401.46
370.45	417.5
370.831	440.1
371.212	424.51
371.593	447.11
371.974	431.06
372.355	435.58
372.736	450.27
373.117	450.5
373.498	428.58
373.879	428.35
374.26	427.67
374.641	430.38
375.021	440.78
375.402	459.54
375.783	464.28
376.163	487.11
376.544	496.6
376.925	495.69
377.305	493.21
377.686	480.33
378.066	487.56
378.447	486.65
378.827	498.4
379.208	507.44
379.588	525.3
379.968	528.69
380.349	520.33
380.729	516.48
381.109	539.76
381.489	531.17
381.87	549.03
382.25	561.68
382.63	550.83
383.01	560.55
383.39	552.19
383.77	552.19
384.15	560.1
384.53	591.06
384.91	568.23
385.29	586.09
385.67	618.18
386.049	608.46
386.429	604.39
386.809	626.76
387.189	631.51
387.568	629.25
387.948	616.82
388.328	628.35
388.707	668.8
389.087	670.15
389.466	646.65
389.846	678.51
390.225	691.62
390.605	693.2
390.984	700.43
391.363	712.18
391.743	705.18
392.122	749.02
392.501	728.23
392.881	735.46
393.26	787.66
393.639	775.01
394.018	781.11
394.397	775.23
394.776	762.35
395.155	758.96
395.534	807.78
395.913	781.11
396.292	803.26
396.671	845.74
397.05	827.44
397.429	847.1
397.808	822.46
398.186	848.68
398.565	864.5
398.944	850.26
399.323	892.07
399.701	885.29
400.08	894.78
400.458	904.72
400.837	925.96
401.215	898.17
401.594	911.5
401.972	945.4
402.351	951.05
402.729	955.79
403.107	975
403.486	977.71
403.864	989.47
404.242	1000.54
404.62	996.24
404.999	1008
405.377	1024.94
405.755	1039.63
406.133	1070.59
406.511	1090.71
406.889	1104.04
407.267	1128.44
407.645	1136.81
408.023	1126.86
408.401	1123.02
408.779	1172.96
409.156	1190.59
409.534	1189.91
409.912	1200.99
410.29	1247.09
410.667	1243.92
411.045	1279.18
411.422	1289.34
411.8	1295.45
412.178	1340.87
412.555	1347.65
412.933	1337.03
413.31	1364.6
413.687	1405.73
414.065	1424.71
414.442	1403.69
414.819	1416.35
415.197	1455.22
415.574	1486.63
415.951	1488.44
416.328	1509
416.705	1536.34
417.082	1498.83
417.46	1539.96
417.837	1554.87
418.214	1572.05
418.591	1586.06
418.967	1624.25
419.344	1615.44
419.721	1668.54
420.098	1631.71
420.475	1698.37
420.852	1709.9
421.228	1720.75
421.605	1712.38
421.982	1762.55
422.358	1774.53
422.735	1774.3
423.111	1775.21
423.488	1838.03
423.864	1843.91
424.241	1880.52
424.617	1890.68
424.994	1932.72
425.37	1947.63
425.746	1952.83
426.123	1955.77
426.499	1971.13
426.875	2031.7
427.251	2078.02
427.627	2086.84
428.003	2110.57
428.379	2190.56
428.756	2180.62
429.132	2186.5
429.507	2243.67
429.883	2253.16
430.259	2307.62
430.635	2344.01
431.011	2355.31
431.387	2421.74
431.763	2479.82
432.138	2460.16
432.514	2506.71
432.89	2524.57
433.265	2590.1
433.641	2600.04
434.016	2597.33
434.392	2627.84
434.767	2725.92
435.143	2724.34
435.518	2743.77
435.894	2776.99
436.269	2836.87
436.644	2914.39
437.02	2869.42
437.395	2913.93
437.77	2980.15
438.145	3010.88
438.52	3011.56
438.895	3071.22
439.271	3087.04
439.646	3150.09
440.021	3164.1
440.395	3161.16
440.77	3209.07
441.145	3229.41
441.52	3271.21
441.895	3252.23
442.27	3334.71
442.645	3328.16
443.019	3351.66
443.394	3386.69
443.769	3414.49
444.143	3407.93
444.518	3457.2
444.892	3450.19
445.267	3502.17
445.641	3518.89
446.016	3575.39
446.39	3562.96
446.764	3586.46
447.139	3609.74
447.513	3637.31
447.887	3661.71
448.262	3690.19
448.636	3729.28
449.01	3786
449.384	3829.39
449.758	3851.99
450.132	3903.06
450.506	3979.22
450.88	3967.92
451.254	3967.47
451.628	4030.29
452.002	4090.4
452.376	4079.78
452.75	4128.37
453.123	4194.8
453.497	4257.85
453.871	4268.7
454.244	4367.91
454.618	4414.23
454.992	4452.65
455.365	4510.73
455.739	4580.56
456.112	4607.22
456.486	4676.6
456.859	4679.09
457.232	4808.12
457.606	4814.9
457.979	4858.52
458.352	4987.1
458.725	5051.05
459.099	5060.54
459.472	5122.01
459.845	5213.99
460.218	5273.65
460.591	5365.62
460.964	5342.8
461.337	5473.87
461.71	5560.64
462.083	5687.87
462.456	5656.01
462.829	5709.79
463.201	5809.23
463.574	5825.95
463.947	5841.32
464.32	6055.1
464.692	6135.54
465.065	6130.57
465.438	6218.48
465.81	6318.14
466.183	6399.49
466.555	6503.9
466.928	6571.92
467.3	6634.06
467.672	6708.86
468.045	6843.1
468.417	6889.65
468.789	6930.55
469.161	7077.89
469.534	7164.67
469.906	7339.36
470.278	7364.67
470.65	7501.84
471.022	7650.99
471.394	7802.17
471.766	7811.88
472.138	7905.89
472.51	8111.54
472.882	8266.56
473.253	8298.65
473.625	8443.96
473.997	8624.07
474.369	8682.37
474.74	8826.77
475.112	8945.19
475.484	9092.3
475.855	9199.19
476.227	9297.04
476.598	9636.7
476.97	9659.75
477.341	9859.06
477.713	10079.17
478.084	10179.96
478.455	10394.19
478.827	10513.73
479.198	10842.09
479.569	10799.38
479.94	11212.93
480.311	11226.48
480.682	11514.61
481.053	11739.47
481.424	11974.94
481.795	11996.41
482.166	12249.28
482.537	12407.92
482.908	12688.14
483.279	12835.71
483.65	13077.74
484.021	13331.29
484.391	13432.75
484.762	13590.49
485.133	13672.07
485.503	13845.85
485.874	14203.13
486.244	14340.98
486.615	14511.37
486.985	14804.47
487.356	15086.27
487.726	15157
488.097	15537.33
488.467	15665.92
488.837	15978.22
489.207	16060.26
489.578	16298.44
489.948	16433.13
490.318	16655.49
490.688	16853.46
491.058	17005.99
491.428	17208.93
491.798	17421.12
492.168	17768.23
492.538	17854.56
492.908	18049.13
493.278	18294.32
493.648	18342.23
494.017	18591.04
494.387	18670.81
494.757	18866.28
495.126	19121.19
495.496	19182.43
495.866	19351.69
496.235	19583.1
496.605	19784.68
496.974	19855.86
497.344	20084.56
497.713	20139.02
498.082	20318.9
498.452	20599.8
498.821	20665.78
499.19	20778.1
499.559	20928.15
499.928	21070.29
500.298	21227.35
500.667	21449.27
501.036	21458.31
501.405	21746.89
501.774	21758.18
502.143	21921.34
502.512	22118.4
502.88	22384.84
503.249	22446.53
503.618	22520.2
503.987	22647.65
504.356	22826.63
504.724	23035.21
505.093	23134.19
505.462	23127.41
505.83	23318.82
506.199	23512.04
506.567	23924
506.936	23837
507.304	24195.18
507.672	24229.76
508.041	24448.74
508.409	24658.9
508.777	24806.24
509.145	24892.34
509.514	25017.53
509.882	25303.63
510.25	25410.29
510.618	25537.52
510.986	25640.79
511.354	25964.18
511.722	26208.69
512.09	26447.1
512.458	26405.75
512.826	26747.66
513.193	26791.5
513.561	26960.99
513.929	27099.74
514.297	27493.63
514.664	27643
515.032	27839.16
515.4	28029.43
515.767	28090.45
516.135	28296.09
516.502	28226.26
516.869	28675.74
517.237	28878.22
517.604	28661.73
517.972	29131.78
518.339	29450.19
518.706	29509.62
519.073	29663.51
519.44	29939.89
519.808	30268.7
520.175	30185.53
520.542	30683.15
520.909	30921.56
521.276	30962.01
521.643	31288.1
522.009	31527.42
522.376	31743.69
522.743	31869.56
523.11	32196.78
523.477	32444.68
523.843	32721.96
524.21	33028.4
524.577	33273.14
524.943	33469.97
525.31	33555.39
525.676	34091.19
526.043	34177.75
526.409	34231.3
526.776	34762.14
527.142	34789.93
527.508	35000.1
527.874	35440.76
528.241	35422.91
528.607	35641.89
528.973	35884.59
529.339	35998.26
529.705	36353.28
530.071	36539.94
530.437	36732.03
530.803	37015.86
531.169	37294.5
531.535	37259.7
531.901	37358.68
532.267	37654.26
532.632	37861.72
532.998	37992.79
533.364	38153.69
533.73	38331.76
534.095	38546.44
534.461	38829.6
534.826	38804.29
535.192	38990.5
535.557	39358.17
535.923	39401.34
536.288	39578.51
536.653	39721.1
537.019	39628.9
537.384	39900.53
537.749	40053.75
538.114	40180.75
538.479	40390.69
538.845	40538.26
539.21	40532.61
539.575	40736.89
539.94	40878.36
540.305	41025.02
540.67	41136.66
541.034	41354.51
541.399	41523.09
541.764	41580.04
542.129	41881.05
542.494	41753.37
542.858	42038.56
543.223	42076.97
543.587	42327.36
543.952	42413.01
544.316	42419.34
544.681	42403.97
545.045	42764.41
545.41	42831.76
545.774	43034.91
546.138	43071.52
546.503	43255.7
546.867	43249.6
547.231	43686.42
547.595	43697.95
547.959	43828.79
548.324	43978.84
548.688	43989.69
549.052	44323.24
549.416	44362.34
549.779	44482.56
550.143	44627.64
550.507	44862.44
550.871	44985.82
551.235	44894.98
551.599	45275.76
551.962	45387.62
552.326	45515.07
552.689	45646.14
553.053	45497.45
553.417	45755.97
553.78	46340.59
554.143	46143.76
554.507	46339.69
554.87	46593.69
555.234	46855.6
555.597	46529.29
555.96	46902.16
556.323	47065.54
556.686	47209.95
557.05	47481.35
557.413	47514.57
557.776	47666.88
558.139	47977.38
558.502	48193.87
558.865	48077.72
559.228	48454.66
559.59	48450.14
559.953	48554.32
560.316	48991.82
560.679	49078.37
561.041	49223.68
561.404	49333.05
561.767	49584.12
562.129	49584.35
562.492	49921.29
562.854	49833.38
563.217	49853.27
563.579	50162.18
563.941	50366.92
564.304	50543.19
564.666	50842.17
565.028	50771.43
565.39	50897.53
565.753	51168.03
566.115	51250.52
566.477	51397.63
566.839	51428.82
567.201	51661.13
567.563	51672.43
567.925	51883.27
568.287	51907.22
568.648	51972.98
569.01	52228.34
569.372	52463.82
569.734	52337.27
570.095	52662.23
570.457	52823.36
570.819	52757.82
571.18	52815
571.542	53026.97
571.903	53034.42
572.265	53101.32
572.626	53246.4
572.987	53294.53
573.349	53407.97
573.71	53496.11
574.071	53548.54
574.432	53722.77
574.794	53872.59
575.155	53883.22
575.516	53751.92
575.877	53907.62
576.238	53986.26
576.599	54132.47
576.96	54166.15
577.32	54059.93
577.681	54232.36
578.042	54296.99
578.403	54339.7
578.763	54287.27
579.124	54406.82
579.485	54567.49
579.845	54573.14
580.206	54590.99
580.566	54523.2
580.927	54537.66
581.287	54704.89
581.648	54549.87
582.008	54750.31
582.368	54646.13
582.728	54697.88
583.089	54652.91
583.449	54636.19
583.809	54718.9
584.169	54874.15
584.529	54852
584.889	54961.38
585.249	54788.73
585.609	54715.96
585.969	54810.2
586.329	54742.63
586.688	54806.58
587.048	54786.92
587.408	54758
587.768	54757.32
588.127	54815.17
588.487	54718.22
588.846	54938.56
589.206	54741.72
589.565	54743.98
589.925	54855.39
590.284	54833.47
590.643	54872.12
591.003	54964.32
591.362	54974.49
591.721	54873.47
592.08	54868.05
592.44	55019.46
592.799	55028.95
593.158	54950.53
593.517	54977.2
593.876	55094.94
594.235	54938.78
594.593	55017.2
594.952	55034.37
595.311	54948.72
595.67	55049.51
596.029	55202.05
596.387	55186.91
596.746	55178.32
597.104	55099.46
597.463	55079.34
597.822	55281.82
598.18	55040.02
598.538	54983.3
598.897	55227.14
599.255	55006.12
599.613	55412.89
599.972	55258.32
600.33	55360.69
600.688	55249.73
601.046	55396.85
601.404	55409.05
601.762	55409.28
602.12	55580.12
602.478	55567.24
602.836	55509.16
603.194	55388.49
603.552	55468.26
603.91	55354.14
604.268	55593.68
604.625	55453.12
604.983	55619.89
605.341	55412.89
605.698	55596.84
606.056	55622.38
606.413	55631.87
606.771	55703.96
607.128	55779.44
607.485	55640.01
607.843	55656.5
608.2	55775.14
608.557	55855.82
608.914	55811.3
609.272	55922.71
609.629	56006.78
609.986	56020.56
610.343	55892.43
610.7	56081.35
611.057	55938.98
611.414	55986.89
611.771	56062.82
612.127	56188.47
612.484	56074.8
612.841	56179.88
613.198	56098.52
613.554	56075.93
613.911	56291.74
614.267	56293.55
614.624	56233.66
614.98	56268.69
615.337	56424.39
615.693	56323.15
616.05	56322.93
616.406	56432.75
616.762	56359.08
617.118	56312.98
617.475	56338.97
617.831	56451.06
618.187	56520.66
618.543	56474.56
618.899	56573.31
619.255	56614.22
619.611	56565.86
619.967	56648.12
620.323	56649.24
620.678	56530.6
621.034	56489.93
621.39	56472.98
621.746	56463.94
622.101	56799.3
622.457	56532.41
622.812	56574.44
623.168	56683.59
623.523	56611.96
623.879	56757.49
624.234	56533.54
624.589	56590.49
624.945	56648.12
625.3	56629.81
625.655	56622.58
626.01	56707.55
626.365	56687.44
626.72	56580.09
627.075	56616.48
627.43	56565.41
627.785	56548
628.14	56569.7
628.495	56649.02
628.85	56505.75
629.205	56475.46
629.559	56601.79
629.914	56468.46
630.269	56496.03
630.623	56424.17
630.978	56338.52
631.332	56426.65
631.687	56464.62
632.041	56339.87
632.396	56358.63
632.75	56312.76
633.104	56309.59
633.459	56138.3
633.813	56204.06
634.167	56175.13
634.521	56103.5
634.875	56199.99
635.229	56075.93
635.583	56031.18
635.937	56001.13
636.291	55968.36
636.645	55952.31
636.999	55922.03
637.352	55917.96
637.706	55831.64
638.06	55959.55
638.413	55852.2
638.767	55722.72
639.121	55784.63
639.474	55688.82
639.828	55698.99
640.181	55657.63
640.534	55752.32
640.888	55520.01
641.241	55464.19
641.594	55505.32
641.947	55511.2
642.301	55445.43
642.654	55356.85
643.007	55365.66
643.36	55297.19
643.713	55297.64
644.066	55411.99
644.419	55138.32
644.771	55065.78
645.124	54744.66
645.477	54636.42
645.83	54481.84
646.182	54397.1
646.535	54362.07
646.888	54320.94
647.24	54221.74
647.593	54238.01
647.945	54312.36
648.298	54086.15
648.65	54052.03
649.002	53972.48
649.355	54134.06
649.707	54021.97
650.059	54150.33
650.411	54507.38
650.763	54539.7
651.115	54783.31
651.467	54697.88
651.819	54586.02
652.171	54592.35
652.523	54489.53
652.875	54541.73
653.227	54410.21
653.578	54589.41
653.93	54346.25
654.282	54336.76
654.633	54245.92
654.985	54307.39
655.337	54383.09
655.688	54112.59
656.039	54341.73
656.391	54077.56
656.742	54145.13
657.094	54129.76
657.445	54283.21
657.796	54268.74
658.147	54070.1
658.498	54062.65
658.849	54136.77
659.2	54134.96
659.551	54009.77
659.902	54114.62
660.253	53973.84
660.604	54066.94
660.955	53799.38
661.306	53944.01
661.656	53939.26
662.007	53894.52
662.358	53928.64
662.708	53808.87
663.059	53699.72
663.409	53657.46
663.76	53840.05
664.11	53728.42
664.461	53841.41
664.811	53807.96
665.161	53751.02
665.511	53675.76
665.862	53702.2
666.212	53772.26
666.562	53790.79
666.912	53670.34
667.262	53702.66
667.612	53589.66
667.962	53574.52
668.312	53572.26
668.662	53746.72
669.011	53636.22
669.361	53621.98
669.711	53525.26
670.06	53533.17
670.41	53414.53
670.76	53332.04
671.109	53492.04
671.459	53418.37
671.808	53330.01
672.157	53325.26
672.507	53170.24
672.856	53205.04
673.205	53260.41
673.554	53284.14
673.904	53136.34
674.253	53398.71
674.602	53184.03
674.951	52804.15
675.3	52550.14
675.649	53186.96
675.998	53093.63
676.346	52971.6
676.695	53111.71
677.044	52902.68
677.393	53027.87
677.741	53045.95
678.09	52806.41
678.438	52781.78
678.787	52912.17
679.135	52890.25
679.484	52715.34
679.832	52824.94
680.181	52563.7
680.529	52699.97
680.877	52603.7
681.225	52495.46
681.573	52662.23
681.922	52453.88
682.27	52370.04
682.618	52356.25
682.966	52389.47
683.314	52304.95
683.661	52202.81
684.009	52016.6
684.357	52042.36
684.705	51932.08
685.053	51942.48
685.4	51883.27
685.748	51793.1
686.095	51722.82
686.443	51592.88
686.79	51548.81
687.138	51604.18
687.485	51582.03
687.832	51455.71
688.18	51493.9
688.527	51321.93
688.874	51206
689.221	51199.9
689.568	51017.75
689.915	51024.99
690.262	50987.7
690.609	50850.53
690.956	50768.95
691.303	50699.12
691.65	50635.62
691.997	50507.26
692.344	50308.85
692.69	50319.69
693.037	50205.8
693.383	49964.22
693.73	50155.18
694.077	49940.27
694.423	49897.78
694.769	49745.92
695.116	49650.33
695.462	49550.45
695.808	49461.86
696.155	49529.88
696.501	49337.35
696.847	49139.84
697.193	48968.77
697.539	49139.39
697.885	48856
698.231	48721.09
698.577	48731.71
698.923	48647.2
699.269	48526.07
699.614	48301.22
699.96	48243.59
700.306	48272.74
700.651	48059.41
700.997	47940.77
701.342	47749.82
701.688	47702.59
702.033	47671.63
702.379	47683.15
702.724	47544.85
703.069	47596.83
703.415	46978.54
703.76	47106.9
704.105	47082.94
704.45	46977.63
704.795	46678.89
705.14	46552.11
705.485	46595.5
705.83	46444.09
706.175	46530.87
706.52	46242.51
706.865	46127.94
707.209	46072.35
707.554	45939.24
707.899	46234.6
708.243	45727.72
708.588	45825.35
708.932	45580.84
709.277	45476.66
709.621	45558.46
709.966	45259.26
710.31	45353.5
710.654	44942.43
710.998	45044.35
711.342	45005.03
711.687	44839.61
712.031	44815.21
712.375	44569.79
712.719	44739.05
713.063	44612.5
713.407	44583.57
713.75	44401.21
714.094	44389.45
714.438	44110.37
714.782	44205.73
715.125	43882.8
715.469	44173.87
715.812	43878.51
716.156	43581.79
716.499	43643.94
716.843	43686.87
717.186	43576.14
717.53	43531.4
717.873	43662.92
718.216	43382.48
718.559	43262.48
718.902	43004.63
719.246	43057.74
719.589	43009.6
719.932	42728.48
720.275	42728.71
720.617	42812.32
720.96	42680.35
721.303	42684.41
721.646	42659.1
721.989	42396.29
722.331	42551.99
722.674	42438.32
723.016	42335.05
723.359	42340.69
723.701	42211.88
724.044	41985.68
724.386	41746.36
724.729	41920.59
725.071	41747.72
725.413	41838.11
725.755	41828.39
726.097	41598.12
726.439	41405.8
726.782	41483.99
727.124	41509.76
727.465	41214.85
727.807	41249.65
728.149	41105.7
728.491	41200.16
728.833	41207.17
729.175	41073.84
729.516	40925.36
729.858	40846.95
730.199	40832.26
730.541	40730.57
730.882	40671.81
731.224	40755.2
731.565	40508.88
731.906	40496.22
732.248	40417.81
732.589	40267.3
732.93	40196.12
733.271	40202.9
733.612	40148.21
733.953	40257.36
734.294	39927.65
734.635	39814.89
734.976	39986.18
735.317	39780.54
735.658	39726.53
735.999	39764.27
736.339	39604.95
736.68	39684.72
737.021	39427.32
737.361	39415.12
737.702	39484.95
738.042	39418.29
738.383	39244.05
738.723	39240.44
739.063	38979.2
739.404	39124.28
739.744	39051.52
740.084	38861.24
740.424	39035.47
740.764	38876.15
741.104	39025.75
741.444	38945.3
741.784	38643.16
742.124	38679.55
742.464	38652.66
742.804	38562.04
743.143	38390.74
743.483	38514.35
743.823	38228.94
744.162	38151.2
744.502	38244.31
744.841	38194.36
745.181	38209.28
745.52	38012.67
745.86	38189.17
746.199	37863.07
746.538	37749.4
746.877	38024.88
747.216	37876.18
747.556	37798.89
747.895	37690.65
748.234	37570.2
748.573	37409.75
748.911	37514.83
749.25	37349.87
749.589	37283.65
749.928	37109.42
750.267	37284.33
750.605	37123.2
750.944	37013.83
751.283	36802.31
751.621	36950.55
751.96	36648.87
752.298	36774.51
752.636	36681.86
752.975	36458.14
