Data from white_wall_FLMS001491_015.txt Node
Date: Tue Feb 07 11:03:42 GMT 2017
User: dcchb
Spectrometer: FLMS00149
Trigger mode: 0
Integration Time (sec): 2.000000E-2
Scans to average: 10
Electric dark correction enabled: true
Nonlinearity correction enabled: false
Boxcar width: 0
XAxis mode: Wavelengths
Number of Pixels in Spectrum: 2048
>>>>>Begin Spectral Data<<<<<
341.393	-5.49
341.776	-5.49
342.16	-5.49
342.543	-55.89
342.927	-67.41
343.31	-56.11
343.693	-87.07
344.077	-60.86
344.46	-54.98
344.843	-34.42
345.226	-44.14
345.61	-31.26
345.993	-38.94
346.376	-12.27
346.759	9.87
347.142	30.66
347.525	40.15
347.908	61.62
348.291	68.85
348.674	85.58
349.057	123.32
349.44	118.12
349.823	127.38
350.206	168.06
350.588	207.83
350.971	233.6
351.354	270.88
351.737	251.45
352.119	265.46
352.502	284.22
352.884	308.62
353.267	316.31
353.65	314.27
354.032	304.55
354.414	332.35
354.797	356.53
355.179	345.46
355.562	323.31
355.944	369.86
356.326	367.38
356.709	342.07
357.091	365.12
357.473	354.27
357.855	369.86
358.238	380.03
358.62	359.02
359.002	393.59
359.384	371.67
359.766	384.55
360.148	361.5
360.53	347.04
360.912	369.64
361.294	385.46
361.676	360.15
362.057	388.17
362.439	355.85
362.821	354.72
363.203	365.57
363.584	358.34
363.966	369.86
364.348	367.38
364.729	361.5
365.111	347.94
365.493	370.54
365.874	349.07
366.256	346.59
366.637	351.78
367.019	343.88
367.4	342.07
367.781	337.55
368.163	352.91
368.544	346.36
368.925	372.35
369.306	363.99
369.688	343.65
370.069	381.16
370.45	344.55
370.831	348.85
371.212	367.15
371.593	353.14
371.974	354.27
372.355	336.64
372.736	354.5
373.117	362.18
373.498	372.8
373.879	345.01
374.26	336.64
374.641	350.43
375.021	352.91
375.402	358.79
375.783	364.89
376.163	389.07
376.544	394.27
376.925	366.02
377.305	368.96
377.686	356.08
378.066	379.35
378.447	389.07
378.827	379.81
379.208	383.65
379.588	374.83
379.968	389.75
380.349	375.74
380.729	382.74
381.109	397.89
381.489	388.62
381.87	396.98
382.25	385.23
382.63	396.76
383.01	411.22
383.39	406.7
383.77	400.6
384.15	413.7
384.53	380.71
384.91	407.6
385.29	412.12
385.67	445.12
386.049	435.17
386.429	436.53
386.809	455.06
387.189	424.78
387.568	430.65
387.948	438.34
388.328	447.6
388.707	452.35
389.087	448.73
389.466	467.49
389.846	464.1
390.225	462.29
390.605	458
390.984	470.65
391.363	479.01
391.743	498
392.122	490.31
392.501	499.35
392.881	515.17
393.26	513.36
393.639	505.68
394.018	540.93
394.397	538.45
394.776	551.55
395.155	564.21
395.534	571.89
395.913	578.67
396.292	587.71
396.671	599.69
397.05	644.66
397.429	614.38
397.808	599.91
398.186	595.85
398.565	629.29
398.944	627.94
399.323	643.53
399.701	632.46
400.08	664.32
400.458	667.93
400.837	685.79
401.215	686.69
401.594	713.81
401.972	691.66
402.351	740.93
402.729	734.83
403.107	742.51
403.486	760.59
403.864	769.85
404.242	792
404.62	811.89
404.999	836.52
405.377	833.13
405.755	847.14
406.133	877.19
406.511	878.78
406.889	927.14
407.267	929.4
407.645	940.47
408.023	966.01
408.401	965.78
408.779	971.43
409.156	983.18
409.534	1026.34
409.912	1026.8
410.29	1056.85
410.667	1055.95
411.045	1094.59
411.422	1117.64
411.8	1134.36
412.178	1152.44
412.555	1161.03
412.933	1175.04
413.31	1195.38
413.687	1229.5
414.065	1206
414.442	1277.86
414.819	1265.66
415.197	1295.04
415.574	1319.22
415.951	1308.82
416.328	1351.98
416.705	1340.91
417.082	1330.97
417.46	1394.02
417.837	1395.82
418.214	1387.46
418.591	1427.01
418.967	1430.4
419.344	1465.43
419.721	1482.38
420.098	1450.74
420.475	1502.49
420.852	1511.08
421.228	1517.4
421.605	1558.08
421.982	1551.53
422.358	1576.39
422.735	1615.25
423.111	1623.16
423.488	1648.02
423.864	1646.89
424.241	1662.26
424.617	1685.08
424.994	1699.55
425.37	1708.59
425.746	1728.92
426.123	1741.35
426.499	1756.95
426.875	1820.67
427.251	1840.78
427.627	1881.01
428.003	1903.16
428.379	1914.23
428.756	1933.66
429.132	1942.03
429.507	2026.54
429.883	1991.97
430.259	2045.98
430.635	2102.47
431.011	2095.24
431.387	2158.97
431.763	2192.87
432.138	2189.02
432.514	2209.59
432.89	2226.09
433.265	2288.68
433.641	2319.87
434.016	2355.35
434.392	2362.35
434.767	2401
435.143	2380.66
435.518	2447.1
435.894	2473.54
436.269	2516.47
436.644	2537.26
437.02	2588.34
437.395	2582.69
437.77	2624.04
438.145	2653.19
438.52	2675.79
438.895	2726.41
439.271	2725.73
439.646	2810.02
440.021	2811.38
440.395	2810.25
440.77	2815.9
441.145	2852.28
441.52	2923.24
441.895	2896.35
442.27	2961.89
442.645	2948.78
443.019	2996.91
443.394	2998.04
443.769	3038.49
444.143	3049.34
444.518	3107.19
444.892	3044.82
445.267	3114.65
445.641	3098.6
446.016	3222.67
446.39	3221.99
446.764	3231.26
447.139	3221.99
447.513	3262.67
447.887	3310.35
448.262	3311.25
448.636	3307.64
449.01	3387.18
449.384	3352.61
449.758	3406.17
450.132	3512.38
450.506	3501.76
450.88	3537.92
451.254	3564.58
451.628	3595.09
452.002	3634.64
452.376	3704.01
452.75	3704.69
453.123	3748.76
453.497	3803.22
453.871	3809.77
454.244	3914.85
454.618	3922.09
454.992	4004.8
455.365	3983.55
455.739	4096.77
456.112	4132.02
456.486	4202.76
456.859	4203.21
457.232	4309.19
457.606	4360.04
457.979	4378.35
458.352	4466.93
458.725	4510.77
459.099	4562.97
459.472	4651.56
459.845	4736.98
460.218	4767.94
460.591	4793.02
460.964	4833.25
461.337	4933.13
461.71	4962.96
462.083	5048.84
462.456	5118.89
462.829	5117.31
463.201	5249.96
463.574	5234.82
463.947	5327.25
464.32	5437.53
464.692	5469.84
465.065	5548.71
465.438	5626.22
465.81	5666
466.183	5744.86
466.555	5866.67
466.928	5910.28
467.3	5942.82
467.672	6077.06
468.045	6198.64
468.417	6215.36
468.789	6298.29
469.161	6332.64
469.534	6481.11
469.906	6602.47
470.278	6692.86
470.65	6774.67
471.022	6890.14
471.394	7008.33
471.766	7073.19
472.138	7170.81
472.51	7345.05
472.882	7430.92
473.253	7494.2
473.625	7614.64
473.997	7811.02
474.369	7873.39
474.74	7990.45
475.112	8189.54
475.484	8335.3
475.855	8410.56
476.227	8520.16
476.598	8770.09
476.97	8832.69
477.341	9047.38
477.713	9243.3
478.084	9250.53
478.455	9509.96
478.827	9553.58
479.198	9924.19
479.569	9876.96
479.94	10210.28
480.311	10260.68
480.682	10485.76
481.053	10730.49
481.424	10938.85
481.795	10996.7
482.166	11228.79
482.537	11337.26
482.908	11560.76
483.279	11756.46
483.65	12006.62
484.021	12165.49
484.391	12352.6
484.762	12397.12
485.133	12571.58
485.503	12785.58
485.874	13178.11
486.244	13251.11
486.615	13571.1
486.985	13664.2
487.356	13832.33
487.726	14064.42
488.097	14370.85
488.467	14387.35
488.837	14696.72
489.207	14920.89
489.578	14981.23
489.948	15221.22
490.318	15456.25
490.688	15503.25
491.058	15689.23
491.428	16027.98
491.798	16235.21
492.168	16506.39
492.538	16563.34
492.908	16778.02
493.278	17085.13
493.648	17147.28
494.017	17276.99
494.387	17521.73
494.757	17685.11
495.126	17919.01
495.496	17889.85
495.866	18188.38
496.235	18259.34
496.605	18523.06
496.974	18616.16
497.344	18872.43
497.713	18937.06
498.082	19032.65
498.452	19311.96
498.821	19349.7
499.19	19492.3
499.559	19793.53
499.928	19878.73
500.298	19996.47
500.667	20268.77
501.036	20173.18
501.405	20349.68
501.774	20510.8
502.143	20660.4
502.512	20788.76
502.88	20965.03
503.249	21072.82
503.618	21310.1
503.987	21374.73
504.356	21529.53
504.724	21750.09
505.093	21737.21
505.462	21880.03
505.83	22164.09
506.199	22289.96
506.567	22638.43
506.936	22727.69
507.304	22809.5
507.672	22979.66
508.041	23116.61
508.409	23354.8
508.777	23436.6
509.145	23766.99
509.514	23749.36
509.882	23962.69
510.25	24016.25
510.618	24291.27
510.986	24309.57
511.354	24697.59
511.722	24865.26
512.09	25118.36
512.458	25144.13
512.826	25393.16
513.193	25559.26
513.561	25587.05
513.929	25743.21
514.297	26108.4
514.664	26287.83
515.032	26430.19
515.4	26600.81
515.767	26744.76
516.135	26988.6
516.502	26781.6
516.869	27269.95
517.237	27420
517.604	27491.86
517.972	27803.27
518.339	28013.2
518.706	28160.32
519.073	28232.86
519.44	28504.04
519.808	28912.84
520.175	28789.23
520.542	29328.65
520.909	29307.41
521.276	29478.02
521.643	29724.57
522.009	30049.31
522.376	30263.77
522.743	30359.36
523.11	30646.58
523.477	30975.39
523.843	31208.37
524.21	31358.2
524.577	31613.34
524.943	31894.01
525.31	32090.39
525.676	32409.92
526.043	32573.31
526.409	32712.74
526.776	33075.44
527.142	33124.48
527.508	33390.01
527.874	33715.43
528.241	33775.09
528.607	33948.87
528.973	34228.41
529.339	34318.35
529.705	34665.01
530.071	34872.68
530.437	35046.69
530.803	35289.4
531.169	35405.55
531.535	35441.71
531.901	35528.94
532.267	35786.11
532.632	36012.99
532.998	36250.95
533.364	36494.11
533.73	36483.94
534.095	36767.55
534.461	36842.12
534.826	37130.7
535.192	37290.7
535.557	37431.26
535.923	37434.65
536.288	37693.85
536.653	37763.91
537.019	37845.94
537.384	38071.02
537.749	38278.24
538.114	38392.14
538.479	38424.23
538.845	38647.05
539.21	38665.81
539.575	38918
539.94	39101.95
540.305	39298.11
540.67	39190.99
541.034	39403.19
541.399	39493.13
541.764	39634.37
542.129	39940.35
542.494	39987.8
542.858	40327.23
543.223	40245.2
543.587	40442.71
543.952	40466.21
544.316	40704.17
544.681	40656.71
545.045	41117.27
545.41	41282.46
545.774	41189.58
546.138	41452.4
546.503	41571.72
546.867	41555.22
547.231	41901.2
547.595	42085.6
547.959	42119.5
548.324	42268.42
548.688	42317.23
549.052	42535.31
549.416	42721.07
549.779	42696.89
550.143	42863.89
550.507	43145.46
550.871	43293.03
551.235	43393.14
551.599	43612.79
551.962	43761.94
552.326	43929.62
552.689	44249.61
553.053	44080.58
553.417	44272.66
553.78	44901.12
554.143	44697.51
554.507	45009.59
554.87	45170.49
555.234	45476.02
555.597	45332.3
555.96	45748.78
556.323	45765.51
556.686	46046.63
557.05	46144.48
557.413	46346.28
557.776	46453.62
558.139	46788.98
558.502	46911.46
558.865	46845.93
559.228	47279.36
559.59	47389.19
559.953	47407.95
560.316	47890.42
560.679	47890.87
561.041	48183.3
561.404	48323.4
561.767	48570.86
562.129	48456.28
562.492	48802.71
562.854	48962.48
563.217	49048.58
563.579	49235.92
563.941	49463.04
564.304	49565.18
564.666	49711.16
565.028	49807.43
565.39	49972.63
565.753	50075
566.115	50262.79
566.477	50490.35
566.839	50519.05
567.201	50856.67
567.563	50773.96
567.925	50950.45
568.287	51035.2
568.648	51071.81
569.01	51400.16
569.372	51564.45
569.734	51466.6
570.095	51751.11
570.457	51829.08
570.819	51975.51
571.18	51927.15
571.542	52058.67
571.903	52125.11
572.265	52304.32
572.626	52348.84
572.987	52288.05
573.349	52587.02
573.71	52642.39
574.071	52635.83
574.432	52883.51
574.794	52985.2
575.155	52986.78
575.516	52860.01
575.877	53096.84
576.238	53226.33
576.599	53265.65
576.96	53248.47
577.32	53336.15
577.681	53490.5
578.042	53605.3
578.403	53543.83
578.763	53502.48
579.124	53598.07
579.485	53660.67
579.845	53756.48
580.206	53721.91
580.566	53660.21
580.927	53815.01
581.287	53943.37
581.648	53735.01
582.008	53951.96
582.368	53865.41
582.728	53992.18
583.089	53909.92
583.449	53918.29
583.809	53888.91
584.169	53981.11
584.529	53889.13
584.889	54206.41
585.249	53972.07
585.609	53853.88
585.969	54047.77
586.329	53982.69
586.688	54040.99
587.048	54021.33
587.408	53946.08
587.768	53963.48
588.127	53996.02
588.487	53935.01
588.846	54188.34
589.206	53984.27
589.565	54037.38
589.925	54204.38
590.284	54075.34
590.643	54050.71
591.003	54217.49
591.362	54282.57
591.721	54280.08
592.08	54269.69
592.44	54245.28
592.799	54251.16
593.158	54239.18
593.517	54132.97
593.876	54218.84
594.235	54185.62
594.593	54276.24
594.952	54254.77
595.311	54205.74
595.67	54309.46
596.029	54456.58
596.387	54408.44
596.746	54440.98
597.104	54290.25
597.463	54334.77
597.822	54340.65
598.18	54321.66
598.538	54315.34
598.897	54474.2
599.255	54287.77
599.613	54665.16
599.972	54492.96
600.33	54585.61
600.688	54499.97
601.046	54601.88
601.404	54690.02
601.762	54622.67
602.12	54728.89
602.478	54734.99
602.836	54760.52
603.194	54657.02
603.552	54659.28
603.91	54626.74
604.268	54706.29
604.625	54692.05
604.983	54769.79
605.341	54619.74
605.698	54849.79
606.056	54964.36
606.413	54871.03
606.771	54864.48
607.128	55001.2
607.485	54812.73
607.843	54856.79
608.2	55048.2
608.557	55111.7
608.914	54995.32
609.272	55164.81
609.629	55249.55
609.986	55283.22
610.343	55281.19
610.7	55405.25
611.057	55312.6
611.414	55311.02
611.771	55298.14
612.127	55443.22
612.484	55405.93
612.841	55522.54
613.198	55507.62
613.554	55441.41
613.911	55622.42
614.267	55551.24
614.624	55578.58
614.98	55563.21
615.337	55710.78
615.693	55733.38
616.05	55641.18
616.406	55850.66
616.762	55697
617.118	55748.29
617.475	55709.43
617.831	55812.47
618.187	55855.64
618.543	55911.23
618.899	55989.64
619.255	55968.4
619.611	55875.3
619.967	56024.44
620.323	55996.88
620.678	55946.03
621.034	55932.92
621.39	55938.8
621.746	55870.32
622.101	56110.09
622.457	55956.42
622.812	56007.27
623.168	56018.12
623.523	55975.41
623.879	56082.07
624.234	55950.55
624.589	56050.88
624.945	56016.76
625.3	56166.14
625.655	56100.6
626.01	56217.66
626.365	56145.8
626.72	56116.65
627.075	56120.49
627.43	56079.81
627.785	55966.59
628.14	56089.08
628.495	56110.09
628.85	56095.18
629.205	55931.57
629.559	56180.6
629.914	56009.53
630.269	56023.09
630.623	55943.54
630.978	55922.53
631.332	56080.94
631.687	56028.29
632.041	55948.74
632.396	55934.5
632.75	55880.04
633.104	55892.47
633.459	55780.38
633.813	55776.54
634.167	55755.98
634.521	55732.7
634.875	55821.96
635.229	55764.56
635.583	55629.88
635.937	55596.66
636.291	55609.99
636.645	55637.79
636.999	55584.46
637.352	55678.24
637.706	55498.58
638.06	55584.46
638.413	55474.18
638.767	55461.52
639.121	55507.85
639.474	55239.61
639.828	55318.93
640.181	55354.18
640.534	55241.64
640.888	55201.64
641.241	55167.52
641.594	55102.44
641.947	55199.16
642.301	55077.8
642.654	55059.27
643.007	55110.57
643.36	55002.78
643.713	54953.06
644.066	55031.93
644.419	54867.64
644.771	54663.12
645.124	54436.24
645.477	54478.27
645.83	54197.15
646.182	54135.91
646.535	54050.26
646.888	54152.63
647.24	53920.09
647.593	54180.65
647.945	54049.81
648.298	53872.86
648.65	53845.29
649.002	53702.7
649.355	53967.55
649.707	53851.17
650.059	53946.53
650.411	54289.12
650.763	54276.24
651.115	54527.54
651.467	54465.62
651.819	54419.97
652.171	54310.14
652.523	54352.85
652.875	54331.38
653.227	54221.78
653.578	54351.27
653.93	54315.34
654.282	54238.73
654.633	54158.05
654.985	54262.91
655.337	54122.35
655.688	54127.32
656.039	54169.8
656.391	53919.19
656.742	54017.72
657.094	54025.18
657.445	54189.01
657.796	53899.08
658.147	53954.22
658.498	53993.99
658.849	54008
659.2	53969.58
659.551	53859.98
659.902	54001.45
660.253	53857.04
660.604	53989.7
660.955	53702.47
661.306	53941.56
661.656	53840.77
662.007	53837.61
662.358	53842.58
662.708	53740.66
663.059	53666.77
663.409	53553.1
663.76	53766.88
664.11	53702.02
664.461	53712.87
664.811	53657.95
665.161	53728.46
665.511	53548.35
665.862	53615.02
666.212	53744.05
666.562	53772.3
666.912	53588.35
667.262	53608.92
667.612	53538.41
667.962	53619.08
668.312	53460.9
668.662	53720.1
669.011	53619.99
669.361	53522.14
669.711	53416.15
670.06	53363.72
670.41	53382.03
670.76	53374.12
671.109	53480.56
671.459	53285.53
671.808	53312.2
672.157	53307.91
672.507	53118.31
672.856	53140.68
673.205	53095.26
673.554	53188.81
673.904	53186.33
674.253	53296.16
674.602	53069.04
674.951	52621.6
675.3	52479
675.649	53070.4
675.998	52935.03
676.346	53000.34
676.695	53007.12
677.044	52808.94
677.393	52972.1
677.741	52868.37
678.09	52817.75
678.438	52711.09
678.787	52741.59
679.135	52789.5
679.484	52471.54
679.832	52616.17
680.181	52415.95
680.529	52553.12
680.877	52512.45
681.225	52460.24
681.573	52591.31
681.922	52394.48
682.27	52358.1
682.618	52348.84
682.966	52335.5
683.314	52309.29
683.661	52121.5
684.009	51965.12
684.357	51902.97
684.705	51802.64
685.053	51836.31
685.4	51799.02
685.748	51743.2
686.095	51587.27
686.443	51524.45
686.79	51440.84
687.138	51559.93
687.485	51409.65
687.832	51476.99
688.18	51446.71
688.527	51155.19
688.874	51173.95
689.221	51116.78
689.568	50956.56
689.915	50831.36
690.262	50826.62
690.609	50818.03
690.956	50695.77
691.303	50634.76
691.65	50482.67
691.997	50449.9
692.344	50276.12
692.69	50342.33
693.037	50312.05
693.383	49971.95
693.73	49944.6
694.077	49764.95
694.423	49780.99
694.769	49755.46
695.116	49545.52
695.462	49522.47
695.808	49409.7
696.155	49466.88
696.501	49189.6
696.847	49145.53
697.193	48980.34
697.539	49045.19
697.885	48765.88
698.231	48767.46
698.577	48682.27
698.923	48694.24
699.269	48492.89
699.614	48458.09
699.96	48216.97
700.306	48270.3
700.651	48088.83
700.997	47852.91
701.342	47865.56
701.688	47832.34
702.033	47741.95
702.379	47723.87
702.724	47583.76
703.069	47746.7
703.415	47197.56
703.76	47214.73
704.105	47261.06
704.45	47013.38
704.795	46857.91
705.14	46723.67
705.485	46787.17
705.83	46624.92
706.175	46623.11
706.52	46509.44
706.865	46294.76
707.209	46300.41
707.554	46208.66
707.899	46245.04
708.243	46026.97
708.588	45949.46
708.932	45723.92
709.277	45609.13
709.621	45682.8
709.966	45458.62
710.31	45543.82
710.654	45212.75
710.998	45280.55
711.342	45280.55
711.687	45075.35
712.031	45049.59
712.375	44847.56
712.719	44838.3
713.063	44813.67
713.407	44871.07
713.75	44712.88
714.094	44686.66
714.438	44418.2
714.782	44476.27
715.125	44249.16
715.469	44259.33
715.812	44206
716.156	43930.98
716.499	43922.16
716.843	44047.58
717.186	43751.77
717.53	43962.39
717.873	43850.08
718.216	43774.82
718.559	43580.93
718.902	43343.42
719.246	43431.33
719.589	43329.64
719.932	43164.67
720.275	43008.97
720.617	42977.56
720.96	42975.75
721.303	42978.23
721.646	43000.61
721.989	42736.66
722.331	42813.72
722.674	42649.88
723.016	42604.01
723.359	42473.61
723.701	42557.68
724.044	42415.31
724.386	42114.53
724.729	42349.55
725.071	42159.5
725.413	42305.03
725.755	42027.07
726.097	41916.79
726.439	41825.95
726.782	41859.39
727.124	42060.07
727.465	41698.27
727.807	41805.38
728.149	41708.89
728.491	41576.01
728.833	41674.09
729.175	41378.5
729.516	41261.9
729.858	41320.65
730.199	41307.54
730.541	41390.48
730.882	41140.09
731.224	41276.81
731.565	40844.05
731.906	41036.14
732.248	40933.54
732.589	40764.73
732.93	40649.26
733.271	40728.8
733.612	40734
733.953	40774.68
734.294	40591.18
734.635	40520.22
734.976	40520.45
735.317	40376.72
735.658	40289.27
735.999	40304.86
736.339	40163.39
736.68	40343.5
737.021	40175.82
737.361	39874.81
737.702	40094.47
738.042	39912.55
738.383	39936.96
738.723	39903.29
739.063	39837.3
739.404	39783.97
739.744	39654.48
740.084	39432.56
740.424	39593.69
740.764	39458.1
741.104	39542.62
741.444	39310.08
741.784	39212.46
742.124	39257.88
742.464	39239.58
742.804	39080.48
743.143	39036.87
743.483	39054.5
743.823	38803.2
744.162	38898.12
744.502	38983.31
744.841	38630.78
745.181	38851.11
745.52	38781.28
745.86	38620.38
746.199	38612.02
746.538	38577.45
746.877	38524.57
747.216	38572.47
747.556	38393.5
747.895	38389.65
748.234	38256.1
748.573	38017.91
748.911	38177
749.25	38081.19
749.589	37960.29
749.928	37901.08
750.267	37981.53
750.605	37743.34
750.944	37630.58
751.283	37660.86
751.621	37559.39
751.96	37423.13
752.298	37436.23
752.636	37379.51
752.975	37171.61
753.313	37123.7
