Data from White_reflection_standard_FLMS001491_070.txt Node
Date: Tue Feb 07 10:32:09 GMT 2017
User: dcchb
Spectrometer: FLMS00149
Trigger mode: 0
Integration Time (sec): 2.000000E-2
Scans to average: 10
Electric dark correction enabled: true
Nonlinearity correction enabled: false
Boxcar width: 0
XAxis mode: Wavelengths
Number of Pixels in Spectrum: 2048
>>>>>Begin Spectral Data<<<<<
341.393	-11.12
341.776	-11.12
342.16	-11.12
342.543	-64.22
342.927	-79.36
343.31	-60.38
343.693	-61.28
344.077	-69.65
344.46	-58.57
344.843	-42.53
345.226	-32.81
345.61	-45.24
345.993	-33.94
346.376	-4.34
346.759	10.8
347.142	28.21
347.525	47.41
347.908	62.78
348.291	46.74
348.674	95.32
349.057	117.47
349.44	114.08
349.823	142.78
350.206	166.05
350.588	228.88
350.971	270.46
351.354	249.44
351.737	264.13
352.119	285.83
352.502	301.64
352.884	339.84
353.267	340.06
353.65	340.06
354.032	347.29
354.414	353.85
354.797	367.86
355.179	373.73
355.562	361.3
355.944	388.87
356.326	395.43
356.709	379.61
357.091	408.08
357.473	402.66
357.855	392.72
358.238	403.56
358.62	383
359.002	412.15
359.384	418.25
359.766	396.56
360.148	402.66
360.53	393.17
360.912	409.66
361.294	424.58
361.676	385.03
362.057	397.24
362.439	398.37
362.821	400.17
363.203	402.43
363.584	415.09
363.966	419.61
364.348	416.9
364.729	393.62
365.111	399.27
365.493	383
365.874	406.27
366.256	420.29
366.637	415.77
367.019	402.88
367.4	423
367.781	409.66
368.163	428.87
368.544	416.22
368.925	410.57
369.306	406.73
369.688	430.45
370.069	410.34
370.45	432.71
370.831	428.87
371.212	439.49
371.593	415.54
371.974	429.32
372.355	446.5
372.736	440.17
373.117	437.23
373.498	454.18
373.879	444.24
374.26	470
374.641	410.12
375.021	431.81
375.402	454.41
375.783	467.74
376.163	510
376.544	498.25
376.925	493.5
377.305	477.69
377.686	498.48
378.066	491.47
378.447	490.57
378.827	505.93
379.208	508.19
379.588	519.49
379.968	511.13
380.349	521.98
380.729	526.27
381.109	507.29
381.489	522.2
381.87	533.28
382.25	557.23
382.63	543.9
383.01	557.91
383.39	552.49
383.77	568.76
384.15	568.76
384.53	573.05
384.91	603.33
385.29	579.38
385.67	571.47
386.049	592.71
386.429	603.11
386.809	606.72
387.189	611.69
387.568	630
387.948	645.36
388.328	653.73
388.707	641.97
389.087	660.73
389.466	651.92
389.846	665.48
390.225	679.04
390.605	688.53
390.984	694.63
391.363	727.4
391.743	679.04
392.122	713.16
392.501	728.98
392.881	731.92
393.26	754.06
393.639	751.35
394.018	764.01
394.397	762.65
394.776	787.06
395.155	768.75
395.534	788.64
395.913	778.02
396.292	802.87
396.671	839.26
397.05	812.37
397.429	858.24
397.808	827.51
398.186	873.16
398.565	872.03
398.944	856.88
399.323	882.42
399.701	895.75
400.08	916.54
400.458	902.53
400.837	902.76
401.215	918.35
401.594	912.25
401.972	938.01
402.351	970.78
402.729	961.74
403.107	974.85
403.486	977.79
403.864	988.63
404.242	1001.06
404.62	1021.17
404.999	1031.34
405.377	1035.41
405.755	1038.8
406.133	1078.8
406.511	1053.72
406.889	1085.35
407.267	1094.17
407.645	1133.71
408.023	1158.57
408.401	1161.06
408.779	1173.03
409.156	1181.62
409.534	1196.31
409.912	1229.08
410.29	1237.44
410.667	1232.47
411.045	1272.01
411.422	1270.21
411.8	1314.05
412.178	1304.1
412.555	1351.79
412.933	1357.21
413.31	1369.19
413.687	1396.08
414.065	1400.15
414.442	1418.68
414.819	1441.95
415.197	1439.47
415.574	1481.05
415.951	1501.84
416.328	1522.63
416.705	1543.42
417.082	1528.96
417.46	1552.91
417.837	1588.16
418.214	1611.67
418.591	1597.43
418.967	1630.2
419.344	1646.92
419.721	1652.57
420.098	1656.64
420.475	1667.26
420.852	1713.13
421.228	1741.61
421.605	1745.45
421.982	1759.01
422.358	1801.04
422.735	1800.36
423.111	1812.57
423.488	1861.15
423.864	1860.7
424.241	1863.64
424.617	1919.91
424.994	1930.75
425.37	1923.97
425.746	1970.98
426.123	2018.89
426.499	2012.11
426.875	2011.88
427.251	2064.54
427.627	2115.61
428.003	2093.91
428.379	2128.49
428.756	2184.31
429.132	2226.34
429.507	2229.5
429.883	2258.43
430.259	2302.95
430.635	2363.51
431.011	2366.68
431.387	2384.75
431.763	2455.94
432.138	2464.75
432.514	2490.29
432.89	2541.81
433.265	2575.71
433.641	2590.4
434.016	2653
434.392	2638.53
434.767	2698.19
435.143	2704.29
435.518	2779.09
435.894	2821.58
436.269	2831.75
436.644	2837.62
437.02	2900.22
437.395	2874.91
437.77	2972.31
438.145	2996.04
438.52	2986.32
438.895	3053.66
439.271	3073.55
439.646	3135.24
440.021	3158.52
440.395	3160.55
440.77	3135.47
441.145	3191.29
441.52	3229.03
441.895	3277.39
442.27	3318.29
442.645	3287.55
443.019	3354.67
443.394	3342.92
443.769	3426.31
444.143	3393.31
444.518	3471.05
444.892	3464.05
445.267	3502.24
445.641	3525.97
446.016	3544.72
446.39	3565.97
446.764	3622.24
447.139	3586.76
447.513	3678.28
447.887	3640.31
448.262	3678.5
448.636	3723.48
449.01	3800.31
449.384	3808.45
449.758	3840.99
450.132	3900.42
450.506	3941.1
450.88	3943.58
451.254	3955.11
451.628	3987.88
452.002	4048.21
452.376	4083.69
452.75	4159.62
453.123	4205.72
453.497	4228.55
453.871	4276.68
454.244	4385.61
454.618	4401.65
454.992	4422.44
455.365	4467.18
455.739	4606.62
456.112	4658.82
456.486	4650.68
456.859	4724.81
457.232	4862.2
457.606	4805.48
457.979	4894.29
458.352	4979.49
458.725	5045.93
459.099	5043.89
459.472	5198.01
459.845	5210.44
460.218	5251.12
460.591	5295.41
460.964	5381.06
461.337	5527.72
461.71	5570.21
462.083	5588.06
462.456	5732.69
462.829	5713.71
463.201	5812.46
463.574	5765.46
463.947	5901.05
464.32	6053.58
464.692	6079.8
465.065	6143.3
465.438	6217.2
465.81	6307.36
466.183	6350.53
466.555	6566.34
466.928	6515.04
467.3	6549.84
467.672	6761.59
468.045	6868.93
468.417	6874.13
468.789	6922.94
469.161	7076.16
469.534	7241.8
469.906	7329.48
470.278	7380.1
470.65	7499.2
471.022	7590.49
471.394	7755.46
471.766	7808.79
472.138	7925.4
472.51	8140.08
472.882	8177.6
473.253	8275.45
473.625	8477.47
473.997	8591.6
474.369	8612.84
474.74	8771.03
475.112	8993.85
475.484	9084.46
475.855	9317.23
476.227	9346.6
476.598	9566.49
476.97	9695.52
477.341	9941.62
477.713	10077.66
478.084	10108.39
478.455	10436.97
478.827	10449.63
479.198	10813.46
479.569	10788.6
479.94	11171.19
480.311	11204.18
480.682	11472.2
481.053	11716.26
481.424	11898.18
481.795	11999.42
482.166	12274.44
482.537	12328.45
482.908	12661.09
483.279	12837.13
483.65	12987.41
484.021	13308.76
484.391	13432.6
484.762	13575.87
485.133	13626.27
485.503	13885.92
485.874	14188.06
486.244	14284.1
486.615	14633.7
486.985	14782.39
487.356	15014.7
487.726	15239.78
488.097	15494.92
488.467	15641.35
488.837	15835.25
489.207	16166.76
489.578	16295.8
489.948	16520.88
490.318	16725.39
490.688	16814.43
491.058	17124.48
491.428	17328.32
491.798	17474.75
492.168	17765.37
492.538	17804.46
492.908	18116.09
493.278	18302.08
493.648	18358.34
494.017	18488.74
494.387	18684.44
494.757	18946.58
495.126	19008.27
495.496	19153.13
495.866	19329.62
496.235	19572.1
496.605	19747.91
496.974	19940
497.344	20143.83
497.713	20135.93
498.082	20367.78
498.452	20604.16
498.821	20685.29
499.19	20757.15
499.559	21013.64
499.928	21101.32
500.298	21189.46
500.667	21530.01
501.036	21496.79
501.405	21650.24
501.774	21723
502.143	21986.95
502.512	22092.48
502.88	22234.63
503.249	22347.17
503.618	22544
503.987	22597.1
504.356	22766.14
504.724	22948.05
505.093	23059.92
505.462	23169.97
505.83	23446.8
506.199	23523.18
506.567	23848.14
506.936	23968.82
507.304	24216.5
507.672	24378.98
508.041	24351.63
508.409	24533.32
508.777	24770.61
509.145	24947.1
509.514	25059.86
509.882	25307.31
510.25	25341.44
510.618	25497.37
510.986	25702.33
511.354	25926.51
511.722	26160.17
512.09	26444.01
512.458	26392.48
512.826	26767.62
513.193	26796.09
513.561	26885.8
513.929	27180.03
514.297	27475.39
514.664	27603.53
515.032	27704.54
515.4	27996.06
515.767	28124.64
516.135	28195.83
516.502	28176.84
516.869	28654.35
517.237	28709.03
517.604	28836.26
517.972	29043.04
518.339	29456.58
518.706	29573.42
519.073	29709.46
519.44	29956.01
519.808	30196
520.175	30211.14
520.542	30691.13
520.909	30819.49
521.276	30955.08
521.643	31197.1
522.009	31406.82
522.376	31722.97
522.743	31901.94
523.11	32181.48
523.477	32541.47
523.843	32664.41
524.21	33087
524.577	33213.1
524.943	33452.19
525.31	33662.12
525.676	33953.87
526.043	34156.35
526.409	34258.04
526.776	34667.97
527.142	34775.77
527.508	35030
527.874	35257.56
528.241	35505.46
528.607	35618.68
528.973	36010.99
529.339	35965.57
529.705	36358.55
530.071	36634.7
530.437	36726.22
530.803	37170.73
531.169	37283.5
531.535	37251.41
531.901	37320.11
532.267	37596.48
532.632	37773.43
532.998	37867.44
533.364	38240.99
533.73	38287.76
534.095	38583.8
534.461	38682.56
534.826	38936.33
535.192	38984.02
535.557	39367.51
535.923	39409.77
536.288	39541.29
536.653	39793.94
537.019	39579.48
537.384	40030.54
537.749	40055.4
538.114	40222.63
538.479	40327.48
538.845	40468.95
539.21	40532.9
539.575	40895.15
539.94	40849.28
540.305	41216.73
540.67	41015.83
541.034	41290.62
541.399	41583.95
541.764	41655.81
542.129	41752.53
542.494	41835.24
542.858	41959.08
543.223	42125.63
543.587	42320.43
543.952	42302.8
544.316	42467.54
544.681	42644.03
545.045	42764.71
545.41	42932.39
545.774	43229.78
546.138	43071.37
546.503	43283.34
546.867	43234.08
547.231	43745.93
547.595	43703.22
547.959	43899.14
548.324	43971.68
548.688	44255.52
549.052	44208.74
549.416	44232.69
549.779	44454.38
550.143	44668.61
550.507	44782.06
550.871	44967.81
551.235	44813.47
551.599	45243.29
551.962	45396.05
552.326	45547.91
552.689	45686.89
553.053	45686.44
553.417	45716.04
553.78	46325.07
554.143	46121.91
554.507	46203.71
554.87	46447.78
555.234	46932.73
555.597	46753.53
555.96	46921.89
556.323	47241.88
556.686	47171.6
557.05	47547.63
557.413	47514.41
557.776	47687.29
558.139	47953.72
558.502	48045.47
558.865	48169.09
559.228	48430.1
559.59	48503.32
559.953	48710.77
560.316	48924.32
560.679	49038.89
561.041	49319.56
561.404	49443.63
561.767	49531.31
562.129	49514.36
562.492	50023.95
562.854	49898.98
563.217	50039.77
563.579	50181.91
563.941	50419.42
564.304	50542.36
564.666	50818.96
565.028	50776.7
565.39	50967.66
565.753	51206.75
566.115	51283.81
566.477	51335.56
566.839	51457.14
567.201	51736.45
567.563	51658.26
567.925	52013.73
568.287	51884.47
568.648	51951.13
569.01	52186.16
569.372	52439.26
569.734	52350.9
570.095	52616.88
570.457	52694.17
570.819	52749.53
571.18	52815.97
571.542	52950.2
571.903	52980.94
572.265	53182.29
572.626	53192.91
572.987	53184.77
573.349	53353.58
573.71	53491.88
574.071	53519.91
574.432	53703.86
574.794	53868.82
575.155	53926
575.516	53813.68
575.877	53922.83
576.238	54023.62
576.599	54143.17
576.96	54105.88
577.32	54130.74
577.681	54324.18
578.042	54295.03
578.403	54330.73
578.763	54274.69
579.124	54420
579.485	54516.26
579.845	54541.8
580.206	54462.03
580.566	54502.93
580.927	54575.25
581.287	54629.48
581.648	54563.72
582.008	54717.39
582.368	54611.86
582.728	54740.67
583.089	54638.75
583.449	54657.5
583.809	54714.23
584.169	54826.54
584.529	54734.34
584.889	54952.19
585.249	54770.95
585.609	54700.67
585.969	54858.85
586.329	54744.96
586.688	54807.78
587.048	54815.01
587.408	54731.85
587.768	54758.29
588.127	54799.87
588.487	54738.18
588.846	54948.12
589.206	54749.03
589.565	54814.56
589.925	54910.83
590.284	54822.92
590.643	54866.54
591.003	54936.82
591.362	54953.09
591.721	54946.08
592.08	54917.16
592.44	55061.56
592.799	54994.44
593.158	54892.98
593.517	55021.56
593.876	54989.02
594.235	54914.45
594.593	54936.82
594.952	55092.29
595.311	54969.81
595.67	55051.39
596.029	55169.81
596.387	55205.29
596.746	55223.82
597.104	55124.61
597.463	55080.09
597.822	55205.51
598.18	55067.21
598.538	55113.08
598.897	55299.97
599.255	54961.68
599.613	55456.58
599.972	55261.56
600.33	55366.19
600.688	55260.43
601.046	55301.33
601.404	55462.68
601.762	55323.25
602.12	55498.39
602.478	55530.93
602.836	55451.83
603.194	55280.54
603.552	55387.2
603.91	55414.32
604.268	55541.1
604.625	55457.26
604.983	55571.83
605.341	55382.46
605.698	55628.1
606.056	55663.13
606.413	55617.93
606.771	55790.58
607.128	55774.08
607.485	55676.69
607.843	55727.76
608.2	55853.86
608.557	55881.88
608.914	55762.11
609.272	55927.75
609.629	55989.9
609.986	55999.84
610.343	55879.17
610.7	56104.92
611.057	56033.29
611.414	56052.72
611.771	56049.56
612.127	56237.8
612.484	56154.87
612.841	56227.41
613.198	56112.38
613.554	56150.35
613.911	56340.17
614.267	56240.29
614.624	56223.34
614.98	56332.71
615.337	56426.04
615.693	56282.32
616.05	56333.62
616.406	56484.35
616.762	56401.64
617.118	56403.67
617.475	56438.25
617.831	56447.74
618.187	56542.88
618.543	56475.53
618.899	56587.4
619.255	56525.48
619.611	56537.91
619.967	56643.67
620.323	56613.61
620.678	56541.52
621.034	56557.34
621.39	56612.71
621.746	56459.72
622.101	56776.32
622.457	56521.18
622.812	56584.91
623.168	56705.36
623.523	56645.93
623.879	56717.11
624.234	56536.78
624.589	56609.99
624.945	56630.33
625.3	56606.83
625.655	56590.11
626.01	56639.82
626.365	56666.72
626.72	56615.87
627.075	56527.96
627.43	56582.42
627.785	56479.6
628.14	56553.5
628.495	56609.09
628.85	56540.84
629.205	56478.92
629.559	56621.29
629.914	56500.84
630.269	56509.43
630.623	56418.36
630.978	56390.34
631.332	56429.21
631.687	56516.21
632.041	56350.57
632.396	56392.83
632.75	56275.09
633.104	56321.64
633.459	56261.08
633.813	56217.24
634.167	56167.75
634.521	56130.46
634.875	56141.53
635.229	56102.21
635.583	56006.39
635.937	56004.13
636.291	55990.8
636.645	55975.66
636.999	55926.62
637.352	55961.88
637.706	55784.93
638.06	55958.03
638.413	55742.67
638.767	55724.82
639.121	55807.98
639.474	55592.85
639.828	55648.21
640.181	55700.41
640.534	55645.73
640.888	55555.11
641.241	55470.36
641.594	55466.07
641.947	55587.87
642.301	55441.66
642.654	55466.75
643.007	55433.08
643.36	55337.49
643.713	55352.63
644.066	55384.49
644.419	55175.46
644.771	55033.31
645.124	54718.97
645.477	54714
645.83	54521.69
646.182	54400.79
646.535	54329.83
646.888	54417.96
647.24	54143.84
647.593	54372.54
647.945	54311.75
648.298	54044.19
648.65	54023.4
649.002	53981.82
649.355	54118.53
649.707	54020.46
650.059	54171.41
650.411	54432.65
650.763	54476.49
651.115	54789.25
651.467	54696.6
651.819	54621.57
652.171	54569.14
652.523	54496.83
652.875	54510.84
653.227	54322.6
653.578	54583.83
653.93	54427
654.282	54349.72
654.633	54311.07
654.985	54215.71
655.337	54345.42
655.688	54227.68
656.039	54338.19
656.391	54102.72
656.742	54156.73
657.094	54145.2
657.445	54253.22
657.796	54114.92
658.147	54069.95
658.498	54096.16
658.849	54159.89
659.2	54027.01
659.551	54017.07
659.902	54088.03
660.253	53937.07
660.604	53999.89
660.955	53880.35
661.306	53949.05
661.656	53808.94
662.007	53962.38
662.358	53933.68
662.708	53896.17
663.059	53808.03
663.409	53697.75
663.76	53905.88
664.11	53815.04
664.461	53844.42
664.811	53714.7
665.161	53768.04
665.511	53644.87
665.862	53700.92
666.212	53789.96
666.562	53664.31
666.912	53642.84
667.262	53610.3
667.612	53577.31
667.962	53621.15
668.312	53584.99
668.662	53634.93
669.011	53564.42
669.361	53491.66
669.711	53538.21
670.06	53490.08
670.41	53383.41
670.76	53406.24
671.109	53498.21
671.459	53364.2
671.808	53309.06
672.157	53368.72
672.507	53228.39
672.856	53222.96
673.205	53268.39
673.554	53307.71
673.904	53155.85
674.253	53320.14
674.602	53234.49
674.951	52781.62
675.3	52596.31
675.649	53160.59
675.998	53060.26
676.346	53053.7
676.695	53222.74
677.044	52862.52
677.393	52927.83
677.741	53033.37
678.09	52882.86
678.438	52889.41
678.787	52931.45
679.135	52961.05
679.484	52597.9
679.832	52647.84
680.181	52583.66
680.529	52713.37
680.877	52508.41
681.225	52486.04
681.573	52774.84
681.922	52544.34
682.27	52422.08
682.618	52446.04
682.966	52264.57
683.314	52374.85
683.661	52261.41
684.009	52051.92
684.357	52021.87
684.705	52049.44
685.053	51961.3
685.4	51899.16
685.748	51751.37
686.095	51761.76
686.443	51621.88
686.79	51416.91
687.138	51551.14
687.485	51616
687.832	51416.01
688.18	51567.19
688.527	51330.36
688.874	51221.21
689.221	51213.53
689.568	51042.46
689.915	50932.18
690.262	50939.41
690.609	50824.38
690.956	50715.23
691.303	50737.38
691.65	50505.52
691.997	50507.1
692.344	50343.04
692.69	50303.04
693.037	50284.51
693.383	50031.86
693.73	50090.62
694.077	49918.87
694.423	49921.36
694.769	49727.46
695.116	49516.85
695.462	49690.85
695.808	49323.63
696.155	49566.11
696.501	49254.71
696.847	49272.11
697.193	49102.85
697.539	49096.75
697.885	48905.56
698.231	48712.12
698.577	48663.99
698.923	48651.79
699.269	48414.73
699.614	48245.24
699.96	48122.31
700.306	48299.7
700.651	47980.39
700.997	47834.41
701.342	47868.53
701.688	47706.27
702.033	47593.51
702.379	47603
702.724	47524.36
703.069	47473.96
703.415	47187.64
703.76	47104.26
704.105	47134.54
704.45	47132.28
704.795	46725.96
705.14	46754.21
705.485	46641.44
705.83	46416.59
706.175	46431.96
706.52	46375.91
706.865	46223.38
707.209	46149.93
707.554	46071.74
707.899	46101.12
708.243	45830.17
708.588	45780.45
708.932	45459.55
709.277	45483.73
709.621	45461.36
709.966	45319.22
710.31	45338.65
710.654	44954.03
710.998	45054.59
711.342	45063.41
711.687	44881.49
712.031	44797.2
712.375	44552.46
712.719	44665.68
713.063	44562.85
713.407	44702.29
713.75	44475.62
714.094	44325.35
714.438	44301.84
714.782	44152.92
715.125	43896.2
715.469	44050.55
715.812	43734.63
716.156	43618.92
716.499	43787.96
716.843	43765.81
717.186	43402.66
717.53	43575.54
717.873	43588.87
718.216	43423.67
718.559	43293.06
718.902	43032.95
719.246	43128.54
719.589	42933.29
719.932	42775.56
720.275	42778.27
720.617	42767.42
720.96	42663.92
721.303	42596.13
721.646	42598.39
721.989	42379.86
722.331	42587.76
722.674	42295.12
723.016	42545.73
723.359	42253.54
723.701	42265.29
724.044	42064.84
724.386	41612.87
724.729	42033.88
725.071	41750.27
725.413	41960.21
725.755	41798.86
726.097	41536.04
726.439	41404.97
726.782	41337.63
727.124	41659.88
727.465	41360.45
727.807	41187.12
728.149	41174.02
728.491	41068.26
728.833	41222.38
729.175	41114.81
729.516	40914.81
729.858	40756.63
730.199	40928.6
730.541	40661.94
730.882	40641.37
731.224	40697.64
731.565	40443.64
731.906	40487.71
732.248	40571.55
732.589	40372.68
732.93	40214.72
733.271	40242.06
733.612	40233.93
733.953	40215.62
734.294	40001.84
734.635	40012.01
734.976	40144.21
735.317	39840.27
735.658	39800.95
735.999	39662.42
736.339	39572.25
736.68	39659.48
737.021	39536.32
737.361	39414.74
737.702	39498.13
738.042	39353.73
738.383	39292.94
738.723	39293.39
739.063	39213.84
739.404	39151.92
739.744	39136.1
740.084	38928.2
740.424	38904.7
740.764	38946.28
741.104	38952.61
741.444	38695.44
741.784	38785.6
742.124	38756.9
742.464	38717.58
742.804	38564.14
743.143	38423.81
743.483	38383.58
743.823	38097.49
744.162	38328.89
744.502	38271.04
744.841	38071.5
745.181	38283.7
745.52	38068.11
745.86	38051.61
746.199	37818.17
746.538	37838.28
746.877	37869.7
747.216	37762.58
747.556	37825.86
747.895	37734.11
748.234	37532.08
748.573	37461.57
748.911	37474.68
749.25	37441.01
749.589	37209.37
749.928	37217.96
750.267	37307.9
750.605	37151.52
750.944	37037.18
751.283	36919.44
751.621	36935.03
751.96	36606
752.298	36778.88
752.636	36589.73
