Data from White_reflection_standard_FLMS001491_074.txt Node
Date: Tue Feb 07 10:32:10 GMT 2017
User: dcchb
Spectrometer: FLMS00149
Trigger mode: 0
Integration Time (sec): 2.000000E-2
Scans to average: 10
Electric dark correction enabled: true
Nonlinearity correction enabled: false
Boxcar width: 0
XAxis mode: Wavelengths
Number of Pixels in Spectrum: 2048
>>>>>Begin Spectral Data<<<<<
341.393	-26.47
341.776	-26.47
342.16	-26.47
342.543	-57.43
342.927	-56.75
343.31	-51.33
343.693	-88.61
344.077	-52.91
344.46	-57.65
344.843	-61.5
345.226	-40.48
345.61	-20.14
345.993	-21.04
346.376	-2.06
346.759	-0.03
347.142	46.52
347.525	34.55
347.908	52.17
348.291	49.91
348.674	113.87
349.057	98.73
349.44	115.45
349.823	126.75
350.206	155.45
350.588	225.5
350.971	259.85
351.354	242.23
351.737	281.77
352.119	307.08
352.502	283.81
352.884	317.93
353.267	313.41
353.65	320.42
354.032	338.72
354.414	349.79
354.797	357.25
355.179	362.45
355.562	372.84
355.944	371.71
356.326	387.76
356.709	374.65
357.091	371.49
357.473	390.7
357.855	393.86
358.238	374.65
358.62	393.63
359.002	388.21
359.384	395.44
359.766	409.68
360.148	403.12
360.53	391.83
360.912	404.25
361.294	405.61
361.676	394.76
362.057	410.58
362.439	384.82
362.821	384.14
363.203	399.51
363.584	390.02
363.966	389.79
364.348	399.28
364.729	385.72
365.111	404.25
365.493	406.74
365.874	415.33
366.256	424.37
366.637	399.28
367.019	406.29
367.4	400.41
367.781	391.15
368.163	411.71
368.544	409.23
368.925	429.56
369.306	411.49
369.688	417.14
370.069	451.49
370.45	442.67
370.831	426.4
371.212	432.5
371.593	433.86
371.974	429.34
372.355	431.6
372.736	448.77
373.117	442.45
373.498	458.04
373.879	450.58
374.26	443.8
374.641	447.42
375.021	434.31
375.402	457.59
375.783	456.68
376.163	503.24
376.544	510.92
376.925	459.17
377.305	469.79
377.686	499.85
378.066	488.55
378.447	485.83
378.827	487.87
379.208	506.63
379.588	524.48
379.968	518.83
380.349	515.66
380.729	531.26
381.109	534.87
381.489	524.03
381.87	546.85
382.25	523.12
382.63	530.81
383.01	530.13
383.39	573.74
383.77	548.66
384.15	566.74
384.53	558.15
384.91	586.4
385.29	622.33
385.67	583.69
386.049	627.75
386.429	616.23
386.809	606.96
387.189	622.33
387.568	620.75
387.948	657.58
388.328	668.88
388.707	624.81
389.087	646.51
389.466	660.75
389.846	677.02
390.225	668.88
390.605	681.31
390.984	690.35
391.363	695.32
391.743	716.56
392.122	722.21
392.501	714.76
392.881	742.1
393.26	738.94
393.639	726.05
394.018	771.02
394.397	753.4
394.776	789.56
395.155	802.66
395.534	801.08
395.913	803.34
396.292	801.98
396.671	813.28
397.05	827.29
397.429	851.02
397.808	839.95
398.186	856.45
398.565	850.12
398.944	870.46
399.323	867.29
399.701	884.92
400.08	885.6
400.458	887.63
400.837	895.99
401.215	934.18
401.594	911.81
401.972	950.23
402.351	954.3
402.729	967.86
403.107	936.44
403.486	1009.44
403.864	1003.79
404.242	1012.37
404.62	1005.6
404.999	1025.26
405.377	1033.39
405.755	1053.96
406.133	1071.36
406.511	1098.25
406.889	1078.59
407.267	1102.32
407.645	1163.56
408.023	1124.69
408.401	1155.2
408.779	1176.21
409.156	1185.48
409.534	1203.56
409.912	1211.24
410.29	1250.79
410.667	1241.52
411.045	1275.19
411.422	1279.49
411.8	1294.18
412.178	1295.76
412.555	1335.76
412.933	1364
413.31	1356.77
413.687	1406.94
414.065	1400.84
414.442	1427.5
414.819	1466.6
415.197	1435.87
415.574	1519.93
415.951	1510.89
416.328	1484.45
416.705	1485.36
417.082	1521.06
417.46	1550.21
417.837	1587.05
418.214	1594.05
418.591	1604.45
418.967	1628.63
419.344	1612.13
419.721	1674.96
420.098	1632.47
420.475	1691.68
420.852	1685.8
421.228	1740.49
421.605	1746.59
421.982	1743.2
422.358	1735.52
422.735	1795.63
423.111	1843.77
423.488	1872.01
423.864	1850.77
424.241	1870.43
424.617	1914.05
424.994	1904.55
425.37	1887.38
425.746	1970.54
426.123	1991.11
426.499	1989.98
426.875	2029.97
427.251	2071.1
427.627	2096.87
428.003	2112.23
428.379	2159.46
428.756	2192.68
429.132	2188.61
429.507	2232
429.883	2267.03
430.259	2301.15
430.635	2312.91
431.011	2356.52
431.387	2380.93
431.763	2455.27
432.138	2454.37
432.514	2508.15
432.89	2510.87
433.265	2566.91
433.641	2596.06
434.016	2620.24
434.392	2681.48
434.767	2742.72
435.143	2695.04
435.518	2793.34
435.894	2808.49
436.269	2797.86
436.644	2827.92
437.02	2884.19
437.395	2911.76
437.77	2952.66
438.145	3017.29
438.52	3043.73
438.895	3032.43
439.271	3088.48
439.646	3116.73
440.021	3185.2
440.395	3164.18
440.77	3170.51
441.145	3196.05
441.52	3263.84
441.895	3275.82
442.27	3326.21
442.645	3261.81
443.019	3341.8
443.394	3354.46
443.769	3404.18
444.143	3392.88
444.518	3487.79
444.892	3443.95
445.267	3485.08
445.641	3539.54
446.016	3527.79
446.39	3579.54
446.764	3641.68
447.139	3622.93
447.513	3655.47
447.887	3653.21
448.262	3699.08
448.636	3718.74
449.01	3744.28
449.384	3789.48
449.758	3846.2
450.132	3931.39
450.506	3908.34
450.88	3946.08
451.254	3988.79
451.628	4023.37
452.002	4064.72
452.376	4078.28
452.75	4115.34
453.123	4161.9
453.497	4236.02
453.871	4294.1
454.244	4404.38
454.618	4365.28
454.992	4433.08
455.365	4476.69
455.739	4586.74
456.112	4621.32
456.486	4713.97
456.859	4689.79
457.232	4851.82
457.606	4802.33
457.979	4890.01
458.352	4984.47
458.725	5026.05
459.099	5037.35
459.472	5160.74
459.845	5245.03
460.218	5320.96
460.591	5334.75
460.964	5372.94
461.337	5408.42
461.71	5535.42
462.083	5660.84
462.456	5612.48
462.829	5725.7
463.201	5793.72
463.574	5808.86
463.947	5909.65
464.32	6032.36
464.692	6084.56
465.065	6151
465.438	6218.34
465.81	6332.01
466.183	6404.55
466.555	6485.68
466.928	6583.98
467.3	6608.39
467.672	6683.86
468.045	6852.67
468.417	6898.32
468.789	6941.03
469.161	7043.63
469.534	7174.92
469.906	7376.73
470.278	7374.47
470.65	7461.92
471.022	7599.09
471.394	7713.89
471.766	7799.09
472.138	7883.38
472.51	8097.61
472.882	8277.04
473.253	8336.25
473.625	8425.51
473.997	8645.62
474.369	8665.73
474.74	8740.98
475.112	8929
475.484	9077.47
475.855	9220.07
476.227	9370.57
476.598	9652.15
476.97	9670.9
477.341	9960.84
477.713	10041.52
478.084	10159.48
478.455	10386.37
478.827	10443.31
479.198	10788.16
479.569	10812.57
479.94	11126.68
480.311	11176.4
480.682	11482.38
481.053	11724.41
481.424	11932.09
481.795	12016.83
482.166	12217.5
482.537	12282.36
482.908	12682.8
483.279	12825.62
483.65	13097.71
484.021	13309.68
484.391	13419.51
484.762	13559.84
485.133	13685.94
485.503	13894.97
485.874	14240.05
486.244	14297.67
486.615	14640.49
486.985	14798.9
487.356	15046.13
487.726	15176.75
488.097	15494.93
488.467	15482.28
488.837	15880.46
489.207	16041.58
489.578	16371.29
489.948	16421.69
490.318	16762.69
490.688	16765.41
491.058	16969.92
491.428	17288.56
491.798	17446.97
492.168	17778.26
492.538	17881.76
492.908	18080.4
493.278	18397.68
493.648	18338.25
494.017	18546.15
494.387	18789.99
494.757	18942.75
495.126	19103.2
495.496	19211.9
495.866	19406.02
496.235	19575.28
496.605	19772.33
496.974	19875.38
497.344	20074.47
497.713	20190.4
498.082	20397.18
498.452	20506.1
498.821	20688.02
499.19	20826.32
499.559	21019.98
499.928	21263.37
500.298	21196.7
500.667	21437.15
501.036	21447.09
501.405	21656.35
501.774	21775.9
502.143	21935.67
502.512	22066.96
502.88	22360.97
503.249	22295.88
503.618	22454.97
503.987	22674.4
504.356	22787.62
504.724	22977.22
505.093	23029.42
505.462	23162.3
505.83	23357.32
506.199	23658.11
506.567	23863.07
506.936	23818.78
507.304	24225.32
507.672	24242.27
508.041	24408.14
508.409	24558.87
508.777	24876.83
509.145	24949.37
509.514	25059.43
509.882	25243.6
510.25	25362.69
510.618	25557.27
510.986	25753.87
511.354	25848.56
511.722	26128.55
512.09	26312.05
512.458	26398.6
512.826	26655.54
513.193	26845.37
513.561	26911.13
513.929	27128.52
514.297	27282.64
514.664	27605.12
515.032	27731.9
515.4	27952.01
515.767	28130.08
516.135	28330.3
516.502	28193.81
516.869	28729.84
517.237	28877.4
517.604	28806.45
517.972	29143.16
518.339	29354.68
518.706	29524.17
519.073	29632.41
519.44	29893.65
519.808	30186.07
520.175	30180.2
520.542	30560.3
520.909	30724.81
521.276	30936.33
521.643	31270.34
522.009	31519.59
522.376	31676.43
522.743	31857.67
523.11	32156.19
523.477	32543.07
523.843	32685.21
524.21	32967.92
524.577	33119.33
524.943	33352.99
525.31	33683.61
525.676	33969.7
526.043	34109.81
526.409	34366.3
526.776	34793.86
527.142	34637.71
527.508	35145.26
527.874	35357.23
528.241	35425.25
528.607	35500.73
528.973	36043.54
529.339	35971.23
529.705	36265.01
530.071	36521.95
530.437	36858.66
530.803	36977.98
531.169	37079.22
531.535	37229.28
531.901	37463.62
532.267	37578.87
532.632	37837.85
532.998	37997.62
533.364	38229.93
533.73	38310.38
534.095	38602.8
534.461	38757.82
534.826	38987.42
535.192	39054.99
535.557	39378.82
535.923	39277.13
536.288	39627.86
536.653	39666.27
537.019	39711.47
537.384	39911.92
537.749	40108.07
538.114	40259.7
538.479	40304.45
538.845	40473.94
539.21	40496.76
539.575	40728.17
539.94	40826.47
540.305	41169.51
540.67	40946.69
541.034	41313.24
541.399	41502.61
541.764	41531.99
542.129	41777.18
542.494	41784.86
542.858	42109.37
543.223	42084.29
543.587	42287
543.952	42254.45
544.316	42424.17
544.681	42382.81
545.045	42773.76
545.41	42949.35
545.774	42943.02
546.138	43049.91
546.503	43244.03
546.867	43379.62
547.231	43648.54
547.595	43783.23
547.959	43977.35
548.324	43970.79
548.688	44034.52
549.052	44180.73
549.416	44299.6
549.779	44419.37
550.143	44536.65
550.507	44815.52
550.871	44970.99
551.235	44887.38
551.599	45339.12
551.962	45461.15
552.326	45429.06
552.689	45748.15
553.053	45569.62
553.417	45754.93
553.78	46230.17
554.143	46153.11
554.507	46299.09
554.87	46514.23
555.234	46779.31
555.597	46638.07
555.96	46902.69
556.323	47143.36
556.686	47215.68
557.05	47405.5
557.413	47587.42
557.776	47596.46
558.139	47951.71
558.502	48009.1
558.865	48094.53
559.228	48405.7
559.59	48414.52
559.953	48628.75
560.316	49112.35
560.679	49066.03
561.041	49252.24
561.404	49288.39
561.767	49542.17
562.129	49692.45
562.492	49962.73
562.854	49990.97
563.217	50015.38
563.579	50101.93
563.941	50397.74
564.304	50441.13
564.666	50728.81
565.028	50820.33
565.39	50964.06
565.753	51106.42
566.115	51265.52
566.477	51339.41
566.839	51431.16
567.201	51678.16
567.563	51740.31
567.925	51915.22
568.287	51985.05
568.648	52131.03
569.01	52258.48
569.372	52379.16
569.734	52343.91
570.095	52605.37
570.457	52642.43
570.819	52728.75
571.18	52762.88
571.542	52925.36
571.903	53017.11
572.265	53065.92
572.626	53205.58
572.987	53286.48
573.349	53398.12
573.71	53530.77
574.071	53517.43
574.432	53697.54
574.794	53824.09
575.155	53885.79
575.516	53753.81
575.877	53921.04
576.238	54051.66
576.599	54153.58
576.96	54087.14
577.32	54127.14
577.681	54285.78
578.042	54302.72
578.403	54221.37
578.763	54275.15
579.124	54390.41
579.485	54474.25
579.845	54616.61
580.206	54554.47
580.566	54558.76
580.927	54636.05
581.287	54634.24
581.648	54620
582.008	54698.42
582.368	54677.86
582.728	54707.01
583.089	54591.76
583.449	54679.66
583.809	54663.85
584.169	54750.85
584.529	54791.75
584.889	54950.84
585.249	54749.49
585.609	54712.66
585.969	54834.46
586.329	54741.58
586.688	54872.65
587.048	54747.68
587.408	54761.02
587.768	54810.73
588.127	54710.62
588.487	54800.11
588.846	54966.89
589.206	54725.76
589.565	54811.64
589.925	54862.94
590.284	54755.14
590.643	54819.32
591.003	54915.82
591.362	54936.61
591.721	54900.22
592.08	54999.88
592.44	55018.86
592.799	55041.01
593.158	54859.32
593.517	54983.61
593.876	54986.1
594.235	54845.54
594.593	54886.44
594.952	55111.52
595.311	54936.15
595.67	55019.77
596.029	55194.68
596.387	55183.61
596.746	55177.73
597.104	55130.73
597.463	55107.68
597.822	55167.56
598.18	55066.77
598.538	55126.43
598.897	55248.46
599.255	55020.45
599.613	55430.6
599.972	55205.53
600.33	55372.3
600.688	55247.33
601.046	55384.5
601.404	55391.74
601.762	55443.94
602.12	55489.13
602.478	55544.05
602.836	55570.94
603.194	55411.4
603.552	55417.95
603.91	55357.84
604.268	55515.35
604.625	55425.41
604.983	55581.34
605.341	55432.41
605.698	55642.8
606.056	55667.21
606.413	55590.37
606.771	55722.12
607.128	55753.08
607.485	55577.95
607.843	55598.74
608.2	55838.5
608.557	55914.89
608.914	55769.13
609.272	55867.2
609.629	55948.11
609.986	56007.99
610.343	55903.36
610.7	56078.27
611.057	56098.61
611.414	55989.69
611.771	55999.4
612.127	56150.13
612.484	56107.42
612.841	56234.43
613.198	56129.12
613.554	56129.8
613.911	56273.97
614.267	56287.76
614.624	56243.46
614.98	56231.94
615.337	56403.46
615.693	56349.9
616.05	56270.81
616.406	56449.11
616.762	56358.49
617.118	56411.6
617.475	56399.39
617.831	56427.87
618.187	56524.36
618.543	56472.39
618.899	56598.71
619.255	56535.66
619.611	56621.76
619.967	56570.01
620.323	56647.07
620.678	56502.67
621.034	56432.39
621.39	56549.9
621.746	56532.72
622.101	56711.02
622.457	56537.69
622.812	56593.96
623.168	56622.89
623.523	56676.9
623.879	56728.65
624.234	56538.37
624.589	56607.52
624.945	56619.5
625.3	56672.61
625.655	56610.46
626.01	56616.34
626.365	56689.1
626.72	56571.37
627.075	56604.81
627.43	56598.71
627.785	56493.85
628.14	56550.8
628.495	56607.3
628.85	56573.4
629.205	56467.41
629.559	56598.26
629.914	56464.02
630.269	56473.74
630.623	56398.94
630.978	56438.04
631.332	56465.61
631.687	56520.75
632.041	56343.12
632.396	56311.26
632.75	56212.73
633.104	56422.67
633.459	56201.88
633.813	56173.64
634.167	56183.81
634.521	56173.41
634.875	56213.18
635.229	56142
635.583	55905.85
635.937	55938.84
636.291	55933.19
636.645	55913.76
636.999	55927.99
637.352	55971.61
637.706	55794.89
638.06	55938.61
638.413	55826.98
638.767	55719.18
639.121	55805.74
639.474	55493.65
639.828	55577.95
640.181	55608.45
640.534	55661.33
640.888	55563.93
641.241	55407.55
641.594	55455.69
641.947	55523.48
642.301	55440.55
642.654	55459.76
643.007	55462.92
643.36	55375.46
643.713	55334.34
644.066	55325.75
644.419	55119.88
644.771	55010.73
645.124	54682.6
645.477	54729.15
645.83	54406.22
646.182	54362.16
646.535	54375.49
646.888	54297.98
647.24	54229.05
647.593	54359.67
647.945	54282.39
648.298	54109.96
648.65	54087.82
649.002	53922.62
649.355	54109.06
649.707	54072.67
650.059	54095.95
650.411	54461.59
650.763	54576.39
651.115	54784.29
651.467	54702.26
651.819	54699.1
652.171	54591.98
652.523	54494.13
652.875	54502.72
653.227	54373.68
653.578	54574.81
653.93	54465.66
654.282	54359.22
654.633	54230.41
654.985	54262.95
655.337	54312.44
655.688	54233.12
656.039	54307.7
656.391	54018.44
656.742	54182.73
657.094	54140.7
657.445	54163.07
657.796	54222.27
658.147	54023.18
658.498	54028.83
658.849	54118.1
659.2	54031.55
659.551	53983.64
659.902	54048.72
660.253	54039.68
660.604	54079.45
660.955	53912.45
661.306	53966.46
661.656	53853.7
662.007	53930.53
662.358	53919.23
662.708	53814.15
663.059	53755.39
663.409	53650.31
663.76	53832.45
664.11	53762.63
664.461	53808.27
664.811	53778.9
665.161	53766.92
665.511	53622.52
665.862	53688.28
666.212	53787.26
666.562	53768.5
666.912	53662.74
667.262	53599.69
667.612	53595.85
667.962	53733.47
668.312	53633.59
668.662	53697.99
669.011	53548.17
669.361	53491.9
669.711	53510.2
670.06	53462.97
670.41	53344.11
670.76	53337.78
671.109	53431.11
671.459	53395.18
671.808	53349.3
672.157	53340.94
672.507	53183.66
672.856	53224.79
673.205	53279.25
673.554	53322.86
673.904	53157.67
674.253	53337.1
674.602	53146.14
674.951	52778.02
675.3	52539.38
675.649	53069.31
675.998	53027.05
676.346	53078.58
676.695	53103.43
677.044	52896.21
677.393	53040.39
677.741	52994.28
678.09	52862.54
678.438	52888.98
678.787	52949.54
679.135	52907.28
679.484	52646.27
679.832	52822.54
680.181	52524.01
680.529	52639.49
680.877	52555.43
681.225	52549.32
681.573	52696.89
681.922	52413.73
682.27	52376.67
682.618	52420.06
682.966	52256
683.314	52336.9
683.661	52303.91
684.009	52034.99
684.357	51930.36
684.705	51874.31
685.053	51926.29
685.4	51903.24
685.748	51800.19
686.095	51701.89
686.443	51582.57
686.79	51560.42
687.138	51621.44
687.485	51543.7
687.832	51451.05
688.18	51395
688.527	51329.02
688.874	51276.14
689.221	51240.88
689.568	50975.81
689.915	50962.02
690.262	51011.51
690.609	50842.7
690.956	50776.72
691.303	50731.07
691.65	50517.74
691.997	50600.68
692.344	50321.81
692.69	50272.55
693.037	50261.48
693.383	50116.39
693.73	50127.47
694.077	49928.15
694.423	49864.88
694.769	49769.74
695.116	49637.31
695.462	49526.13
695.808	49503.53
696.155	49367.04
696.501	49279.81
696.847	49207.94
697.193	49009.3
697.539	49195.29
697.885	48773.38
698.231	48660.39
698.577	48646.15
698.923	48470.56
699.269	48322.09
699.614	48297.91
699.96	48210.23
700.306	48124.36
700.651	48017.24
700.997	47966.17
701.342	47818.6
701.688	47739.28
702.033	47671.49
702.379	47648.89
702.724	47498.38
703.069	47527.76
703.415	47101.78
703.76	47164.16
704.105	47113.99
704.45	46972.52
704.795	46716.03
705.14	46633.55
705.485	46727.33
705.83	46441.91
706.175	46628.12
706.52	46362.37
706.865	46095.48
707.209	46213.9
707.554	46121.02
707.899	46109.49
708.243	45944.75
708.588	45768.94
708.932	45633.57
709.277	45501.83
709.621	45471.54
709.966	45166.24
710.31	45421.83
710.654	44930.99
710.998	45048.73
711.342	44980.94
711.687	44855.29
712.031	44696.88
712.375	44663.2
712.719	44627.27
713.063	44596.31
713.407	44684.45
713.75	44393.61
714.094	44267.28
714.438	44161.52
714.782	44246.49
715.125	43911.36
715.469	44092.15
715.812	43837.01
716.156	43634.76
716.499	43697.13
716.843	43653.74
717.186	43444.93
717.53	43750.91
717.873	43626.62
718.216	43518.6
718.559	43206.75
718.902	43026.19
719.246	43085.84
719.589	42944.38
719.932	42727.21
720.275	42885.17
720.617	42843.14
720.96	42723.59
721.303	42697.38
721.646	42733.09
721.989	42410.83
722.331	42437.27
722.674	42416.48
723.016	42332.87
723.359	42202.48
723.701	42195.25
724.044	41967
724.386	41791.42
724.729	41906.89
725.071	41878.42
725.413	41879.32
725.755	41840
726.097	41578.31
726.439	41436.62
726.782	41419.9
727.124	41598.43
727.465	41333.12
727.807	41331.09
728.149	41083.86
728.491	41096.52
728.833	41155.95
729.175	41020.81
729.516	40849.75
729.858	40830.99
730.199	40927.26
730.541	40766.36
730.882	40568.85
731.224	40857.65
731.565	40414.73
731.906	40498.34
732.248	40519.36
732.589	40146.94
732.93	40219.03
733.271	40140.61
733.612	40173.15
733.953	40227.16
734.294	40201.85
734.635	40019.71
734.976	39919.15
735.317	39787.4
735.658	39816.78
735.999	39762.09
736.339	39582.66
736.68	39750.79
737.021	39517.35
737.361	39328.43
737.702	39546.28
738.042	39468.76
738.383	39359.16
738.723	39287.3
739.063	39160.75
739.404	39247.53
739.744	39033.52
740.084	38955.78
740.424	39007.08
740.764	38876.01
741.104	38951.04
741.444	38706.98
741.784	38671.05
742.124	38708.11
742.464	38566.64
742.804	38579.52
743.143	38374.78
743.483	38460.88
743.823	38306.54
744.162	38133.88
744.502	38356.48
744.841	38101.12
745.181	38153.09
745.52	38029.71
745.86	38069.71
746.199	38089.59
746.538	37860.22
746.877	37923.27
747.216	37902.25
747.556	37701.58
747.895	37695.03
748.234	37409.16
748.573	37366.67
748.911	37548.59
749.25	37453.45
749.589	37224.3
749.928	37222.04
750.267	37271.31
750.605	37164.64
750.944	37086.68
751.283	36855.27
751.621	36938.44
751.96	36692.57
752.298	36583.87
