Data from White_paper_FLMS001491_085.txt Node
Date: Tue Feb 07 10:35:40 GMT 2017
User: dcchb
Spectrometer: FLMS00149
Trigger mode: 0
Integration Time (sec): 2.000000E-2
Scans to average: 10
Electric dark correction enabled: true
Nonlinearity correction enabled: false
Boxcar width: 0
XAxis mode: Wavelengths
Number of Pixels in Spectrum: 2048
>>>>>Begin Spectral Data<<<<<
341.393	-18.77
341.776	-18.77
342.16	-18.77
342.543	-51.54
342.927	-49.28
343.31	-74.14
343.693	-56.96
344.077	-59.45
344.46	-55.38
344.843	-46.57
345.226	-50.63
345.61	-36.62
345.993	-10.86
346.376	2.02
346.759	8.35
347.142	31.4
347.525	19.65
347.908	63.04
348.291	73.43
348.674	69.81
349.057	122.92
349.44	139.87
349.823	140.32
350.206	170.6
350.588	230.04
350.971	239.98
351.354	250.6
351.737	261.9
352.119	270.49
352.502	284.27
352.884	306.42
353.267	308.45
353.65	301.9
354.032	343.93
354.414	348.23
354.797	352.07
355.179	354.33
355.562	344.38
355.944	366.76
356.326	370.82
356.709	368.56
357.091	362.24
357.473	400.88
357.855	362.24
358.238	385.74
358.62	371.5
359.002	376.93
359.384	391.84
359.766	367.21
360.148	373.76
360.53	370.15
360.912	384.61
361.294	381.44
361.676	363.14
362.057	379.41
362.439	378.51
362.821	364.5
363.203	349.58
363.584	350.49
363.966	362.01
364.348	372.86
364.729	352.97
365.111	352.07
365.493	353.65
365.874	358.39
366.256	346.42
366.637	364.95
367.019	374.89
367.4	369.69
367.781	367.43
368.163	356.13
368.544	364.95
368.925	371.28
369.306	380.09
369.688	364.5
370.069	367.43
370.45	350.71
370.831	371.05
371.212	372.63
371.593	353.65
371.974	378.06
372.355	350.71
372.736	375.57
373.117	364.72
373.498	357.72
373.879	392.74
374.26	363.59
374.641	378.73
375.021	378.06
375.402	356.13
375.783	374.21
376.163	381.44
376.544	387.77
376.925	388.68
377.305	393.2
377.686	365.85
378.066	381.67
378.447	390.94
378.827	397.04
379.208	378.28
379.588	405.85
379.968	413.99
380.349	405.85
380.729	428
381.109	401.33
381.489	420.77
381.87	407.21
382.25	402.01
382.63	411.73
383.01	418.51
383.39	435.23
383.77	437.04
384.15	442.69
384.53	456.92
384.91	430.48
385.29	444.04
385.67	453.99
386.049	447.43
386.429	467.77
386.809	478.84
387.189	467.09
387.568	472.29
387.948	463.93
388.328	471.39
388.707	467.09
389.087	476.58
389.466	474.32
389.846	473.87
390.225	501.44
390.605	492.63
390.984	495.11
391.363	529.92
391.743	517.49
392.122	516.81
392.501	519.75
392.881	545.73
393.26	517.49
393.639	552.51
394.018	551.84
394.397	555.9
394.776	545.06
395.155	560.65
395.534	566.75
395.913	562.91
396.292	570.14
396.671	565.85
397.05	573.08
397.429	598.16
397.808	609.69
398.186	594.55
398.565	609.01
398.944	629.12
399.323	615.79
399.701	630.7
400.08	639.29
400.458	625.73
400.837	659.86
401.215	667.99
401.594	671.61
401.972	677.48
402.351	674.32
402.729	690.82
403.107	722.68
403.486	722.68
403.864	707.54
404.242	748.44
404.62	750.93
404.999	755.45
405.377	790.02
405.755	762.68
406.133	815.56
406.511	826.18
406.889	814.65
407.267	873.86
407.645	870.7
408.023	900.53
408.401	922.45
408.779	944.37
409.156	962.67
409.534	973.97
409.912	1019.17
410.29	1013.97
410.667	1040.18
411.045	1080.18
411.422	1070.47
411.8	1129.67
412.178	1154.98
412.555	1169.9
412.933	1199.95
413.31	1229.56
413.687	1247.64
414.065	1273.85
414.442	1319.05
414.819	1341.19
415.197	1357.46
415.574	1386.39
415.951	1426.39
416.328	1455.54
416.705	1457.12
417.082	1508.87
417.46	1497.8
417.837	1566.72
418.214	1550.68
418.591	1578.25
418.967	1644.69
419.344	1626.38
419.721	1686.95
420.098	1679.26
420.475	1726.49
420.852	1756.55
421.228	1781.63
421.605	1818.02
421.982	1847.39
422.358	1852.59
422.735	1876.32
423.111	1895.3
423.488	1927.39
423.864	1992.48
424.241	1986.37
424.617	1998.8
424.994	2032.47
425.37	2048.75
425.746	2082.19
426.123	2097.56
426.499	2125.58
426.875	2155.64
427.251	2229.53
427.627	2295.97
428.003	2299.59
428.379	2294.16
428.756	2358.34
429.132	2378
429.507	2432.01
429.883	2449.64
430.259	2501.39
430.635	2526.7
431.011	2527.6
431.387	2600.82
431.763	2630.88
432.138	2672.23
432.514	2723.08
432.89	2716.52
433.265	2851.89
433.641	2831.32
434.016	2849.18
434.392	2908.16
434.767	2975.95
435.143	2970.76
435.518	2997.65
435.894	3104.31
436.269	3100.47
436.644	3145.44
437.02	3169.85
437.395	3198.09
437.77	3288.26
438.145	3273.35
438.52	3333.01
438.895	3378.43
439.271	3382.95
439.646	3467.69
440.021	3492.32
440.395	3511.08
440.77	3507.24
441.145	3527.58
441.52	3591.76
441.895	3575.94
442.27	3616.61
442.645	3654.13
443.019	3691.87
443.394	3681.47
443.769	3717.63
444.143	3696.39
444.518	3751.07
444.892	3782.71
445.267	3827.46
445.641	3827.46
446.016	3842.37
446.39	3893.89
446.764	3900.9
447.139	3915.36
447.513	3976.38
447.887	3944.06
448.262	3977.96
448.636	3985.42
449.01	4063.61
449.384	4104.51
449.758	4150.39
450.132	4208.01
450.506	4212.98
450.88	4222.02
451.254	4262.47
451.628	4316.26
452.002	4356.93
452.376	4351.74
452.75	4414.11
453.123	4458.85
453.497	4580.88
453.871	4551.96
454.244	4660.88
454.618	4697.94
454.992	4767.32
455.365	4752.4
455.739	4880.31
456.112	4882.57
456.486	4942.23
456.859	4980.42
457.232	5087.76
457.606	5109.23
457.979	5153.07
458.352	5283.46
458.725	5310.35
459.099	5373.4
459.472	5471.03
459.845	5476
460.218	5565.04
460.591	5652.72
460.964	5642.32
461.337	5808.19
461.71	5830.57
462.083	5902.88
462.456	5947.17
462.829	5958.02
463.201	6107.4
463.574	6084.35
463.947	6260.61
464.32	6320.05
464.692	6399.59
465.065	6452.25
465.438	6522.07
465.81	6704.89
466.183	6711
466.555	6914.38
466.928	6881.39
467.3	6863.99
467.672	7024.66
468.045	7217.88
468.417	7242.06
468.789	7258.78
469.161	7364.09
469.534	7518.66
469.906	7691.99
470.278	7718.2
470.65	7801.81
471.022	7995.03
471.394	8139.88
471.766	8188.25
472.138	8270.95
472.51	8408.8
472.882	8524.51
473.253	8677.95
473.625	8768.34
473.997	9021.67
474.369	9020.77
474.74	9191.83
475.112	9389.57
475.484	9470.47
475.855	9599.06
476.227	9686.51
476.598	10036.33
476.97	10099.38
477.341	10244.69
477.713	10433.84
478.084	10472.93
478.455	10792.02
478.827	10848.51
479.198	11203.76
479.569	11258.67
479.94	11576.86
480.311	11625.89
480.682	11848.04
481.053	12099.33
481.424	12368.47
481.795	12365.31
482.166	12656.6
482.537	12786.09
482.908	13014.56
483.279	13156.93
483.65	13440.31
484.021	13607.99
484.391	13831.71
484.762	13933.86
485.133	14076.23
485.503	14298.14
485.874	14558.25
486.244	14681.18
486.615	14954.85
486.985	15092.02
487.356	15447.04
487.726	15516.87
488.097	15833.24
488.467	15927.93
488.837	16210.86
489.207	16420.57
489.578	16628.48
489.948	16793.67
490.318	16959.77
490.688	17096.26
491.058	17348.23
491.428	17608.79
491.798	17714.77
492.168	18057.14
492.538	18100.07
492.908	18303.01
493.278	18526.73
493.648	18637.46
494.017	18969.88
494.387	19066.6
494.757	19055.08
495.126	19362.87
495.496	19456.2
495.866	19572.35
496.235	19764.21
496.605	19989.74
496.974	20046.92
497.344	20197.87
497.713	20388.38
498.082	20535.04
498.452	20667.69
498.821	20862.04
499.19	20926.67
499.559	21020.68
499.928	21371.18
500.298	21323.27
500.667	21552.19
501.036	21644.16
501.405	21809.81
501.774	21804.38
502.143	22104.26
502.512	22131.83
502.88	22275.78
503.249	22365.05
503.618	22610.24
503.987	22713.51
504.356	22761.2
504.724	22910.12
505.093	23059.49
505.462	23174.97
505.83	23346.94
506.199	23454.06
506.567	23827.16
506.936	23815.18
507.304	24043.65
507.672	24223.76
508.041	24318.89
508.409	24416.07
508.777	24625.55
509.145	24888.6
509.514	24919.56
509.882	25079.33
510.25	25118.65
510.618	25394.12
510.986	25449.94
511.354	25746.43
511.722	25861.9
512.09	26078.4
512.458	25987.1
512.826	26359.07
513.193	26496.92
513.561	26504.6
513.929	26832.73
514.297	27004.25
514.664	27115.43
515.032	27341.87
515.4	27501.18
515.767	27649.43
516.135	27720.39
516.502	27667.73
516.869	28116.99
517.237	28240.15
517.604	28247.15
517.972	28522.4
518.339	28794.48
518.706	28870.87
519.073	28997.87
519.44	29175.94
519.808	29451.64
520.175	29490.74
520.542	29811.18
520.909	30072.64
521.276	30093.88
521.643	30389.47
522.009	30547.21
522.376	30753.53
522.743	30885.05
523.11	31337.92
523.477	31507.41
523.843	31717.12
524.21	32044.34
524.577	32219.7
524.943	32344.45
525.31	32553.03
525.676	32870.31
526.043	32957.09
526.409	33124.54
526.776	33480.46
527.142	33604.75
527.508	33687.01
527.874	34037.73
528.241	34203.83
528.607	34311.85
528.973	34645.63
529.339	34584.39
529.705	35017.82
530.071	35271.6
530.437	35362.22
530.803	35502.78
531.169	35821.87
531.535	35761.53
531.901	36013.28
532.267	36201.29
532.632	36282.2
532.998	36485.13
533.364	36610.1
533.73	36703.65
534.095	37156.07
534.461	37211.66
534.826	37287.37
535.192	37648.04
535.557	37810.07
535.923	37709.5
536.288	37975.03
536.653	38243.05
537.019	38157.85
537.384	38355.36
537.749	38539.31
538.114	38606.2
538.479	38756.71
538.845	38916.25
539.21	38916.93
539.575	39049.35
539.94	39200.76
540.305	39529.34
540.67	39440.53
541.034	39598.27
541.399	39769.34
541.764	39934.3
542.129	40066.28
542.494	40159.16
542.858	40277.8
543.223	40275.99
543.587	40665.36
543.952	40675.75
544.316	40858.12
544.681	40821.29
545.045	41008.85
545.41	41353.02
545.774	41347.15
546.138	41541.27
546.503	41607.25
546.867	41637.08
547.231	41935.61
547.595	41986.23
547.959	42259.21
548.324	42362.04
548.688	42225.77
549.052	42458.53
549.416	42610.16
549.779	42658.3
550.143	42632.99
550.507	42935.81
550.871	43058.06
551.235	43089.25
551.599	43404.72
551.962	43544.6
552.326	43727.88
552.689	43899.62
553.053	43757.71
553.417	43911.37
553.78	44328.76
554.143	44096.23
554.507	44391.14
554.87	44609.43
555.234	44937.11
555.597	44847.17
555.96	44939.37
556.323	45214.62
556.686	45180.49
557.05	45548.84
557.413	45519.47
557.776	45712.46
558.139	46018.44
558.502	45889.4
558.865	46149.73
559.228	46367.13
559.59	46494.13
559.953	46650.51
560.316	47030.84
560.679	47007.34
561.041	47201.46
561.404	47218.86
561.767	47573.42
562.129	47511.73
562.492	47857.26
562.854	47826.3
563.217	47946.3
563.579	48173.86
563.941	48413.85
564.304	48485.72
564.666	48724.13
565.028	48815.43
565.39	48833.5
565.753	49092.71
566.115	49158.24
566.477	49441.4
566.839	49443.66
567.201	49757.32
567.563	49766.59
567.925	49981.27
568.287	50138.78
568.648	50124.77
569.01	50299.91
569.372	50536.74
569.734	50501.26
570.095	50690.18
570.457	50839.78
570.819	50961.81
571.18	51049.04
571.542	51143.5
571.903	51261.69
572.265	51406.09
572.626	51543.04
572.987	51637.5
573.349	51663.71
573.71	51820.09
574.071	51932.63
574.432	52040.43
574.794	52183.92
575.155	52188.9
575.516	52123.81
575.877	52320.42
576.238	52279.97
576.599	52508.89
576.96	52578.26
577.32	52569.9
577.681	52746.4
578.042	52771.48
578.403	52860.06
578.763	52860.29
579.124	52913.62
579.485	53033.39
579.845	53052.15
580.206	53089.89
580.566	53088.08
580.927	53134.41
581.287	53375.08
581.648	53227.74
582.008	53333.95
582.368	53337.79
582.728	53425.25
583.089	53407.17
583.449	53293.95
583.809	53439.71
584.169	53566.49
584.529	53585.7
584.889	53739.59
585.249	53517.67
585.609	53505.47
585.969	53660.95
586.329	53651.68
586.688	53712.25
587.048	53588.18
587.408	53648.29
587.768	53712.02
588.127	53768.29
588.487	53800.83
588.846	53987.04
589.206	53689.65
589.565	53816.65
589.925	53875.63
590.284	53826.82
590.643	53878.12
591.003	53993.82
591.362	53991.56
591.721	53938.68
592.08	54017.55
592.44	54101.16
592.799	54076.3
593.158	54056.19
593.517	54076.76
593.876	54072.91
594.235	54030.2
594.593	54134.61
594.952	54143.87
595.311	54051.9
595.67	54161.27
596.029	54329.86
596.387	54360.14
596.746	54404.88
597.104	54264.1
597.463	54291.67
597.822	54455.05
598.18	54332.57
598.538	54315.17
598.897	54423.87
599.255	54224.55
599.613	54635.16
599.972	54418.89
600.33	54562.17
600.688	54422.06
601.046	54571.21
601.404	54682.16
601.762	54640.36
602.12	54725.78
602.478	54691.66
602.836	54728.72
603.194	54554.71
603.552	54631.09
603.91	54595.61
604.268	54835.83
604.625	54666.35
604.983	54815.72
605.341	54691.43
605.698	54842.16
606.056	54873.57
606.413	54817.75
606.771	54915.83
607.128	55009.84
607.485	54838.09
607.843	54975.49
608.2	55014.81
608.557	55090.97
608.914	55031.08
609.272	55135.26
609.629	55228.59
609.986	55289.15
610.343	55162.6
610.7	55325.99
611.057	55284.86
611.414	55233.56
611.771	55316.5
612.127	55430.62
612.484	55345.2
612.841	55475.36
613.198	55360.79
613.554	55384.52
613.911	55614.57
614.267	55555.14
614.624	55485.31
614.98	55549.26
615.337	55632.2
615.693	55599.2
616.05	55564.85
616.406	55711.52
616.762	55615.02
617.118	55632.42
617.475	55640.1
617.831	55686.88
618.187	55666.32
618.543	55737.73
618.899	55857.5
619.255	55813.43
619.611	55862.7
619.967	55852.53
620.323	55886.65
620.678	55817.28
621.034	55797.84
621.39	55784.96
621.746	55749.25
622.101	56039.87
622.457	55821.57
622.812	55917.16
623.168	55903.15
623.523	55857.27
623.879	56002.58
624.234	55766.66
624.589	55904.28
624.945	56049.13
625.3	55996.93
625.655	55947.22
626.01	55912.41
626.365	55972.07
626.72	56016.14
627.075	55876.48
627.43	55930.27
627.785	55902.47
628.14	55954.45
628.495	56034.22
628.85	55944.96
629.205	55882.13
629.559	56108.79
629.914	55936.59
630.269	55919.19
630.623	55889.59
630.978	55882.81
631.332	55956.71
631.687	55989.7
632.041	55804.39
632.396	55921.91
632.75	55844.62
633.104	55899.98
633.459	55728.01
633.813	55774.79
634.167	55807.11
634.521	55739.09
634.875	55761.23
635.229	55781.12
635.583	55679.43
635.937	55688.92
636.291	55543.16
636.645	55617.28
636.999	55659.31
637.352	55722.59
637.706	55485.53
638.06	55599.2
638.413	55589.26
638.767	55533.67
639.121	55586.09
639.474	55351.75
639.828	55461.13
640.181	55490.73
640.534	55567.11
640.888	55452.09
641.241	55361.02
641.594	55276.27
641.947	55424.07
642.301	55295.71
642.654	55357.85
643.007	55347.23
643.36	55328.47
643.713	55284.63
644.066	55404.18
644.419	55175.48
644.771	54995.15
645.124	54787.02
645.477	54743.41
645.83	54646.91
646.182	54536.63
646.535	54409.4
646.888	54563.75
647.24	54387.71
647.593	54540.92
647.945	54418.67
648.298	54324.43
648.65	54227.03
649.002	54278.11
649.355	54305
649.707	54339.12
650.059	54433.81
650.411	54760.13
650.763	54833.12
651.115	55141.13
651.467	54977.3
651.819	54949.28
652.171	54898.43
652.523	54916.96
652.875	54877.19
653.227	54714.25
653.578	54938.2
653.93	54865.66
654.282	54679.45
654.633	54704.31
654.985	54766
655.337	54689.4
655.688	54761.71
656.039	54764.87
656.391	54579.79
656.742	54543.41
657.094	54654.59
657.445	54754.48
657.796	54707.7
658.147	54625.22
658.498	54632
658.849	54724.2
659.2	54644.88
659.551	54577.76
659.902	54626.12
660.253	54486.69
660.604	54624.99
660.955	54536.41
661.306	54622.96
661.656	54513.81
662.007	54543.41
662.358	54472.23
662.708	54504.32
663.059	54546.57
663.409	54329.63
663.76	54501.6
664.11	54483.07
664.461	54515.39
664.811	54493.24
665.161	54483.98
665.511	54345.68
665.862	54412.79
666.212	54493.24
666.562	54431.55
666.912	54387.71
667.262	54374.83
667.612	54402.85
667.962	54350.42
668.312	54292.8
668.662	54495.73
669.011	54361.04
669.361	54284.89
669.711	54317.65
670.06	54211.44
670.41	54199.46
670.76	54113.59
671.109	54290.99
671.459	54184.55
671.808	54130.54
672.157	54196.75
672.507	53993.59
672.856	53978.91
673.205	54175.74
673.554	54123.53
673.904	53951.56
674.253	54103.65
674.602	53961.5
674.951	53592.02
675.3	53321.07
675.649	53783.88
675.998	53772.13
676.346	53798.35
676.695	53902.3
677.044	53670.44
677.393	53697.78
677.741	53846.48
678.09	53624.11
678.438	53565.58
678.787	53697.33
679.135	53634.51
679.484	53401.97
679.832	53489.2
680.181	53407.4
680.529	53453.04
680.877	53392.93
681.225	53345.48
681.573	53527.17
681.922	53207.17
682.27	53058.93
682.618	53127.63
682.966	53085.6
683.314	53134.63
683.661	52965.37
684.009	52787.52
684.357	52766.28
684.705	52757.24
685.053	52777.81
685.4	52634.53
685.748	52560.86
686.095	52520.64
686.443	52487.42
686.79	52336.91
687.138	52431.38
687.485	52440.64
687.832	52120.65
688.18	52260.98
688.527	51978.05
688.874	52075.23
689.221	51900.77
689.568	51901.22
689.915	51781.45
690.262	51803.14
690.609	51643.15
690.956	51536.71
691.303	51528.35
691.65	51377.17
691.997	51253.55
692.344	51062.15
692.69	51063.5
693.037	51068.93
693.383	50874.58
693.73	50951.64
694.077	50655.38
694.423	50715.04
694.769	50565.89
695.116	50437.08
695.462	50454.7
695.808	50238.89
696.155	50419.45
696.501	50092.68
696.847	50040.48
697.193	49842.07
697.539	50064.88
697.885	49724.55
698.231	49625.57
698.577	49710.77
698.923	49531.11
699.269	49466.71
699.614	49076.21
699.96	49256.54
700.306	49092.71
700.651	49028.75
700.997	48949.43
701.342	48853.84
701.688	48829.21
702.033	48678.71
702.379	48679.84
702.724	48463.12
703.069	48618.14
703.415	48111.26
703.76	48236.23
704.105	48180.19
704.45	48148.1
704.795	47839.18
705.14	47812.06
705.485	47805.51
705.83	47496.36
706.175	47591.05
706.52	47497.27
706.865	47316.71
707.209	47261.79
707.554	47145.41
707.899	47296.82
708.243	46950.39
708.588	47021.57
708.932	46708.36
709.277	46721.02
709.621	46853.67
709.966	46422.95
710.31	46586.11
710.654	46231.76
710.998	46300.46
711.342	46290.52
711.687	46153.12
712.031	46020.47
712.375	45875.84
712.719	45910.19
713.063	45799.23
713.407	45945.44
713.75	45580.93
714.094	45582.29
714.438	45545
714.782	45566.7
715.125	45304.11
715.469	45290.32
715.812	45163.77
716.156	44932.36
716.499	44964.45
716.843	44946.15
717.186	44777.57
717.53	45016.66
717.873	44881.07
718.216	44809.88
718.559	44607.85
718.902	44334.41
719.246	44540.96
719.589	44371.7
719.932	44227.07
720.275	44292.15
720.617	44101.43
720.96	44130.58
721.303	44044.93
721.646	44050.13
721.989	43771.72
722.331	43878.15
722.674	43740.3
723.016	43751.15
723.359	43694.66
723.701	43757.48
724.044	43344.16
724.386	43290.15
724.729	43483.14
725.071	43362.01
725.413	43325.63
725.755	43332.63
726.097	43127.44
726.439	42986.43
726.782	43015.58
727.124	43165.86
727.465	42915.92
727.807	42783.49
728.149	42721.35
728.491	42663.72
728.833	42574.46
729.175	42528.13
729.516	42361.13
729.858	42417.63
730.199	42458.08
730.541	42324.3
730.882	42342.15
731.224	42462.82
731.565	42171.98
731.906	42258.99
732.248	42262.15
732.589	41932.44
732.93	41817.64
733.271	41843.63
733.612	41952.1
733.953	41816.74
734.294	41761.15
734.635	41647.03
734.976	41669.62
735.317	41513.02
735.658	41479.12
735.999	41408.39
736.339	41352.12
736.68	41481.83
737.021	41269.86
737.361	41128.62
737.702	41328.39
738.042	41161.39
738.383	41053.6
738.723	41107.61
739.063	40972.69
739.404	41091.11
739.744	41013.82
740.084	40640.5
740.424	40825.58
740.764	40704.68
741.104	40826.48
741.444	40482.76
741.784	40527.73
742.124	40604.79
742.464	40497.45
742.804	40373.39
743.143	40334.74
743.483	40239.15
743.823	40133.39
744.162	40067.86
744.502	40248.42
744.841	39929.78
745.181	40130
745.52	40000.52
745.86	40032.61
746.199	39838.94
746.538	39730.47
746.877	39834.64
747.216	39783.35
747.556	39734.31
747.895	39650.92
748.234	39444.6
748.573	39408.67
748.911	39273.98
749.25	39229.69
749.589	39168.67
749.928	39319.18
750.267	39414.09
750.605	39096.81
750.944	38961.67
751.283	38994.44
751.621	38874.9
751.96	38761.9
752.298	38751.96
752.636	38817.95
