Data from White_paper_FLMS001491_067.txt Node
Date: Tue Feb 07 10:35:25 GMT 2017
User: dcchb
Spectrometer: FLMS00149
Trigger mode: 0
Integration Time (sec): 2.000000E-2
Scans to average: 10
Electric dark correction enabled: true
Nonlinearity correction enabled: false
Boxcar width: 0
XAxis mode: Wavelengths
Number of Pixels in Spectrum: 2048
>>>>>Begin Spectral Data<<<<<
341.393	-15.88
341.776	-15.88
342.16	-15.88
342.543	-76.21
342.927	-57.91
343.31	-72.37
343.693	-74.18
344.077	-71.92
344.46	-46.83
344.843	-46.16
345.226	-43.22
345.61	-22.2
345.993	-20.17
346.376	-6.16
346.759	7.4
347.142	29.77
347.525	24.12
347.908	70.9
348.291	99.15
348.674	78.36
349.057	93.5
349.44	124.46
349.823	152.93
350.206	178.92
350.588	206.72
350.971	243.33
351.354	264.57
351.737	275.19
352.119	280.84
352.502	272.93
352.884	273.61
353.267	312.25
353.65	312.03
354.032	326.94
354.414	330.1
354.797	338.01
355.179	344.12
355.562	351.8
355.944	363.32
356.326	359.93
356.709	357.67
357.091	372.36
357.473	371.46
357.855	382.76
358.238	380.05
358.62	382.76
359.002	359.71
359.384	389.54
359.766	368.07
360.148	364.91
360.53	372.82
360.912	385.7
361.294	357.67
361.676	370.78
362.057	375.75
362.439	367.39
362.821	363.55
363.203	361.74
363.584	366.04
363.966	371.01
364.348	389.09
364.729	376.88
365.111	375.98
365.493	350.22
365.874	371.23
366.256	360.39
366.637	366.94
367.019	375.98
367.4	372.36
367.781	367.39
368.163	355.41
368.544	347.28
368.925	366.49
369.306	370.56
369.688	357.9
370.069	357.22
370.45	366.04
370.831	362.65
371.212	356.54
371.593	368.75
371.974	370.56
372.355	372.14
372.736	380.72
373.117	363.32
373.498	366.04
373.879	378.24
374.26	372.14
374.641	376.2
375.021	362.42
375.402	377.56
375.783	377.11
376.163	386.83
376.544	409.65
376.925	401.97
377.305	389.54
377.686	388.86
378.066	383.89
378.447	390.67
378.827	397.67
379.208	396.54
379.588	407.39
379.968	402.64
380.349	412.81
380.729	406.03
381.109	422.31
381.489	417.11
381.87	395.19
382.25	425.02
382.63	429.54
383.01	397
383.39	441.97
383.77	413.94
384.15	428.86
384.53	428.41
384.91	451.01
385.29	451.91
385.67	473.15
386.049	469.08
386.429	456.88
386.809	461.63
387.189	487.39
387.568	478.57
387.948	472.25
388.328	479.48
388.707	486.26
389.087	491.23
389.466	468.41
389.846	481.06
390.225	490.33
390.605	508.86
390.984	512.25
391.363	504.34
391.743	520.83
392.122	535.75
392.501	527.61
392.881	528.74
393.26	532.36
393.639	554.51
394.018	542.3
394.397	562.64
394.776	527.84
395.155	578.69
395.534	565.13
395.913	567.16
396.292	577.33
396.671	594.96
397.05	585.24
397.429	615.07
397.808	600.38
398.186	611.23
398.565	608.74
398.944	625.69
399.323	626.82
399.701	605.13
400.08	639.7
400.458	633.6
400.837	647.84
401.215	668.63
401.594	690.32
401.972	665.46
402.351	686.93
402.729	709.53
403.107	722.64
403.486	736.42
403.864	715.18
404.242	723.09
404.62	729.42
404.999	758.34
405.377	798.57
405.755	778.45
406.133	821.62
406.511	811.45
406.889	850.54
407.267	874.95
407.645	876.53
408.023	897.1
408.401	923.76
408.779	940.03
409.156	980.93
409.534	983.87
409.912	989.97
410.29	1034.94
410.667	1060.03
411.045	1072.23
411.422	1102.97
411.8	1112.91
412.178	1138.67
412.555	1206.24
412.933	1187.48
413.31	1235.39
413.687	1267.25
414.065	1311.32
414.442	1324.65
414.819	1348.83
415.197	1376.86
415.574	1418.21
415.951	1449.85
416.328	1467.48
416.705	1501.82
417.082	1460.02
417.46	1542.73
417.837	1554.7
418.214	1587.92
418.591	1622.73
418.967	1652.56
419.344	1679.45
419.721	1691.88
420.098	1722.84
420.475	1734.59
420.852	1737.98
421.228	1795.6
421.605	1820.91
421.982	1843.96
422.358	1868.82
422.735	1875.37
423.111	1942.27
423.488	1921.25
423.864	1961.02
424.241	1996.05
424.617	2013.22
424.994	2027.46
425.37	2035.82
425.746	2098.19
426.123	2100.68
426.499	2103.39
426.875	2176.61
427.251	2235.59
427.627	2284.86
428.003	2294.57
428.379	2323.72
428.756	2338.87
429.132	2378.19
429.507	2405.76
429.883	2441.46
430.259	2535.24
430.635	2515.58
431.011	2562.36
431.387	2617.05
431.763	2646.2
432.138	2692.98
432.514	2714
432.89	2726.88
433.265	2769.59
433.641	2874.9
434.016	2897.04
434.392	2902.01
434.767	2947.89
435.143	2951.96
435.518	3022.01
435.894	3042.8
436.269	3101.33
436.644	3148.34
437.02	3190.59
437.395	3215.23
437.77	3233.08
438.145	3331.83
438.52	3316.24
438.895	3334.55
439.271	3350.14
439.646	3466.97
440.021	3487.31
440.395	3493.18
440.77	3474.88
441.145	3549
441.52	3571.15
441.895	3601.66
442.27	3667.42
442.645	3640.53
443.019	3706.74
443.394	3697.7
443.769	3751.48
444.143	3729.11
444.518	3784.48
444.892	3771.37
445.267	3814.08
445.641	3862.89
446.016	3890.69
446.39	3907.86
446.764	3906.51
447.139	3923.23
447.513	3956.22
447.887	3994.64
448.262	3971.36
448.636	4027.18
449.01	4090.46
449.384	4103.11
449.758	4133.39
450.132	4201.19
450.506	4232.6
450.88	4208.42
451.254	4228.31
451.628	4272.83
452.002	4348.08
452.376	4381.98
452.75	4470.33
453.123	4481.18
453.497	4464.01
453.871	4568.64
454.244	4624.45
454.618	4701.97
454.992	4705.58
455.365	4745.13
455.739	4879.82
456.112	4899.7
456.486	4965.46
456.859	4980.6
457.232	5132.46
457.606	5060.38
457.979	5150.54
458.352	5261.73
458.725	5314.83
459.099	5335.85
459.472	5461.95
459.845	5488.16
460.218	5569.06
460.591	5635.95
460.964	5625.11
461.337	5785.78
461.71	5833.69
462.083	5887.47
462.456	5947.81
462.829	5949.39
463.201	6080.69
463.574	6126.34
463.947	6251.3
464.32	6333.11
464.692	6379.21
465.065	6419.66
465.438	6561.58
465.81	6630.28
466.183	6684.51
466.555	6882.47
466.928	6897.39
467.3	6860.78
467.672	6969.7
468.045	7206.76
468.417	7167.66
468.789	7238.62
469.161	7395
469.534	7481.1
469.906	7653.75
470.278	7620.76
470.65	7795.67
471.022	7940.07
471.394	8098.04
471.766	8143.01
472.138	8237.92
472.51	8412.6
472.882	8597.01
473.253	8592.94
473.625	8847.85
473.997	8962.65
474.369	9044.68
474.74	9149.08
475.112	9316.76
475.484	9401.73
475.855	9547.26
476.227	9662.29
476.598	9937.76
476.97	10062.05
477.341	10246.23
477.713	10371.87
478.084	10502.04
478.455	10634.47
478.827	10847.57
479.198	11096.83
479.569	11215.02
479.94	11482.81
480.311	11549.92
480.682	11827.43
481.053	12123.24
481.424	12270.13
481.795	12330.01
482.166	12552.83
482.537	12679.61
482.908	13019.94
483.279	13146.49
483.65	13405.69
484.021	13619.47
484.391	13782.41
484.762	13862.18
485.133	13992.34
485.503	14246.35
485.874	14438.66
486.244	14547.13
486.615	14870.96
486.985	15031.19
487.356	15316.6
487.726	15471.85
488.097	15865.97
488.467	15868.23
488.837	16150.03
489.207	16284.26
489.578	16484.26
489.948	16645.38
490.318	16908.2
490.688	17005.15
491.058	17269.77
491.428	17549.99
491.798	17570.78
492.168	17919.7
492.538	18036.08
492.908	18290.99
493.278	18497.08
493.648	18593.58
494.017	18777.08
494.387	19013.45
494.757	19050.74
495.126	19304.29
495.496	19349.72
495.866	19454.57
496.235	19640.56
496.605	19860.44
496.974	19954.9
497.344	20185.85
497.713	20320.31
498.082	20358.28
498.452	20687.99
498.821	20745.39
499.19	20806.85
499.559	20911.03
499.928	21184.7
500.298	21301.53
500.667	21425.59
501.036	21445.03
501.405	21642.54
501.774	21626.27
502.143	21903.32
502.512	22019.48
502.88	22282.07
503.249	22215.18
503.618	22378.11
503.987	22451.1
504.356	22654.72
504.724	22867.59
505.093	22816.52
505.462	22952.79
505.83	23200.92
506.199	23421.02
506.567	23666.67
506.936	23675.48
507.304	24014
507.672	24038.86
508.041	24099.65
508.409	24394.1
508.777	24494.89
509.145	24702.12
509.514	24740.76
509.882	24841.32
510.25	24972.39
510.618	25130.58
510.986	25233.18
511.354	25590.68
511.722	25657.8
512.09	25924.69
512.458	25945.7
512.826	26233.83
513.193	26237.22
513.561	26393.6
513.929	26627.72
514.297	26750.65
514.664	26983.87
515.032	27163.07
515.4	27310.86
515.767	27471.09
516.135	27669.05
516.502	27488.03
516.869	27976.16
517.237	28088.7
517.604	28105.42
517.972	28457.73
518.339	28567.33
518.706	28612.3
519.073	28858.39
519.44	29027.43
519.808	29321.43
520.175	29365.5
520.542	29725.94
520.909	29979.04
521.276	29852.94
521.643	30222.88
522.009	30517.79
522.376	30561.85
522.743	30826.25
523.11	31223.3
523.477	31358.44
523.843	31571.99
524.21	31756.17
524.577	32012.66
524.943	32249.72
525.31	32356.83
525.676	32659.88
526.043	32797.05
526.409	33057.15
526.776	33221.44
527.142	33370.59
527.508	33636.57
527.874	33835.89
528.241	34021.2
528.607	34192.26
528.973	34576.21
529.339	34421.41
529.705	34909.99
530.071	35037.67
530.437	35268.39
530.803	35328.28
531.169	35636.52
531.535	35553.13
531.901	35839.91
532.267	35986.34
532.632	36179.11
532.998	36332.32
533.364	36529.6
533.73	36575.25
534.095	36957.62
534.461	37036.94
534.826	37334.78
535.192	37261.34
535.557	37720.08
535.923	37650.25
536.288	37833.75
536.653	38050.24
537.019	38041.43
537.384	38104.48
537.749	38299.5
538.114	38568.87
538.479	38574.75
538.845	38732.71
539.21	38757.34
539.575	39008.64
539.94	39088.63
540.305	39272.13
540.67	39273.04
541.034	39352.81
541.399	39528.4
541.764	39713.48
542.129	39926.35
542.494	40055.16
542.858	40194.82
543.223	40281.37
543.587	40485.43
543.952	40471.2
544.316	40590.29
544.681	40821.7
545.045	40866.89
545.41	41008.58
545.774	41336.03
546.138	41209.71
546.503	41531.28
546.867	41370.38
547.231	41832.06
547.595	41736.7
547.959	41948.45
548.324	42056.24
548.688	42014.66
549.052	42217.36
549.416	42345.5
549.779	42352.05
550.143	42622.1
550.507	42843.34
550.871	43009.89
551.235	43010.56
551.599	43262.53
551.962	43468.41
552.326	43503.21
552.689	43803.09
553.053	43756.76
553.417	43767.15
553.78	44313.81
554.143	44062.29
554.507	44311.32
554.87	44409.17
555.234	44772.55
555.597	44590.64
555.96	44751.31
556.323	45023.39
556.686	45012.09
557.05	45406.66
557.413	45384.51
557.776	45581.34
558.139	45868.79
558.502	45916.7
558.865	45903.6
559.228	46173.87
559.59	46413.41
559.953	46373.64
560.316	46848.88
560.679	46860.63
561.041	46980.86
561.404	47186.95
561.767	47487.06
562.129	47330.22
562.492	47647.05
562.854	47773.15
563.217	47757.11
563.579	48093.59
563.941	48337.66
564.304	48381.95
564.666	48517.31
565.028	48716.4
565.39	48790.53
565.753	49109.39
566.115	49171.76
566.477	49314.58
566.839	49477.96
567.201	49609.94
567.563	49666.43
567.925	49854.45
568.287	49984.39
568.648	50006.54
569.01	50163.37
569.372	50507.09
569.734	50401.33
570.095	50602.91
570.457	50706.86
570.819	50783.69
571.18	50854.88
571.542	51128.09
571.903	51133.97
572.265	51313.17
572.626	51265.71
572.987	51463.9
573.349	51572.82
573.71	51750
574.071	51728.98
574.432	51874.51
574.794	52109.08
575.155	51962.65
575.516	51938.24
575.877	52154.96
576.238	52265.91
576.599	52379.81
576.96	52322.41
577.32	52432.69
577.681	52618
578.042	52702.51
578.403	52716.3
578.763	52772.34
579.124	52823.64
579.485	52989.28
579.845	53047.14
580.206	52962.17
580.566	52983.64
580.927	53045.78
581.287	53242.16
581.648	53061.37
582.008	53270.18
582.368	53206.91
582.728	53249.84
583.089	53253.23
583.449	53283.97
583.809	53401.7
584.169	53449.84
584.529	53450.29
584.889	53648.93
585.249	53459.33
585.609	53436.73
585.969	53605.77
586.329	53496.16
586.688	53594.69
587.048	53546.11
587.408	53523.06
587.768	53580
588.127	53593.79
588.487	53531.87
588.846	53870.17
589.206	53512.43
589.565	53570.96
589.925	53782.71
590.284	53758.08
590.643	53726.89
591.003	53880.33
591.362	53852.31
591.721	53889.15
592.08	53850.28
592.44	53957.39
592.799	53930.28
593.158	53873.33
593.517	53998.07
593.876	54037.62
594.235	53934.57
594.593	53966.66
594.952	54021.12
595.311	53897.06
595.67	54023.16
596.029	54145.19
596.387	54208.91
596.746	54237.61
597.104	54105.64
597.463	54128.92
597.822	54219.31
598.18	54073.32
598.538	54166.65
598.897	54304.05
599.255	54070.61
599.613	54505.63
599.972	54321.45
600.33	54419.53
600.688	54311.74
601.046	54502.47
601.404	54554.89
601.762	54491.39
602.12	54670.82
602.478	54575.46
602.836	54593.99
603.194	54421.11
603.552	54549.02
603.91	54428.12
604.268	54666.53
604.625	54531.62
604.983	54718.28
605.341	54597.38
605.698	54664.04
606.056	54789.69
606.413	54685.29
606.771	54817.71
607.128	54825.62
607.485	54611.39
607.843	54716.02
608.2	54936.35
608.557	54989.23
608.914	54784.27
609.272	54984.49
609.629	55032.85
609.986	55110.58
610.343	55096.57
610.7	55202.56
611.057	55051.83
611.414	55211.37
611.771	55118.49
612.127	55192.62
612.484	55218.15
612.841	55339.05
613.198	55213.86
613.554	55252.73
613.911	55402.78
614.267	55351.48
614.624	55349
614.98	55305.83
615.337	55545.38
615.693	55474.19
616.05	55428.09
616.406	55565.49
616.762	55491.82
617.118	55516
617.475	55473.06
617.831	55524.81
618.187	55584.47
618.543	55577.92
618.899	55774.75
619.255	55664.02
619.611	55695.2
619.967	55759.61
620.323	55793.28
620.678	55695.65
621.034	55617.01
621.39	55643.9
621.746	55595.32
622.101	55909.21
622.457	55673.06
622.812	55714.41
623.168	55772.94
623.523	55866.95
623.879	55869.43
624.234	55653.4
624.589	55734.98
624.945	55821.53
625.3	55845.93
625.655	55773.84
626.01	55801.64
626.365	55798.25
626.72	55852.49
627.075	55733.17
627.43	55799.83
627.785	55803.45
628.14	55869.21
628.495	55877.34
628.85	55772.26
629.205	55718.93
629.559	55868.31
629.914	55722.55
630.269	55861.3
630.623	55732.49
630.978	55732.04
631.332	55849.32
631.687	55798.7
632.041	55695.88
632.396	55766.16
632.75	55683
633.104	55742.21
633.459	55627.86
633.813	55589.44
634.167	55658.37
634.521	55616.56
634.875	55598.26
635.229	55607.29
635.583	55529.1
635.937	55483.23
636.291	55453.17
636.645	55513.51
636.999	55473.97
637.352	55548.77
637.706	55366.62
638.06	55411.82
638.413	55370.92
638.767	55304.7
639.121	55454.98
639.474	55210.02
639.828	55355.32
640.181	55394.65
640.534	55323.23
640.888	55239.85
641.241	55081.89
641.594	55297.92
641.947	55262.9
642.301	55232.84
642.654	55172.96
643.007	55260.41
643.36	55226.29
643.713	55188.77
644.066	55218.83
644.419	55121.43
644.771	54853.87
645.124	54678.05
645.477	54652.52
645.83	54401.9
646.182	54328.68
646.535	54225.86
646.888	54410.94
647.24	54209.59
647.593	54473.09
647.945	54256.37
648.298	54117.62
648.65	54125.75
649.002	54097.05
649.355	54161.68
649.707	54112.87
650.059	54248.46
650.411	54667.21
650.763	54650.48
651.115	54842.57
651.467	54784.94
651.819	54768.22
652.171	54753.31
652.523	54724.83
652.875	54668.56
653.227	54613.87
653.578	54817.49
653.93	54675.57
654.282	54545.85
654.633	54545.85
654.985	54583.14
655.337	54646.19
655.688	54548.11
656.039	54606.19
656.391	54388.8
656.742	54481.9
657.094	54467.89
657.445	54575.91
657.796	54512.41
658.147	54537.94
658.498	54518.06
658.849	54530.71
659.2	54495.91
659.551	54408.68
659.902	54549.7
660.253	54431.05
660.604	54499.53
660.955	54371.62
661.306	54378.17
661.656	54364.39
662.007	54345.86
662.358	54396.25
662.708	54352.19
663.059	54280.55
663.409	54187.45
663.76	54311.74
664.11	54350.83
664.461	54335.46
664.811	54295.47
665.161	54257.95
665.511	54192.19
665.862	54211.4
666.212	54393.99
666.562	54368.01
666.912	54307.67
667.262	54244.39
667.612	54153.1
667.962	54196.71
668.312	54190.16
668.662	54270.15
669.011	54123.27
669.361	54073.1
669.711	54116.03
670.06	54042.36
670.41	54050.95
670.76	53983.38
671.109	54070.39
671.459	54038.97
671.808	53894.35
672.157	53968.02
672.507	53768.93
672.856	53825.65
673.205	53802.37
673.554	53948.36
673.904	53758.53
674.253	53907.68
674.602	53811.86
674.951	53395.6
675.3	53259.79
675.649	53785.87
675.998	53622.94
676.346	53628.36
676.695	53800.34
677.044	53556.05
677.393	53627.01
677.741	53600.79
678.09	53482.38
678.438	53502.94
678.787	53492.32
679.135	53506.11
679.484	53207.58
679.832	53329.39
680.181	53239
680.529	53245.55
680.877	53119.68
681.225	53087.36
681.573	53341.14
681.922	53086.46
682.27	52908.38
682.618	52959.91
682.966	52832.68
683.314	52930.76
683.661	52847.82
684.009	52623.42
684.357	52596.53
684.705	52492.57
685.053	52591.56
685.4	52536.64
685.748	52302.75
686.095	52352.69
686.443	52222.75
686.79	52122.19
687.138	52264.11
687.485	52105.47
687.832	51977.33
688.18	52094.84
688.527	51830.45
688.874	51880.84
689.221	51758.81
689.568	51647.63
689.915	51515.88
690.262	51503.9
690.609	51440.17
690.956	51268.88
691.303	51355.43
691.65	51208.54
691.997	51144.14
692.344	51014.65
692.69	50980.52
693.037	50907.31
693.383	50642.23
693.73	50761.32
694.077	50554.32
694.423	50609.91
694.769	50526.52
695.116	50381.67
695.462	50290.37
695.808	50090.6
696.155	50275.91
696.501	49945.52
696.847	49924.73
697.193	49661.69
697.539	49798.18
697.885	49589.15
698.231	49518.64
698.577	49432.09
698.923	49414.01
699.269	49289.72
699.614	49019.22
699.96	48952.33
700.306	49035.72
700.651	48799.56
700.997	48765.21
701.342	48734.03
701.688	48698.78
702.033	48527.71
702.379	48429.63
702.724	48423.98
703.069	48467.37
703.415	47836.2
703.76	47953.03
704.105	48078.23
704.45	47878.46
704.795	47657.45
705.14	47546.26
705.485	47546.94
705.83	47351.69
706.175	47393.95
706.52	47330.9
706.865	47280.73
707.209	47132.49
707.554	46974.3
707.899	47132.26
708.243	46871.93
708.588	46701.54
708.932	46500.19
709.277	46551.04
709.621	46558.49
709.966	46250.7
710.31	46356.69
710.654	46087.55
710.998	46222.46
711.342	46124.38
711.687	45980.2
712.031	45774.79
712.375	45719.42
712.719	45785.41
713.063	45605.3
713.407	45705.63
713.75	45563.49
714.094	45591.51
714.438	45335.25
714.782	45373.44
715.125	45142.71
715.469	45184.07
715.812	44941.36
716.156	44870.85
716.499	44870.4
716.843	44929.38
717.186	44510.64
717.53	44793.79
717.873	44721.93
718.216	44607.58
718.559	44499.79
718.902	44188.16
719.246	44230.42
719.589	44168.05
719.932	43988.84
720.275	43867.26
720.617	44072.01
720.96	43833.14
721.303	43873.14
721.646	43953.36
721.989	43578.23
722.331	43645.12
722.674	43549.08
723.016	43665.46
723.359	43453.72
723.701	43439.48
724.044	43075.42
724.386	43050.79
724.729	43341.63
725.071	43049.89
725.413	43084.01
725.755	43162.42
726.097	42931.92
726.439	42667.75
726.782	42663
727.124	42821.87
727.465	42627.98
727.807	42546.85
728.149	42573.97
728.491	42433.86
728.833	42512.27
729.175	42452.39
729.516	42262.34
729.858	42235.9
730.199	42264.37
730.541	42164.26
730.882	42060.53
731.224	42205.16
731.565	41920.88
731.906	41858.05
732.248	41961.55
732.589	41726.08
732.93	41692.18
733.271	41638.85
733.612	41763.82
733.953	41656.25
734.294	41503.48
734.635	41355.01
734.976	41496.71
735.317	41307.33
735.658	41285.41
735.999	41339.2
736.339	41142.59
736.68	41289.25
737.021	41033.21
737.361	40931.07
737.702	41118.41
738.042	40867.12
738.383	40845.88
738.723	40767.69
739.063	40828.93
739.404	40898.76
739.744	40722.04
740.084	40648.37
740.424	40696.73
740.764	40507.8
741.104	40585.77
741.444	40343.52
741.784	40329.96
742.124	40448.37
742.464	40391.2
742.804	40103.75
743.143	40171.09
743.483	40094.48
743.823	39939.91
744.162	39942.17
744.502	40042.28
744.841	39871.89
745.181	39971.32
745.52	39941.27
745.86	39793.02
746.199	39745.34
746.538	39725.23
746.877	39710.99
747.216	39739.46
747.556	39571.11
747.895	39602.97
748.234	39344.9
748.573	39386.25
748.911	39188.29
749.25	39204.56
749.589	39019.93
749.928	39160.27
750.267	39150.33
750.605	38950.56
750.944	38930.22
751.283	38685.71
751.621	38803.67
751.96	38617.91
752.298	38668.08
752.636	38715.99
