Data from White_reflection_standard_FLMS001491_041.txt Node
Date: Tue Feb 07 10:32:03 GMT 2017
User: dcchb
Spectrometer: FLMS00149
Trigger mode: 0
Integration Time (sec): 2.000000E-2
Scans to average: 10
Electric dark correction enabled: true
Nonlinearity correction enabled: false
Boxcar width: 0
XAxis mode: Wavelengths
Number of Pixels in Spectrum: 2048
>>>>>Begin Spectral Data<<<<<
341.393	-20.68
341.776	-20.68
342.16	-20.68
342.543	-78.53
342.927	-82.14
343.31	-69.72
343.693	-79.66
344.077	-48.7
344.46	-51.64
344.843	-68.13
345.226	-35.59
345.61	-16.38
345.993	-24.07
346.376	1.69
346.759	14.58
347.142	24.52
347.525	41.92
347.908	49.38
348.291	62.26
348.674	92.77
349.057	106.78
349.44	121.92
349.823	137.51
350.206	147.68
350.588	228.58
350.971	255.47
351.354	264.96
351.737	287.79
352.119	277.85
352.502	305.19
352.884	321.91
353.267	304.51
353.65	343.61
354.032	341.35
354.414	351.97
354.797	361.46
355.179	352.42
355.562	402.59
355.944	380.67
356.326	365.3
356.709	389.48
357.091	379.09
357.473	414.11
357.855	391.52
358.238	416.83
358.62	382.25
359.002	397.39
359.384	401.91
359.766	387.22
360.148	398.75
360.53	416.15
360.912	415.92
361.294	390.39
361.676	396.49
362.057	422.7
362.439	392.42
362.821	424.96
363.203	399.88
363.584	412.08
363.966	416.83
364.348	393.1
364.729	405.75
365.111	388.8
365.493	403.94
365.874	414.57
366.256	407.11
366.637	412.53
367.019	406.66
367.4	437.62
367.781	421.8
368.163	409.14
368.544	409.14
368.925	437.39
369.306	417.5
369.688	410.27
370.069	440.1
370.45	419.99
370.831	422.47
371.212	415.92
371.593	431.06
371.974	430.61
372.355	423.15
372.736	426.32
373.117	438.52
373.498	445.3
373.879	450.72
374.26	443.72
374.641	429.25
375.021	437.62
375.402	469.03
375.783	461.34
376.163	511.96
376.544	493.89
376.925	479.65
377.305	483.49
377.686	488.46
378.066	515.13
378.447	505.41
378.827	494.79
379.208	487.33
379.588	514.68
379.968	496.15
380.349	505.41
380.729	526.65
381.109	526.88
381.489	558.52
381.87	530.27
382.25	549.25
382.63	557.61
383.01	573.88
383.39	551.96
383.77	554.22
384.15	594
384.53	570.72
384.91	593.54
385.29	604.16
385.67	570.95
386.049	639.19
386.429	636.71
386.809	610.04
387.189	645.52
387.568	619.08
387.948	624.05
388.328	652.3
388.707	643.26
389.087	673.32
389.466	658.63
389.846	663.82
390.225	691.17
390.605	662.92
390.984	704.28
391.363	706.31
391.743	728.68
392.122	733.88
392.501	714.44
392.881	719.87
393.26	739.53
393.639	751.05
394.018	757.38
394.397	766.65
394.776	767.1
395.155	772.3
395.534	786.98
395.913	799.64
396.292	833.54
396.671	844.84
397.05	817.49
397.429	823.14
397.808	837.15
398.186	823.37
398.565	858.17
398.944	855.91
399.323	892.52
399.701	870.37
400.08	863.59
400.458	883.93
400.837	923.93
401.215	899.3
401.594	941.33
401.972	934.33
402.351	951.5
402.729	971.84
403.107	995.12
403.486	979.52
403.864	965.96
404.242	1012.06
404.62	997.83
404.999	1023.81
405.377	1035.79
405.755	1051.84
406.133	1049.58
406.511	1083.93
406.889	1056.13
407.267	1101.33
407.645	1117.82
408.023	1142.23
408.401	1147.2
408.779	1153.08
409.156	1189.01
409.534	1205.96
409.912	1191.95
410.29	1239.85
410.667	1253.64
411.045	1247.31
411.422	1283.02
411.8	1295.45
412.178	1332.06
412.555	1342.22
412.933	1362.56
413.31	1377.7
413.687	1390.58
414.065	1397.36
414.442	1431.04
414.819	1438.95
415.197	1476.01
415.574	1476.46
415.951	1463.13
416.328	1504.48
416.705	1536.12
417.082	1518.72
417.46	1556.46
417.837	1561.2
418.214	1580.64
418.591	1630.58
418.967	1612.05
419.344	1642.78
419.721	1675.32
420.098	1680.75
420.475	1708.32
420.852	1696.34
421.228	1727.75
421.605	1734.3
421.982	1788.99
422.358	1775.89
422.735	1796.22
423.111	1801.65
423.488	1824.7
423.864	1828.99
424.241	1871.02
424.617	1866.28
424.994	1925.94
425.37	1942.66
425.746	1941.3
426.123	1972.26
426.499	2008.2
426.875	2047.52
427.251	2062.66
427.627	2090.68
428.003	2131.58
428.379	2166.38
428.756	2207.96
429.132	2195.08
429.507	2251.35
429.883	2250.22
430.259	2266.72
430.635	2288.64
431.011	2343.1
431.387	2380.16
431.763	2438.01
432.138	2457.22
432.514	2526.83
432.89	2499.93
433.265	2575.19
433.641	2620.84
434.016	2599.37
434.392	2643.89
434.767	2701.51
435.143	2741.28
435.518	2790.1
435.894	2824.67
436.269	2834.39
436.644	2866.25
437.02	2910.09
437.395	2932.69
437.77	2945.12
438.145	3001.84
438.52	3018.56
438.895	3048.39
439.271	3048.39
439.646	3138.11
440.021	3157.77
440.395	3191.67
440.77	3169.97
441.145	3169.3
441.52	3293.13
441.895	3280.48
442.27	3260.59
442.645	3270.08
443.019	3360.7
443.394	3318.44
443.769	3392.79
444.143	3420.81
444.518	3459.91
444.892	3492.22
445.267	3455.39
445.641	3456.52
446.016	3570.87
446.39	3589.62
446.764	3572.9
447.139	3609.28
447.513	3640.24
447.887	3700.13
448.262	3697.64
448.636	3739.22
449.01	3767.47
449.384	3781.03
449.758	3849.28
450.132	3905.32
450.506	3935.38
450.88	3959.33
451.254	4008.37
451.628	4009.05
452.002	4087.01
452.376	4111.19
452.75	4144.18
453.123	4169.49
453.497	4242.04
453.871	4259.21
454.244	4349.38
454.618	4385.99
454.992	4452.65
455.365	4502.14
455.739	4604.74
456.112	4596.38
456.486	4687.22
456.859	4724.96
457.232	4795.02
457.606	4819.2
457.979	4855.35
458.352	4941
458.725	5069.13
459.099	5065.06
459.472	5162.01
459.845	5202.69
460.218	5271.16
460.591	5333.98
460.964	5353.19
461.337	5480.87
461.71	5538.72
462.083	5622.79
462.456	5665.5
462.829	5633.19
463.201	5806.51
463.574	5824.59
463.947	5929.9
464.32	6081.76
464.692	6138.03
465.065	6187.97
465.438	6290.34
465.81	6289.21
466.183	6422.77
466.555	6531.92
466.928	6572.14
467.3	6560.84
467.672	6687.39
468.045	6838.13
468.417	6882.19
468.789	7001.28
469.161	7047.16
469.534	7159.25
469.906	7321.05
470.278	7419.35
470.65	7523.31
471.022	7638.33
471.394	7762.85
471.766	7770.3
472.138	7972.56
472.51	8095.72
472.882	8234.7
473.253	8323.96
473.625	8441.25
473.997	8617.06
474.369	8711.52
474.74	8836.26
475.112	8895.25
475.484	9102.47
475.855	9263.15
476.227	9310.38
476.598	9548.79
476.97	9652.97
477.341	9928.21
477.713	10062.67
478.084	10098.15
478.455	10385.6
478.827	10511.7
479.198	10727.06
479.569	10847.29
479.94	11100.16
480.311	11199.59
480.682	11458.57
481.053	11765
481.424	11956.18
481.795	12037.08
482.166	12177.87
482.537	12399.11
482.908	12726.56
483.279	12875.03
483.65	13019.88
484.021	13294.9
484.391	13450.38
484.762	13603.6
485.133	13690.37
485.503	13876.36
485.874	14209.91
486.244	14358.61
486.615	14570.13
486.985	14709.56
487.356	15019.61
487.726	15202.65
488.097	15476.32
488.467	15584.56
488.837	15842.18
489.207	16103.19
489.578	16372.11
489.948	16417.31
490.318	16753.8
490.688	16829.95
491.058	17055.71
491.428	17318.75
491.798	17437.62
492.168	17732.3
492.538	17888.91
492.908	18035.12
493.278	18304.26
493.648	18347.88
494.017	18624.93
494.387	18760.98
494.757	18830.8
495.126	19173.17
495.496	19205.26
495.866	19323.22
496.235	19659.03
496.605	19701.74
496.974	19941.74
497.344	20122.97
497.713	20153.03
498.082	20276.42
498.452	20575.17
498.821	20656.74
499.19	20853.12
499.559	21014.7
499.928	21131.08
500.298	21255.15
500.667	21503.05
501.036	21623.05
501.405	21680.22
501.774	21764.29
502.143	22047.44
502.512	22030.04
502.88	22322.92
503.249	22233.2
503.618	22603.36
503.987	22636.58
504.356	22866.86
504.724	22990.02
505.093	23122.44
505.462	23298.26
505.83	23314.98
506.199	23492.15
506.567	23907.06
506.936	23886.72
507.304	24189.76
507.672	24262.3
508.041	24534.38
508.409	24570.09
508.777	24814.6
509.145	24990.42
509.514	25050.08
509.882	25230.18
510.25	25242.39
510.618	25603.51
510.986	25687.57
511.354	25879.21
511.722	26163.27
512.09	26461.34
512.458	26409.36
512.826	26640.99
513.193	26873.53
513.561	26894.55
513.929	27140.64
514.297	27376.12
514.664	27650.91
515.032	27654.08
515.4	27931.36
515.767	28018.81
516.135	28394.39
516.502	28155.98
516.869	28724.78
517.237	28770.88
517.604	28798.45
517.972	29120.03
518.339	29435.05
518.706	29457.19
519.073	29717.3
519.44	29913.9
519.808	30364.74
520.175	30259.66
520.542	30667.33
520.909	30785.74
521.276	30924.95
521.643	31194.55
522.009	31477.48
522.376	31797.24
522.743	31871.14
523.11	32194.52
523.477	32547.28
523.843	32677.22
524.21	33051.45
524.577	33225.91
524.943	33403.98
525.31	33529.63
525.676	33846.23
526.043	34126.45
526.409	34331.64
526.776	34642.59
527.142	34785.87
527.508	35033.54
527.874	35313.53
528.241	35458.16
528.607	35535
528.973	35899.96
529.339	35963.01
529.705	36283.68
530.071	36600.51
530.437	36730.9
530.803	36982.64
531.169	37321.39
531.535	37104
531.901	37452.46
532.267	37718.9
532.632	37851.1
532.998	38088.15
533.364	38172.67
533.73	38296.28
534.095	38581.92
534.461	38807.91
534.826	38865.98
535.192	39021.46
535.557	39348.68
535.923	39442.01
536.288	39591.16
536.653	39769.69
537.019	39704.15
537.384	40020.3
537.749	40098.72
538.114	40128.78
538.479	40392.27
538.845	40486.51
539.21	40383.68
539.575	40726.5
539.94	40867.06
540.305	41105.7
540.67	41094.63
541.034	41213.27
541.399	41478.34
541.764	41511.34
542.129	41653.93
542.494	41852.35
542.858	42029.06
543.223	41990.65
543.587	42349.51
543.952	42245.56
544.316	42449.84
544.681	42482.84
545.045	42838.76
545.41	42864.3
545.774	42941.36
546.138	43030.17
546.503	43248.24
546.867	43368.46
547.231	43647.33
547.595	43657.04
547.959	43969.13
548.324	44009.58
548.688	43961.22
549.052	44216.8
549.416	44268.1
549.779	44494.76
550.143	44526.85
550.507	44859.27
550.871	45051.81
551.235	45020.85
551.599	45300.62
551.962	45394.63
552.326	45640.49
552.689	45832.58
553.053	45686.82
553.417	45805.01
553.78	46328.16
554.143	45995.51
554.507	46320.93
554.87	46585.55
555.234	46844.76
555.597	46740.35
555.96	46908.26
556.323	47176.05
556.686	47130.63
557.05	47417.17
557.413	47517.06
557.776	47694
558.139	48048.57
558.502	48108.23
558.865	48100.77
559.228	48389.8
559.59	48512.96
559.953	48511.15
560.316	49051.48
560.679	49042.89
561.041	49322.43
561.404	49351.13
561.767	49616.66
562.129	49547.28
562.492	49956.09
562.854	49932.13
563.217	49930.1
563.579	50220.26
563.941	50382.97
564.304	50561.95
564.666	50763.3
565.028	50865.67
565.39	50925.55
565.753	51025.89
566.115	51281.48
566.477	51460.45
566.839	51461.81
567.201	51721.69
567.563	51644.18
567.925	51998.29
568.287	51971.63
568.648	52031.51
569.01	52279.42
569.372	52468.79
569.734	52417.04
570.095	52633.08
570.457	52677.37
570.819	52829.01
571.18	52793.3
571.542	52977.93
571.903	53054.31
572.265	53145.83
572.626	53236
572.987	53291.82
573.349	53433.51
573.71	53532.72
574.071	53540.4
574.432	53659.04
574.794	53921.18
575.155	53898.36
575.516	53745.82
575.877	53806.16
576.238	53916.44
576.599	54153.72
576.96	54168.63
577.32	54208.41
577.681	54247.73
578.042	54265.13
578.403	54293.15
578.763	54333.83
579.124	54347.84
579.485	54508.96
579.845	54509.19
580.206	54588.06
580.566	54546.48
580.927	54568.4
581.287	54730.65
581.648	54496.99
582.008	54742.63
582.368	54701.95
582.728	54788.5
583.089	54710.09
583.449	54694.72
583.809	54795.73
584.169	54739.01
584.529	54742.85
584.889	54960.48
585.249	54710.09
585.609	54740.82
585.969	54867.6
586.329	54764.1
586.688	54876.64
587.048	54846.58
587.408	54805.23
587.768	54771.55
588.127	54854.04
588.487	54785.57
588.846	54900.82
589.206	54759.58
589.565	54840.03
589.925	54897.43
590.284	54874.83
590.643	54901.72
591.003	54885
591.362	55061.72
591.721	54907.6
592.08	54936.52
592.44	54999.12
592.799	54945.79
593.158	54917.09
593.517	54971.1
593.876	55003.19
594.235	54946.69
594.593	54923.19
594.952	55078.21
595.311	54924.77
595.67	55063.75
596.029	55116.18
596.387	55208.38
596.746	55270.52
597.104	55109.17
597.463	55054.26
597.822	55260.35
598.18	55132.22
598.538	55089.51
598.897	55303.74
599.255	55045.67
599.613	55480.24
599.972	55275.04
600.33	55352.1
600.688	55213.8
601.046	55333.8
601.404	55487.02
601.762	55430.52
602.12	55469.16
602.478	55501.48
602.836	55440.92
603.194	55354.36
603.552	55411.54
603.91	55371.76
604.268	55582.15
604.625	55423.97
604.983	55630.51
605.341	55527.24
605.698	55656.28
606.056	55626.67
606.413	55589.16
606.771	55721.59
607.128	55765.65
607.485	55638.65
607.843	55620.12
608.2	55800.68
608.557	55858.76
608.914	55814.24
609.272	55955.03
609.629	55931.98
609.986	56002.93
610.343	55911.41
610.7	56082.71
611.057	56104.4
611.414	56048.36
611.771	56061.46
612.127	56165.42
612.484	56173.33
612.841	56271.4
613.198	56137.62
613.554	56112.54
613.911	56280.44
614.267	56287.45
614.624	56296.71
614.98	56271.4
615.337	56390.27
615.693	56325.19
616.05	56394.34
616.406	56499.42
616.762	56369.93
617.118	56340.1
617.475	56438.85
617.831	56402.92
618.187	56490.61
618.543	56561.56
618.899	56587.33
619.255	56589.81
619.611	56560.43
619.967	56605.63
620.323	56685.4
620.678	56502.36
621.034	56506.88
621.39	56521.34
621.746	56477.27
622.101	56777.15
622.457	56491.51
622.812	56616.93
623.168	56660.09
623.523	56621.9
623.879	56732.18
624.234	56506.42
624.589	56630.04
624.945	56640.43
625.3	56639.98
625.655	56624.16
626.01	56694.67
626.365	56647.89
626.72	56508.01
627.075	56617.16
627.43	56667.78
627.785	56510.49
628.14	56578.74
628.495	56562.47
628.85	56510.49
629.205	56488.12
629.559	56611.28
629.914	56492.64
630.269	56494.9
630.623	56406.77
630.978	56420.78
631.332	56459.87
631.687	56544.61
632.041	56379.2
632.396	56433.43
632.75	56279.76
633.104	56328.8
633.459	56202.93
633.813	56146.43
634.167	56228.92
634.521	56157.73
634.875	56155.7
635.229	56067.34
635.583	55936.04
635.937	55918.64
636.291	55930.85
636.645	55927.68
636.999	55960.45
637.352	55944.4
637.706	55774.24
638.06	55861.7
638.413	55856.05
638.767	55743.73
639.121	55790.96
639.474	55608.59
639.828	55586.9
640.181	55689.27
640.534	55586
640.888	55565.43
641.241	55414.25
641.594	55457.19
641.947	55523.62
642.301	55469.84
642.654	55396.4
643.007	55345.32
643.36	55355.27
643.713	55358.88
644.066	55457.64
644.419	55213.8
644.771	55019.01
645.124	54742.18
645.477	54756.87
645.83	54474.39
646.182	54349.19
646.535	54350.1
646.888	54405.69
647.24	54185.13
647.593	54311.45
647.945	54205.24
648.298	54039.37
648.65	54106.94
649.002	54040.05
649.355	54154.62
649.707	54090.22
650.059	54087.28
650.411	54484.33
650.763	54535.85
651.115	54797.99
651.467	54677.55
651.819	54688.17
652.171	54600.26
652.523	54535.63
652.875	54395.52
653.227	54413.6
653.578	54447.04
653.93	54404.78
654.282	54262.19
654.633	54199.37
654.985	54349.42
655.337	54261.96
655.688	54248.86
656.039	54291.79
656.391	54052.7
656.742	54105.58
657.094	54155.07
657.445	54260.38
657.796	54199.14
658.147	54081.18
658.498	54062.87
658.849	54134.96
659.2	54062.65
659.551	53956.66
659.902	54103.78
660.253	53880.28
660.604	54047.73
660.955	53897.45
661.306	53987.85
661.656	53897.68
662.007	53967.51
662.358	53895.19
662.708	53931.58
663.059	53814.97
663.409	53658.14
663.76	53850.67
664.11	53753.73
664.461	53768.64
664.811	53781.52
665.161	53757.57
665.511	53633.51
665.862	53647.74
666.212	53761.86
666.562	53742.88
666.912	53689.1
667.262	53682.77
667.612	53656.56
667.962	53640.96
668.312	53582.21
668.662	53730.45
669.011	53591.47
669.361	53458.59
669.711	53462.66
670.06	53463.11
670.41	53425.6
670.76	53276.23
671.109	53540.17
671.459	53445.04
671.808	53419.95
672.157	53483.68
672.507	53191.93
672.856	53176.79
673.205	53243.01
673.554	53272.84
673.904	53121.2
674.253	53312.61
674.602	53221.09
674.951	52764.83
675.3	52563.7
675.649	53104.93
675.998	53007.31
676.346	53045.27
676.695	53113.07
677.044	52970.25
677.393	53032.62
677.741	53066.74
678.09	52904.03
678.438	52825.16
678.787	52955.33
679.135	52879.17
679.484	52661.33
679.832	52740.87
680.181	52470.6
680.529	52739.07
680.877	52556.25
681.225	52523.48
681.573	52745.84
681.922	52438.96
682.27	52330.26
682.618	52407.55
682.966	52226.08
683.314	52307.89
683.661	52214.56
684.009	52144.05
684.357	51996.94
684.705	51833.78
685.053	52039.87
685.4	51915.36
685.748	51787.9
686.095	51751.52
686.443	51697.06
686.79	51471.3
687.138	51632.88
687.485	51552.88
687.832	51386.33
688.18	51385.43
688.527	51282.61
688.874	51304.53
689.221	51187.02
689.568	51070.63
689.915	50948.15
690.262	50877.65
690.609	50942.5
690.956	50738.44
691.303	50684.88
691.65	50530.99
691.997	50476.53
692.344	50315.4
692.69	50284.67
693.037	50242.63
693.383	49959.7
693.73	50209.41
694.077	49865.47
694.423	49886.48
694.769	49747.28
695.116	49697.79
695.462	49616.89
695.808	49368.53
696.155	49461.86
696.501	49216.45
696.847	49194.75
697.193	48933.97
697.539	49006.51
697.885	48865.95
698.231	48609.68
698.577	48776.23
698.923	48687.87
699.269	48469.57
699.614	48279.75
699.96	48250.82
700.306	48053.09
700.651	48071.84
700.997	47846.09
701.342	47930.83
701.688	47810.16
702.033	47599.77
702.379	47538.98
702.724	47539.65
703.069	47538.52
703.415	47051.98
703.76	47044.75
704.105	47186.67
704.45	46890.86
704.795	46751.88
705.14	46669.85
705.485	46753.01
705.83	46507.59
706.175	46614.71
706.52	46304.43
706.865	46250.65
707.209	46206.58
707.554	46065.79
707.899	45991.45
708.243	45986.25
708.588	45809.3
708.932	45452.25
709.277	45483.21
709.621	45474.17
709.966	45297.45
710.31	45310.79
710.654	44855.66
710.998	45087.97
711.342	45080.06
711.687	45021.98
712.031	44759.84
712.375	44558.04
712.719	44735.89
713.063	44602.33
713.407	44683.91
713.75	44352.85
714.094	44419.51
714.438	44222
714.782	44231.72
715.125	43995.79
715.469	44151.04
715.812	43935
716.156	43534.56
716.499	43721
716.843	43709.25
717.186	43384.06
717.53	43535.47
717.873	43569.36
718.216	43345.64
718.559	43336.15
718.902	42879.21
719.246	43112.2
719.589	42907.46
719.932	42805.77
720.275	42756.05
720.617	42782.94
720.96	42709.72
721.303	42597.19
721.646	42681.7
721.989	42430.18
722.331	42474.02
722.674	42480.13
723.016	42370.52
723.359	42277.65
723.701	42165.56
724.044	41964.43
724.386	41845.11
724.729	41976.41
725.071	41931.44
725.413	41851.89
725.755	41809.64
726.097	41547.95
726.439	41385.69
726.782	41569.87
727.124	41577.55
727.465	41333.04
727.807	41373.49
728.149	41208.3
728.491	41043.78
728.833	41223.21
729.175	41030.45
729.516	40917.23
729.858	40886.04
730.199	40934.63
730.541	40631.81
730.882	40716.56
731.224	40842.88
731.565	40404.25
731.906	40547.3
732.248	40496
732.589	40188.89
732.93	40160.41
733.271	40223.69
733.612	40237.93
733.953	40322.89
734.294	40082.9
734.635	39942.79
734.976	39959.06
735.317	39913.87
735.658	39835.45
735.999	39644.72
736.339	39546.42
736.68	39672.06
737.021	39486.08
737.361	39288.12
737.702	39654.66
738.042	39416.25
738.383	39289.93
738.723	39246.99
739.063	39190.27
739.404	39244.5
739.744	38969.26
740.084	38924.97
740.424	38948.24
740.764	38761.81
741.104	38931.74
741.444	38778.53
741.784	38725.2
742.124	38757.06
742.464	38569.04
742.804	38501.25
743.143	38468.93
743.483	38477.97
743.823	38323.63
744.162	38054.93
744.502	38105.78
744.841	37972.22
745.181	38127.25
745.52	38020.13
745.86	37992.79
746.199	37962.5
746.538	37881.6
746.877	37803.19
747.216	37795.96
747.556	37706.69
747.895	37673.92
748.234	37513.25
748.573	37477.09
748.911	37390.09
749.25	37452.69
749.589	37194.84
749.928	37260.83
750.267	37209.76
750.605	37103.09
750.944	37077.78
751.283	36909.42
751.621	36920.72
751.96	36772.71
752.298	36763.67
752.636	36595.76
