Data from white_poster_card_FLMS001491_00064.txt Node
Date: Wed Feb 08 11:51:50 GMT 2017
User: dcchb
Spectrometer: FLMS00149
Trigger mode: 0
Integration Time (sec): 2.000000E-2
Scans to average: 10
Electric dark correction enabled: true
Nonlinearity correction enabled: false
Boxcar width: 0
XAxis mode: Wavelengths
Number of Pixels in Spectrum: 2048
>>>>>Begin Spectral Data<<<<<
341.393	-24.18
341.776	-24.18
342.16	-24.18
342.543	-69.38
342.927	-84.07
343.31	-67.12
343.693	-77.96
344.077	-64.86
344.46	-61.92
344.843	-61.02
345.226	-58.76
345.61	-25.08
345.993	-34.58
346.376	7.68
346.759	15.82
347.142	32.77
347.525	49.49
347.908	58.53
348.291	73.44
348.674	96.27
349.057	117.29
349.44	134.69
349.823	142.82
350.206	164.29
350.588	212.88
350.971	212.88
351.354	215.81
351.737	241.8
352.119	258.52
352.502	265.98
352.884	256.49
353.267	289.48
353.65	308.01
354.032	300.78
354.414	311.63
354.797	309.6
355.179	316.6
355.562	333.1
355.944	357.28
356.326	324.29
356.709	343.95
357.091	335.58
357.473	344.4
357.855	352.31
358.238	333.55
358.62	351.63
359.002	348.01
359.384	344.4
359.766	343.04
360.148	339.43
360.53	335.36
360.912	306.88
361.294	328.8
361.676	370.84
362.057	326.32
362.439	331.74
362.821	351.63
363.203	335.58
363.584	343.95
363.966	331.52
364.348	341.91
364.729	336.26
365.111	314.57
365.493	317.28
365.874	323.38
366.256	315.25
366.637	331.06
367.019	333.55
367.4	310.73
367.781	321.35
368.163	317.73
368.544	322.25
368.925	329.03
369.306	325.42
369.688	330.16
370.069	324.74
370.45	317.28
370.831	318.86
371.212	331.97
371.593	330.16
371.974	327.67
372.355	317.05
372.736	315.92
373.117	298.3
373.498	328.35
373.879	331.06
374.26	329.71
374.641	335.13
375.021	310.73
375.402	325.64
375.783	326.77
376.163	345.98
376.544	319.54
376.925	332.42
377.305	329.93
377.686	318.64
378.066	308.01
378.447	324.29
378.827	336.71
379.208	346.66
379.588	350.73
379.968	338.75
380.349	360.89
380.729	338.52
381.109	338.3
381.489	350.73
381.87	333.1
382.25	351.86
382.63	332.87
383.01	364.28
383.39	339.88
383.77	354.34
384.15	354.11
384.53	355.7
384.91	371.29
385.29	369.93
385.67	342.36
386.049	373.32
386.429	385.53
386.809	374.91
387.189	374.68
387.568	385.75
387.948	375.36
388.328	397.05
388.707	373.55
389.087	389.59
389.466	381.46
389.846	381.68
390.225	375.13
390.605	394.57
390.984	405.19
391.363	382.81
391.743	397.5
392.122	407.45
392.501	389.82
392.881	404.06
393.26	406.99
393.639	416.71
394.018	419.2
394.397	416.94
394.776	394.34
395.155	405.41
395.534	402.25
395.913	409.25
396.292	428.01
396.671	437.28
397.05	411.29
397.429	427.79
397.808	441.34
398.186	449.25
398.565	414
398.944	442.93
399.323	453.77
399.701	471.4
400.08	421.46
400.458	471.4
400.837	447.67
401.215	449.93
401.594	459.2
401.972	489.25
402.351	482.93
402.729	492.19
403.107	477.95
403.486	482.47
403.864	500.1
404.242	495.35
404.62	506.65
404.999	524.96
405.377	512.75
405.755	508.69
406.133	515.24
406.511	520.66
406.889	519.53
407.267	547.56
407.645	555.47
408.023	565.86
408.401	576.48
408.779	568.12
409.156	566.54
409.534	582.13
409.912	610.61
410.29	606.54
410.667	609.7
411.045	615.13
411.422	639.98
411.8	659.87
412.178	657.38
412.555	696.7
412.933	697.16
413.31	699.19
413.687	711.62
414.065	730.6
414.442	752.3
414.819	738.74
415.197	767.44
415.574	777.15
415.951	789.13
416.328	806.98
416.705	836.14
417.082	832.52
417.46	842.69
417.837	881.11
418.214	893.54
418.591	900.54
418.967	895.34
419.344	938.28
419.721	951.39
420.098	954.1
420.475	963.36
420.852	967.43
421.228	992.74
421.605	1021.67
421.982	1016.92
422.358	1035.45
422.735	1036.13
423.111	1072.97
423.488	1075
423.864	1110.93
424.241	1133.3
424.617	1120.65
424.994	1114.77
425.37	1158.84
425.746	1172.85
426.123	1188.44
426.499	1193.64
426.875	1185.96
427.251	1222.79
427.627	1261.44
428.003	1268.44
428.379	1284.03
428.756	1305.05
429.132	1322.68
429.507	1350.25
429.883	1359.51
430.259	1401.32
430.635	1410.36
431.011	1425.95
431.387	1450.81
431.763	1464.59
432.138	1488.55
432.514	1497.14
432.89	1507.3
433.265	1553.18
433.641	1573.52
434.016	1597.02
434.392	1575.1
434.767	1674.53
435.143	1606.29
435.518	1673.18
435.894	1707.07
436.269	1728.09
436.644	1744.81
437.02	1753.85
437.395	1731.93
437.77	1759.73
438.145	1833.4
438.52	1815.55
438.895	1825.49
439.271	1865.26
439.646	1884.92
440.021	1904.58
440.395	1918.82
440.77	1904.81
441.145	1886.28
441.52	1947.52
441.895	1943
442.27	1982.55
442.645	1975.32
443.019	1981.19
443.394	1998.37
443.769	2022.09
444.143	2025.71
444.518	2065.26
444.892	2067.52
445.267	2053.51
445.641	2102.77
446.016	2114.75
446.39	2108.42
446.764	2098.48
447.139	2109.55
447.513	2142.99
447.887	2161.98
448.262	2206.5
448.636	2155.2
449.01	2190.22
449.384	2222.09
449.758	2258.25
450.132	2250.11
450.506	2277.91
450.88	2294.85
451.254	2330.11
451.628	2358.81
452.002	2360.84
452.376	2371.69
452.75	2400.84
453.123	2438.13
453.497	2464.79
453.871	2497.56
454.244	2538.46
454.618	2549.76
454.992	2579.59
455.365	2584.11
455.739	2622.08
456.112	2635.18
456.486	2677.67
456.859	2710.44
457.232	2731.91
457.606	2749.08
457.979	2756.09
458.352	2859.36
458.725	2874.73
459.099	2888.96
459.472	2914.73
459.845	2927.83
460.218	2999.24
460.591	2988.4
460.964	3034.04
461.337	3081.5
461.71	3174.61
462.083	3166.02
462.456	3186.81
462.829	3227.94
463.201	3288.73
463.574	3258.22
463.947	3318.78
464.32	3412.79
464.692	3432.23
465.065	3442.4
465.438	3485.56
465.81	3534.82
466.183	3603.97
466.555	3664.08
466.928	3692.11
467.3	3646.46
467.672	3698.21
468.045	3801.71
468.417	3831.31
468.789	3872.89
469.161	3905.43
469.534	3948.82
469.906	4037.41
470.278	4084.86
470.65	4073.11
471.022	4198.31
471.394	4220.23
471.766	4285.99
472.138	4329.83
472.51	4439.43
472.882	4547.23
473.253	4539.77
473.625	4585.19
473.997	4675.13
474.369	4731.4
474.74	4742.02
475.112	4802.59
475.484	4964.84
475.855	4992.64
476.227	5047.78
476.598	5171.84
476.97	5215.91
477.341	5336.58
477.713	5390.14
478.084	5432.63
478.455	5607.54
478.827	5614.32
479.198	5792.39
479.569	5773.63
479.94	5934.31
480.311	5975.89
480.682	6138.14
481.053	6280.96
481.424	6343.11
481.795	6343.11
482.166	6493.39
482.537	6583.33
482.908	6751.01
483.279	6744.23
483.65	6898.58
484.021	7059.02
484.391	7139.47
484.762	7179.92
485.133	7231.45
485.503	7359.81
485.874	7602.51
486.244	7564.32
486.615	7720.25
486.985	7825.33
487.356	7993.01
487.726	8017.19
488.097	8225.77
488.467	8231.65
488.837	8409.95
489.207	8477.97
489.578	8654.46
489.948	8666.66
490.318	8854.46
490.688	8884.51
491.058	9008.35
491.428	9145.97
491.798	9214.45
492.168	9336.48
492.538	9456.25
492.908	9533.08
493.278	9720.65
493.648	9654.66
494.017	9929.23
494.387	9879.29
494.757	10027.98
495.126	10150.24
495.496	10149.11
495.866	10285.83
496.235	10326.96
496.605	10498.26
496.974	10487.41
497.344	10660.06
497.713	10682.88
498.082	10785.25
498.452	10886.49
498.821	10888.75
499.19	10927.62
499.559	11123.32
499.928	11196.99
500.298	11243.55
500.667	11332.36
501.036	11382.75
501.405	11554.5
501.774	11525.12
502.143	11605.34
502.512	11704.55
502.88	11808.5
503.249	11849.18
503.618	11940.48
503.987	11962.85
504.356	12108.16
504.724	12205.55
505.093	12273.12
505.462	12329.17
505.83	12450.07
506.199	12580.46
506.567	12603.06
506.936	12711.3
507.304	12816.84
507.672	12853.45
508.041	12865.2
508.409	13005.31
508.777	13144.29
509.145	13318.52
509.514	13267.45
509.882	13428.57
510.25	13486.88
510.618	13589.7
510.986	13651.62
511.354	13727.77
511.722	13813.42
512.09	14051.83
512.458	14005.51
512.826	14125.05
513.193	14259.29
513.561	14281.66
513.929	14274.88
514.297	14537.47
514.664	14720.06
515.032	14648.65
515.4	14897.69
515.767	14860.63
516.135	15059.72
516.502	15011.58
516.869	15296.55
517.237	15420.61
517.604	15286.83
517.972	15557.56
518.339	15626.03
518.706	15710.77
519.073	15806.36
519.44	15900.6
519.808	16059.24
520.175	16105.11
520.542	16319.34
520.909	16398.44
521.276	16451.09
521.643	16635.95
522.009	16714.81
522.376	16896.96
522.743	17037.29
523.11	17222.6
523.477	17300.79
523.843	17379.43
524.21	17606.54
524.577	17795.24
524.943	17735.35
525.31	17938.74
525.676	18114.78
526.043	18306.64
526.409	18235.68
526.776	18587.08
527.142	18559.29
527.508	18713.86
527.874	18864.14
528.241	18967.18
528.607	19012.16
528.973	19205.6
529.339	19211.47
529.705	19483.56
530.071	19570.11
530.437	19679.26
530.803	19834.51
531.169	19976.65
531.535	19925.58
531.901	20047.38
532.267	20255.06
532.632	20243.99
532.998	20305.23
533.364	20620.02
533.73	20540.93
534.095	20761.49
534.461	20794.03
534.826	20960.35
535.192	21127.13
535.557	21271.76
535.923	21167.81
536.288	21282.38
536.653	21448.93
537.019	21393.56
537.384	21590.62
537.749	21662.71
538.114	21671.97
538.479	21715.14
538.845	21792.2
539.21	21888.92
539.575	21950.16
539.94	22092.53
540.305	22239.42
540.67	22197.16
541.034	22311.5
541.399	22485.51
541.764	22447.77
542.129	22647.77
542.494	22608.22
542.858	22628.56
543.223	22752.85
543.587	22946.29
543.952	22944.93
544.316	23093.4
544.681	23048.43
545.045	23181.09
545.41	23242.33
545.774	23273.06
546.138	23373.85
546.503	23576.56
546.867	23517.35
547.231	23725.48
547.595	23693.84
547.959	23780.39
548.324	23876.21
548.688	23867.62
549.052	24109.42
549.416	24153.26
549.779	24250.44
550.143	24204.56
550.507	24364.78
550.871	24417.44
551.235	24469.64
551.599	24725.23
551.962	24718.9
552.326	24872.34
552.689	25037.08
553.053	24930.19
553.417	25021.04
553.78	25395.04
554.143	25224.42
554.507	25346
554.87	25411.99
555.234	25746.22
555.597	25577.41
555.96	25729.94
556.323	25827.34
556.686	25988.24
557.05	26067.56
557.413	26134.45
557.776	26275.02
558.139	26520.21
558.502	26507.33
558.865	26693.31
559.228	26738.96
559.59	26848.33
559.953	26935.34
560.316	27194.77
560.679	27220.98
561.041	27464.36
561.404	27525.15
561.767	27737.58
562.129	27480.41
562.492	27962.65
562.854	27995.87
563.217	27938.93
563.579	28083.33
563.941	28288.75
564.304	28418.01
564.666	28549.31
565.028	28707.04
565.39	28899.81
565.753	28789.98
566.115	28905.23
566.477	29099.8
566.839	29183.64
567.201	29422.96
567.563	29304.31
567.925	29713.34
568.287	29509.05
568.648	29726.9
569.01	29936.61
569.372	30114.91
569.734	30007.8
570.095	30196.95
570.457	30377.05
570.819	30448.69
571.18	30366.89
571.542	30643.26
571.903	30682.13
572.265	30780.66
572.626	30843.03
572.987	30930.94
573.349	31070.82
573.71	31288.89
574.071	31255
574.432	31384.71
574.794	31550.36
575.155	31593.97
575.516	31457.93
575.877	31644.82
576.238	31678.94
576.599	31739.28
576.96	31873.51
577.32	31868.77
577.681	31976.79
578.042	32137.91
578.403	32113.96
578.763	32138.59
579.124	32146.95
579.485	32349.43
579.845	32362.31
580.206	32372.71
580.566	32383.33
580.927	32370.45
581.287	32565.92
581.648	32366.83
582.008	32579.03
582.368	32555.3
582.728	32626.26
583.089	32563.21
583.449	32542.42
583.809	32569.09
584.169	32681.63
584.529	32639.82
584.889	32801.4
585.249	32598.92
585.609	32592.36
585.969	32874.62
586.329	32654.73
586.688	32817.22
587.048	32701.51
587.408	32598.46
587.768	32791.91
588.127	32746.94
588.487	32748.97
588.846	32827.61
589.206	32638.01
589.565	32777.22
589.925	32925.01
590.284	32709.87
590.643	32733.6
591.003	32805.47
591.362	32924.56
591.721	32756.43
592.08	32910.32
592.44	32916.87
592.799	33008.4
593.158	32923.43
593.517	32975.86
593.876	32951
594.235	32873.94
594.593	32947.61
594.952	33111.45
595.311	33057.89
595.67	32982.64
596.029	33301.5
596.387	33168.85
596.746	33360.48
597.104	33163.42
597.463	33103.08
597.822	33237.77
598.18	33066.25
598.538	32976.08
598.897	33177.66
599.255	32999.36
599.613	33517.54
599.972	33340.14
600.33	33340.59
600.688	33193.48
601.046	33374.04
601.404	33550.98
601.762	33610.42
602.12	33635.95
602.478	33652.22
602.836	33670.08
603.194	33435.51
603.552	33544.65
603.91	33402.74
604.268	33637.76
604.625	33587.37
604.983	33682.96
605.341	33545.56
605.698	33836.17
606.056	33854.03
606.413	33776.29
606.771	33795.72
607.128	33922.72
607.485	33945.77
607.843	33819.45
608.2	34014.92
608.557	34081.36
608.914	33993.68
609.272	34092.89
609.629	34229.83
609.986	34334.69
610.343	34247.24
610.7	34267.57
611.057	34155.26
611.414	34259.44
611.771	34280.91
612.127	34486.1
612.484	34469.38
612.841	34568.58
613.198	34513.44
613.554	34488.81
613.911	34613.1
614.267	34680.44
614.624	34589.15
614.98	34570.84
615.337	34752.08
615.693	34759.54
616.05	34618.3
616.406	34917.05
616.762	34880.66
617.118	34699.43
617.475	34879.31
617.831	34908.69
618.187	34877.05
618.543	35026.65
618.899	35103.71
619.255	34974.9
619.611	34930.83
619.967	35115.01
620.323	35147.78
620.678	35047.89
621.034	34934
621.39	34988.01
621.746	34985.97
622.101	35357.49
622.457	35049.47
622.812	35004.5
623.168	35171.73
623.523	35171.05
623.879	35205.85
624.234	35034.56
624.589	35074.33
624.945	35291.95
625.3	35237.72
625.655	35187.78
626.01	35206.76
626.365	35289.47
626.72	35112.52
627.075	35134.67
627.43	35117.72
627.785	35021
628.14	35058.74
628.495	35099.19
628.85	35116.14
629.205	35047.44
629.559	35174.67
629.914	34897.16
630.269	35064.84
630.623	34869.59
630.978	34878.18
631.332	34857.84
631.687	35022.13
632.041	34839.99
632.396	34961.79
632.75	34689.03
633.104	34877.95
633.459	34561.8
633.813	34563.84
634.167	34582.82
634.521	34614.01
634.875	34532.2
635.229	34533.33
635.583	34373.11
635.937	34355.25
636.291	34319.1
636.645	34385.31
636.999	34223.73
637.352	34386.89
637.706	34035.94
638.06	34253.34
638.413	34288.82
638.767	34031.65
639.121	34183.06
639.474	33866
639.828	33887.7
640.181	34006.79
640.534	33781.71
640.888	33763.63
641.241	33569.29
641.594	33670.53
641.947	33665.1
642.301	33631.88
642.654	33759.56
643.007	33663.07
643.36	33691.32
643.713	33515.28
644.066	33693.13
644.419	33424.21
644.771	33316.19
645.124	32977.66
645.477	32948.29
645.83	32563.44
646.182	32488.64
646.535	32280.51
646.888	32540.39
647.24	32267.85
647.593	32536.32
647.945	32315.08
648.298	32221.75
648.65	32146.27
649.002	32108.99
649.355	32179.04
649.707	32216.1
650.059	32162.09
650.411	32596.66
650.763	32632.59
651.115	32983.31
651.467	32719.37
651.819	32766.37
652.171	32757.1
652.523	32674.17
652.875	32638.24
653.227	32508.98
653.578	32709.42
653.93	32649.54
654.282	32561.18
654.633	32408.19
654.985	32423.78
655.337	32505.81
655.688	32317.12
656.039	32472.82
656.391	32124.81
656.742	32366.61
657.094	32377.23
657.445	32447.73
657.796	32253.84
658.147	32154.18
658.498	32222.2
658.849	32280.73
659.2	32185.59
659.551	32038.48
659.902	32172.49
660.253	32121.19
660.604	32148.99
660.955	32010.91
661.306	32060.63
661.656	32125.71
662.007	32079.38
662.358	31977.69
662.708	31965.49
663.059	32016.11
663.409	31827.19
663.76	32071.7
664.11	32123
664.461	32019.27
664.811	32015.66
665.161	31941.98
665.511	31823.12
665.862	31810.46
666.212	31812.04
666.562	31820.41
666.912	31735.89
667.262	31854.76
667.612	31767.98
667.962	31726.85
668.312	31746.74
668.662	31827.64
669.011	31740.18
669.361	31695.21
669.711	31711.93
670.06	31605.72
670.41	31631.48
670.76	31556.23
671.109	31713.97
671.459	31507.87
671.808	31446.63
672.157	31567.08
672.507	31387.65
672.856	31306.07
673.205	31437.37
673.554	31570.24
673.904	31335.9
674.253	31460.42
674.602	31312.17
674.951	30824.73
675.3	30710.6
675.649	31177.03
675.998	31172.06
676.346	31177.03
676.695	31394.2
677.044	31076.7
677.393	31266.52
677.741	31173.64
678.09	31124.15
678.438	31050.71
678.787	31040.31
679.135	31036.7
679.484	30844.16
679.832	31018.39
680.181	30779.76
680.529	30838.51
680.877	30758.06
681.225	30759.42
681.573	30993.99
681.922	30611.17
682.27	30544.73
682.618	30581.34
682.966	30545.19
683.314	30562.81
683.661	30487.56
684.009	30325.98
684.357	30329.82
684.705	30204.4
685.053	30229.26
685.4	30260
685.748	30079.21
686.095	30054.13
686.443	29782.72
686.79	29867.92
687.138	29877.63
687.485	29872.43
687.832	29776.17
688.18	29822.72
688.527	29632.22
688.874	29715.38
689.221	29466.34
689.568	29469.06
689.915	29298.66
690.262	29279.68
690.609	29217.31
690.956	29191.55
691.303	29038.56
691.65	28893.25
691.997	28932.35
692.344	28787.72
692.69	28784.33
693.037	28755.63
693.383	28605.35
693.73	28641.28
694.077	28551.57
694.423	28450.1
694.769	28411.23
695.116	28342.98
695.462	28194.96
695.808	28073.61
696.155	28286.94
696.501	28084.46
696.847	28022.09
697.193	27822.55
697.539	27815.77
697.885	27735.32
698.231	27551.37
698.577	27594.75
698.923	27613.51
699.269	27433.4
699.614	27274.09
699.96	27266.63
700.306	27313.18
700.651	27126.52
700.997	27019.63
701.342	26807.66
701.688	26995.22
702.033	26792.74
702.379	26835.9
702.724	26791.39
703.069	26823.02
703.415	26490.15
703.76	26609.92
704.105	26484.05
704.45	26501
704.795	26169.93
705.14	26176.71
705.485	26202.02
705.83	26068.47
706.175	26168.35
706.52	25946.21
706.865	25910.28
707.209	25891.97
707.554	25761.81
707.899	25831.64
708.243	25665.99
708.588	25615.37
708.932	25356.4
709.277	25373.57
709.621	25272.56
709.966	25294.93
710.31	25334.93
710.654	25066.91
710.998	25179.9
711.342	25179.68
711.687	25099.9
712.031	24961.6
712.375	24979.46
712.719	24975.61
713.063	24857.43
713.407	24903.07
713.75	24876.86
714.094	24689.07
714.438	24706.7
714.782	24620.14
715.125	24651.56
715.469	24522.29
715.812	24364.11
716.156	24415.63
716.499	24351.68
716.843	24402.97
717.186	24194.39
717.53	24242.07
717.873	24244.11
718.216	24139.03
718.559	24093.15
718.902	23907.85
719.246	24055.86
719.589	23986.71
719.932	23839.37
720.275	23799.6
720.617	23855.87
720.96	23798.24
721.303	23636.67
721.646	23703.11
721.989	23566.61
722.331	23703.78
722.674	23681.19
723.016	23579.49
723.359	23515.99
723.701	23502.66
724.044	23388.99
724.386	23226.06
724.729	23343.79
725.071	23287.75
725.413	23292.72
725.755	23273.74
726.097	23158.94
726.439	22999.17
726.782	22956.68
727.124	23044.59
727.465	22993.07
727.807	23000.98
728.149	22853.41
728.491	22858.16
728.833	22837.59
729.175	22688.67
729.516	22730.48
729.858	22749.91
730.199	22767.99
730.541	22624.26
730.882	22608.45
731.224	22718.95
731.565	22430.82
731.906	22413.65
732.248	22522.57
732.589	22293.65
732.93	22333.65
733.271	22294.1
733.612	22410.71
733.953	22370.26
734.294	22171.39
734.635	22148.12
734.976	22300.66
735.317	22104.28
735.658	22122.36
735.999	22153.77
736.339	22083.26
736.68	22124.84
737.021	22008.23
737.361	21838.52
737.702	21947.67
738.042	21870.16
738.383	21920.78
738.723	21990.61
739.063	21792.42
739.404	21859.31
739.744	21758.75
740.084	21700.9
740.424	21659.09
740.764	21619.09
741.104	21705.64
741.444	21505.42
741.784	21479.44
742.124	21522.15
742.464	21490.96
742.804	21438.31
743.143	21359.89
743.483	21242.83
743.823	21171.65
744.162	21093.91
744.502	21146.11
744.841	21126
745.181	21208.48
745.52	21033.35
745.86	21081.93
746.199	21033.57
746.538	21124.42
746.877	20998.77
747.216	20943.18
747.556	20890.52
747.895	20956.74
748.234	20779.11
748.573	20676.29
748.911	20831.09
749.25	20802.62
749.589	20659.34
749.928	20681.94
750.267	20629.06
750.605	20612.34
750.944	20509.74
751.283	20424.32
751.621	20533.92
751.96	20383.64
752.298	20384.55
752.636	20383.87
752.975	20356.75
753.313	20231.56
753.651	20338
753.989	20206.7
