Data from white_poster_card_FLMS001491_00048.txt Node
Date: Wed Feb 08 11:51:35 GMT 2017
User: dcchb
Spectrometer: FLMS00149
Trigger mode: 0
Integration Time (sec): 2.000000E-2
Scans to average: 10
Electric dark correction enabled: true
Nonlinearity correction enabled: false
Boxcar width: 0
XAxis mode: Wavelengths
Number of Pixels in Spectrum: 2048
>>>>>Begin Spectral Data<<<<<
341.393	-18.93
341.776	-18.93
342.16	-18.93
342.543	-41.75
342.927	-62.09
343.31	-54.41
343.693	-71.35
344.077	-67.06
344.46	-56.67
344.843	-74.52
345.226	-19.6
345.61	-35.87
345.993	-5.37
346.376	-13.05
346.759	15.88
347.142	13.16
347.525	44.8
347.908	46.83
348.291	68.98
348.674	97.46
349.057	110.79
349.44	126.83
349.823	142.2
350.206	166.61
350.588	191.69
350.971	202.31
351.354	246.15
351.737	230.33
352.119	261.07
352.502	267.17
352.884	284.79
353.267	286.6
353.65	298.35
354.032	299.71
354.414	294.29
354.797	332.48
355.179	328.41
355.562	320.05
355.944	330.44
356.326	339.26
356.709	329.77
357.091	332.48
357.473	322.99
357.855	340.84
358.238	355.3
358.62	343.32
359.002	342.42
359.384	327.73
359.766	323.66
360.148	343.32
360.53	340.84
360.912	343.78
361.294	360.95
361.676	337.9
362.057	333.16
362.439	329.99
362.821	335.41
363.203	340.16
363.584	329.31
363.966	333.61
364.348	308.52
364.729	329.54
365.111	324.34
365.493	333.83
365.874	309.2
366.256	325.25
366.637	304
367.019	299.71
367.4	311.23
367.781	337.22
368.163	317.11
368.544	313.72
368.925	307.85
369.306	309.88
369.688	326.38
370.069	337.45
370.45	313.49
370.831	322.99
371.212	314.85
371.593	322.99
371.974	300.84
372.355	331.8
372.736	348.07
373.117	323.44
373.498	322.99
373.879	318.69
374.26	323.21
374.641	311.91
375.021	327.73
375.402	348.97
375.783	334.51
376.163	317.11
376.544	326.6
376.925	348.75
377.305	318.69
377.686	336.32
378.066	321.4
378.447	324.34
378.827	334.96
379.208	322.99
379.588	331.8
379.968	339.48
380.349	347.62
380.729	348.3
381.109	360.95
381.489	337.67
381.87	343.32
382.25	353.04
382.63	341.97
383.01	347.84
383.39	345.36
383.77	347.62
384.15	351.69
384.53	369.54
384.91	356.43
385.29	340.16
385.67	365.02
386.049	369.99
386.429	372.7
386.809	388.52
387.189	344.45
387.568	374.96
387.948	374.96
388.328	379.71
388.707	393.49
389.087	372.7
389.466	384.91
389.846	395.07
390.225	391.46
390.605	386.71
390.984	393.04
391.363	395.53
391.743	406.37
392.122	402.53
392.501	388.07
392.881	412.48
393.26	413.83
393.639	410.67
394.018	420.84
394.397	429.88
394.776	394.17
395.155	393.27
395.534	435.98
395.913	428.52
396.292	425.36
396.671	428.97
397.05	424.45
397.429	431.68
397.808	429.65
398.186	434.62
398.565	454.51
398.944	425.81
399.323	426.49
399.701	454.28
400.08	442.3
400.458	425.36
400.837	468.52
401.215	459.93
401.594	431.68
401.972	468.29
402.351	471.68
402.729	481.17
403.107	469.42
403.486	491.79
403.864	501.96
404.242	481.4
404.62	480.5
404.999	510.55
405.377	496.77
405.755	489.08
406.133	496.54
406.511	518.23
406.889	527.27
407.267	527.27
407.645	514.39
408.023	549.87
408.401	543.55
408.779	544.9
409.156	555.3
409.534	568.18
409.912	591.68
410.29	611.79
410.667	587.61
411.045	609.53
411.422	632.58
411.8	646.59
412.178	647.27
412.555	661.51
412.933	670.32
413.31	688.4
413.687	687.95
414.065	687.04
414.442	734.5
414.819	724.78
415.197	733.82
415.574	765.23
415.951	776.76
416.328	790.09
416.705	792.8
417.082	827.83
417.46	836.19
417.837	815.18
418.214	863.54
418.591	835.29
418.967	880.94
419.344	890.65
419.721	918.45
420.098	931.78
420.475	944.44
420.852	956.42
421.228	988.73
421.605	986.7
421.982	1017.2
422.358	1013.82
422.735	998
423.111	1019.46
423.488	1034.83
423.864	1049.52
424.241	1104.66
424.617	1096.75
424.994	1090.65
425.37	1101.04
425.746	1100.59
426.123	1153.25
426.499	1162.06
426.875	1165.22
427.251	1199.35
427.627	1223.08
428.003	1240.7
428.379	1230.53
428.756	1268.27
429.132	1287.71
429.507	1308.04
429.883	1327.25
430.259	1380.59
430.635	1348.04
431.011	1383.07
431.387	1408.83
431.763	1414.03
432.138	1434.6
432.514	1437.08
432.89	1489.73
433.265	1490.19
433.641	1488.38
434.016	1552.78
434.392	1553.24
434.767	1584.2
435.143	1589.62
435.518	1607.25
435.894	1652.44
436.269	1641.14
436.644	1694.02
437.02	1723.4
437.395	1698.99
437.77	1725.89
438.145	1748.03
438.52	1761.59
438.895	1799.11
439.271	1768.82
439.646	1839.33
440.021	1847.24
440.395	1830.97
440.77	1810.86
441.145	1862.38
441.52	1893.79
441.895	1921.14
442.27	1930.63
442.645	1935.6
443.019	1955.26
443.394	1952.77
443.769	1962.26
444.143	1943.06
444.518	1996.39
444.892	1971.98
445.267	1996.84
445.641	2015.82
446.016	2058.08
446.39	2042.71
446.764	2063.96
447.139	2055.14
447.513	2096.27
447.887	2134.24
448.262	2111.41
448.636	2142.6
449.01	2174.46
449.384	2133.11
449.758	2183.5
450.132	2171.3
450.506	2209.26
450.88	2234.8
451.254	2261.01
451.628	2259.43
452.002	2296.95
452.376	2286.55
452.75	2301.69
453.123	2325.19
453.497	2354.8
453.871	2383.72
454.244	2389.82
454.618	2433.66
454.992	2477.96
455.365	2462.14
455.739	2518.18
456.112	2575.58
456.486	2610.38
456.859	2608.12
457.232	2634.11
457.606	2655.35
457.979	2676.37
458.352	2729.48
458.725	2764.05
459.099	2771.28
459.472	2836.37
459.845	2868.23
460.218	2920.88
460.591	2897.38
460.964	2898.74
461.337	2984.16
461.71	3012.41
462.083	3047.43
462.456	3079.75
462.829	3064.16
463.201	3146.41
463.574	3161.1
463.947	3211.27
464.32	3260.54
464.692	3330.14
465.065	3313.87
465.438	3308.22
465.81	3397.71
466.183	3475.67
466.555	3489.68
466.928	3513.41
467.3	3519.51
467.672	3622.79
468.045	3671.15
468.417	3682.67
468.789	3699.39
469.161	3799.5
469.534	3852.61
469.906	3897.58
470.278	3916.79
470.65	3964.02
471.022	4057.58
471.394	4089.89
471.766	4143.22
472.138	4165.6
472.51	4248.31
472.882	4292.82
473.253	4310
473.625	4433.16
473.997	4490.11
474.369	4522.42
474.74	4570.56
475.112	4677.45
475.484	4736.66
475.855	4787.95
476.227	4858.23
476.598	4996.08
476.97	5014.84
477.341	5127.15
477.713	5172.35
478.084	5226.81
478.455	5341.16
478.827	5439.24
479.198	5518.56
479.569	5598.1
479.94	5718.1
480.311	5760.81
480.682	5835.16
481.053	6011.2
481.424	6078.31
481.795	6131.42
482.166	6218.88
482.537	6308.59
482.908	6485.76
483.279	6450.28
483.65	6638.07
484.021	6721.69
484.391	6785.41
484.762	6860.89
485.133	6966.2
485.503	7066.09
485.874	7231.96
486.244	7313.31
486.615	7367.32
486.985	7477.15
487.356	7607.77
487.726	7643.02
488.097	7882.79
488.467	7864.71
488.837	8045.72
489.207	8096.79
489.578	8243.23
489.948	8338.59
490.318	8454.3
490.688	8547.85
491.058	8639.38
491.428	8752.82
491.798	8922.31
492.168	8993.72
492.538	8990.78
492.908	9154.62
493.278	9273.03
493.648	9225.12
494.017	9397.32
494.387	9534.27
494.757	9535.4
495.126	9660.59
495.496	9721.61
495.866	9850.64
496.235	9923.64
496.605	10037.08
496.974	10154.37
497.344	10149.62
497.713	10239.56
498.082	10322.95
498.452	10445.88
498.821	10485.66
499.19	10535.6
499.559	10685.65
499.928	10684.75
500.298	10731.53
500.667	10889.04
501.036	10889.71
501.405	11006.32
501.774	11078.41
502.143	11111.63
502.512	11192.98
502.88	11321.57
503.249	11300.78
503.618	11440.43
503.987	11445.41
504.356	11549.13
504.724	11616.93
505.093	11660.77
505.462	11775.57
505.83	11840.65
506.199	12004.26
506.567	12037.48
506.936	12078.16
507.304	12271.15
507.672	12379.17
508.041	12343.91
508.409	12545.49
508.777	12595.43
509.145	12645.83
509.514	12721.08
509.882	12785.71
510.25	12881.53
510.618	12955.65
510.986	13037.45
511.354	13282.65
511.722	13248.75
512.09	13406.71
512.458	13419.59
512.826	13541.62
513.193	13518.12
513.561	13732.12
513.929	13820.26
514.297	13916.98
514.664	14070.42
515.032	14137.76
515.4	14239.46
515.767	14284.88
516.135	14368.04
516.502	14370.75
516.869	14647.13
517.237	14662.72
517.604	14598.77
517.972	14815.94
518.339	14886.22
518.706	14998.08
519.073	15110.17
519.44	15256.83
519.808	15358.07
520.175	15379.99
520.542	15582.47
520.909	15679.64
521.276	15759.87
521.643	15936.59
522.009	16031.95
522.376	16176.58
522.743	16276.01
523.11	16422.9
523.477	16574.76
523.843	16659.73
524.21	16860.86
524.577	16982.43
524.943	17118.93
525.31	17165.71
525.676	17315.53
526.043	17354.85
526.409	17567.28
526.776	17758.91
527.142	17826.48
527.508	17876.2
527.874	18038.68
528.241	18162.29
528.607	18212.23
528.973	18487.48
529.339	18490.64
529.705	18664.2
530.071	18763.18
530.437	18870.52
530.803	19000.69
531.169	19071.65
531.535	19151.64
531.901	19178.76
532.267	19258.76
532.632	19469.83
532.998	19450.84
533.364	19622.37
533.73	19682.25
534.095	19897.39
534.461	19927.89
534.826	20040.21
535.192	20144.84
535.557	20295.79
535.923	20243.14
536.288	20338.96
536.653	20486.07
537.019	20483.13
537.384	20585.5
537.749	20667.08
538.114	20851.94
538.479	20773.07
538.845	20978.71
539.21	20839.06
539.575	20997.47
539.94	21181.42
540.305	21288.54
540.67	21336.44
541.034	21378.93
541.399	21597.91
541.764	21544.35
542.129	21641.97
542.494	21623.44
542.858	21783.44
543.223	21790.9
543.587	21964.22
543.952	21966.94
544.316	22051.23
544.681	22084.9
545.045	22236.76
545.41	22241.96
545.774	22345.91
546.138	22388.62
546.503	22484.44
546.867	22570.54
547.231	22742.74
547.595	22697.99
547.959	22844.88
548.324	22878.78
548.688	23006.46
549.052	23001.49
549.416	23190.63
549.779	23029.51
550.143	23170.07
550.507	23391.31
550.871	23475.15
551.235	23491.19
551.599	23645.08
551.962	23708.36
552.326	23721.92
552.689	23894.57
553.053	23883.72
553.417	23881.46
553.78	24212.08
554.143	24305.86
554.507	24282.58
554.87	24381.34
555.234	24680.31
555.597	24527.55
555.96	24606.87
556.323	24852.74
556.686	24882.79
557.05	25031.04
557.413	25065.16
557.776	25176.34
558.139	25331.37
558.502	25449.78
558.865	25598.48
559.228	25737.01
559.59	25648.42
559.953	25829.89
560.316	26178.58
560.679	26156.66
561.041	26288.18
561.404	26387.16
561.767	26648.17
562.129	26485.24
562.492	26860.59
562.854	26708.28
563.217	26792.8
563.579	26940.37
563.941	27188.49
564.304	27367.25
564.666	27424.42
565.028	27470.75
565.39	27502.16
565.753	27755.94
566.115	27879.78
566.477	27978.53
566.839	28041.81
567.201	28235.02
567.563	28170.84
567.925	28370.84
568.287	28377.62
568.648	28373.77
569.01	28694.44
569.372	28881.33
569.734	28746.19
570.095	29044.72
570.457	29175.11
570.819	29164.04
571.18	29267.76
571.542	29373.97
571.903	29394.76
572.265	29568.54
572.626	29674.3
572.987	29575.55
573.349	29836.33
573.71	29950.68
574.071	29913.39
574.432	30135.76
574.794	30185.7
575.155	30165.59
575.516	30079.94
575.877	30242.43
576.238	30403.1
576.599	30443.1
576.96	30551.57
577.32	30577.56
577.681	30585.47
578.042	30788.4
578.403	30782.07
578.763	30842.41
579.124	30797.21
579.485	30893.26
579.845	31096.87
580.206	30911.11
580.566	31080.6
580.927	31026.13
581.287	31184.1
581.648	31083.31
582.008	31240.14
582.368	31180.48
582.728	31229.52
583.089	31229.07
583.449	31289.4
583.809	31297.09
584.169	31342.74
584.529	31147.49
584.889	31572.56
585.249	31171.67
585.609	31203.76
585.969	31383.19
586.329	31259.12
586.688	31328.27
587.048	31347.25
587.408	31327.59
587.768	31348.84
588.127	31320.36
588.487	31240.14
588.846	31511.77
589.206	31342.96
589.565	31368.27
589.925	31568.72
590.284	31387.71
590.643	31553.8
591.003	31408.27
591.362	31657.08
591.721	31554.26
592.08	31565.55
592.44	31630.41
592.799	31595.84
593.158	31549.28
593.517	31631.09
593.876	31653.01
594.235	31527.59
594.593	31538.89
594.952	31603.07
595.311	31475.61
595.67	31659.11
596.029	31835.83
596.387	31798.32
596.746	31969.61
597.104	31694.59
597.463	31694.82
597.822	31784.98
598.18	31747.02
598.538	31797.41
598.897	31898.88
599.255	31680.13
599.613	32057.07
599.972	31935.49
600.33	32078.31
600.688	31888.03
601.046	31960.8
601.404	32238.08
601.762	31992.66
602.12	32197.63
602.478	32246.44
602.836	32173.45
603.194	32084.18
603.552	32238.3
603.91	32071.08
604.268	32383.39
604.625	32145.2
604.983	32224.97
605.341	32209.38
605.698	32254.35
606.056	32364.86
606.413	32353.56
606.771	32369.83
607.128	32581.8
607.485	32317.17
607.843	32385.65
608.2	32483.72
608.557	32656.82
608.914	32550.16
609.272	32778.63
609.629	32729.37
609.986	32958.29
610.343	32648.01
610.7	32877.84
611.057	32793.32
611.414	32819.53
611.771	32880.77
612.127	33030.15
612.484	32955.57
612.841	33164.61
613.198	33066.76
613.554	33004.61
613.911	33184.04
614.267	33168
614.624	33130.26
614.98	33157.15
615.337	33368.9
615.693	33332.51
616.05	33172.97
616.406	33414.09
616.762	33335.23
617.118	33392.4
617.475	33289.35
617.831	33474.88
618.187	33504.26
618.543	33469.23
618.899	33680.53
619.255	33501.77
619.611	33668.1
619.967	33603.69
620.323	33582
620.678	33595.56
621.034	33534.09
621.39	33594.88
621.746	33526.86
622.101	33910.58
622.457	33669.23
622.812	33694.31
623.168	33861.99
623.523	33745.38
623.879	33902.89
624.234	33619.51
624.589	33744.25
624.945	33733.63
625.3	33723.92
625.655	33718.94
626.01	33661.32
626.365	33802.56
626.72	33729.79
627.075	33736.34
627.43	33679.62
627.785	33567.99
628.14	33664.93
628.495	33688.44
628.85	33600.98
629.205	33585.39
629.559	33690.92
629.914	33534.54
630.269	33610.25
630.623	33501.32
630.978	33340.87
631.332	33575.9
631.687	33518.5
632.041	33329.58
632.396	33538.84
632.75	33301.55
633.104	33299.97
633.459	33252.97
633.813	33178.85
634.167	33141.78
634.521	33012.07
634.875	33154.44
635.229	33137.26
635.583	32940.21
635.937	32937.5
636.291	32848.68
636.645	32990.83
636.999	32915.8
637.352	32913.32
637.706	32715.58
638.06	32755.35
638.413	32737.05
638.767	32558.07
639.121	32528.47
639.474	32505.87
639.828	32518.98
640.181	32536.15
640.534	32604.85
640.888	32448.69
641.241	32396.72
641.594	32399.88
641.947	32315.59
642.301	32316.95
642.654	32281.69
643.007	32189.94
643.36	32322.37
643.713	32139.78
644.066	32308.13
644.419	32022.27
644.771	31954.02
645.124	31465.9
645.477	31501.15
645.83	31313.58
646.182	31185.23
646.535	31034.49
646.888	31156.3
647.24	30969.86
647.593	31097.77
647.945	31005.79
648.298	30893.26
648.65	30939.13
649.002	30709.08
649.355	30808.96
649.707	30879.02
650.059	30935.97
650.411	31130.76
650.763	31393.13
651.115	31590.64
651.467	31459.12
651.819	31496.86
652.171	31523.3
652.523	31402.62
652.875	31409.17
653.227	31109.75
653.578	31392.68
653.93	31337.54
654.282	31192.23
654.633	31118.79
654.985	31161.5
655.337	31089.86
655.688	31121.95
656.039	31258.67
656.391	30865.23
656.742	31037.66
657.094	31048.96
657.445	31026.13
657.796	30903.2
658.147	31022.52
658.498	30814.39
658.849	30995.17
659.2	30867.27
659.551	30758.34
659.902	30914.95
660.253	30816.42
660.604	30775.74
660.955	30746.37
661.306	30672.7
661.656	30650.78
662.007	30626.82
662.358	30625.69
662.708	30757.44
663.059	30690.55
663.409	30464.34
663.76	30772.58
664.11	30589.99
664.461	30698.68
664.811	30704.79
665.161	30650.1
665.511	30511.57
665.862	30595.18
666.212	30577.56
666.562	30411.23
666.912	30470.44
667.262	30412.82
667.612	30499.82
667.962	30435.64
668.312	30364.23
668.662	30420.95
669.011	30549.76
669.361	30365.13
669.711	30314.97
670.06	30225.7
670.41	30262.31
670.76	30155.65
671.109	30251.92
671.459	30231.35
671.808	30126.5
672.157	30216.89
672.507	30092.37
672.856	30081.07
673.205	30135.31
673.554	30139.15
673.904	30050.57
674.253	30165.14
674.602	30077.91
674.951	29688.09
675.3	29569.9
675.649	30025.48
675.998	29906.39
676.346	29872.49
676.695	29867.97
677.044	29779.61
677.393	29925.37
677.741	29896.22
678.09	29774.87
678.438	29673.63
678.787	29761.08
679.135	29789.78
679.484	29615.32
679.832	29641.09
680.181	29494.65
680.529	29608.54
680.877	29480.19
681.225	29522.22
681.573	29620.75
681.922	29285.61
682.27	29341.43
682.618	29413.52
682.966	29275.67
683.314	29239.06
683.661	29221.44
684.009	29138.95
684.357	28907.54
684.705	28956.81
685.053	28994.55
685.4	29001.1
685.748	28733.54
686.095	28766.76
686.443	28705.74
686.79	28761.33
687.138	28661.45
687.485	28651.73
687.832	28569.25
688.18	28552.07
688.527	28365.86
688.874	28322.93
689.221	28323.83
689.568	28281.12
689.915	28215.81
690.262	28179.43
690.609	28008.36
690.956	27853.11
691.303	28025.08
691.65	27828.7
691.997	27825.54
692.344	27684.07
692.69	27539.9
693.037	27663.51
693.383	27356.17
693.73	27533.34
694.077	27298.55
694.423	27271.43
694.769	27224.2
695.116	27194.14
695.462	27001.83
695.808	26978.33
696.155	27068.5
696.501	26801.61
696.847	26776.75
697.193	26668.06
697.539	26698.11
697.885	26649.53
698.231	26492.24
698.577	26479.13
698.923	26374.73
699.269	26208.86
699.614	26130.89
699.96	26038.02
700.306	26177.45
700.651	26028.07
700.997	25896.1
701.342	26007.28
701.688	25904.69
702.033	25645.26
702.379	25777.91
702.724	25658.59
703.069	25592.38
703.415	25437.58
703.76	25397.35
704.105	25372.04
704.45	25345.83
704.795	25274.42
705.14	25056.12
705.485	25140.41
705.83	25050.25
706.175	25167.98
706.52	24965.28
706.865	24835.56
707.209	24837.6
707.554	24700.42
707.899	24729.12
708.243	24558.73
708.588	24576.13
708.932	24423.6
709.277	24344.73
709.621	24464.95
709.966	24209.36
710.31	24279.42
710.654	23975.02
710.998	24230.38
711.342	24112.42
711.687	24068.8
712.031	23958.3
712.375	23962.82
712.719	23977.73
713.063	23855.02
713.407	23859.77
713.75	23596.95
714.094	23681.92
714.438	23674.01
714.782	23667.68
715.125	23530.74
715.469	23595.59
715.812	23391.08
716.156	23264.98
716.499	23267.69
716.843	23317.18
717.186	23276.73
717.53	23203.97
717.873	23231.31
718.216	23238.32
718.559	23060.47
718.902	22869.74
719.246	22907.7
719.589	23033.12
719.932	22738.44
720.275	22911.77
720.617	22895.95
720.96	22747.48
721.303	22757.2
721.646	22761.49
721.989	22657.54
722.331	22711.55
722.674	22579.12
723.016	22585.9
723.359	22592
723.701	22541.84
724.044	22364.89
724.386	22210.77
724.729	22382.29
725.071	22315.85
725.413	22259.81
725.755	22163.54
726.097	22072.47
726.439	22098.01
726.782	22015.52
727.124	22069.31
727.465	21927.84
727.807	21957.9
728.149	21948.18
728.491	21868.86
728.833	21825.92
729.175	21738.92
729.516	21698.02
729.858	21645.14
730.199	21632.71
730.541	21641.75
730.882	21623.67
731.224	21660.73
731.565	21558.81
731.906	21558.13
732.248	21487.4
732.589	21423.45
732.93	21446.95
733.271	21339.16
733.612	21343.45
733.953	21364.01
734.294	21287.86
734.635	21159.73
734.976	21301.42
735.317	21053.29
735.658	21104.59
735.999	21143.68
736.339	21088.32
736.68	21131.25
737.021	21057.13
737.361	21003.35
737.702	21046.73
738.042	20980.52
738.383	20886.51
738.723	20912.5
739.063	20856.68
739.404	20926.51
739.744	20755.44
740.084	20750.92
740.424	20768.32
740.764	20658.95
741.104	20659.85
741.444	20631.15
741.784	20557.93
742.124	20505.05
742.464	20492.85
742.804	20485.39
743.143	20369.24
743.483	20418.05
743.823	20370.37
744.162	20254.44
744.502	20348.67
744.841	20257.6
745.181	20294.21
745.52	20131.73
745.86	20285.4
746.199	20159.53
746.538	20051.05
746.877	20105.97
747.216	20120.43
747.556	20009.47
747.895	20032.07
748.234	19913.43
748.573	19927.44
748.911	19862.81
749.25	19804.06
749.589	19824.39
749.928	19810.16
750.267	19690.16
750.605	19687.45
750.944	19621.01
751.283	19539.66
751.621	19520.9
751.96	19465.53
752.298	19522.03
752.636	19501.46
752.975	19366.78
753.313	19346.67
753.651	19350.96
753.989	19340.79
