Data from white_poster_card_FLMS001491_00077.txt Node
Date: Wed Feb 08 11:51:59 GMT 2017
User: dcchb
Spectrometer: FLMS00149
Trigger mode: 0
Integration Time (sec): 2.000000E-2
Scans to average: 10
Electric dark correction enabled: true
Nonlinearity correction enabled: false
Boxcar width: 0
XAxis mode: Wavelengths
Number of Pixels in Spectrum: 2048
>>>>>Begin Spectral Data<<<<<
341.393	-10.9
341.776	-10.9
342.16	-10.9
342.543	-62.65
342.927	-71.24
343.31	-58.13
343.693	-73.5
344.077	-71.02
344.46	-49.55
344.843	-55.2
345.226	-34.63
345.61	-30.56
345.993	-14.07
346.376	-15.65
346.759	2.88
347.142	37
347.525	65.48
347.908	33.61
348.291	65.7
348.674	92.14
349.057	105.48
349.44	119.71
349.823	135.31
350.206	165.14
350.588	215.98
350.971	219.15
351.354	215.76
351.737	252.37
352.119	260.05
352.502	287.39
352.884	256.43
353.267	289.65
353.65	297.79
354.032	300.73
354.414	299.82
354.797	313.38
355.179	321.52
355.562	312.48
355.944	329.43
356.326	349.09
356.709	358.35
357.091	324.23
357.473	349.99
357.855	351.57
358.238	350.67
358.62	348.63
359.002	345.47
359.384	343.44
359.766	349.54
360.148	338.47
360.53	352.02
360.912	333.95
361.294	327.39
361.676	351.12
362.057	327.39
362.439	340.95
362.821	338.92
363.203	330.78
363.584	324.23
363.966	331.46
364.348	314.06
364.729	310.22
365.111	327.62
365.493	333.04
365.874	315.64
366.256	327.39
366.637	329.88
367.019	322.87
367.4	339.82
367.781	329.2
368.163	341.4
368.544	325.36
368.925	312.03
369.306	310.44
369.688	324.45
370.069	315.19
370.45	295.53
370.831	313.38
371.212	306.6
371.593	304.57
371.974	352.7
372.355	322.19
372.736	339.14
373.117	318.35
373.498	350.22
373.879	311.57
374.26	315.19
374.641	310.9
375.021	314.29
375.402	316.55
375.783	325.81
376.163	329.88
376.544	344.12
376.925	339.6
377.305	346.83
377.686	327.17
378.066	326.94
378.447	332.36
378.827	351.35
379.208	339.82
379.588	347.73
379.968	319.26
380.349	345.02
380.729	335.75
381.109	354.28
381.489	333.72
381.87	340.05
382.25	361.29
382.63	354.51
383.01	356.32
383.39	364
383.77	359.48
384.15	367.62
384.53	382.31
384.91	360.84
385.29	362.42
385.67	366.94
386.049	387.73
386.429	381.18
386.809	352.7
387.189	373.72
387.568	377.33
387.948	354.06
388.328	376.2
388.707	381.85
389.087	378.69
389.466	406.26
389.846	394.28
390.225	389.99
390.605	396.32
390.984	391.12
391.363	395.19
391.743	410.55
392.122	383.89
392.501	403.32
392.881	408.07
393.26	400.61
393.639	404
394.018	427.28
394.397	443.32
394.776	424.79
395.155	394.51
395.534	407.39
395.913	420.72
396.292	439.48
396.671	408.97
397.05	447.16
397.429	427.05
397.808	429.76
398.186	441.06
398.565	429.54
398.944	446.26
399.323	444.45
399.701	451.01
400.08	453.72
400.458	476.99
400.837	456.2
401.215	483.09
401.594	472.93
401.972	498.01
402.351	469.54
402.729	483.55
403.107	460.27
403.486	482.19
403.864	479.03
404.242	498.24
404.62	509.31
404.999	519.25
405.377	502.53
405.755	519.25
406.133	528.07
406.511	526.94
406.889	534.62
407.267	570.32
407.645	541.85
408.023	554.51
408.401	548.63
408.779	597.22
409.156	581.62
409.534	592.7
409.912	608.06
410.29	633.6
410.667	636.99
411.045	613.71
411.422	650.32
411.8	663.65
412.178	688.51
412.555	684.9
412.933	697.55
413.31	704.78
413.687	717.66
414.065	746.82
414.442	749.3
414.819	792.92
415.197	800.15
415.574	782.75
415.951	820.49
416.328	847.6
416.705	847.6
417.082	870.88
417.46	873.37
417.837	872.24
418.214	907.26
418.591	910.43
418.967	957.43
419.344	943.2
419.721	974.16
420.098	970.99
420.475	1015.51
420.852	1006.47
421.228	1022.97
421.605	1048.28
421.982	1059.8
422.358	1086.69
422.735	1091.44
423.111	1070.2
423.488	1096.19
423.864	1140.48
424.241	1172.57
424.617	1157.65
424.994	1170.53
425.37	1171.44
425.746	1201.95
426.123	1229.29
426.499	1237.43
426.875	1235.39
427.251	1272.68
427.627	1305.22
428.003	1334.82
428.379	1347.48
428.756	1354.71
429.132	1376.18
429.507	1394.94
429.883	1412.79
430.259	1445.56
430.635	1459.57
431.011	1469.74
431.387	1483.07
431.763	1537.3
432.138	1572.78
432.514	1566.91
432.89	1554.03
433.265	1607.13
433.641	1655.49
434.016	1646.68
434.392	1684.19
434.767	1719.9
435.143	1680.13
435.518	1754.7
435.894	1744.76
436.269	1742.04
436.644	1815.49
437.02	1828.14
437.395	1843.96
437.77	1846.9
438.145	1882.83
438.52	1887.35
438.895	1921.02
439.271	1941.81
439.646	1981.13
440.021	2007.35
440.395	1980.68
440.77	1982.72
441.145	2015.48
441.52	2022.26
441.895	2030.4
442.27	2057.06
442.645	2038.76
443.019	2103.39
443.394	2095.03
443.769	2094.13
444.143	2121.24
444.518	2121.24
444.892	2146.33
445.267	2137.74
445.641	2183.39
446.016	2218.19
446.39	2215.25
446.764	2221.58
447.139	2232.88
447.513	2241.24
447.887	2243.95
448.262	2224.29
448.636	2264.97
449.01	2303.61
449.384	2342.25
449.758	2388.36
450.132	2370.95
450.506	2334.57
450.88	2408.92
451.254	2384.51
451.628	2452.99
452.002	2474.91
452.376	2462.25
452.75	2487.34
453.123	2525.98
453.497	2530.95
453.871	2567.56
454.244	2602.59
454.618	2680.1
454.992	2682.36
455.365	2671.96
455.739	2730.27
456.112	2795.35
456.486	2773.88
456.859	2821.56
457.232	2859.3
457.606	2853.43
457.979	2906.76
458.352	2957.38
458.725	2987.66
459.099	2983.37
459.472	3061.33
459.845	3102.91
460.218	3125.51
460.591	3159.41
460.964	3150.82
461.337	3227.2
461.71	3285.96
462.083	3315.11
462.456	3320.53
462.829	3311.72
463.201	3354.66
463.574	3428.55
463.947	3463.13
464.32	3521.88
464.692	3574.99
465.065	3599.62
465.438	3648.21
465.81	3689.56
466.183	3748.55
466.555	3788.54
466.928	3765.04
467.3	3810.92
467.672	3878.03
468.045	3971.14
468.417	3999.84
468.789	4036.67
469.161	4044.81
469.534	4193.05
469.906	4217.01
470.278	4252.04
470.65	4310.79
471.022	4367.06
471.394	4439.15
471.766	4457.45
472.138	4491.8
472.51	4618.35
472.882	4722.76
473.253	4687.05
473.625	4805.69
473.997	4902.87
474.369	4951.23
474.74	4997.78
475.112	5096.98
475.484	5188.28
475.855	5232.12
476.227	5252.91
476.598	5426.47
476.97	5465.34
477.341	5571.55
477.713	5672.56
478.084	5756.4
478.455	5836.63
478.827	5899
479.198	6031.2
479.569	6041.14
479.94	6200.91
480.311	6237.75
480.682	6412.88
481.053	6539.66
481.424	6664.85
481.795	6681.35
482.166	6830.5
482.537	6869.37
482.908	7058.51
483.279	7095.8
483.65	7199.3
484.021	7400.43
484.391	7483.36
484.762	7503.7
485.133	7563.36
485.503	7710.25
485.874	7901.2
486.244	7946.63
486.615	8077.92
486.985	8193.85
487.356	8353.4
487.726	8378.93
488.097	8591.58
488.467	8577.57
488.837	8806.49
489.207	8877.9
489.578	9025.47
489.948	9050.78
490.318	9262.52
490.688	9270.21
491.058	9404.89
491.428	9587.26
491.798	9641.05
492.168	9844.2
492.538	9906.12
492.908	9939.12
493.278	10081.49
493.648	10137.76
494.017	10270.41
494.387	10422.49
494.757	10451.19
495.126	10576.84
495.496	10555.37
495.866	10700.45
496.235	10767.8
496.605	10945.42
496.974	10956.72
497.344	11091.18
497.713	11144.74
498.082	11265.18
498.452	11429.93
498.821	11438.74
499.19	11489.36
499.559	11628.56
499.928	11705.85
500.298	11733.65
500.667	11792.63
501.036	11879.86
501.405	12009.8
501.774	12030.36
502.143	12167.08
502.512	12215.22
502.88	12392.39
503.249	12369.56
503.618	12423.8
503.987	12535.21
504.356	12719.16
504.724	12685.03
505.093	12792.15
505.462	12880.51
505.83	12971.58
506.199	13097
506.567	13216.77
506.936	13172.48
507.304	13425.81
507.672	13495.18
508.041	13606.59
508.409	13638
508.777	13789.64
509.145	13883.19
509.514	13815.4
509.882	14047.26
510.25	14042.06
510.618	14253.13
510.986	14190.98
511.354	14367.7
511.722	14517.08
512.09	14675.04
512.458	14634.13
512.826	14779.44
513.193	14913.45
513.561	15046.55
513.929	15111.18
514.297	15220.79
514.664	15352.53
515.032	15345.08
515.4	15559.76
515.767	15647.22
516.135	15678.63
516.502	15656.48
516.869	15956.13
517.237	16119.07
517.604	16012.63
517.972	16269.57
518.339	16311.38
518.706	16415.33
519.073	16566.97
519.44	16652.61
519.808	16848.09
520.175	16825.04
520.542	17099.61
520.909	17166.5
521.276	17189.55
521.643	17441.74
522.009	17566.71
522.376	17625.92
522.743	17761.96
523.11	18020.71
523.477	18156.53
523.843	18237.43
524.21	18365.79
524.577	18634.71
524.943	18671.54
525.31	18780.92
525.676	18981.37
526.043	19031.31
526.409	19166.45
526.776	19448.25
527.142	19544.06
527.508	19537.28
527.874	19757.62
528.241	19893.43
528.607	19949.93
528.973	20026.08
529.339	20252.07
529.705	20438.5
530.071	20633.53
530.437	20675.11
530.803	20730.25
531.169	20878.94
531.535	20803.24
531.901	21042.33
532.267	21030.8
532.632	21349.66
532.998	21327.29
533.364	21342.21
533.73	21469.89
534.095	21664.68
534.461	21851.35
534.826	21983.32
535.192	22023.77
535.557	22202.3
535.923	22176.99
536.288	22226.93
536.653	22402.74
537.019	22416.3
537.384	22547.6
537.749	22680.25
538.114	22804.09
538.479	22844.77
538.845	22875.27
539.21	22826.69
539.575	22906.01
539.94	23126.12
540.305	23384.87
540.67	23289.95
541.034	23368.82
541.399	23440.46
541.764	23563.84
542.129	23722.26
542.494	23745.76
542.858	23839.99
543.223	23864.63
543.587	24047.67
543.952	23997.5
544.316	24086.09
544.681	24089.71
545.045	24284.5
545.41	24417.38
545.774	24361.56
546.138	24406.76
546.503	24552.52
546.867	24668.67
547.231	24872.74
547.595	24843.58
547.959	25012.39
548.324	24954.54
548.688	25043.35
549.052	25264.14
549.416	25231.6
549.779	25309.79
550.143	25367.19
550.507	25538.71
550.871	25618.93
551.235	25690.34
551.599	25844.01
551.962	25880.39
552.326	26007.17
552.689	26218.24
553.053	26085.36
553.417	26231.8
553.78	26532.13
554.143	26430.89
554.507	26437.44
554.87	26697.09
555.234	26946.81
555.597	26893.47
555.96	26962.85
556.323	27039.91
556.686	27154.26
557.05	27252.33
557.413	27356.74
557.776	27537.75
558.139	27656.39
558.502	27790.85
558.865	27888.7
559.228	28013.44
559.59	28251.86
559.953	28287.11
560.316	28546.76
560.679	28647.55
561.041	28629.7
561.404	28901.1
561.767	29086.64
562.129	28913.53
562.492	29359.4
562.854	29289.34
563.217	29307.65
563.579	29488.21
563.941	29594.42
564.304	29881.87
564.666	29899.5
565.028	29945.82
565.39	30009.32
565.753	30329.54
566.115	30328.86
566.477	30492.25
566.839	30524.79
567.201	30850.43
567.563	30712.13
567.925	31092.46
568.287	31067.38
568.648	31228.5
569.01	31222.85
569.372	31558.21
569.734	31363.19
570.095	31675.27
570.457	31916.17
570.819	31906.45
571.18	31898.54
571.542	32173.33
571.903	32119.55
572.265	32355.7
572.626	32435.02
572.987	32371.07
573.349	32550.73
573.71	32613.78
574.071	32690.61
574.432	32798.63
574.794	32995.91
575.155	33084.05
575.516	32956.37
575.877	33023.93
576.238	33186.19
576.599	33289.92
576.96	33307.99
577.32	33412.62
577.681	33465.96
578.042	33537.82
578.403	33614.2
578.763	33658.49
579.124	33729.45
579.485	33794.54
579.845	34014.42
580.206	33894.19
580.566	33795.44
580.927	33859.84
581.287	33995.43
581.648	33927.64
582.008	34079.27
582.368	34032.49
582.728	34122.89
583.089	34098.48
583.449	34011.93
583.809	34139.38
584.169	34226.61
584.529	34148.42
584.889	34377.34
585.249	34096
585.609	34081.76
585.969	34357.46
586.329	34086.96
586.688	34337.35
587.048	34324.69
587.408	34190.91
587.768	34076.79
588.127	34238.14
588.487	34038.6
588.846	34366.27
589.206	34234.75
589.565	34297.35
589.925	34275.2
590.284	34296.22
590.643	34406.95
591.003	34360.17
591.362	34480.84
591.721	34343
592.08	34423.45
592.44	34508.64
592.799	34446.95
593.158	34434.97
593.517	34452.82
593.876	34538.47
594.235	34344.58
594.593	34409.43
594.952	34550.9
595.311	34514.97
595.67	34617.79
596.029	34684.68
596.387	34741.85
596.746	34705.47
597.104	34620.5
597.463	34611.01
597.822	34806.26
598.18	34682.65
598.538	34638.58
598.897	34956.99
599.255	34662.08
599.613	35167.83
599.972	34877.9
600.33	35108.62
600.688	34816.88
601.046	34970.32
601.404	35030.89
601.762	35059.81
602.12	35105.69
602.478	35270.65
602.836	35123.99
603.194	35007.16
603.552	35083.54
603.91	34976.88
604.268	35196.53
604.625	35114.73
604.983	35249.86
605.341	35073.37
605.698	35331.22
606.056	35346.81
606.413	35178.91
606.771	35546.13
607.128	35545.22
607.485	35329.41
607.843	35427.49
608.2	35568.05
608.557	35637.42
608.914	35453.93
609.272	35691.89
609.629	35726.01
609.986	35910.41
610.343	35790.19
610.7	35966.23
611.057	35902.5
611.414	35862.73
611.771	36020.69
612.127	36146.56
612.484	36084.19
612.841	36119.9
613.198	35980.92
613.554	36065.66
613.911	36303.62
614.267	36244.87
614.624	36129.16
614.98	36280.35
615.337	36432.66
615.693	36400.79
616.05	36302.72
616.406	36542.26
616.762	36328.48
617.118	36405.99
617.475	36381.59
617.831	36519.89
618.187	36524.18
618.543	36614.12
618.899	36789.48
619.255	36703.16
619.611	36600.56
619.967	36767.11
620.323	36781.58
620.678	36566.67
621.034	36596.95
621.39	36537.97
621.746	36511.07
622.101	36984.51
622.457	36642.14
622.812	36711.29
623.168	36830.16
623.523	36768.92
623.879	36976.6
624.234	36606.89
624.589	36827.68
624.945	36823.83
625.3	36845.53
625.655	36770.05
626.01	36784.96
626.365	36934.11
626.72	36963.49
627.075	36732.76
627.43	36736.83
627.785	36638.08
628.14	36650.28
628.495	36781.12
628.85	36714.91
629.205	36713.33
629.559	36710.16
629.914	36499.77
630.269	36538.19
630.623	36516.27
630.978	36403.05
631.332	36587.91
631.687	36672.2
632.041	36551.52
632.396	36549.72
632.75	36429.49
633.104	36394.24
633.459	36360.12
633.813	36250.52
634.167	36224.75
634.521	36295.26
634.875	36231.76
635.229	36182.49
635.583	35994.25
635.937	36004.87
636.291	36061.14
636.645	35987.02
636.999	35960.13
637.352	36018.66
637.706	35784.09
638.06	35897.3
638.413	35731.66
638.767	35649.85
639.121	35774.14
639.474	35575.73
639.828	35658.21
640.181	35549.74
640.534	35616.41
640.888	35570.31
641.241	35301.61
641.594	35425.23
641.947	35434.27
642.301	35146.59
642.654	35352.23
643.007	35278.56
643.36	35196.98
643.713	35138.68
644.066	35277.21
644.419	34987.72
644.771	34693.95
645.124	34450.34
645.477	34464.35
645.83	34225.71
646.182	33979.39
646.535	33984.81
646.888	33937.13
647.24	33795.89
647.593	34070.91
647.945	33914.98
648.298	33738.94
648.65	33692.16
649.002	33644.48
649.355	33774.65
649.707	33801.31
650.059	33829.34
650.411	34242.21
650.763	34341.19
651.115	34441.07
651.467	34380.06
651.819	34376.67
652.171	34317.01
652.523	34219.83
652.875	34125.6
653.227	34028.65
653.578	34270.45
653.93	34033.62
654.282	33947.3
654.633	33809.22
654.985	34002.89
655.337	34056.45
655.688	33967.64
656.039	34087.41
656.391	33772.84
656.742	33801.99
657.094	33826.62
657.445	33884.25
657.796	33741.2
658.147	33732.84
658.498	33801.54
658.849	33819.62
659.2	33688.32
659.551	33622.56
659.902	33829.56
660.253	33768.55
660.604	33765.84
660.955	33512.51
661.306	33575.33
661.656	33586.41
662.007	33644.93
662.358	33518.61
662.708	33532.85
663.059	33571.94
663.409	33251.95
663.76	33425.28
664.11	33559.29
664.461	33585.5
664.811	33526.07
665.161	33445.84
665.511	33414.66
665.862	33361.33
666.212	33483.13
666.562	33423.25
666.912	33335.11
667.262	33308.22
667.612	33296.02
667.962	33283.14
668.312	33211.95
668.662	33361.33
669.011	33364.04
669.361	33235
669.711	33140.99
670.06	33210.37
670.41	33072.07
670.76	33066.64
671.109	33122.01
671.459	33133.76
671.808	32985.52
672.157	33163.59
672.507	32907.78
672.856	32881.56
673.205	32887.44
673.554	33021.45
673.904	32795.92
674.253	33006.76
674.602	32946.65
674.951	32382.14
675.3	32165.43
675.649	32793.88
675.998	32774.45
676.346	32737.16
676.695	32728.8
677.044	32557.51
677.393	32653.1
677.741	32710.27
678.09	32689.71
678.438	32489.03
678.787	32600.67
679.135	32617.84
679.484	32416.27
679.832	32537.62
680.181	32334.69
680.529	32429.6
680.877	32398.41
681.225	32248.14
681.573	32455.59
681.922	32150.74
682.27	32045.2
682.618	32120.68
682.966	32058.31
683.314	32058.08
683.661	31904.42
684.009	31787.81
684.357	31718.66
684.705	31631.43
685.053	31789.62
685.4	31687.02
685.748	31447.7
686.095	31550.07
686.443	31322.51
686.79	31380.59
687.138	31393.69
687.485	31314.83
687.832	31200.48
688.18	31239.35
688.527	31069.64
688.874	31040.94
689.221	30956.87
689.568	30772.24
689.915	30783.99
690.262	30803.43
690.609	30661.74
690.956	30468.75
691.303	30597.11
691.65	30402.76
691.997	30356.43
692.344	30296.77
692.69	30143.56
693.037	30272.37
693.383	29895.65
693.73	29922.55
694.077	29821.53
694.423	29798.93
694.769	29725.49
695.116	29650.01
695.462	29690.46
695.808	29524.59
696.155	29508.32
696.501	29323.24
696.847	29339.06
697.193	29089.57
697.539	29272.85
697.885	28949.69
698.231	28961.89
698.577	28866.08
698.923	28872.86
699.269	28728
699.614	28621.11
699.96	28506.76
700.306	28494.56
700.651	28649.36
700.997	28318.75
701.342	28327.56
701.688	28350.84
702.033	28167.11
702.379	28170.73
702.724	27975.25
703.069	28084.4
703.415	27735.71
703.76	27782.26
704.105	27689.16
704.45	27685.09
704.795	27483.97
705.14	27491.65
705.485	27469.05
705.83	27304.99
706.175	27424.08
706.52	27311.54
706.865	27137.76
707.209	27213.92
707.554	26860.93
707.899	27149.51
708.243	26857.09
708.588	26932.79
708.932	26789.75
709.277	26673.14
709.621	26836.3
709.966	26574.84
710.31	26635.85
710.654	26369.19
710.998	26371.23
711.342	26436.08
711.687	26365.35
712.031	26181.18
712.375	26115.64
712.719	26140.05
713.063	26097.56
713.407	26190.22
713.75	26017.79
714.094	26052.14
714.438	25818.7
714.782	25908.64
715.125	25786.16
715.469	25789.77
715.812	25663.9
716.156	25613.96
716.499	25591.81
716.843	25585.03
717.186	25404.02
717.53	25529.22
717.873	25583
718.216	25310.46
718.559	25347.98
718.902	25226.62
719.246	25179.85
719.589	25124.71
719.932	25020.08
720.275	25006.74
720.617	24976.24
720.96	24917.48
721.303	24916.35
721.646	24919.97
721.989	24632.74
722.331	24704.38
722.674	24695.79
723.016	24746.64
723.359	24565.17
723.701	24625.51
724.044	24390.04
724.386	24393.43
724.729	24410.15
725.071	24399.75
725.413	24327.89
725.755	24370.15
726.097	24298.29
726.439	24166.54
726.782	24171.29
727.124	24235.01
727.465	24124.28
727.807	24074.56
728.149	24036.37
728.491	23913.67
728.833	23935.36
729.175	23945.53
729.516	23840.45
729.858	23836.83
730.199	23819.2
730.541	23718.42
730.882	23677.29
731.224	23785.98
731.565	23563.39
731.906	23495.6
732.248	23597.97
732.589	23437.52
732.93	23341.48
733.271	23404.07
733.612	23360.23
733.953	23368.59
734.294	23267.81
734.635	23195.04
734.976	23332.66
735.317	23167.92
735.658	23061.94
735.999	23159.79
736.339	23051.31
736.68	23095.16
737.021	23039.11
737.361	22925.22
737.702	23047.47
738.042	22930.19
738.383	22899.45
738.723	22918.66
739.063	22764.32
739.404	22819
739.744	22772.9
740.084	22609.52
740.424	22575.4
740.764	22648.61
741.104	22676.18
741.444	22407.72
741.784	22435.06
742.124	22466.7
742.464	22478.9
742.804	22438
743.143	22201.85
743.483	22294.5
743.823	22215.63
744.162	22197.78
744.502	22308.74
744.841	22190.32
745.181	22194.16
745.52	22113.03
745.86	22183.99
746.199	21987.39
746.538	22098.57
746.877	22053.37
747.216	22004.79
747.556	21950.1
747.895	21880.27
748.234	21891.12
748.573	21859.26
748.911	21737.45
749.25	21680.73
749.589	21734.51
749.928	21574.97
750.267	21656.78
750.605	21589.66
750.944	21517.34
751.283	21409.78
751.621	21492.03
751.96	21318.7
752.298	21293.62
752.636	21437.35
752.975	21190.12
753.313	21167.97
753.651	21207.97
753.989	21018.37
