Data from white_wall_FLMS001491_020.txt Node
Date: Tue Feb 07 11:03:43 GMT 2017
User: dcchb
Spectrometer: FLMS00149
Trigger mode: 0
Integration Time (sec): 2.000000E-2
Scans to average: 10
Electric dark correction enabled: true
Nonlinearity correction enabled: false
Boxcar width: 0
XAxis mode: Wavelengths
Number of Pixels in Spectrum: 2048
>>>>>Begin Spectral Data<<<<<
341.393	-6.64
341.776	-6.64
342.16	-6.64
342.543	-89.12
342.927	-59.07
343.31	-66.98
343.693	-63.81
344.077	-73.76
344.46	-73.53
344.843	-59.52
345.226	-41.21
345.61	-15.45
345.993	-18.16
346.376	-8.45
346.759	19.35
347.142	35.62
347.525	48.28
347.908	52.12
348.291	69.97
348.674	96.64
349.057	98.9
349.44	110.87
349.823	130.76
350.206	183.19
350.588	237.65
350.971	237.42
351.354	255.95
351.737	259.34
352.119	271.55
352.502	283.07
352.884	299.34
353.267	309.29
353.65	326.69
354.032	321.49
354.414	328.27
354.797	318.78
355.179	355.16
355.562	365.1
355.944	359
356.326	366.23
356.709	373.69
357.091	368.72
357.473	369.4
357.855	363.07
358.238	359.45
358.62	368.49
359.002	362.62
359.384	337.99
359.766	364.2
360.148	368.27
360.53	363.52
360.912	356.52
361.294	351.77
361.676	347.7
362.057	376.18
362.439	360.13
362.821	341.6
363.203	354.03
363.584	349.06
363.966	372.11
364.348	349.74
364.729	372.11
365.111	347.48
365.493	349.51
365.874	356.52
366.256	350.87
366.637	360.81
367.019	344.31
367.4	331.21
367.781	348.61
368.163	350.41
368.544	357.19
368.925	343.64
369.306	339.79
369.688	369.85
370.069	345.67
370.45	369.4
370.831	334.14
371.212	346.8
371.593	358.78
371.974	364.88
372.355	333.69
372.736	344.99
373.117	353.35
373.498	371.66
373.879	371.2
374.26	352.67
374.641	374.37
375.021	356.06
375.402	374.14
375.783	375.27
376.163	364.2
376.544	380.24
376.925	349.06
377.305	361.04
377.686	371.66
378.066	374.59
378.447	378.89
378.827	380.24
379.208	379.11
379.588	373.01
379.968	385.22
380.349	394.48
380.729	402.62
381.109	392.45
381.489	401.03
381.87	385.89
382.25	397.64
382.63	378.89
383.01	430.19
383.39	414.59
383.77	408.27
384.15	406.68
384.53	399.45
384.91	411.88
385.29	431.99
385.67	426.57
386.049	439.68
386.429	429.96
386.809	430.41
387.189	431.54
387.568	443.75
387.948	438.32
388.328	469.51
388.707	450.52
389.087	462.5
389.466	459.56
389.846	459.79
390.225	472.67
390.605	502.27
390.984	466.8
391.363	509.28
391.743	499.11
392.122	512.9
392.501	493.46
392.881	522.16
393.26	511.99
393.639	501.15
394.018	536.4
394.397	542.5
394.776	564.19
395.155	542.05
395.534	559
395.913	566.91
396.292	570.97
396.671	579.79
397.05	595.61
397.429	598.54
397.808	615.94
398.186	607.13
398.565	614.36
398.944	626.57
399.323	651.88
399.701	646.23
400.08	688.26
400.458	680.12
400.837	694.13
401.215	681.48
401.594	716.73
401.972	735.26
402.351	740.91
402.729	744.98
403.107	756.73
403.486	756.28
403.864	789.72
404.242	808.48
404.62	813
404.999	813
405.377	829.5
405.755	844.64
406.133	878.54
406.511	887.35
406.889	899.33
407.267	904.07
407.645	908.37
408.023	963.28
408.401	963.28
408.779	980.91
409.156	1001.02
409.534	1012.77
409.912	1015.03
410.29	1051.19
410.667	1063.62
411.045	1082.15
411.422	1125.99
411.8	1127.12
412.178	1138.87
412.555	1159.43
412.933	1172.09
413.31	1196.04
413.687	1209.15
414.065	1229.26
414.442	1271.75
414.819	1286.66
415.197	1256.83
415.574	1300.45
415.951	1329.82
416.328	1318.52
416.705	1354.91
417.082	1375.02
417.46	1391.74
417.837	1350.61
418.214	1412.53
418.591	1413.21
418.967	1426.09
419.344	1457.28
419.721	1470.39
420.098	1492.08
420.475	1511.97
420.852	1508.58
421.228	1511.51
421.605	1526.43
421.982	1560.1
422.358	1579.31
422.735	1620.44
423.111	1640.78
423.488	1664.96
423.864	1651.62
424.241	1693.2
424.617	1718.97
424.994	1734.33
425.37	1746.76
425.746	1743.15
426.123	1813.43
426.499	1787.89
426.875	1823.37
427.251	1839.87
427.627	1876.48
428.003	1909.7
428.379	1918.06
428.756	1939.75
429.132	1968
429.507	2017.94
429.883	2004.38
430.259	2058.62
430.635	2069.01
431.011	2068.56
431.387	2131.16
431.763	2173.19
432.138	2184.72
432.514	2228.11
432.89	2231.95
433.265	2269.23
433.641	2320.98
434.016	2360.76
434.392	2352.4
434.767	2431.94
435.143	2394.65
435.518	2457.48
435.894	2453.18
436.269	2533.63
436.644	2562.56
437.02	2565.72
437.395	2581.54
437.77	2629.9
438.145	2657.47
438.52	2678.49
438.895	2747.41
439.271	2720.3
439.646	2804.14
440.021	2812.72
440.395	2828.77
440.77	2826.28
441.145	2823.34
441.52	2894.3
441.895	2930.23
442.27	2975.2
442.645	2957.58
443.019	3002.1
443.394	3024.47
443.769	3037.8
444.143	3028.08
444.518	3092.49
444.892	3060.4
445.267	3103.56
445.641	3146.95
446.016	3192.6
446.39	3211.58
446.764	3268.76
447.139	3251.36
447.513	3287.06
447.887	3287.06
448.262	3304.01
448.636	3363.44
449.01	3395.98
449.384	3417.9
449.758	3453.84
450.132	3478.69
450.506	3520.27
450.88	3567.28
451.254	3520.27
451.628	3602.08
452.002	3647.05
452.376	3650.67
452.75	3740.16
453.123	3749.87
453.497	3821.74
453.871	3866.25
454.244	3900.6
454.618	3957.78
454.992	3958.46
455.365	3981.28
455.739	4135.4
456.112	4132.46
456.486	4224.66
456.859	4249.75
457.232	4321.16
457.606	4290.42
457.979	4374.04
458.352	4489.29
458.725	4503.53
459.099	4573.81
459.472	4652
459.845	4661.04
460.218	4749.39
460.591	4795.04
460.964	4847.92
461.337	4927.92
461.71	4980.35
462.083	5058.77
462.456	5099.22
462.829	5179.44
463.201	5268.93
463.574	5261.92
463.947	5344.41
464.32	5447
464.692	5480.22
465.065	5516.15
465.438	5650.61
465.81	5726.54
466.183	5802.25
466.555	5923.38
466.928	5950.27
467.3	5957.72
467.672	6033.65
468.045	6194.78
468.417	6276.59
468.789	6289.69
469.161	6410.82
469.534	6510.48
469.906	6643.36
470.278	6699.17
470.65	6750.92
471.022	6900.3
471.394	7019.39
471.766	7085.83
472.138	7198.82
472.51	7349.78
472.882	7445.14
473.253	7563.11
473.625	7604.91
473.997	7852.36
474.369	7913.38
474.74	7988.63
475.112	8163.32
475.484	8307.04
475.855	8439.02
476.227	8543.42
476.598	8765.56
476.97	8880.36
477.341	9076.29
477.713	9145.66
478.084	9266.79
478.455	9547.69
478.827	9641.7
479.198	9933.89
479.569	9825.87
479.94	10207.56
480.311	10343.37
480.682	10518.96
481.053	10821.78
481.424	10955.56
481.795	11026.29
482.166	11275.55
482.537	11384.93
482.908	11642.1
483.279	11798.48
483.65	11965.7
484.021	12278.24
484.391	12381.96
484.762	12494.73
485.133	12666.47
485.503	12823.08
485.874	13158.89
486.244	13207.7
486.615	13460.8
486.985	13671.19
487.356	13978.76
487.726	14046.78
488.097	14364.28
488.467	14390.95
488.837	14709.36
489.207	14902.12
489.578	15126.98
489.948	15254.43
490.318	15401.09
490.688	15587.3
491.058	15837.46
491.428	16041.08
491.798	16141.86
492.168	16543.44
492.538	16688.74
492.908	16856.2
493.278	16999.24
493.648	17111.78
494.017	17264.77
494.387	17510.19
494.757	17646.91
495.126	17870.86
495.496	17912.66
495.866	18197.18
496.235	18274.46
496.605	18551.74
496.974	18629.03
497.344	18889.36
497.713	19057.72
498.082	19191.73
498.452	19382
498.821	19493.87
499.19	19579.51
499.559	19782.9
499.928	19978.6
500.298	20086.62
500.667	20194.64
501.036	20311.47
501.405	20407.29
501.774	20483.44
502.143	20823.32
502.512	20881.85
502.88	21074.62
503.249	21042.53
503.618	21183.77
503.987	21417.88
504.356	21607.48
504.724	21767.03
505.093	21808.38
505.462	21957.98
505.83	22139.22
506.199	22330.63
506.567	22668.7
506.936	22666.89
507.304	23084.05
507.672	22967.45
508.041	23256.93
508.409	23358.85
508.777	23565.4
509.145	23898.72
509.514	23825.05
509.882	24041.77
510.25	24209.22
510.618	24278.15
510.986	24448.09
511.354	24812.37
511.722	25071.35
512.09	25208.52
512.458	25242.64
512.826	25453.48
513.193	25567.6
513.561	25526.25
513.929	25880.59
514.297	26080.81
514.664	26313.57
515.032	26535.49
515.4	26721.92
515.767	26805.54
516.135	26949.49
516.502	26824.52
516.869	27356.03
517.237	27453.2
517.604	27538.85
517.972	27774.55
518.339	28085.96
518.706	28183.81
519.073	28270.36
519.44	28618.6
519.808	28905.82
520.175	28857.69
520.542	29320.27
520.909	29396.88
521.276	29494.96
521.643	29771.11
522.009	29956.19
522.376	30267.82
522.743	30508.49
523.11	30699.67
523.477	31025.77
523.843	31129.27
524.21	31359.99
524.577	31815.12
524.943	31795.69
525.31	32006.98
525.676	32369.46
526.043	32560.87
526.409	32702.78
526.776	33070.23
527.142	33202.66
527.508	33381.86
527.874	33684.23
528.241	33902.53
528.607	33913.83
528.973	34422.74
529.339	34231.33
529.705	34791.09
530.071	34880.13
530.437	35141.14
530.803	35306.33
531.169	35448.02
531.535	35531.18
531.901	35800.78
532.267	35894.11
532.632	36172.75
532.998	36153.31
533.364	36451.16
533.73	36406.87
534.095	37028.55
534.461	36953.29
534.826	37189.22
535.192	37200.75
535.557	37497.46
535.923	37367.75
536.288	37826.94
536.653	37867.39
537.019	37933.83
537.384	38191.68
537.749	38374.05
538.114	38486.13
538.479	38462.63
538.845	38740.59
539.21	38781.49
539.575	38884.32
539.94	39097.64
540.305	39285.66
540.67	39321.14
541.034	39462.83
541.399	39737.85
541.764	39724.97
542.129	39910.05
542.494	40011.97
542.858	40152.08
543.223	40210.84
543.587	40570.6
543.952	40623.03
544.316	40664.38
544.681	40672.97
545.045	41028.67
545.41	41199.28
545.774	41305.04
546.138	41321.31
546.503	41642.89
546.867	41529.67
547.231	41982.31
547.595	42020.96
547.959	42272.25
548.324	42301.85
548.688	42471.34
549.052	42655.52
549.416	42733.48
549.779	42809.41
550.143	42923.31
550.507	43209.4
550.871	43441.03
551.235	43326.91
551.599	43770.52
551.962	43911.53
552.326	44126.89
552.689	44347
553.053	44257.06
553.417	44232.65
553.78	44982.46
554.143	44713.09
554.507	45002.8
554.87	45136.81
555.234	45476.46
555.597	45450.7
555.96	45732.5
556.323	45950.35
556.686	45981.31
557.05	46296.55
557.413	46377.9
557.776	46548.3
558.139	46911.45
558.502	47001.17
558.865	46949.42
559.228	47388.5
559.59	47390.53
559.953	47501.94
560.316	47937.64
560.679	47763.86
561.041	48156.16
561.404	48366.55
561.767	48663.04
562.129	48569.94
562.492	48958.18
562.854	49083.6
563.217	49129.92
563.579	49207.66
563.941	49446.3
564.304	49625.96
564.666	49884.25
565.028	49785.72
565.39	50075.89
565.753	50219.39
566.115	50362.66
566.477	50474.07
566.839	50589.09
567.201	50919.93
567.563	50848.07
567.925	51002.64
568.287	51133.49
568.648	51194.5
569.01	51353.37
569.372	51649.63
569.734	51507.04
570.095	51776.41
570.457	51922.62
570.819	51948.61
571.18	52077.19
571.542	52187.92
571.903	52198.54
572.265	52325.09
572.626	52497.07
572.987	52443.73
573.349	52652.32
573.71	52709.72
574.071	52763.05
574.432	52845.98
574.794	53125.75
575.155	52937.73
575.516	52968.69
575.877	53109.03
576.238	53162.59
576.599	53313.54
576.96	53342.24
577.32	53417.72
577.681	53486.64
578.042	53550.6
578.403	53610.26
578.763	53573.65
579.124	53643.48
579.485	53736.81
579.845	53867.43
580.206	53790.82
580.566	53783.81
580.927	53831.49
581.287	53891.38
581.648	53828.33
582.008	54008.66
582.368	53887.54
582.728	53984.26
583.089	53997.37
583.449	53917.82
583.809	53935.22
584.169	53973.41
584.529	53944.71
584.889	54228.09
585.249	53996.01
585.609	53868.78
585.969	54190.13
586.329	54022.9
586.688	54141.99
587.048	54079.17
587.408	54049.57
587.768	54075.78
588.127	54014.31
588.487	53975.9
588.846	54153.75
589.206	54039.85
589.565	54101.32
589.925	54131.83
590.284	54145.61
590.643	54158.49
591.003	54203.69
591.362	54355.55
591.721	54245.49
592.08	54265.61
592.44	54264.93
592.799	54270.58
593.158	54235.33
593.517	54196.46
593.876	54262.9
594.235	54266.28
594.593	54285.27
594.952	54316.45
595.311	54289.56
595.67	54318.26
596.029	54464.25
596.387	54434.19
596.746	54492.27
597.104	54413.17
597.463	54310.13
597.822	54435.77
598.18	54374.98
598.538	54425.83
598.897	54605.94
599.255	54334.53
599.613	54802.32
599.972	54514.64
600.33	54584.47
600.688	54448.43
601.046	54610.46
601.404	54701.08
601.762	54731.58
602.12	54810.9
602.478	54784.69
602.836	54836.21
603.194	54650.46
603.552	54738.36
603.91	54693.17
604.268	54805.25
604.625	54674.64
604.983	54845.93
605.341	54763.9
605.698	54899.71
606.056	55001.63
606.413	54982.42
606.771	54960.96
607.128	54984.01
607.485	54864.01
607.843	54911.47
608.2	55123.89
608.557	55151.46
608.914	55079.14
609.272	55265.81
609.629	55307.16
609.986	55384.9
610.343	55138.35
610.7	55468.51
611.057	55380.61
611.414	55374.05
611.771	55363.21
612.127	55458.12
612.484	55492.69
612.841	55524.33
613.198	55467.16
613.554	55479.59
613.911	55652.92
614.267	55643.88
614.624	55671.9
614.98	55613.37
615.337	55763.87
615.693	55767.71
616.05	55707.15
616.406	55815.4
616.762	55727.26
617.118	55824.89
617.475	55750.09
617.831	55834.15
618.187	55867.37
618.543	55915.73
618.899	56058.33
619.255	55990.53
619.611	55947.82
619.967	56035.28
620.323	56136.97
620.678	55944.88
621.034	55973.13
621.39	56033.24
621.746	55931.33
622.101	56254.26
622.457	55923.64
622.812	56083.64
623.168	56182.17
623.523	56064.43
623.879	56163.64
624.234	55914.38
624.589	56088.61
624.945	56100.81
625.3	56159.12
625.655	56160.47
626.01	56191.88
626.365	56169.51
626.72	56149.85
627.075	56222.39
627.43	56129.51
627.785	56124.09
628.14	56141.26
628.495	56179.91
628.85	56146.46
629.205	56052
629.559	56183.3
629.914	56114.15
630.269	56136.52
630.623	56052.23
630.978	56012.68
631.332	56089.06
631.687	56070.31
632.041	55969.29
632.396	56018.1
632.75	55915.28
633.104	56009.97
633.459	55765.68
633.813	55818.33
634.167	55837.54
634.521	55864.44
634.875	55819.69
635.229	55729.3
635.583	55712.35
635.937	55693.14
636.291	55573.82
636.645	55677.32
636.999	55642.97
637.352	55693.14
637.706	55548.06
638.06	55690.2
638.413	55560.49
638.767	55505.12
639.121	55577.66
639.474	55351.68
639.828	55402.75
640.181	55465.12
640.534	55307.39
640.888	55269.42
641.241	55182.87
641.594	55211.34
641.947	55252.02
642.301	55245.69
642.654	55174.96
643.007	55020.16
643.36	55178.35
643.713	55078.69
644.066	55107.62
644.419	54958.24
644.771	54794.86
645.124	54491.14
645.477	54475.32
645.83	54292.5
646.182	54186.74
646.535	54154.88
646.888	54170.24
647.24	54117.36
647.593	54235.1
647.945	54014.31
648.298	53991.72
648.65	53909.01
649.002	53832.85
649.355	53975.22
649.707	53929.12
650.059	54024.71
650.411	54294.76
650.763	54374.98
651.115	54628.08
651.467	54582.89
651.819	54416.34
652.171	54378.15
652.523	54414.3
652.875	54396.68
653.227	54307.41
653.578	54391.48
653.93	54319.16
654.282	54172.5
654.633	54183.58
654.985	54189.9
655.337	54281.2
655.688	54120.07
656.039	54294.98
656.391	53922.34
656.742	54074.2
657.094	54047.99
657.445	54141.09
657.796	54112.62
658.147	53988.55
658.498	53925.5
658.849	53999.4
659.2	54052.05
659.551	53905.16
659.902	54065.84
660.253	53890.02
660.604	53899.74
660.955	53939.97
661.306	53922.79
661.656	53807.54
662.007	53855
662.358	53897.26
662.708	53859.29
663.059	53772.29
663.409	53553.54
663.76	53792.63
664.11	53772.06
664.461	53772.74
664.811	53692.74
665.161	53718.73
665.511	53557.83
665.862	53690.48
666.212	53760.31
666.562	53731.61
666.912	53668.33
667.262	53578.62
667.612	53618.84
667.962	53645.74
668.312	53593.08
668.662	53769.12
669.011	53602.35
669.361	53549.69
669.711	53560.09
670.06	53417.49
670.41	53392.18
670.76	53350.38
671.109	53450.04
671.459	53311.28
671.808	53309.93
672.157	53372.52
672.507	53160.55
672.856	53169.59
673.205	53254.33
673.554	53317.84
673.904	53180.89
674.253	53382.24
674.602	53219.31
674.951	52694.12
675.3	52558.31
675.649	53089.59
675.998	52929.6
676.346	53036.03
676.695	53055.7
677.044	52950.84
677.393	52954.23
677.741	52983.38
678.09	52920.33
678.438	52751.07
678.787	52803.95
679.135	52883.5
679.484	52539.32
679.832	52656.38
680.181	52562.83
680.529	52643.28
680.877	52467.91
681.225	52528.25
681.573	52699.09
681.922	52352.89
682.27	52336.17
682.618	52396.73
682.966	52324.42
683.314	52388.59
683.661	52251.2
684.009	52115.61
684.357	51993.58
684.705	51911.77
685.053	51890.08
685.4	51839
685.748	51823.41
686.095	51707.26
686.443	51615.73
686.79	51498.45
687.138	51566.69
687.485	51578.45
687.832	51444.66
688.18	51482.86
688.527	51324.67
688.874	51233.6
689.221	51144.56
689.568	51095.29
689.915	51007.39
690.262	51000.16
690.609	50817.56
690.956	50771.01
691.303	50695.98
691.65	50498.93
691.997	50601.97
692.344	50412.15
692.69	50340.74
693.037	50366.05
693.383	50070.24
693.73	50198.14
694.077	49875.21
694.423	49823.24
694.769	49717.48
695.116	49648.1
695.462	49668.21
695.808	49512.06
696.155	49567.2
696.501	49266.42
696.847	49283.82
697.193	49046.99
697.539	49248.56
697.885	48928.57
698.231	48901.91
698.577	48744.4
698.923	48711.4
699.269	48520.67
699.614	48352.09
699.96	48264.41
700.306	48346.21
700.651	48062.38
700.997	48065.32
701.342	47974.47
701.688	47882.5
702.033	47714.59
702.379	47788.26
702.724	47595.73
703.069	47748.26
703.415	47221.05
703.76	47358.67
704.105	47319.35
704.45	47154.38
704.795	46993.48
705.14	46906.48
705.485	46753.04
705.83	46638.69
706.175	46747.39
706.52	46525.92
706.865	46349.66
707.209	46375.19
707.554	46194.86
707.899	46311.01
708.243	46046.61
708.588	46120.51
708.932	45794.64
709.277	45747.41
709.621	45874.42
709.966	45445.95
710.31	45597.59
710.654	45255.45
710.998	45300.87
711.342	45433.97
711.687	45202.34
712.031	45020.88
712.375	44844.84
712.719	45093.19
713.063	44931.16
713.407	44966.87
713.75	44757.16
714.094	44674.67
714.438	44653.43
714.782	44573.43
715.125	44419.76
715.469	44400.33
715.812	44252.76
716.156	44084.41
716.499	44185.19
716.843	44142.48
717.186	43902.26
717.53	44023.84
717.873	43957.4
718.216	43825.88
718.559	43582.5
718.902	43397.19
719.246	43487.81
719.589	43357.19
719.932	43116.75
720.275	43313.35
720.617	43090.53
720.96	43044.66
721.303	43023.64
721.646	42978.9
721.989	42858.22
722.331	42749.3
722.674	42810.54
723.016	42884.21
723.359	42638.12
723.701	42591.79
724.044	42343.21
724.386	42310.67
724.729	42394.73
725.071	42324.68
725.413	42271.57
725.755	42236.54
726.097	41980.51
726.439	41862.54
726.782	41899.83
727.124	42149.99
727.465	41748.65
727.807	41828.42
728.149	41678.82
728.491	41580.97
728.833	41720.4
729.175	41558.6
729.516	41448.99
729.858	41417.13
730.199	41448.99
730.541	41201.77
730.882	41209.23
731.224	41441.54
731.565	40941.21
731.906	41095.11
732.248	41203.35
732.589	40912.74
732.93	40774.66
733.271	40866.19
733.612	40921.1
733.953	40832.74
734.294	40634.78
734.635	40452.64
734.976	40695.79
735.317	40388.91
735.658	40378.29
735.999	40494.67
736.339	40241.12
736.68	40430.49
737.021	40217.61
737.361	40030.05
737.702	40293.77
738.042	40230.27
738.383	39835.25
738.723	40111.18
739.063	39940.33
739.404	39976.94
739.744	39700.57
740.084	39710.51
740.424	39611.98
740.764	39573.11
741.104	39590.06
741.444	39341.93
741.784	39259.45
742.124	39395.72
742.464	39312.78
742.804	39111.2
743.143	39051.77
743.483	39155.04
743.823	38847.71
744.162	39035.5
744.502	38919.57
744.841	38720.25
745.181	38864.66
745.52	38621.72
745.86	38722.06
746.199	38555.29
746.538	38640.03
746.877	38604.32
747.216	38609.3
747.556	38646.36
747.895	38499.47
748.234	38242.53
748.573	38122.08
748.911	38196.65
749.25	38176.54
749.589	38085.69
749.928	37984.68
750.267	38017.9
750.605	37824.91
750.944	37894.06
751.283	37505.82
751.621	37704.69
751.96	37494.07
752.298	37440.29
752.636	37501.3
752.975	37143.8
