Data from white_poster_card_FLMS001491_00078.txt Node
Date: Wed Feb 08 11:51:59 GMT 2017
User: dcchb
Spectrometer: FLMS00149
Trigger mode: 0
Integration Time (sec): 2.000000E-2
Scans to average: 10
Electric dark correction enabled: true
Nonlinearity correction enabled: false
Boxcar width: 0
XAxis mode: Wavelengths
Number of Pixels in Spectrum: 2048
>>>>>Begin Spectral Data<<<<<
341.393	-32.15
341.776	-32.15
342.16	-32.15
342.543	-57.68
342.927	-65.82
343.31	-71.92
343.693	-77.79
344.077	-44.12
344.46	-56.78
344.843	-39.38
345.226	-43.9
345.61	-34.18
345.993	-28.98
346.376	-32.82
346.759	8.76
347.142	27.51
347.525	46.04
347.908	55.08
348.291	78.13
348.674	91.69
349.057	122.65
349.44	146.83
349.823	137.57
350.206	156.1
350.588	199.94
350.971	207.62
351.354	223.67
351.737	239.71
352.119	240.16
352.502	273.83
352.884	284.91
353.267	301.86
353.65	298.92
354.032	300.05
354.414	310.9
354.797	302.08
355.179	334.4
355.562	317.68
355.944	325.58
356.326	322.87
356.709	343.44
357.091	320.39
357.473	339.6
357.855	353.83
358.238	332.82
358.62	352.93
359.002	349.54
359.384	355.64
359.766	336.88
360.148	344.34
360.53	326.26
360.912	344.79
361.294	338.47
361.676	342.76
362.057	332.36
362.439	345.47
362.821	330.33
363.203	337.56
363.584	321.29
363.966	327.17
364.348	327.62
364.729	307.05
365.111	312.25
365.493	326.04
365.874	313.61
366.256	334.4
366.637	324.68
367.019	322.42
367.4	310.67
367.781	324.23
368.163	319.26
368.544	317
368.925	321.29
369.306	316.55
369.688	328.97
370.069	326.49
370.45	328.75
370.831	321.07
371.212	326.04
371.593	331.91
371.974	317.9
372.355	331.69
372.736	307.28
373.117	326.04
373.498	311.8
373.879	303.89
374.26	327.84
374.641	335.75
375.021	313.16
375.402	321.07
375.783	308.86
376.163	350.22
376.544	328.07
376.925	334.4
377.305	325.13
377.686	341.63
378.066	339.14
378.447	330.1
378.827	329.43
379.208	352.25
379.588	346.6
379.968	355.19
380.349	348.41
380.729	349.99
381.109	340.05
381.489	339.82
381.87	340.73
382.25	373.49
382.63	339.82
383.01	346.15
383.39	349.54
383.77	380.5
384.15	364.91
384.53	357.45
384.91	363.1
385.29	330.1
385.67	346.38
386.049	365.13
386.429	372.14
386.809	389.54
387.189	365.58
387.568	376.43
387.948	373.94
388.328	380.95
388.707	374.4
389.087	364.91
389.466	396.09
389.846	397.22
390.225	385.24
390.605	409.88
390.984	404.9
391.363	401.74
391.743	405.81
392.122	384.57
392.501	413.72
392.881	415.53
393.26	419.59
393.639	405.36
394.018	406.49
394.397	424.11
394.776	415.3
395.155	437.22
395.534	441.06
395.913	430.44
396.292	443.1
396.671	433.83
397.05	462.53
397.429	444.68
397.808	453.04
398.186	441.74
398.565	450.55
398.944	448.07
399.323	442.42
399.701	472.93
400.08	456.43
400.458	466.82
400.837	448.52
401.215	465.69
401.594	477.45
401.972	475.64
402.351	488.97
402.729	487.16
403.107	484.9
403.486	498.46
403.864	493.26
404.242	509.53
404.62	511.57
404.999	516.99
405.377	520.16
405.755	507.27
406.133	531.68
406.511	545.47
406.889	539.14
407.267	550.44
407.645	567.84
408.023	556.54
408.401	555.64
408.779	577.56
409.156	592.47
409.534	612.13
409.912	595.41
410.29	616.42
410.667	640.15
411.045	628.4
411.422	648.74
411.8	665.69
412.178	663.65
412.555	685.8
412.933	677.44
413.31	722.41
413.687	739.59
414.065	749.98
414.442	754.5
414.819	780.49
415.197	783.43
415.574	779.36
415.951	800.15
416.328	847.6
416.705	833.59
417.082	849.86
417.46	899.13
417.837	907.04
418.214	924.44
418.591	935.06
418.967	922.86
419.344	978.9
419.721	983.65
420.098	972.8
420.475	994.72
420.852	1022.74
421.228	1034.94
421.605	990.2
421.982	1028.62
422.358	1077.66
422.735	1095.96
423.111	1098.45
423.488	1115.85
423.864	1125.79
424.241	1163.98
424.617	1166.92
424.994	1155.62
425.37	1200.36
425.746	1202.62
426.123	1234.04
426.499	1263.64
426.875	1271.1
427.251	1271.77
427.627	1328.04
428.003	1330.3
428.379	1360.13
428.756	1388.38
429.132	1366.01
429.507	1403.97
429.883	1417.76
430.259	1420.47
430.635	1449.17
431.011	1459.34
431.387	1507.93
431.763	1532.33
432.138	1547.47
432.514	1585.44
432.89	1551.09
433.265	1641.48
433.641	1616.4
434.016	1638.77
434.392	1673.35
434.767	1708.83
435.143	1710.86
435.518	1731.65
435.894	1759.67
436.269	1803.29
436.644	1808.03
437.02	1790.86
437.395	1828.14
437.77	1834.47
438.145	1889.61
438.52	1881.25
438.895	1901.36
439.271	1933
439.646	1955.82
440.021	1951.98
440.395	1972.77
440.77	1959.44
441.145	1995.6
441.52	2040.57
441.895	2034.92
442.27	2041.02
442.645	2051.19
443.019	2071.08
443.394	2078.31
443.769	2086.22
444.143	2100.91
444.518	2139.77
444.892	2129.61
445.267	2129.15
445.641	2171.19
446.016	2191.3
446.39	2229.72
446.764	2219.32
447.139	2219.55
447.513	2219.55
447.887	2247.12
448.262	2295.02
448.636	2261.13
449.01	2266.1
449.384	2319.2
449.758	2305.42
450.132	2353.78
450.506	2375.7
450.88	2397.39
451.254	2384.06
451.628	2443.5
452.002	2480.1
452.376	2477.62
452.75	2493.89
453.123	2515.58
453.497	2570.05
453.871	2555.58
454.244	2574.11
454.618	2615.69
454.992	2666.77
455.365	2662.25
455.739	2735.01
456.112	2760.77
456.486	2779.53
456.859	2789.02
457.232	2851.85
457.606	2837.16
457.979	2906.53
458.352	2968.45
458.725	3037.6
459.099	2990.37
459.472	3044.84
459.845	3071.5
460.218	3129.8
460.591	3132.52
460.964	3152.18
461.337	3223.59
461.71	3233.98
462.083	3303.59
462.456	3311.27
462.829	3353.08
463.201	3398.27
463.574	3382
463.947	3463.36
464.32	3538.83
464.692	3520.53
465.065	3600.53
465.438	3670.58
465.81	3666.97
466.183	3748.09
466.555	3777.02
466.928	3751.48
467.3	3781.31
467.672	3908.09
468.045	3970.46
468.417	4005.04
468.789	3998.48
469.161	4100.4
469.534	4118.48
469.906	4218.36
470.278	4256.55
470.65	4271.02
471.022	4406.83
471.394	4419.49
471.766	4475.08
472.138	4489.77
472.51	4567.51
472.882	4699.25
473.253	4732.7
473.625	4782.87
473.997	4894.28
474.369	4953.71
474.74	4974.5
475.112	5062.41
475.484	5143.09
475.855	5205.68
476.227	5246.13
476.598	5413.13
476.97	5486.35
477.341	5562.51
477.713	5624.65
478.084	5672.34
478.455	5805.21
478.827	5842.28
479.198	6039.56
479.569	6070.97
479.94	6235.03
480.311	6232.77
480.682	6420.79
481.053	6544.4
481.424	6688.36
481.795	6693.33
482.166	6779.2
482.537	6871.18
482.908	7039.76
483.279	7127.44
483.65	7207.44
484.021	7422.8
484.391	7418.28
484.762	7528.11
485.133	7586.18
485.503	7695.11
485.874	7852.84
486.244	7957.47
486.615	8140.75
486.985	8167.19
487.356	8359.72
487.726	8420.51
488.097	8574.63
488.467	8626.38
488.837	8782.99
489.207	8865.47
489.578	9024.79
489.948	9126.03
490.318	9205.8
490.688	9263.65
491.058	9418.23
491.428	9580.03
491.798	9574.83
492.168	9841.27
492.538	9895.05
492.908	10008.49
493.278	10071.32
493.648	10169.85
494.017	10266.11
494.387	10337.98
494.757	10456.62
495.126	10636.73
495.496	10602.15
495.866	10749.04
496.235	10870.39
496.605	10899.54
496.974	10996.72
497.344	11103.61
497.713	11142.48
498.082	11219.54
498.452	11426.99
498.821	11455.69
499.19	11434.9
499.559	11618.62
499.928	11655.91
500.298	11793.08
500.667	11928.67
501.036	11852.06
501.405	12000.08
501.774	12047.99
502.143	12155.56
502.512	12280.3
502.88	12434.64
503.249	12319.17
503.618	12492.95
503.987	12635.54
504.356	12667.63
504.724	12672.15
505.093	12815.88
505.462	12929.32
505.83	12897.91
506.199	13080.28
506.567	13174.96
506.936	13223.1
507.304	13425.35
507.672	13430.55
508.041	13538.57
508.409	13611.56
508.777	13745.12
509.145	13924.1
509.514	13897.88
509.882	13995.51
510.25	14042.29
510.618	14134.26
510.986	14167.93
511.354	14373.8
511.722	14510.52
512.09	14640.69
512.458	14661.7
512.826	14863.51
513.193	14938.31
513.561	14918.42
513.929	15161.8
514.297	15313.44
514.664	15304.63
515.032	15408.58
515.4	15481.8
515.767	15599.76
516.135	15752.3
516.502	15721.11
516.869	15967.89
517.237	16049.69
517.604	16033.19
517.972	16243.13
518.339	16343.69
518.706	16409.91
519.073	16600.41
519.44	16660.97
519.808	16811.48
520.175	16844.25
520.542	17075.65
520.909	17171.92
521.276	17262.54
521.643	17438.58
522.009	17524.91
522.376	17698.46
522.743	17719.93
523.11	17986.36
523.477	18113.59
523.843	18290.54
524.21	18460.7
524.577	18577.31
524.943	18546.12
525.31	18727.13
525.676	18979.11
526.043	19114.02
526.409	19193.34
526.776	19398.98
527.142	19492.54
527.508	19603.5
527.874	19610.95
528.241	19911.96
528.607	20050.72
528.973	20249.58
529.339	20081.9
529.705	20404.83
530.071	20571.15
530.437	20584.04
530.803	20823.58
531.169	20763.24
531.535	20835.78
531.901	20971.37
532.267	21113.74
532.632	21270.34
532.998	21319.38
533.364	21516.89
533.73	21514.41
534.095	21777.68
534.461	21812.48
534.826	22008.86
535.192	22084.56
535.557	22196.2
535.923	22179.7
536.288	22319.36
536.653	22362.07
537.019	22431.9
537.384	22505.11
537.749	22681.61
538.114	22680.7
538.479	22790.3
538.845	22944.2
539.21	22901.04
539.575	22938.1
539.94	23243.63
540.305	23306.22
540.67	23297.18
541.034	23355.71
541.399	23513.45
541.764	23549.61
542.129	23636.84
542.494	23636.84
542.858	23839.32
543.223	23771.97
543.587	24011.06
543.952	23972.19
544.316	24126.09
544.681	24164.28
545.045	24205.41
545.41	24464.38
545.774	24444.5
546.138	24440.66
546.503	24652.4
546.867	24632.06
547.231	24948.67
547.595	24723.81
547.959	24910.7
548.324	24983.47
548.688	25002.45
549.052	25108.44
549.416	25199.96
549.779	25327.87
550.143	25426.17
550.507	25513.4
550.871	25710.45
551.235	25588.88
551.599	25849.21
551.962	25827.06
552.326	26135.98
552.689	26153.38
553.053	26120.39
553.417	26292.81
553.78	26587.27
554.143	26452.36
554.507	26608.51
554.87	26782.52
555.234	26915.85
555.597	26825.9
555.96	26984.77
556.323	27057.31
556.686	27139.34
557.05	27359.9
557.413	27420.69
557.776	27591.99
558.139	27743.85
558.502	27847.12
558.865	27953.33
559.228	28056.61
559.59	28186.77
559.953	28405.52
560.316	28508.8
560.679	28500.89
561.041	28791.95
561.404	28856.13
561.767	29149.91
562.129	28896.58
562.492	29287.99
562.854	29380.41
563.217	29353.97
563.579	29529.56
563.941	29677.58
564.304	29732.04
564.666	29927.97
565.028	29938.14
565.39	30174.07
565.753	30384.46
566.115	30528.18
566.477	30547.61
566.839	30581.96
567.201	30800.94
567.563	30794.39
567.925	31190.76
568.287	30982.86
568.648	31040.48
569.01	31363.19
569.372	31500.81
569.734	31602.73
570.095	31761.14
570.457	31818.99
570.819	31964.3
571.18	31938.54
571.542	32162.94
571.903	32205.88
572.265	32270.51
572.626	32412.88
572.987	32373.56
573.349	32640.89
573.71	32677.5
574.071	32717.5
574.432	32826.43
574.794	32988
575.155	32995.01
575.516	32995.69
575.877	33068
576.238	33108
576.599	33242.69
576.96	33379.18
577.32	33312.06
577.681	33565.16
578.042	33554.54
578.403	33675.89
578.763	33594.99
579.124	33802.22
579.485	33910.46
579.845	33943.68
580.206	33786.4
580.566	33940.75
580.927	33920.86
581.287	34048.09
581.648	33969.45
582.008	34088.99
582.368	33964.93
582.728	34112.04
583.089	34098.48
583.449	34058.48
583.809	34109.78
584.169	34207.86
584.529	34084.7
584.889	34373.05
585.249	34152.49
585.609	34049.44
585.969	34372.83
586.329	34229.1
586.688	34271.13
587.048	34267.97
587.408	34097.58
587.768	34185.49
588.127	34238.14
588.487	34177.12
588.846	34410.11
589.206	34248.08
589.565	34280.85
589.925	34441.52
590.284	34448.3
590.643	34291.25
591.003	34451.92
591.362	34459.15
591.721	34418.02
592.08	34362.43
592.44	34572.59
592.799	34449.43
593.158	34422.32
593.517	34399.94
593.876	34564.68
594.235	34520.39
594.593	34481.52
594.952	34576.21
595.311	34501.18
595.67	34586.83
596.029	34798.58
596.387	34839.25
596.746	34884.45
597.104	34602.42
597.463	34742.76
597.822	34743.66
598.18	34717.22
598.538	34697.79
598.897	34933.26
599.255	34583.89
599.613	35092.58
599.972	34833.83
600.33	34958.12
600.688	34846.26
601.046	34975.97
601.404	35088.74
601.762	34956.31
602.12	35203.54
602.478	35119.25
602.836	35223.65
603.194	34980.04
603.552	35011
603.91	34999.7
604.268	35234.72
604.625	35062.75
604.983	35366.7
605.341	35093.48
605.698	35317.66
606.056	35380.71
606.413	35267.94
606.771	35416.64
607.128	35437.2
607.485	35258
607.843	35267.26
608.2	35543.42
608.557	35845.33
608.914	35528.27
609.272	35751.32
609.629	35699.12
609.986	35790.87
610.343	35756.07
610.7	36025.44
611.057	36000.58
611.414	35967.59
611.771	35960.81
612.127	36096.4
612.484	36120.8
612.841	36121.03
613.198	36160.57
613.554	36086.23
613.911	36274.7
614.267	36135.94
614.624	36178.43
614.98	36267.46
615.337	36420.23
615.693	36288.48
616.05	36261.59
616.406	36522.15
616.762	36325.54
617.118	36437.4
617.475	36418.65
617.831	36590.17
618.187	36540.68
618.543	36668.36
618.899	36787.68
619.255	36648.47
619.611	36639.88
619.967	36638.53
620.323	36869.93
620.678	36654.57
621.034	36710.84
621.39	36605.76
621.746	36591.52
622.101	36911.29
622.457	36680.56
622.812	36735.25
623.168	36991.06
623.523	36801.46
623.879	36967.11
624.234	36693.89
624.589	36762.37
624.945	36859.54
625.3	36868.58
625.655	36705.65
626.01	36841.23
626.365	36743.16
626.72	36773.21
627.075	36829.03
627.43	36786.32
627.785	36595.59
628.14	36770.95
628.495	36710.16
628.85	36783.16
629.205	36502.26
629.559	36772.54
629.914	36681.24
630.269	36756.27
630.623	36607.34
630.978	36355.82
631.332	36487.8
631.687	36645.31
632.041	36501.36
632.396	36495.93
632.75	36497.06
633.104	36563.28
633.459	36310.63
633.813	36224.3
634.167	36193.12
634.521	36183.17
634.875	36258.88
635.229	36161.93
635.583	35988.15
635.937	35922.84
636.291	35983.86
636.645	35972.78
636.999	35938.66
637.352	35919
637.706	35684.65
638.06	35834.93
638.413	35743.41
638.767	35720.13
639.121	35741.38
639.474	35468.84
639.828	35564.66
640.181	35529.4
640.534	35622.96
640.888	35533.02
641.241	35258.23
641.594	35390.88
641.947	35429.97
642.301	35355.85
642.654	35389.97
643.007	35302.52
643.36	35190.66
643.713	35107.95
644.066	35193.14
644.419	34938.23
644.771	34824.34
645.124	34580.05
645.477	34387.97
645.83	34138.03
646.182	34048.99
646.535	33886.74
646.888	34104.36
647.24	33865.95
647.593	34118.37
647.945	33938.94
648.298	33703.92
648.65	33750.92
649.002	33673.18
649.355	33717.25
649.707	33785.72
650.059	33697.59
650.411	34101.65
650.763	34130.57
651.115	34627.51
651.467	34416.21
651.819	34337.57
652.171	34186.39
652.523	34163.79
652.875	34158.82
653.227	33942.78
653.578	34226.61
653.93	34096.67
654.282	33999.05
654.633	33838.38
654.985	34056.9
655.337	34027.3
655.688	34033.4
656.039	34052.61
656.391	33697.14
656.742	33839.51
657.094	33741.66
657.445	33858.04
657.796	33781.65
658.147	33684.26
658.498	33708.44
658.849	33908.43
659.2	33636.57
659.551	33605.84
659.902	33742.79
660.253	33662.11
660.604	33705.05
660.955	33710.24
661.306	33552.06
661.656	33615.56
662.007	33555.9
662.358	33449.91
662.708	33580.08
663.059	33481.78
663.409	33331.72
663.76	33574.88
664.11	33470.02
664.461	33529.46
664.811	33448.56
665.161	33508.67
665.511	33330.14
665.862	33381.21
666.212	33462.11
666.562	33441.55
666.912	33411.72
667.262	33246.07
667.612	33329.46
667.962	33268.45
668.312	33173.99
668.662	33356.35
669.011	33175.34
669.361	33250.14
669.711	33169.47
670.06	33145.74
670.41	33178.96
670.76	33206.75
671.109	33098.51
671.459	33078.17
671.808	33116.81
672.157	33038.85
672.507	32911.39
672.856	32998.17
673.205	33022.8
673.554	33091.5
673.904	32832.53
674.253	33002.24
674.602	32889.25
674.951	32432.09
675.3	32297.4
675.649	32668.01
675.998	32719.31
676.346	32670.5
676.695	32830.72
677.044	32595.47
677.393	32821.91
677.741	32801.11
678.09	32589.6
678.438	32503.72
678.787	32607.67
679.135	32663.49
679.484	32393.22
679.832	32549.6
680.181	32318.19
680.529	32402.03
680.877	32320.68
681.225	32323.84
681.573	32434.57
681.922	32322.03
682.27	32170.62
682.618	32034.81
682.966	32090.17
683.314	32078.42
683.661	31888.14
684.009	31776.51
684.357	31828.71
684.705	31675.49
685.053	31627.59
685.4	31656.74
685.748	31444.09
686.095	31479.79
686.443	31436.41
686.79	31288.84
687.138	31376.07
687.485	31369.74
687.832	31200.03
688.18	31257.65
688.527	30957.55
688.874	30988.73
689.221	30961.39
689.568	30790.55
689.915	30817.66
690.262	30702.19
690.609	30649.53
690.956	30440.73
691.303	30549.42
691.65	30408.18
691.997	30359.15
692.344	30193.27
692.69	30243.44
693.037	30151.69
693.383	29986.5
693.73	30046.61
694.077	29792.83
694.423	29791.93
694.769	29610.69
695.116	29668.99
695.462	29606.62
695.808	29528.21
696.155	29634.42
696.501	29287.08
696.847	29260.42
697.193	29131.15
697.539	29250.47
697.885	28994.66
698.231	28923.93
698.577	28893.2
698.923	28942.01
699.269	28786.98
699.614	28562.58
699.96	28503.6
700.306	28506.99
700.651	28453.43
700.997	28386.32
701.342	28304.06
701.688	28278.52
702.033	28128.24
702.379	28196.49
702.724	27996.04
703.069	28076.04
703.415	27755.82
703.76	27833.56
704.105	27766.9
704.45	27679.89
704.795	27599.9
705.14	27417.53
705.485	27460.46
705.83	27413.69
706.175	27357.64
706.52	27278.55
706.865	27224.09
707.209	27121.26
707.554	26955.17
707.899	27164.65
708.243	26869.52
708.588	26940.93
708.932	26819.58
709.277	26685.8
709.621	26760.37
709.966	26631.56
710.31	26652.35
710.654	26367.39
710.998	26382.98
711.342	26524.67
711.687	26321.96
712.031	26255.07
712.375	26029.99
712.719	26218.01
713.063	26101.18
713.407	26229.31
713.75	25949.32
714.094	26013.5
714.438	25838.13
714.782	25898.02
715.125	25785.25
715.469	25765.37
715.812	25713.17
716.156	25454.42
716.499	25688.08
716.843	25612.15
717.186	25530.8
717.53	25592.94
717.873	25544.13
718.216	25398.82
718.559	25328.09
718.902	25260.97
719.246	25170.13
719.589	25223.69
719.932	25063.47
720.275	25033.86
720.617	24940.98
720.96	25012.62
721.303	25014.65
721.646	24860.31
721.989	24706.41
722.331	24921.55
722.674	24742.34
723.016	24623.48
723.359	24535.8
723.701	24619.86
724.044	24425.06
724.386	24376.93
724.729	24446.76
725.071	24300.55
725.413	24373.77
725.755	24338.29
726.097	24178.74
726.439	24068.24
726.782	24190.49
727.124	24216.71
727.465	24124.96
727.807	23987.34
728.149	24033.44
728.491	23954.34
728.833	23891.52
729.175	23757.74
729.516	23899.2
729.858	23843.84
730.199	23876.83
730.541	23816.04
730.882	23775.82
731.224	23888.58
731.565	23585.76
731.906	23567.91
732.248	23689.26
732.589	23540.34
732.93	23373.34
733.271	23480.91
733.612	23501.47
733.953	23366.56
734.294	23239.11
734.635	23294.7
734.976	23299.44
735.317	23204.53
735.658	23165.66
735.999	23178.32
736.339	23077.3
736.68	23127.02
737.021	23044.31
737.361	22902.62
737.702	23006.57
738.042	22853.13
738.383	22905.33
738.723	22912.34
739.063	22841.15
739.404	22796.63
739.744	22793.92
740.084	22688.84
740.424	22745.33
740.764	22653.81
741.104	22786.24
741.444	22596.86
741.784	22456.3
742.124	22499.92
742.464	22429.41
742.804	22348.96
743.143	22312.35
743.483	22326.59
743.823	22225.12
744.162	22159.59
744.502	22211.11
744.841	22155.52
745.181	22275.29
745.52	22101.51
745.86	22189.64
746.199	22075.97
746.538	22024
746.877	22082.3
747.216	21964.56
747.556	21926.6
747.895	21973.83
748.234	21904.45
748.573	21746.04
748.911	21694.97
749.25	21749.88
749.589	21546.72
749.928	21671.01
750.267	21645.7
750.605	21692.03
750.944	21507.85
751.283	21446.16
751.621	21450.23
751.96	21301.3
752.298	21297.91
752.636	21312.83
752.975	21249.33
753.313	21172.49
753.651	21193.51
753.989	21099.28
754.327	21079.84
