Data from whiteboard_FLMS001491_00081.txt Node
Date: Wed Feb 08 11:28:28 GMT 2017
User: dcchb
Spectrometer: FLMS00149
Trigger mode: 0
Integration Time (sec): 2.000000E-2
Scans to average: 10
Electric dark correction enabled: true
Nonlinearity correction enabled: false
Boxcar width: 0
XAxis mode: Wavelengths
Number of Pixels in Spectrum: 2048
>>>>>Begin Spectral Data<<<<<
341.393	-25.28
341.776	-25.28
342.16	-25.28
342.543	-46.52
342.927	-68.9
343.31	-81.55
343.693	-67.77
344.077	-62.12
344.46	-50.37
344.843	-61.21
345.226	-53.76
345.61	-22.34
345.993	-0.42
346.376	-13.08
346.759	2.51
347.142	19.69
347.525	63.3
347.908	58.78
348.291	79.8
348.674	96.3
349.057	92.23
349.44	113.7
349.823	140.59
350.206	164.09
350.588	236.86
350.971	243.19
351.354	263.3
351.737	278.21
352.119	297.87
352.502	295.16
352.884	307.36
353.267	311.21
353.65	320.25
354.032	340.36
354.414	332.9
354.797	339.45
355.179	366.12
355.562	346.46
355.944	353.01
356.326	383.97
356.709	380.13
357.091	383.3
357.473	374.71
357.855	357.08
358.238	385.55
358.62	376.97
359.002	383.97
359.384	357.08
359.766	370.87
360.148	379.45
360.53	357.98
360.912	379.91
361.294	383.07
361.676	372.67
362.057	386.23
362.439	354.37
362.821	355.27
363.203	379
363.584	362.96
363.966	396.4
364.348	348.04
364.729	397.98
365.111	379.45
365.493	371.54
365.874	369.06
366.256	381.49
366.637	372
367.019	373.35
367.4	341.04
367.781	356.63
368.163	365.89
368.544	353.92
368.925	365.67
369.306	372
369.688	357.08
370.069	354.6
370.45	350.3
370.831	362.28
371.212	359.11
371.593	345.33
371.974	354.82
372.355	368.83
372.736	380.81
373.117	364.99
373.498	380.36
373.879	380.58
374.26	360.24
374.641	345.56
375.021	394.59
375.402	383.97
375.783	372.67
376.163	368.83
376.544	395.72
376.925	405.22
377.305	390.53
377.686	388.49
378.066	408.61
378.447	422.84
378.827	380.13
379.208	421.49
379.588	406.8
379.968	392.33
380.349	402.05
380.729	415.61
381.109	412.45
381.489	429.17
381.87	414.25
382.25	416.06
382.63	431.88
383.01	410.86
383.39	417.64
383.77	427.81
384.15	429.85
384.53	435.72
384.91	452.45
385.29	452.45
385.67	453.35
386.049	462.84
386.429	446.8
386.809	470.3
387.189	459
387.568	466.23
387.948	471.2
388.328	469.17
388.707	516.17
389.087	493.8
389.466	470.75
389.846	488.6
390.225	506.68
390.605	508.94
390.984	499
391.363	529.51
391.743	506.46
392.122	521.6
392.501	528.38
392.881	558.21
393.26	552.56
393.639	537.87
394.018	574.93
394.397	569.96
394.776	581.03
395.155	581.03
395.534	599.56
395.913	601.59
396.292	601.59
396.671	621.25
397.05	620.8
397.429	636.4
397.808	632.1
398.186	634.14
398.565	669.16
398.944	663.29
399.323	677.07
399.701	682.27
400.08	693.12
400.458	669.39
400.837	703.51
401.215	741.48
401.594	741.93
401.972	771.08
402.351	767.92
402.729	784.41
403.107	787.58
403.486	833.68
403.864	817.86
404.242	843.17
404.62	852.66
404.999	865.99
405.377	888.82
405.755	913
406.133	931.98
406.511	929.5
406.889	938.53
407.267	972.66
407.645	992.09
408.023	1016.5
408.401	1002.94
408.779	1009.27
409.156	1074.35
409.534	1064.86
409.912	1108.02
410.29	1134.24
410.667	1130.17
411.045	1177.4
411.422	1211.97
411.8	1207
412.178	1254.68
412.555	1255.14
412.933	1280.9
413.31	1298.75
413.687	1343.72
414.065	1370.16
414.442	1335.59
414.819	1413.78
415.197	1418.52
415.574	1446.32
415.951	1467.79
416.328	1478.63
416.705	1500.1
417.082	1517.28
417.46	1535.81
417.837	1550.72
418.214	1594.79
418.591	1593.88
418.967	1601.57
419.344	1653.54
419.721	1669.59
420.098	1657.84
420.475	1700.77
420.852	1713.66
421.228	1760.21
421.605	1739.87
421.982	1772.64
422.358	1776.48
422.735	1812.18
423.111	1802.92
423.488	1863.03
423.864	1899.64
424.241	1894.44
424.617	1927.66
424.994	1957.49
425.37	1944.61
425.746	1978.51
426.123	2014.44
426.499	2035.45
426.875	2044.49
427.251	2085.17
427.627	2164.49
428.003	2178.28
428.379	2225.28
428.756	2202.68
429.132	2253.75
429.507	2252.85
429.883	2328.78
430.259	2356.8
430.635	2384.15
431.011	2415.33
431.387	2461.43
431.763	2481.09
432.138	2528.1
432.514	2552.5
432.89	2565.38
433.265	2638.15
433.641	2660.3
434.016	2676.79
434.392	2740.3
434.767	2805.38
435.143	2778.26
435.518	2806.96
435.894	2862.1
436.269	2884.02
436.644	2926.96
437.02	2963.79
437.395	2983.45
437.77	3049.44
438.145	3078.82
438.52	3100.51
438.895	3159.49
439.271	3197.46
439.646	3241.3
440.021	3275.2
440.395	3259.38
440.77	3201.07
441.145	3301.41
441.52	3342.54
441.895	3347.06
442.27	3408.07
442.645	3404.68
443.019	3413.27
443.394	3433.84
443.769	3491.69
444.143	3447.4
444.518	3572.36
444.892	3545.47
445.267	3564.23
445.641	3627.05
446.016	3638.35
446.39	3634.96
446.764	3680.38
447.139	3687.39
447.513	3761.51
447.887	3797.67
448.262	3793.83
448.636	3807.39
449.01	3891.9
449.384	3894.62
449.758	3912.69
450.132	3953.82
450.506	3960.15
450.88	4004.22
451.254	4040.37
451.628	4071.33
452.002	4172.8
452.376	4178.68
452.75	4238.79
453.123	4246.24
453.497	4298.45
453.871	4338.45
454.244	4400.14
454.618	4465.67
454.992	4500.7
455.365	4535.73
455.739	4654.37
456.112	4705.67
456.486	4807.81
456.859	4807.36
457.232	4882.84
457.606	4910.18
457.979	4984.76
458.352	5067.47
458.725	5216.61
459.099	5197.86
459.472	5253
459.845	5356.72
460.218	5375.71
460.591	5410.51
460.964	5409.38
461.337	5623.61
461.71	5640.11
462.083	5766.43
462.456	5734.79
462.829	5787.45
463.201	5934.34
463.574	5954.67
463.947	5990.15
464.32	6151.05
464.692	6203.25
465.065	6219.75
465.438	6338.84
465.81	6495
466.183	6541.1
466.555	6622.45
466.928	6640.31
467.3	6710.13
467.672	6800.53
468.045	6992.84
468.417	7003.91
468.789	7075.32
469.161	7147.18
469.534	7285.94
469.906	7445.26
470.278	7477.35
470.65	7616.1
471.022	7703.33
471.394	7881.18
471.766	7991.46
472.138	8049.76
472.51	8200.26
472.882	8375.85
473.253	8454.5
473.625	8549.18
473.997	8710.53
474.369	8786.69
474.74	8800.02
475.112	9073.46
475.484	9177.64
475.855	9300.57
476.227	9442.04
476.598	9719.55
476.97	9784.63
477.341	10002.7
477.713	10216.26
478.084	10214.22
478.455	10438.85
478.827	10539.19
479.198	10895.11
479.569	10902.11
479.94	11193.18
480.311	11333.29
480.682	11504.36
481.053	11881.52
481.424	12078.58
481.795	12143.89
482.166	12359.25
482.537	12533.48
482.908	12799.24
483.279	12883.31
483.65	13135.95
484.021	13437.19
484.391	13559.22
484.762	13625.43
485.133	13820.68
485.503	14045.08
485.874	14274
486.244	14448.69
486.615	14749.47
486.985	14893.42
487.356	15102.23
487.726	15278.27
488.097	15547.64
488.467	15759.39
488.837	15937.01
489.207	16114.86
489.578	16365.25
489.948	16574.96
490.318	16798.23
490.688	16865.8
491.058	17107.38
491.428	17406.8
491.798	17529.96
492.168	17849.28
492.538	17974.47
492.908	18180.79
493.278	18377.17
493.648	18346.21
494.017	18541.01
494.387	18821
494.757	18961.11
495.126	19154.55
495.496	19215.79
495.866	19467.99
496.235	19611.04
496.605	19783.91
496.974	19907.98
497.344	20153.17
497.713	20195.88
498.082	20417.34
498.452	20587.51
498.821	20606.27
499.19	20773.27
499.559	20929.42
499.928	21114.28
500.298	21249.41
500.667	21392.91
501.036	21510.42
501.405	21709.74
501.774	21776.86
502.143	21915.84
502.512	22079.9
502.88	22231.99
503.249	22377.52
503.618	22561.47
503.987	22697.51
504.356	22736.15
504.724	22978.86
505.093	22968.69
505.462	23107.9
505.83	23365.52
506.199	23629.69
506.567	23801.44
506.936	23755.79
507.304	24075.55
507.672	24198.04
508.041	24322.55
508.409	24492.27
508.777	24656.33
509.145	24959.6
509.514	24911.24
509.882	25107.39
510.25	25207.05
510.618	25452.01
510.986	25450.66
511.354	25648.39
511.722	25895.17
512.09	26103.75
512.458	26084.54
512.826	26390.52
513.193	26528.6
513.561	26685.65
513.929	26836.16
514.297	27072.54
514.664	27249.26
515.032	27297.62
515.4	27627.1
515.767	27629.81
516.135	27977.15
516.502	27974.89
516.869	28470.69
517.237	28582.55
517.604	28413.74
517.972	28981.41
518.339	29092.82
518.706	29100.05
519.073	29367.62
519.44	29541.62
519.808	29970.09
520.175	29842.86
520.542	30340.47
520.909	30449.4
521.276	30507.25
521.643	30875.6
522.009	30961.93
522.376	31225.2
522.743	31338.87
523.11	31783.6
523.477	32000.99
523.843	32163.25
524.21	32531.83
524.577	32619.96
524.943	32858.15
525.31	32960.74
525.676	33264.24
526.043	33439.15
526.409	33710.33
526.776	34033.71
527.142	34091.11
527.508	34259.47
527.874	34447.94
528.241	34719.34
528.607	34839.56
528.973	35255.37
529.339	35158.88
529.705	35478.42
530.071	35849.48
530.437	35971.29
530.803	36150.94
531.169	36423.93
531.535	36417.83
531.901	36521.1
532.267	36908.21
532.632	37084.48
532.998	37270.23
533.364	37545.26
533.73	37562.66
534.095	37968.52
534.461	38143.43
534.826	38275.86
535.192	38272.24
535.557	38618.67
535.923	38706.58
536.288	38832
536.653	39080.36
537.019	38966.01
537.384	39111.54
537.749	39298.2
538.114	39454.13
538.479	39652.09
538.845	39763.5
539.21	39750.4
539.575	39884.18
539.94	39970.05
540.305	40286.2
540.67	40225.86
541.034	40415.46
541.399	40523.93
541.764	40697.72
542.129	40731.61
542.494	40933.87
542.858	40979.74
543.223	41013.19
543.587	41298.15
543.952	41334.53
544.316	41406.17
544.681	41587.86
545.045	41739.04
545.41	41994.63
545.774	42165.7
546.138	42217.68
546.503	42340.16
546.867	42387.39
547.231	42691.56
547.595	42813.59
547.959	43050.2
548.324	42970.88
548.688	43090.42
549.052	43184.2
549.416	43413.58
549.779	43470.52
550.143	43624.42
550.507	43867.35
550.871	43983.05
551.235	44134.01
551.599	44347.79
551.962	44454
552.326	44526.99
552.689	44801.11
553.053	44717.04
553.417	44722.47
553.78	45352.73
554.143	45107.54
554.507	45423.24
554.87	45523.58
555.234	45885.6
555.597	45684.93
555.96	45927.63
556.323	45966.28
556.686	46127.4
557.05	46459.15
557.413	46468.64
557.776	46530.78
558.139	46959.7
558.502	46864.33
558.865	47051.9
559.228	47269.52
559.59	47360.59
559.953	47398.56
560.316	47873.35
560.679	47884.42
561.041	48068.37
561.404	48411.18
561.767	48537.74
562.129	48424.07
562.492	48863.6
562.854	48841.23
563.217	48880.32
563.579	49100.66
563.941	49285.06
564.304	49525.28
564.666	49736.57
565.028	49770.47
565.39	49910.81
565.753	50086.62
566.115	50162.1
566.477	50355.99
566.839	50474.63
567.201	50771.8
567.563	50739.03
567.925	50958.69
568.287	51073.94
568.648	51064.9
569.01	51238
569.372	51461.73
569.734	51429.41
570.095	51570.2
570.457	51676.41
570.819	51737.65
571.18	51684.32
571.542	52073.46
571.903	52030.75
572.265	52213.34
572.626	52214.25
572.987	52235.04
573.349	52400.46
573.71	52462.15
574.071	52625.31
574.432	52688.81
574.794	52930.39
575.155	52895.36
575.516	52765.42
575.877	52952.76
576.238	53051.97
576.599	53142.13
576.96	53105.52
577.32	53147.56
577.681	53310.04
578.042	53376.7
578.403	53413.31
578.763	53422.35
579.124	53535.12
579.485	53650.37
579.845	53671.61
580.206	53618.28
580.566	53644.49
580.927	53698.96
581.287	53779.41
581.648	53725.85
582.008	53865.96
582.368	53809.23
582.728	53844.04
583.089	53897.59
583.449	53869.12
583.809	53903.02
584.169	53992.51
584.529	54005.16
584.889	54112.96
585.249	53906.18
585.609	53878.61
585.969	54129.23
586.329	54060.98
586.688	54018.72
587.048	54022.79
587.408	53952.28
587.768	53962.23
588.127	53929.01
588.487	53866.63
588.846	54021.43
589.206	53818.95
589.565	53915.9
589.925	53955.45
590.284	54028.44
590.643	53987.54
591.003	54074.54
591.362	54110.47
591.721	54099.62
592.08	54116.57
592.44	54217.36
592.799	54226.17
593.158	54104.37
593.517	54182.11
593.876	54174.87
594.235	54039.96
594.593	54136.46
594.952	54217.59
595.311	54109.57
595.67	54135.1
596.029	54387.52
596.387	54343.23
596.746	54371.48
597.104	54137.59
597.463	54230.01
597.822	54363.34
598.18	54289
598.538	54274.08
598.897	54459.39
599.255	54194.99
599.613	54649.44
599.972	54509.78
600.33	54576.9
600.688	54457.35
601.046	54566.28
601.404	54681.98
601.762	54611.7
602.12	54745.48
602.478	54668.42
602.836	54647.86
603.194	54524.24
603.552	54618.71
603.91	54533.28
604.268	54695.54
604.625	54557.24
604.983	54667.52
605.341	54509.1
605.698	54724.92
606.056	54724.01
606.413	54666.84
606.771	54711.13
607.128	54680.62
607.485	54661.42
607.843	54658.25
608.2	54776.89
608.557	54871.81
608.914	54768.31
609.272	54958.81
609.629	54934.85
609.986	55093.95
610.343	54837.46
610.7	55074.74
611.057	55008.07
611.414	55035.42
611.771	55071.8
612.127	55099.6
612.484	55124.91
612.841	55241.06
613.198	55100.73
613.554	55131.69
613.911	55353.6
614.267	55235.64
614.624	55252.59
614.98	55259.59
615.337	55472.47
615.693	55331.45
616.05	55391.57
616.406	55550.88
616.762	55425.69
617.118	55534.16
617.475	55435.18
617.831	55503.88
618.187	55584.33
618.543	55551.34
618.899	55708.85
619.255	55610.32
619.611	55575.74
619.967	55728.05
620.323	55821.84
620.678	55632.24
621.034	55562.64
621.39	55636.08
621.746	55535.74
622.101	55808.96
622.457	55486.7
622.812	55643.76
623.168	55695.74
623.523	55671.11
623.879	55744.1
624.234	55515.63
624.589	55644.44
624.945	55624.1
625.3	55656.87
625.655	55669.52
626.01	55594.05
626.365	55628.4
626.72	55601.96
627.075	55520.15
627.43	55488.74
627.785	55462.75
628.14	55518.12
628.495	55487.38
628.85	55482.86
629.205	55328.74
629.559	55576.65
629.914	55386.59
630.269	55333.04
630.623	55267.73
630.978	55220.05
631.332	55328.74
631.687	55353.15
632.041	55152.25
632.396	55213.49
632.75	55140.5
633.104	55227.73
633.459	55055.98
633.813	55052.37
634.167	55029.54
634.521	55054.17
634.875	55083.55
635.229	55121.29
635.583	54928.3
635.937	54887.4
636.291	54874.97
636.645	54900.96
636.999	54754.29
637.352	54865.25
637.706	54723.56
638.06	54848.98
638.413	54726.95
638.767	54683.11
639.121	54718.82
639.474	54536.45
639.828	54592.94
640.181	54613.73
640.534	54613.51
640.888	54533.74
641.241	54362.67
641.594	54462.33
641.947	54517.24
642.301	54407.64
642.654	54417.58
643.007	54374.19
643.36	54343.68
643.713	54362.89
644.066	54390.91
644.419	54151.6
644.771	53942.79
645.124	53600.65
645.477	53496.7
645.83	53411.73
646.182	53273.66
646.535	53322.24
646.888	53291.28
647.24	53170.38
647.593	53334.45
647.945	53254.45
648.298	53122.02
648.65	53048.58
649.002	52849.03
649.355	53012.65
649.707	52939.43
650.059	52979.65
650.411	53280.89
650.763	53315.46
651.115	53707.32
651.467	53537.15
651.819	53500.54
652.171	53336.93
652.523	53243.15
652.875	53324.5
653.227	53204.96
653.578	53489.24
653.93	53359.76
654.282	53131.74
654.633	53117.05
654.985	53124.73
655.337	53106.88
655.688	53121.57
656.039	53163.38
656.391	52886.55
656.742	53010.61
657.094	53045.87
657.445	53083.6
657.796	52951.86
658.147	52930.84
658.498	52927
658.849	52984.85
659.2	52775.14
659.551	52759.54
659.902	52825.98
660.253	52864.85
660.604	52839.99
660.955	52656.27
661.306	52778.53
661.656	52646.33
662.007	52730.85
662.358	52835.02
662.708	52718.19
663.059	52695.14
663.409	52513.45
663.76	52789.37
664.11	52610.4
664.461	52695.37
664.811	52691.52
665.161	52636.84
665.511	52652.2
665.862	52541.7
666.212	52637.06
666.562	52575.82
666.912	52459.89
667.262	52497.4
667.612	52439.55
667.962	52476.61
668.312	52391.42
668.662	52542.15
669.011	52444.75
669.361	52383.06
669.711	52308.26
670.06	52320.01
670.41	52213.8
670.76	52253.12
671.109	52246.11
671.459	52135.38
671.808	52132.22
672.157	52134.02
672.507	51841.15
672.856	52018.77
673.205	52061.71
673.554	52156.17
673.904	51872.79
674.253	52054.25
674.602	51910.98
674.951	51438.22
675.3	51229.64
675.649	51722.51
675.998	51855.16
676.346	51660.14
676.695	51725.45
677.044	51446.59
677.393	51556.86
677.741	51678.67
678.09	51415.4
678.438	51325.68
678.787	51412.69
679.135	51478.22
679.484	51231.9
679.832	51380.37
680.181	51167.95
680.529	51271.45
680.877	51055.86
681.225	51067.16
681.573	51147.16
681.922	50940.84
682.27	50858.13
682.618	50963.89
682.966	50708.53
683.314	50815.87
683.661	50681.86
684.009	50580.62
684.357	50529.55
684.705	50405.03
685.053	50567.06
685.4	50406.61
685.748	50238.71
686.095	50224.47
686.443	50038.26
686.79	50121.2
687.138	50101.99
687.485	50054.98
687.832	49951.03
688.18	49913.52
688.527	49839.17
688.874	49757.36
689.221	49577.48
689.568	49520.76
689.915	49336.81
690.262	49401.89
690.609	49204.16
690.956	49088.68
691.303	49014.78
691.65	49021.56
691.997	48825.19
692.344	48595.13
692.69	48627.45
693.037	48467.45
693.383	48221.59
693.73	48389.72
694.077	48182.72
694.423	48072.44
694.769	48003.74
695.116	47963.51
695.462	47951.99
695.808	47762.84
696.155	47840.35
696.501	47491.89
696.847	47634.71
697.193	47222.97
697.539	47438.1
697.885	47056.19
698.231	46951.79
698.577	46943.43
698.923	46917.44
699.269	46721.51
699.614	46527.62
699.96	46538.24
700.306	46383.89
700.651	46211.47
700.997	46107.97
701.342	46069.33
701.688	45956.79
702.033	45787.75
702.379	45652.16
702.724	45535.55
703.069	45599.06
703.415	45087.66
703.76	45166.52
704.105	45198.84
704.45	45002.91
704.795	44777.16
705.14	44697.16
705.485	44642.47
705.83	44534.9
706.175	44569.93
706.52	44510.5
706.865	44172.65
707.209	44196.83
707.554	44157.06
707.899	44303.5
708.243	43960.68
708.588	43835.71
708.932	43550.52
709.277	43508.71
709.621	43736.96
709.966	43408.6
710.31	43320.47
710.654	42991.67
710.998	43152.34
711.342	43081.16
711.687	42860.14
712.031	42686.14
712.375	42698.34
712.719	42718.91
713.063	42626.48
713.407	42684.1
713.75	42513.03
714.094	42472.58
714.438	42331.8
714.782	42229.2
715.125	42030.56
715.469	42106.72
715.812	41897.01
716.156	41718.71
716.499	41793.73
716.843	41820.85
717.186	41467.64
717.53	41494.08
717.873	41446.4
718.216	41450.69
718.559	41282.56
718.902	41000.31
719.246	40938.16
719.589	40857.94
719.932	40668.79
720.275	40818.16
720.617	40684.16
720.96	40627.89
721.303	40580.43
721.646	40664.5
721.989	40297.5
722.331	40502.01
722.674	40312.64
723.016	40182.93
723.359	40151.29
723.701	40263.83
724.044	39964.85
724.386	39725.31
724.729	39892.99
725.071	39708.36
725.413	39700.45
725.755	39613.22
726.097	39525.77
726.439	39238.32
726.782	39393.34
727.124	39442.83
727.465	39329.39
727.807	39142.28
728.149	39131.43
728.491	38928.5
728.833	39040.36
729.175	38895.95
729.516	38803.98
729.858	38689.41
730.199	38734.6
730.541	38637.43
730.882	38595.17
731.224	38654.38
731.565	38265.46
731.906	38365.8
732.248	38502.29
732.589	38133.94
732.93	37947.96
733.271	38072.7
733.612	37961.52
733.953	38082.42
734.294	37995.19
734.635	37875.87
734.976	37891.24
735.317	37720.39
735.658	37686.27
735.999	37632.94
736.339	37701.86
736.68	37617.12
737.021	37441.08
737.361	37401.3
737.702	37561.53
738.042	37484.47
738.383	37287.41
738.723	37295.09
739.063	37119.96
739.404	37229.56
739.744	37048.32
740.084	36818.95
740.424	36956.12
740.764	36739.63
741.104	37025.27
741.444	36604.04
741.784	36613.53
742.124	36542.57
742.464	36504.38
742.804	36411.27
743.143	36444.95
743.483	36402.01
743.823	36117.95
744.162	36120.66
744.502	36063.03
744.841	35982.81
745.181	36126.99
745.52	35879.76
745.86	35945.3
746.199	35840.67
746.538	35818.97
746.877	35716.6
747.216	35750.5
747.556	35519.09
747.895	35480.23
748.234	35266.45
748.573	35401.36
748.911	35387.57
749.25	35156.17
749.589	35088.37
749.928	35134.7
750.267	35107.13
750.605	34971.76
750.944	34814.71
751.283	34655.84
751.621	34794.37
751.96	34552.34
752.298	34472.79
752.636	34567.71
752.975	34233.93
753.313	34150.09
