Data from whiteboard_FLMS001491_00080.txt Node
Date: Wed Feb 08 11:28:04 GMT 2017
User: dcchb
Spectrometer: FLMS00149
Trigger mode: 0
Integration Time (sec): 2.000000E-2
Scans to average: 10
Electric dark correction enabled: true
Nonlinearity correction enabled: false
Boxcar width: 0
XAxis mode: Wavelengths
Number of Pixels in Spectrum: 2048
>>>>>Begin Spectral Data<<<<<
341.393	2.27
341.776	2.27
342.16	2.27
342.543	-60.32
342.927	-41.11
343.31	-61.23
343.693	-67.78
344.077	-72.53
344.46	-45.41
344.843	-75.46
345.226	-60.32
345.61	-20.1
345.993	-8.35
346.376	22.16
346.759	7.92
347.142	21.48
347.525	44.31
347.908	53.12
348.291	96.06
348.674	84.76
349.057	81.37
349.44	127.47
349.823	150.29
350.206	179.22
350.588	244.08
350.971	240.69
351.354	228.48
351.737	269.16
352.119	266.45
352.502	302.61
352.884	322.72
353.267	315.03
353.65	317.75
354.032	327.24
354.414	328.37
354.797	358.65
355.179	353
355.562	376.5
355.944	381.47
356.326	374.69
356.709	383.73
357.091	350.97
357.473	366.78
357.855	372.66
358.238	373.34
358.62	381.7
359.002	382.38
359.384	373.79
359.766	398.2
360.148	378.08
360.53	358.87
360.912	381.02
361.294	379.44
361.676	357.74
362.057	377.63
362.439	373.79
362.821	383.05
363.203	379.89
363.584	360.23
363.966	353.68
364.348	365.88
364.729	340.34
365.111	363.85
365.493	366.78
365.874	364.07
366.256	363.62
366.637	384.41
367.019	373.79
367.4	383.05
367.781	367.91
368.163	346.45
368.544	370.85
368.925	369.27
369.306	377.41
369.688	371.08
370.069	348.25
370.45	362.72
370.831	369.5
371.212	364.75
371.593	354.36
371.974	362.04
372.355	385.54
372.736	369.27
373.117	385.99
373.498	353.23
373.879	365.2
374.26	375.37
374.641	369.5
375.021	374.24
375.402	366.78
375.783	390.51
376.163	382.6
376.544	408.82
376.925	382.83
377.305	382.83
377.686	392.09
378.066	400.23
378.447	378.99
378.827	402.49
379.208	411.98
379.588	383.51
379.968	407.01
380.349	386.67
380.729	392.77
381.109	407.24
381.489	421.7
381.87	403.39
382.25	399.55
382.63	417.86
383.01	420.34
383.39	429.83
383.77	416.27
384.15	423.73
384.53	436.84
384.91	437.06
385.29	450.62
385.67	446.33
386.049	479.1
386.429	464.41
386.809	442.26
387.189	436.61
387.568	462.37
387.948	448.36
388.328	469.61
388.707	466.89
389.087	463.5
389.466	477.52
389.846	503.28
390.225	484.3
390.605	511.64
390.984	496.95
391.363	509.61
391.743	526.55
392.122	510.51
392.501	529.49
392.881	514.58
393.26	545.08
393.639	563.39
394.018	545.08
394.397	574.46
394.776	562.49
395.155	569.49
395.534	574.46
395.913	596.83
396.292	626.66
396.671	610.17
397.05	616.95
397.429	607.68
397.808	617.63
398.186	637.51
398.565	666.66
398.944	650.62
399.323	688.36
399.701	693.78
400.08	698.75
400.458	706.44
400.837	681.13
401.215	709.83
401.594	714.35
401.972	752.99
402.351	737.85
402.729	762.93
403.107	797.73
403.486	818.52
403.864	828.92
404.242	804.06
404.62	803.83
404.999	873.21
405.377	872.08
405.755	865.98
406.133	897.84
406.511	938.97
406.889	935.36
407.267	959.54
407.645	972.87
408.023	1003.38
408.401	1005.86
408.779	1038.18
409.156	1072.53
409.534	1076.82
409.912	1092.19
410.29	1130.83
410.667	1122.24
411.045	1147.33
411.422	1171.96
411.8	1211.51
412.178	1231.62
412.555	1256.93
412.933	1278.4
413.31	1298.06
413.687	1322.24
414.065	1335.35
414.442	1367.89
414.819	1391.16
415.197	1390.49
415.574	1399.07
415.951	1449.02
416.328	1451.05
416.705	1479.52
417.082	1498.96
417.46	1530.82
417.837	1537.15
418.214	1560.88
418.591	1581.44
418.967	1574.44
419.344	1619.86
419.721	1631.16
420.098	1641.78
420.475	1677.48
420.852	1688.56
421.228	1718.39
421.605	1751.38
421.982	1771.04
422.358	1779.85
422.735	1806.29
423.111	1787.76
423.488	1806.97
423.864	1863.02
424.241	1868.44
424.617	1901.43
424.994	1916.35
425.37	1955.44
425.746	1948.21
426.123	1960.87
426.499	1997.7
426.875	2031.15
427.251	2086.96
427.627	2091.48
428.003	2111.15
428.379	2176.23
428.756	2160.64
429.132	2223.23
429.507	2265.94
429.883	2298.94
430.259	2306.62
430.635	2340.29
431.011	2332.83
431.387	2413.96
431.763	2452.38
432.138	2464.36
432.514	2516.33
432.89	2566.27
433.265	2603.79
433.641	2627.06
434.016	2655.99
434.392	2665.48
434.767	2734.63
435.143	2746.38
435.518	2773.27
435.894	2772.14
436.269	2843.33
436.644	2910.45
437.02	2908.41
437.395	2915.19
437.77	2998.58
438.145	3042.65
438.52	3020.27
438.895	3095.3
439.271	3091.91
439.646	3184.34
440.021	3190.89
440.395	3222.98
440.77	3211
441.145	3201.29
441.52	3315.41
441.895	3308.85
442.27	3331.68
442.645	3284.22
443.019	3395.18
443.394	3325.58
443.769	3459.58
444.143	3369.87
444.518	3488.96
444.892	3496.65
445.267	3551.79
445.641	3565.12
446.016	3556.08
446.39	3593.14
446.764	3617.32
447.139	3618
447.513	3680.37
447.887	3675.4
448.262	3707.26
448.636	3701.61
449.01	3803.76
449.384	3849.86
449.758	3856.41
450.132	3881.27
450.506	3951.77
450.88	3958.33
451.254	3938.89
451.628	4000.13
452.002	4040.59
452.376	4117.87
452.75	4175.95
453.123	4211.43
453.497	4247.36
453.871	4315.15
454.244	4345.44
454.618	4435.83
454.992	4451.65
455.365	4475.83
455.739	4601.02
456.112	4650.97
456.486	4650.97
456.859	4754.69
457.232	4759.21
457.606	4841.69
457.979	4916.27
458.352	4949.26
458.725	5027.45
459.099	5067.23
459.472	5152.65
459.845	5211.18
460.218	5274.45
460.591	5356.71
460.964	5346.31
461.337	5503.6
461.71	5543.6
462.083	5657.72
462.456	5635.8
462.829	5678.51
463.201	5751.73
463.574	5861.78
463.947	5862.23
464.32	5999.86
464.692	6076.01
465.065	6089.35
465.438	6222.9
465.81	6321.2
466.183	6335.89
466.555	6536.11
466.928	6553.97
467.3	6497.47
467.672	6660.18
468.045	6762.1
468.417	6876.9
468.789	6912.6
469.161	7006.38
469.534	7155.08
469.906	7285.02
470.278	7307.84
470.65	7410.67
471.022	7505.13
471.394	7776.08
471.766	7761.17
472.138	7894.27
472.51	8032.35
472.882	8197.31
473.253	8189.4
473.625	8413.58
473.997	8525.21
474.369	8570.41
474.74	8713.91
475.112	8918.2
475.484	9051.3
475.855	9115.93
476.227	9226.66
476.598	9533.1
476.97	9560.21
477.341	9890.6
477.713	9959.3
478.084	10037.26
478.455	10291.72
478.827	10314.09
479.198	10604.48
479.569	10641.54
479.94	11006.96
480.311	11093.96
480.682	11314.52
481.053	11597
481.424	11753.83
481.795	11798.35
482.166	12084.44
482.537	12255.51
482.908	12468.61
483.279	12592.9
483.65	12808.26
484.021	13072.89
484.391	13234.24
484.762	13440.11
485.133	13540
485.503	13748.35
485.874	13982.02
486.244	14181.11
486.615	14486.64
486.985	14531.16
487.356	14862
487.726	14847.08
488.097	15288.2
488.467	15326.62
488.837	15654.74
489.207	15846.15
489.578	16055.19
489.948	16158.01
490.318	16402.07
490.688	16515.74
491.058	16751.66
491.428	16977.19
491.798	17168.83
492.168	17434.58
492.538	17462.15
492.908	17736.04
493.278	17969.94
493.648	17967.68
494.017	18235.92
494.387	18332.87
494.757	18527.66
495.126	18682.01
495.496	18806.53
495.866	18905.51
496.235	19141.21
496.605	19378.49
496.974	19389.33
497.344	19609.67
497.713	19727.86
498.082	19869.1
498.452	19982.77
498.821	20179.37
499.19	20166.94
499.559	20467.5
499.928	20556.31
500.298	20756.53
500.667	20875.85
501.036	20924.21
501.405	21143.64
501.774	21167.14
502.143	21374.37
502.512	21504.99
502.88	21697.07
503.249	21628.82
503.618	21922.15
503.987	22082.15
504.356	22210.96
504.724	22230.16
505.093	22467.45
505.462	22478.75
505.83	22794.44
506.199	22928.9
506.567	23261.1
506.936	23232.85
507.304	23438.95
507.672	23595.1
508.041	23640.07
508.409	23895.21
508.777	24052.04
509.145	24224.91
509.514	24344.46
509.882	24445.7
510.25	24537.67
510.618	24726.37
510.986	24900.38
511.354	25145.12
511.722	25298.33
512.09	25580.81
512.458	25483.64
512.826	25808.83
513.193	25883.4
513.561	25955.26
513.929	26261.24
514.297	26396.61
514.664	26656.94
515.032	26722.93
515.4	26975.35
515.767	27081.79
516.135	27269.81
516.502	27245.17
516.869	27639.06
517.237	27762
517.604	27760.64
517.972	28025.04
518.339	28279.95
518.706	28333.73
519.073	28516.33
519.44	28685.36
519.808	29019.14
520.175	29008.29
520.542	29370.09
520.909	29423.65
521.276	29598.11
521.643	29929.4
522.009	30087.36
522.376	30445.09
522.743	30553.56
523.11	30710.39
523.477	31150.16
523.843	31289.13
524.21	31615.45
524.577	31813.87
524.943	31964.82
525.31	32230.13
525.676	32463.12
526.043	32675.31
526.409	32873.73
526.776	33172.48
527.142	33172.48
527.508	33419.7
527.874	33796.41
528.241	33848.39
528.607	34048.84
528.973	34355.27
529.339	34449.73
529.705	34736.05
530.071	35093.55
530.437	34954.12
530.803	35290.84
531.169	35529.7
531.535	35553.88
531.901	35707.32
532.267	35955.9
532.632	36217.14
532.998	36387.76
533.364	36554.99
533.73	36591.37
534.095	36976.67
534.461	37118.13
534.826	37236.32
535.192	37403.32
535.557	37588.63
535.923	37444.68
536.288	37722.64
536.653	37738.23
537.019	37864.1
537.384	37979.81
537.749	38265.9
538.114	38420.92
538.479	38405.33
538.845	38614.37
539.21	38695.49
539.575	38748.83
539.94	38923.51
540.305	39226.1
540.67	39257.51
541.034	39441.46
541.399	39618.18
541.764	39606.2
542.129	39740.89
542.494	39756.71
542.858	39952.41
543.223	40007.55
543.587	40283.25
543.952	40235.79
544.316	40408.67
544.681	40436.92
545.045	40769.11
545.41	41052.04
545.774	41009.33
546.138	41039.39
546.503	41107.41
546.867	41306.5
547.231	41636.66
547.595	41751.23
547.959	41919.36
548.324	41944.67
548.688	42065.57
549.052	42103.77
549.416	42305.12
549.779	42269.41
550.143	42450.2
550.507	42802.73
550.871	42770.41
551.235	42889.73
551.599	43235.49
551.962	43381.47
552.326	43490.62
552.689	43771.52
553.053	43602.94
553.417	43709.37
553.78	44244.95
554.143	44076.6
554.507	44206.08
554.87	44329.92
555.234	44794.99
555.597	44628.67
555.96	44793.41
556.323	44856.46
556.686	45023.24
557.05	45276.56
557.413	45368.09
557.776	45489.89
558.139	45700.28
558.502	45849.66
558.865	45902.31
559.228	46211.91
559.59	46413.93
559.953	46440.83
560.316	46944.09
560.679	46981.83
561.041	47084.88
561.404	47356.96
561.767	47564.19
562.129	47442.38
562.492	47854.58
562.854	47817.51
563.217	48022.03
563.579	48128.47
563.941	48326.2
564.304	48494.56
564.666	48801.44
565.028	48701.56
565.39	48829.46
565.753	49123.92
566.115	49132.06
566.477	49248.21
566.839	49442.56
567.201	49707.18
567.563	49795.09
567.925	49993.95
568.287	49965.25
568.648	50095.65
569.01	50272.14
569.372	50356.43
569.734	50324.34
570.095	50624.22
570.457	50823.99
570.819	50803.42
571.18	50912.8
571.542	50969.52
571.903	51090.42
572.265	51215.16
572.626	51288.61
572.987	51323.18
573.349	51523.63
573.71	51590.75
574.071	51720.01
574.432	51807.24
574.794	52005.43
575.155	51927.46
575.516	51895.15
575.877	52004.97
576.238	52057.85
576.599	52324.97
576.96	52277.28
577.32	52392.99
577.681	52469.14
578.042	52536.94
578.403	52554.79
578.763	52557.73
579.124	52661.91
579.485	52846.53
579.845	52828.46
580.206	52779.19
580.566	52804.05
580.927	52812.18
581.287	52994.55
581.648	52850.83
582.008	52974.44
582.368	52962.46
582.728	53077.26
583.089	52948.68
583.449	52914.1
583.809	53137.6
584.169	53151.84
584.529	53050.82
584.889	53240.87
585.249	53103.02
585.609	53044.04
585.969	53345.73
586.329	53204.49
586.688	53166.98
587.048	53142.8
587.408	53178.05
587.768	53191.38
588.127	53173.53
588.487	53124.04
588.846	53346.86
589.206	53125.62
589.565	53223.25
589.925	53392.06
590.284	53220.31
590.643	53318.84
591.003	53344.15
591.362	53416.01
591.721	53268.44
592.08	53367.88
592.44	53463.24
592.799	53456.91
593.158	53399.74
593.517	53439.96
593.876	53409.68
594.235	53467.76
594.593	53418.27
594.952	53505.5
595.311	53393.64
595.67	53350.93
596.029	53598.15
596.387	53438.84
596.746	53548.44
597.104	53348.22
597.463	53355.67
597.822	53447.2
598.18	53465.05
598.538	53370.14
598.897	53656.46
599.255	53424.15
599.613	53790.92
599.972	53601.54
600.33	53623.69
600.688	53599.51
601.046	53712.73
601.404	53753.4
601.762	53658.04
602.12	53809.45
602.478	53753.18
602.836	53794.76
603.194	53671.37
603.552	53725.61
603.91	53695.78
604.268	53780.75
604.625	53727.87
604.983	53834.08
605.341	53668.66
605.698	53777.58
606.056	53879.95
606.413	53827.75
606.771	53906.85
607.128	53958.14
607.485	53892.38
607.843	53911.59
608.2	54044.92
608.557	54181.41
608.914	54025.71
609.272	54183.9
609.629	54194.07
609.986	54320.85
610.343	54194.07
610.7	54425.02
611.057	54248.76
611.414	54339.83
611.771	54410.79
612.127	54467.73
612.484	54402.2
612.841	54415.76
613.198	54401.3
613.554	54430.67
613.911	54559.71
614.267	54526.94
614.624	54406.72
614.98	54467.28
615.337	54699.59
615.693	54609.43
616.05	54530.56
616.406	54714.73
616.762	54598.13
617.118	54669.09
617.475	54607.39
617.831	54720.84
618.187	54706.15
618.543	54702.76
618.899	54914.95
619.255	54763.55
619.611	54709.31
619.967	54953.37
620.323	54915.18
620.678	54838.35
621.034	54771.46
621.39	54710.89
621.746	54691.23
622.101	54982.07
622.457	54745.24
622.812	54789.31
623.168	54788.18
623.523	54849.87
623.879	54877.22
624.234	54701.17
624.589	54708.18
624.945	54873.83
625.3	54774.85
625.655	54868.85
626.01	54831.11
626.365	54831.57
626.72	54787.95
627.075	54773.26
627.43	54819.59
627.785	54752.02
628.14	54687.16
628.495	54737.78
628.85	54781.62
629.205	54663.44
629.559	54696.66
629.914	54582.08
630.269	54550.9
630.623	54509.32
630.978	54475.87
631.332	54542.08
631.687	54548.86
632.041	54383.89
632.396	54433.16
632.75	54321.07
633.104	54365.59
633.459	54227.51
633.813	54283.56
634.167	54272.71
634.521	54190.23
634.875	54209.21
635.229	54175.09
635.583	54035.43
635.937	54020.51
636.291	54004.02
636.645	54017.8
636.999	53850.58
637.352	54003.11
637.706	53742.56
638.06	53853.97
638.413	53826.62
638.767	53765.83
639.121	53752.05
639.474	53582.11
639.828	53633.18
640.181	53661.43
640.534	53677.7
640.888	53585.72
641.241	53484.26
641.594	53463.02
641.947	53580.3
642.301	53400.87
642.654	53451.94
643.007	53363.58
643.36	53468.21
643.713	53424.37
644.066	53490.36
644.419	53237.94
644.771	53056.7
645.124	52674.34
645.477	52574.9
645.83	52421.91
646.182	52374.91
646.535	52347.34
646.888	52303.95
647.24	52189.38
647.593	52345.98
647.945	52331.97
648.298	52143.05
648.65	52002.71
649.002	51951.64
649.355	52062.83
649.707	51980.57
650.059	52039.1
650.411	52397.96
650.763	52468.92
651.115	52848.79
651.467	52652.19
651.819	52725.63
652.171	52633.88
652.523	52566.54
652.875	52573.77
653.227	52423.49
653.578	52561.12
653.93	52524.51
654.282	52423.27
654.633	52285.64
654.985	52297.17
655.337	52329.03
655.688	52315.47
656.039	52377.17
656.391	52038.19
656.742	52082.03
657.094	52117.29
657.445	52184.4
657.796	52147.57
658.147	51911.64
658.498	51950.96
658.849	52020.12
659.2	51967.24
659.551	51816.05
659.902	51932.43
660.253	51776.96
660.604	51877.07
660.955	51737.18
661.306	51870.74
661.656	51840.46
662.007	51730.41
662.358	51706.9
662.708	51730.18
663.059	51732.21
663.409	51477.08
663.76	51744.64
664.11	51738.09
664.461	51744.42
664.811	51603.63
665.161	51648.15
665.511	51575.61
665.862	51527.7
666.212	51629.62
666.562	51564.31
666.912	51524.54
667.262	51423.97
667.612	51522.28
667.962	51469.85
668.312	51364.54
668.662	51487.02
669.011	51395.5
669.361	51450.86
669.711	51339.23
670.06	51319.12
670.41	51148.5
670.76	51158.44
671.109	51301.94
671.459	51213.13
671.808	51146.24
672.157	51137.88
672.507	50994.38
672.856	50962.74
673.205	51019.92
673.554	51062.17
673.904	50986.24
674.253	51147.6
674.602	50939.24
674.951	50456.54
675.3	50300.16
675.649	50842.97
675.998	50778.11
676.346	50854.27
676.695	50886.13
677.044	50582.19
677.393	50661.73
677.741	50735.86
678.09	50593.03
678.438	50522.53
678.787	50504
679.135	50489.08
679.484	50431.68
679.832	50466.94
680.181	50231.01
680.529	50336.77
680.877	50252.25
681.225	50085.93
681.573	50352.59
681.922	50038.25
682.27	49919.61
682.618	49905.14
682.966	49814.3
683.314	49875.31
683.661	49838.93
684.009	49684.13
684.357	49488.2
684.705	49412.73
685.053	49371.37
685.4	49400.07
685.748	49214.09
686.095	49136.8
686.443	49080.76
686.79	49009.35
687.138	49116.91
687.485	49072.17
687.832	48808.67
688.18	48794.66
688.527	48645.97
688.874	48676.25
689.221	48618.4
689.568	48362.36
689.915	48271.29
690.262	48285.3
690.609	48033.33
690.956	47996.04
691.303	48031.97
691.65	47722.15
691.997	47730.06
692.344	47507.92
692.69	47487.58
693.037	47414.36
693.383	47137.53
693.73	47253.46
694.077	47052.11
694.423	46990.42
694.769	46744.55
695.116	46651.44
695.462	46737.32
695.808	46635.62
696.155	46769.86
696.501	46323.77
696.847	46291.23
697.193	46075.41
697.539	46183.21
697.885	45857.34
698.231	45726.72
698.577	45679.27
698.923	45690.79
699.269	45496.44
699.614	45248.77
699.96	45154.76
700.306	45139.62
700.651	44903.47
700.997	44830.7
701.342	44899.62
701.688	44659.4
702.033	44542.8
702.379	44482.46
702.724	44338.51
703.069	44363.14
703.415	43923.38
703.76	43915.7
704.105	43941.01
704.45	43697.85
704.795	43623.05
705.14	43423.96
705.485	43505.31
705.83	43253.34
706.175	43421.25
706.52	43256.96
706.865	43025.55
707.209	43046.79
707.554	42868.04
707.899	42856.06
708.243	42746.46
708.588	42534.49
708.932	42350.09
709.277	42372.23
709.621	42502.85
709.966	42275.51
710.31	42310.77
710.654	41868.07
710.998	42107.38
711.342	42004.11
711.687	41689.31
712.031	41614.74
712.375	41537.68
712.719	41704.68
713.063	41610.67
713.407	41645.02
713.75	41397.34
714.094	41220.85
714.438	41280.74
714.782	41299.04
715.125	40965.94
715.469	40912.38
715.812	40839.84
716.156	40633.07
716.499	40694.31
716.843	40747.87
717.186	40330.25
717.53	40516.91
717.873	40446.86
718.216	40317.82
718.559	40274.66
718.902	39909.7
719.246	40095.01
719.589	39817.72
719.932	39736.37
720.275	39804.62
720.617	39589.48
720.96	39666.99
721.303	39508.13
721.646	39441.01
721.989	39354.46
722.331	39432.88
722.674	39246.44
723.016	39297.96
723.359	39154.69
723.701	39149.95
724.044	38885.55
724.386	38757.19
724.729	38808.03
725.071	38820.01
725.413	38645.33
725.755	38601.71
726.097	38578.43
726.439	38189.52
726.782	38223.19
727.124	38477.19
727.465	38141.61
727.807	37973.93
728.149	38023.87
728.491	37786.37
728.833	37929.41
729.175	37728.97
729.516	37599.25
729.858	37604.68
730.199	37467.28
730.541	37535.75
730.882	37332.14
731.224	37485.81
731.565	37304.12
731.906	37262.09
732.248	37289.2
732.589	37286.72
732.93	36979.15
733.271	36933.51
733.612	36997.23
733.953	36891.02
734.294	36821.87
734.635	36600.63
734.976	36764.25
735.317	36451.71
735.658	36472.73
735.999	36557.7
736.339	36354.54
736.68	36340.98
737.021	36308.21
737.361	36152.96
737.702	36304.14
738.042	36146.63
738.383	35993.19
738.723	36098.05
739.063	35916.58
739.404	35877.49
739.744	35860.31
740.084	35700.09
740.424	35695.35
740.764	35501.45
741.104	35731.73
741.444	35331.97
741.784	35426.43
742.124	35481.79
742.464	35162.25
742.804	35190.95
743.143	35093.78
743.483	35205.42
743.823	34843.39
744.162	35050.17
744.502	34955.03
744.841	34639.1
745.181	34966.1
745.52	34795.71
745.86	34737.41
746.199	34602.95
746.538	34577.64
746.877	34715.94
747.216	34717.75
747.556	34417.64
747.895	34482.27
748.234	34234.59
748.573	34249.06
748.911	34154.14
749.25	34174.93
749.589	34023.07
749.928	34030.08
750.267	34085.9
750.605	34020.14
750.944	33874.15
751.283	33812.46
751.621	33782.4
751.96	33681.84
752.298	33685.91
752.636	33661.05
