Data from white_steel_sheet_FLMS001491_095.txt Node
Date: Tue Feb 07 10:58:50 GMT 2017
User: dcchb
Spectrometer: FLMS00149
Trigger mode: 0
Integration Time (sec): 2.000000E-2
Scans to average: 10
Electric dark correction enabled: true
Nonlinearity correction enabled: false
Boxcar width: 0
XAxis mode: Wavelengths
Number of Pixels in Spectrum: 2048
>>>>>Begin Spectral Data<<<<<
341.393	-4.96
341.776	-4.96
342.16	-4.96
342.543	-73.66
342.927	-51.96
343.31	-63.71
343.693	-69.14
344.077	-76.82
344.46	-57.84
344.843	-53.54
345.226	-41.79
345.61	-23.26
345.993	-6.54
346.376	-6.31
346.759	12.22
347.142	16.06
347.525	61.93
347.908	55.83
348.291	54.25
348.674	87.02
349.057	111.65
349.44	121.37
349.823	152.1
350.206	160.24
350.588	178.99
350.971	202.49
351.354	218.99
351.737	244.3
352.119	250.4
352.502	250.85
352.884	265.77
353.267	282.27
353.65	294.92
354.032	287.24
354.414	322.27
354.797	306.67
355.179	319.33
355.562	328.14
355.944	323.62
356.326	312.55
356.709	338.31
357.091	324.75
357.473	350.06
357.855	341.47
358.238	327.69
358.62	336.5
359.002	335.15
359.384	344.64
359.766	324.07
360.148	336.5
360.53	350.29
360.912	345.54
361.294	352.77
361.676	339.67
362.057	352.77
362.439	326.56
362.821	345.54
363.203	324.53
363.584	314.58
363.966	324.53
364.348	320.23
364.729	326.33
365.111	311.64
365.493	317.07
365.874	329.05
366.256	321.81
366.637	331.53
367.019	307.35
367.4	311.42
367.781	314.81
368.163	327.46
368.544	314.13
368.925	340.12
369.306	332.43
369.688	340.34
370.069	318.88
370.45	303.73
370.831	334.02
371.212	331.76
371.593	317.97
371.974	325.2
372.355	311.64
372.736	328.37
373.117	330.85
373.498	338.76
373.879	326.33
374.26	338.08
374.641	317.52
375.021	326.79
375.402	323.62
375.783	346.67
376.163	333.11
376.544	315.26
376.925	324.98
377.305	330.85
377.686	347.58
378.066	338.08
378.447	344.86
378.827	337.86
379.208	344.41
379.588	350.51
379.968	362.72
380.349	350.06
380.729	330.17
381.109	348.48
381.489	337.86
381.87	351.19
382.25	366.78
382.63	362.94
383.01	359.78
383.39	357.07
383.77	372.89
384.15	370.4
384.53	381.92
384.91	380.8
385.29	359.33
385.67	379.21
386.049	387.57
386.429	371.53
386.809	386.9
387.189	394.35
387.568	370.17
387.948	381.7
388.328	388.7
388.707	391.64
389.087	412.21
389.466	426.9
389.846	428.03
390.225	422.38
390.605	413.34
390.984	424.18
391.363	411.75
391.743	414.24
392.122	437.97
392.501	419.66
392.881	428.48
393.26	436.39
393.639	446.78
394.018	448.36
394.397	468.25
394.776	455.6
395.155	462.37
395.534	461.92
395.913	450.17
396.292	482.04
396.671	442.26
397.05	490.62
397.429	489.27
397.808	502.83
398.186	499.66
398.565	515.93
398.944	499.89
399.323	517.29
399.701	547.57
400.08	522.94
400.458	534.92
400.837	551.19
401.215	566.55
401.594	555.25
401.972	557.29
402.351	559.1
402.729	584.63
403.107	607.23
403.486	589.83
403.864	613.33
404.242	602.03
404.62	623.05
404.999	619.88
405.377	647
405.755	646.78
406.133	641.35
406.511	657.17
406.889	672.54
407.267	682.71
407.645	678.41
408.023	684.29
408.401	697.85
408.779	714.12
409.156	735.81
409.534	740.11
409.912	725.42
410.29	757.73
410.667	758.64
411.045	816.72
411.422	799.77
411.8	785.98
412.178	807.9
412.555	835.47
412.933	816.94
413.31	862.59
413.687	882.93
414.065	876.6
414.442	888.8
414.819	896.49
415.197	907.11
415.574	903.27
415.951	916.15
416.328	935.13
416.705	940.78
417.082	939.65
417.46	954.57
417.837	974.68
418.214	983.49
418.591	998.18
418.967	1005.64
419.344	1032.3
419.721	1028.24
420.098	1025.3
420.475	1036.6
420.852	1031.85
421.228	1064.62
421.605	1073.88
421.982	1104.17
422.358	1077.95
422.735	1095.58
423.111	1118.63
423.488	1120.21
423.864	1110.49
424.241	1132.41
424.617	1155.24
424.994	1177.84
425.37	1179.64
425.746	1180.1
426.123	1188.23
426.499	1223.48
426.875	1225.52
427.251	1263.48
427.627	1267.33
428.003	1293.77
428.379	1280.66
428.756	1292.41
429.132	1336.93
429.507	1365.4
429.883	1357.94
430.259	1411.95
430.635	1394.55
431.011	1405.63
431.387	1468.9
431.763	1460.99
432.138	1475.23
432.514	1467.77
432.89	1514.78
433.265	1530.37
433.641	1555
434.016	1537.6
434.392	1618.5
434.767	1600.42
435.143	1635
435.518	1643.13
435.894	1677.71
436.269	1695.34
436.644	1710.7
437.02	1738.95
437.395	1750.25
437.77	1752.06
438.145	1788.89
438.52	1802
438.895	1799.51
439.271	1810.81
439.646	1850.36
440.021	1859.85
440.395	1873.41
440.77	1878.61
441.145	1914.99
441.52	1922.22
441.895	1913.18
442.27	1970.81
442.645	1969.68
443.019	1999.74
443.394	1994.31
443.769	2056.23
444.143	2020.75
444.518	2075.21
444.892	2032.28
445.267	2048.1
445.641	2105.5
446.016	2105.04
446.39	2102.33
446.764	2140.3
447.139	2131.03
447.513	2202.67
447.887	2196.57
448.262	2204.48
448.636	2191.37
449.01	2238.37
449.384	2253.06
449.758	2281.08
450.132	2309.78
450.506	2289.9
450.88	2277.02
451.254	2321.54
451.628	2376
452.002	2432.27
452.376	2414.19
452.75	2438.37
453.123	2477.69
453.497	2473.4
453.871	2502.55
454.244	2587.06
454.618	2583.9
454.992	2646.27
455.365	2646.05
455.739	2687.85
456.112	2724.24
456.486	2734.18
456.859	2733.95
457.232	2806.95
457.606	2798.81
457.979	2826.83
458.352	2870.9
458.725	2937.11
459.099	2957.68
459.472	2993.83
459.845	3028.86
460.218	3079.48
460.591	3085.58
460.964	3119.03
461.337	3148.63
461.71	3183.21
462.083	3281.28
462.456	3265.01
462.829	3275.18
463.201	3332.81
463.574	3371.9
463.947	3427.27
464.32	3495.29
464.692	3523.99
465.065	3538.9
465.438	3577.77
465.81	3651.44
466.183	3666.13
466.555	3742.97
466.928	3775.28
467.3	3776.41
467.672	3865.22
468.045	3914.49
468.417	3980.25
468.789	3958.78
469.161	4027.25
469.534	4082.17
469.906	4173.92
470.278	4194.71
470.65	4276.29
471.022	4310.64
471.394	4361.48
471.766	4445.32
472.138	4489.61
472.51	4575.94
472.882	4680.34
473.253	4670.17
473.625	4756.73
473.997	4863.16
474.369	4883.28
474.74	4964.63
475.112	5050.73
475.484	5151.97
475.855	5209.59
476.227	5273.1
476.598	5348.12
476.97	5402.36
477.341	5548.12
477.713	5595.12
478.084	5664.05
478.455	5808.9
478.827	5889.35
479.198	6029.46
479.569	6002.57
479.94	6227.65
480.311	6252.05
480.682	6387.87
481.053	6558.94
481.424	6628.77
481.795	6676.9
482.166	6831.7
482.537	6883.67
482.908	6997.34
483.279	7110.34
483.65	7149.43
484.021	7409.54
484.391	7435.3
484.762	7574.05
485.133	7588.74
485.503	7736.08
485.874	7864.89
486.244	7943.76
486.615	8097.88
486.985	8162.06
487.356	8385.56
487.726	8419
488.097	8611.09
488.467	8596.17
488.837	8774.25
489.207	8910.06
489.578	9060.34
489.948	9099.66
490.318	9301.69
490.688	9355.25
491.058	9461.01
491.428	9538.52
491.798	9719.08
492.168	9895.35
492.538	9934.22
492.908	10041.56
493.278	10125.17
493.648	10169.01
494.017	10342.12
494.387	10405.84
494.757	10445.62
495.126	10639.06
495.496	10687.87
495.866	10750.24
496.235	10806.74
496.605	10913.63
496.974	11073.62
497.344	11096.45
497.713	11249.44
498.082	11365.59
498.452	11389.77
498.821	11446.27
499.19	11490.56
499.559	11708.63
499.928	11738.01
500.298	11833.83
500.667	11941.62
501.036	12030.21
501.405	12168.06
501.774	12159.92
502.143	12234.72
502.512	12325.57
502.88	12403.76
503.249	12467.93
503.618	12564.66
503.987	12683.07
504.356	12724.65
504.724	12817.53
505.093	12897.98
505.462	12940.24
505.83	13040.12
506.199	13155.37
506.567	13268.37
506.936	13371.19
507.304	13563.27
507.672	13582.26
508.041	13649.6
508.409	13803.27
508.777	13860.21
509.145	14005.3
509.514	13979.99
509.882	14144.27
510.25	14157.61
510.618	14312.18
510.986	14403.48
511.354	14577.26
511.722	14664.94
512.09	14794.2
512.458	14789.23
512.826	14992.84
513.193	15034.42
513.561	15132.72
513.929	15269.9
514.297	15396.45
514.664	15514.63
515.032	15640.51
515.4	15746.72
515.767	15808.19
516.135	15976.09
516.502	15902.42
516.869	16208.85
517.237	16251.34
517.604	16246.37
517.972	16415.63
518.339	16566.36
518.706	16624.66
519.073	16819.68
519.44	16896.52
519.808	17120.69
520.175	17077.76
520.542	17329.73
520.909	17478.2
521.276	17525.66
521.643	17648.36
522.009	17790.28
522.376	17908.24
522.743	18019.88
523.11	18303.71
523.477	18432.52
523.843	18522.24
524.21	18689.01
524.577	18910.48
524.943	18981.44
525.31	19061.21
525.676	19325.16
526.043	19445.15
526.409	19496
526.776	19712.94
527.142	19768.99
527.508	19886.72
527.874	20118.13
528.241	20155.87
528.607	20334.17
528.973	20417.1
529.339	20420.27
529.705	20728.51
530.071	20939.8
530.437	20937.99
530.803	21043.08
531.169	21222.51
531.535	21275.84
531.901	21354.25
532.267	21435.16
532.632	21669.27
532.998	21636.51
533.364	21798.99
533.73	21906.56
534.095	22119.21
534.461	22177.96
534.826	22334.79
535.192	22295.7
535.557	22535.24
535.923	22490.04
536.288	22673.32
536.653	22822.46
537.019	22652.3
537.384	22869.92
537.749	23054.1
538.114	23168.9
538.479	23088.45
538.845	23199.86
539.21	23270.14
539.575	23374.09
539.94	23467.65
540.305	23700.86
540.67	23708.54
541.034	23642.1
541.399	23869.22
541.764	23896.79
542.129	23984.02
542.494	24150.11
542.858	24241.86
543.223	24264.91
543.587	24441.18
543.952	24376.1
544.316	24553.72
544.681	24562.31
545.045	24691.34
545.41	24725.69
545.774	24808.18
546.138	24911.9
546.503	24905.35
546.867	24963.65
547.231	25124.78
547.595	25214.27
547.959	25256.98
548.324	25328.16
548.688	25329.52
549.052	25531.09
549.416	25589.62
549.779	25731.54
550.143	25709.39
550.507	25963.4
550.871	25968.37
551.235	26047.46
551.599	26232.54
551.962	26228.93
552.326	26237.52
552.689	26443.61
553.053	26415.36
553.417	26490.39
553.78	27001.79
554.143	26712.53
554.507	27013.77
554.87	27106.19
555.234	27339.86
555.597	27139.87
555.96	27240.43
556.323	27470.48
556.686	27432.06
557.05	27738.72
557.413	27771.26
557.776	27811.94
558.139	27994.53
558.502	28126.28
558.865	28103.68
559.228	28377.57
559.59	28310.91
559.953	28461.86
560.316	28783.21
560.679	28725.59
561.041	28832.02
561.404	29055.75
561.767	29314.5
562.129	29294.39
562.492	29532.8
562.854	29548.62
563.217	29668.39
563.579	29679.23
563.941	29758.78
564.304	29907.93
564.666	30162.61
565.028	30178.88
565.39	30169.84
565.753	30490.74
566.115	30671.75
566.477	30784.97
566.839	30824.29
567.201	31115.35
567.563	31021.8
567.925	31338.63
568.287	31152.87
568.648	31271.28
569.01	31365.97
569.372	31748.78
569.734	31489.36
570.095	31785.39
570.457	31930.7
570.819	32009.57
571.18	31984.94
571.542	32183.57
571.903	32269.45
572.265	32401.87
572.626	32394.87
572.987	32485.26
573.349	32544.02
573.71	32761.64
574.071	32723.45
574.432	32841.18
574.794	33073.49
575.155	33057
575.516	33042.76
575.877	33259.7
576.238	33202.3
576.599	33238.91
576.96	33289.31
577.32	33257.67
577.681	33416.31
578.042	33517.32
578.403	33480.49
578.763	33614.05
579.124	33565.46
579.485	33740.37
579.845	33956.18
580.206	33752.57
580.566	33663.54
580.927	33870.08
581.287	34079.34
581.648	33834.38
582.008	33980.59
582.368	33868.73
582.728	34054.26
583.089	33860.37
583.449	34034.83
583.809	33878.9
584.169	34048.61
584.529	34022.17
584.889	34170.19
585.249	34028.27
585.609	33856.98
585.969	34037.76
586.329	33988.27
586.688	34163.41
587.048	34039.12
587.408	33974.71
587.768	34009.06
588.127	34065.11
588.487	34089.51
588.846	34369.05
589.206	33988.27
589.565	34066.01
589.925	34239.79
590.284	34184.88
590.643	34093.35
591.003	34159.12
591.362	34295.84
591.721	34123.86
592.08	34112.79
592.44	34096.74
592.799	34122.73
593.158	34169.06
593.517	34117.76
593.876	34259
594.235	34089.74
594.593	34125.22
594.952	34260.36
595.311	34090.42
595.67	34224.42
596.029	34340.58
596.387	34252.22
596.746	34445.89
597.104	34248.61
597.463	34198.89
597.822	34390.97
598.18	34166.35
598.538	34212.22
598.897	34442.27
599.255	34148.04
599.613	34577.41
599.972	34349.17
600.33	34393.46
600.688	34283.63
601.046	34421.03
601.404	34583.29
601.762	34512.78
602.12	34679.55
602.478	34556.62
602.836	34491.31
603.194	34360.47
603.552	34499.22
603.91	34335.16
604.268	34607.47
604.625	34444.76
604.983	34612.66
605.341	34400.01
605.698	34618.99
606.056	34752.09
606.413	34670.97
606.771	34698.08
607.128	34945.31
607.485	34603.4
607.843	34581.7
608.2	34822.15
608.557	34939.21
608.914	34818.08
609.272	34922.94
609.629	34982.6
609.986	35152.99
610.343	34995.7
610.7	35249.48
611.057	35130.84
611.414	35167.45
611.771	35184.85
612.127	35233.66
612.484	35398.18
612.841	35347.79
613.198	35243.83
613.554	35181.24
613.911	35485.86
614.267	35427.11
614.624	35289.93
614.98	35379.2
615.337	35515.24
615.693	35543.71
616.05	35579.87
616.406	35786.19
616.762	35449.93
617.118	35661.9
617.475	35687.21
617.831	35675.91
618.187	35843.59
618.543	35825.74
618.899	35919.07
619.255	35869.35
619.611	35859.86
619.967	35936.02
620.323	36026.41
620.678	35959.52
621.034	35847.89
621.39	35857.6
621.746	35770.6
622.101	36167.42
622.457	35884.49
622.812	35951.61
623.168	36162.68
623.523	36111.38
623.879	36139.18
624.234	35856.02
624.589	35985.28
624.945	36092.85
625.3	36236.8
625.655	35980.09
626.01	36089.46
626.365	36063.47
626.72	35958.84
627.075	36029.35
627.43	36031.84
627.785	35959.52
628.14	35972.63
628.495	36063.02
628.85	35964.72
629.205	35841.11
629.559	35991.84
629.914	35937.6
630.269	35955
630.623	35934.66
630.978	35757.49
631.332	35832.74
631.687	35978.28
632.041	35744.84
632.396	35839.52
632.75	35575.35
633.104	35871.84
633.459	35568.57
633.813	35524.28
634.167	35405.41
634.521	35533.54
634.875	35561.11
635.229	35391.17
635.583	35323.15
635.937	35368.35
636.291	35350.05
636.645	35278.41
636.999	35196.83
637.352	35297.39
637.706	35052.2
638.06	35119.09
638.413	35185.3
638.767	35031.18
639.121	34999.55
639.474	34849.49
639.828	34804.52
640.181	34884.52
640.534	34845.88
640.888	34683.4
641.241	34502.38
641.594	34698.76
641.947	34720.01
642.301	34536.28
642.654	34539.9
643.007	34489.73
643.36	34527.24
643.713	34438.66
644.066	34584.87
644.419	34367.47
644.771	34035.05
645.124	33711.44
645.477	33470.09
645.83	33511.45
646.182	33254.73
646.535	33307.84
646.888	33398.23
647.24	33125.92
647.593	33382.87
647.945	33243.66
648.298	33092.93
648.65	33070.78
649.002	32991.46
649.355	33049.31
649.707	32974.06
650.059	33033.27
650.411	33502.64
650.763	33419.47
651.115	33874.83
651.467	33607.72
651.819	33663.08
652.171	33555.52
652.523	33498.34
652.875	33616.53
653.227	33456.54
653.578	33634.61
653.93	33423.99
654.282	33195.53
654.633	33307.84
654.985	33367.72
655.337	33346.48
655.688	33254.73
656.039	33340.15
656.391	33151.46
656.742	33162.08
657.094	33130.67
657.445	33309.87
657.796	33174.51
658.147	33031.46
658.498	33013.16
658.849	33080.27
659.2	33015.87
659.551	32916.66
659.902	32996.43
660.253	33002.99
660.604	32891.8
660.955	32625.14
661.306	32884.35
661.656	32714.63
662.007	32775.88
662.358	32746.27
662.708	32514.19
663.059	32571.36
663.409	32346.51
663.76	32654.07
664.11	32595.09
664.461	32512.61
664.811	32514.19
665.161	32432.83
665.511	32138.15
665.862	32305.83
666.212	32305.83
666.562	32250.69
666.912	32177.47
667.262	32060.41
667.612	32042.79
667.962	31974.99
668.312	31877.14
668.662	31901.32
669.011	31750.37
669.361	31719.86
669.711	31556.92
670.06	31439.87
670.41	31362.58
670.76	31367.55
671.109	31456.14
671.459	31359.42
671.808	31108.12
672.157	31241
672.507	30905.19
672.856	30909.03
673.205	30930.5
673.554	31040.1
673.904	30916.72
674.253	30968.69
674.602	30856.15
674.951	30495.48
675.3	30086
675.649	30724.18
675.998	30646.67
676.346	30758.53
676.695	30814.57
677.044	30525.77
677.393	30614.8
677.741	30603.96
678.09	30516.5
678.438	30414.13
678.787	30507.23
679.135	30510.85
679.484	30233.8
679.832	30488.25
680.181	30182.72
680.529	30348.82
680.877	30256.85
681.225	30274.25
681.573	30536.16
681.922	30224.98
682.27	30150.18
682.618	30387.92
682.966	30283.51
683.314	30392.44
683.661	30265.66
684.009	30171.42
684.357	30161.48
684.705	30202.84
685.053	30320.57
685.4	30139.33
685.748	30102.95
686.095	30054.82
686.443	30153.8
686.79	30053.24
687.138	30093.23
687.485	30111.31
687.832	30041.26
688.18	30159.9
688.527	29928.27
688.874	30044.65
689.221	30010.3
689.568	29908.15
689.915	29862.05
690.262	29922.84
690.609	29812.34
690.956	29650.76
691.303	29825.9
691.65	29671.55
691.997	29761.94
692.344	29585.22
692.69	29645.79
693.037	29682.4
693.383	29430.2
693.73	29502.97
694.077	29375.51
694.423	29398.11
694.769	29329.41
695.116	29225.91
695.462	29265.46
695.808	29212.13
696.155	29295.52
696.501	29031.34
696.847	29145.46
697.193	28824.34
697.539	29116.08
697.885	28687.4
698.231	28682.2
698.577	28621.86
698.923	28644.91
699.269	28582.54
699.614	28362.66
699.96	28359.27
700.306	28359.04
700.651	28298.48
700.997	28190.91
701.342	28153.4
701.688	28059.84
702.033	27967.19
702.379	28023.23
702.724	27813.52
703.069	28006.28
703.415	27592.28
703.76	27669.8
704.105	27663.47
704.45	27547.09
704.795	27463.02
705.14	27444.04
705.485	27245.17
705.83	27249.69
706.175	27154.78
706.52	27101.22
706.865	27123.14
707.209	27000.66
707.554	26968.34
707.899	26961.34
708.243	26838.63
708.588	26794.56
708.932	26603.61
709.277	26554.34
709.621	26631.63
709.966	26524.51
710.31	26538.98
710.654	26387.79
710.998	26386.89
711.342	26480.22
711.687	26250.4
712.031	26094.24
712.375	26074.58
712.719	26071.42
713.063	25995.71
713.407	25994.81
713.75	25977.18
714.094	25870.29
714.438	25848.37
714.782	25957.3
715.125	25690.19
715.469	25734.48
715.812	25586.91
716.156	25477.08
716.499	25415.62
716.843	25579
717.186	25436.86
717.53	25426.69
717.873	25355.73
718.216	25364.54
718.559	25208.16
718.902	25127.49
719.246	25133.82
719.589	24988.06
719.932	24955.52
720.275	24974.72
720.617	25007.27
720.96	24942.86
721.303	24817.67
721.646	24813.15
721.989	24768.63
722.331	24825.12
722.674	24665.35
723.016	24640.27
723.359	24666.71
723.701	24690.66
724.044	24532.93
724.386	24400.95
724.729	24520.05
725.071	24457.45
725.413	24456.77
725.755	24400.28
726.097	24189.43
726.439	24178.36
726.782	24070.57
727.124	24257.91
727.465	24115.76
727.807	24082.09
728.149	24116.67
728.491	23923.9
728.833	24009.1
729.175	23934.07
729.516	23839.16
729.858	23759.62
730.199	23923.45
730.541	23747.19
730.882	23748.32
731.224	23858.37
731.565	23608.21
731.906	23547.42
732.248	23614.53
732.589	23558.26
732.93	23503.8
733.271	23396.01
733.612	23459.28
733.953	23492.28
734.294	23373.18
734.635	23354.65
734.976	23306.75
735.317	23264.26
735.658	23257.03
735.999	23181.55
736.339	23076.7
736.68	23169.57
737.021	23097.03
737.361	22981.1
737.702	23090.25
738.042	22916.7
738.383	22859.98
738.723	23031.72
739.063	22906.76
739.404	22821.79
739.744	22895.46
740.084	22751.28
740.424	22751.73
740.764	22793.77
741.104	22747.44
741.444	22608.46
741.784	22416.83
742.124	22491.85
742.464	22534.34
742.804	22469.48
743.143	22438.29
743.483	22488.46
743.823	22385.41
744.162	22299.31
744.502	22224.97
744.841	22175.48
745.181	22323.27
745.52	22179.77
745.86	22217.74
746.199	22057.06
746.538	22039.21
746.877	22157.4
747.216	22046.67
747.556	22037.85
747.895	21982.71
748.234	21917.18
748.573	21831.98
748.911	21820.01
749.25	21804.19
749.589	21658.43
749.928	21768.93
750.267	21697.75
750.605	21706.34
750.944	21552.67
751.283	21446.23
751.621	21623.17
751.96	21493.23
752.298	21359.68
752.636	21403.75
752.975	21283.52
753.313	21213.69
753.651	21279.45
753.989	21201.26
754.327	21081.27
