Data from White_paper_FLMS001491_021.txt Node
Date: Tue Feb 07 10:34:51 GMT 2017
User: dcchb
Spectrometer: FLMS00149
Trigger mode: 0
Integration Time (sec): 2.000000E-2
Scans to average: 10
Electric dark correction enabled: true
Nonlinearity correction enabled: false
Boxcar width: 0
XAxis mode: Wavelengths
Number of Pixels in Spectrum: 2048
>>>>>Begin Spectral Data<<<<<
341.393	-20.88
341.776	-20.88
342.16	-20.88
342.543	-62.23
342.927	-57.71
343.31	-59.29
343.693	-62.91
344.077	-49.12
344.46	-55.68
344.843	-40.31
345.226	-39.63
345.61	-32.85
345.993	-6.86
346.376	-25.17
346.759	1.72
347.142	21.16
347.525	48.5
347.908	45.34
348.291	66.35
348.674	87.82
349.057	100.93
349.44	130.31
349.823	137.09
350.206	167.82
350.588	223.41
350.971	243.75
351.354	254.37
351.737	248.5
352.119	304.31
352.502	286.91
352.884	301.83
353.267	300.47
353.65	315.84
354.032	316.97
354.414	318.55
354.797	337.08
355.179	326.46
355.562	357.42
355.944	337.08
356.326	367.59
356.709	333.92
357.091	359.23
357.473	384.54
357.855	362.62
358.238	384.54
358.62	349.74
359.002	367.36
359.384	375.95
359.766	394.71
360.148	359
360.53	375.5
360.912	381.37
361.294	387.25
361.676	373.92
362.057	372.33
362.439	380.7
362.821	387.25
363.203	356.97
363.584	357.42
363.966	346.57
364.348	353.35
364.729	365.1
365.111	375.5
365.493	352
365.874	361.26
366.256	355.84
366.637	359.68
367.019	369.17
367.4	349.51
367.781	332.56
368.163	333.24
368.544	336.86
368.925	356.52
369.306	355.39
369.688	362.17
370.069	344.54
370.45	355.61
370.831	358.1
371.212	385.22
371.593	374.14
371.974	356.29
372.355	368.72
372.736	372.33
373.117	366.91
373.498	380.92
373.879	367.36
374.26	373.01
374.641	372.56
375.021	366.91
375.402	382.5
375.783	381.37
376.163	418.44
376.544	389.74
376.925	375.5
377.305	377.31
377.686	378.66
378.066	385.44
378.447	403.75
378.827	399.68
379.208	393.58
379.588	399.9
379.968	423.86
380.349	409.4
380.729	396.06
381.109	404.42
381.489	405.55
381.87	419.79
382.25	422.05
382.63	425.89
383.01	431.77
383.39	431.54
383.77	436.97
384.15	436.29
384.53	427.93
384.91	431.99
385.29	440.13
385.67	465.44
386.049	452.56
386.429	471.32
386.809	465.67
387.189	474.71
387.568	452.33
387.948	461.15
388.328	477.87
388.707	481.71
389.087	469.28
389.466	502.05
389.846	478.32
390.225	499.56
390.605	507.47
390.984	474.03
391.363	510.86
391.743	502.95
392.122	528.94
392.501	519.68
392.881	515.16
393.26	521.94
393.639	571.43
394.018	545.89
394.397	535.27
394.776	547.25
395.155	569.62
395.534	551.31
395.913	558.54
396.292	590.63
396.671	591.99
397.05	585.66
397.429	587.02
397.808	617.53
398.186	607.13
398.565	603.29
398.944	598.77
399.323	604.87
399.701	624.98
400.08	610.07
400.458	623.85
400.837	644.19
401.215	655.72
401.594	680.35
401.972	690.29
402.351	694.13
402.729	683.51
403.107	711.08
403.486	714.7
403.864	711.53
404.242	729.84
404.62	763.51
404.999	765.09
405.377	788.6
405.755	773.23
406.133	794.7
406.511	819.55
406.889	839.67
407.267	837.18
407.645	863.17
408.023	863.17
408.401	890.74
408.779	925.99
409.156	956.95
409.534	974.35
409.912	993.79
410.29	1040.79
410.667	1020.45
411.045	1054.8
411.422	1057.06
411.8	1113.78
412.178	1152.88
412.555	1152.65
412.933	1205.31
413.31	1232.2
413.687	1235.59
414.065	1283.27
414.442	1302.71
414.819	1330.28
415.197	1331.86
415.574	1401.01
415.951	1393.1
416.328	1404.62
416.705	1455.02
417.082	1500.89
417.46	1525.98
417.837	1552.87
418.214	1575.47
418.591	1577.95
418.967	1583.15
419.344	1646.88
419.721	1641.91
420.098	1681.9
420.475	1715.12
420.852	1734.78
421.228	1803.48
421.605	1775.46
421.982	1795.8
422.358	1845.52
422.735	1896.36
423.111	1892.07
423.488	1897.04
423.864	1942.24
424.241	2008
424.617	2000.31
424.994	2015.91
425.37	2033.08
425.746	2057.04
426.123	2086.41
426.499	2122.35
426.875	2142.68
427.251	2226.3
427.627	2257.03
428.003	2255
428.379	2298.39
428.756	2326.18
429.132	2364.37
429.507	2406.18
429.883	2438.04
430.259	2475.33
430.635	2492.96
431.011	2492.28
431.387	2555.78
431.763	2601.43
432.138	2677.13
432.514	2696.57
432.89	2707.87
433.265	2783.12
433.641	2781.54
434.016	2796
434.392	2872.61
434.767	2937.01
435.143	2942.89
435.518	2982.21
435.894	3003.23
436.269	3068.99
436.644	3129.55
437.02	3147.86
437.395	3129.32
437.77	3210
438.145	3231.69
438.52	3271.02
438.895	3356.66
439.271	3307.4
439.646	3405.48
440.021	3440.28
440.395	3454.74
440.77	3412.48
441.145	3454.06
441.52	3545.81
441.895	3508.07
442.27	3564.12
442.645	3552.82
443.019	3614.74
443.394	3640.95
443.769	3679.59
444.143	3694.51
444.518	3729.08
444.892	3733.15
445.267	3734.96
445.641	3839.59
446.016	3802.3
446.39	3816.54
446.764	3873.49
447.139	3858.57
447.513	3902.86
447.887	3909.64
448.262	3922.07
448.636	3969.08
449.01	4027.15
449.384	4054.27
449.758	4080.94
450.132	4103.08
450.506	4135.63
450.88	4188.51
451.254	4144.44
451.628	4205.91
452.002	4214.27
452.376	4306.02
452.75	4319.8
453.123	4367.03
453.497	4444.32
453.871	4464.2
454.244	4590.98
454.618	4535.62
454.992	4622.62
455.365	4666.23
455.739	4784.42
456.112	4826.46
456.486	4847.02
456.859	4880.92
457.232	4987.35
457.606	4988.03
457.979	5081.14
458.352	5153.23
458.725	5290.17
459.099	5280.23
459.472	5353.22
459.845	5378.53
460.218	5456.95
460.591	5537.17
460.964	5502.6
461.337	5644.96
461.71	5747.11
462.083	5843.15
462.456	5829.59
462.829	5826.65
463.201	6024.84
463.574	5996.37
463.947	6085.4
464.32	6198.17
464.692	6263.71
465.065	6308.22
465.438	6451.27
465.81	6569.69
466.183	6566.07
466.555	6720.19
466.928	6727.2
467.3	6754.77
467.672	6912.05
468.045	7049.45
468.417	7048.77
468.789	7084.93
469.161	7205.38
469.534	7350.68
469.906	7480.17
470.278	7549.32
470.65	7657.34
471.022	7761.52
471.394	7960.84
471.766	7958.12
472.138	8080.38
472.51	8311.79
472.882	8426.13
473.253	8438.11
473.625	8611.21
473.997	8783.41
474.369	8833.36
474.74	8904.09
475.112	9058.89
475.484	9309.27
475.855	9394.7
476.227	9468.14
476.598	9722.82
476.97	9804.63
477.341	10046.2
477.713	10158.29
478.084	10200.1
478.455	10500.88
478.827	10568.45
479.198	10952.62
479.569	10950.81
479.94	11173.63
480.311	11289.79
480.682	11649.55
481.053	11836.21
481.424	12004.8
481.795	12149.88
482.166	12256.09
482.537	12455.41
482.908	12790.99
483.279	12899.69
483.65	13041.38
484.021	13272.11
484.391	13528.83
484.762	13533.12
485.133	13780.34
485.503	13820.12
485.874	14246.09
486.244	14204.29
486.615	14597.05
486.985	14707.55
487.356	15028.67
487.726	15145.51
488.097	15425.05
488.467	15441.32
488.837	15797.92
489.207	16098.93
489.578	16034.75
489.948	16380.5
490.318	16559.03
490.688	16601.96
491.058	16866.14
491.428	17046.25
491.798	17192.01
492.168	17582.96
492.538	17739.11
492.908	17832.21
493.278	18127.12
493.648	18053
494.017	18342.71
494.387	18555.81
494.757	18672.87
495.126	18816.6
495.496	18859.08
495.866	19093.88
496.235	19193.31
496.605	19430.82
496.974	19564.37
497.344	19679.85
497.713	19788.77
498.082	19983.12
498.452	20163.9
498.821	20275.54
499.19	20344.92
499.559	20519.15
499.928	20671.69
500.298	20756.43
500.667	21087.27
501.036	20913.94
501.405	21215.18
501.774	21174.73
502.143	21431.89
502.512	21420.14
502.88	21740.59
503.249	21776.29
503.618	21933.8
503.987	22052.89
504.356	22121.59
504.724	22266
505.093	22354.13
505.462	22557.29
505.83	22635.7
506.199	22785.98
506.567	23084.51
506.936	23114.34
507.304	23411.05
507.672	23520.65
508.041	23566.98
508.409	23651.04
508.777	23900.3
509.145	24155.21
509.514	24149.34
509.882	24292.84
510.25	24456.22
510.618	24663
510.986	24792.03
511.354	24914.97
511.722	25143.43
512.09	25278.35
512.458	25366.48
512.826	25647.6
513.193	25719.69
513.561	25779.12
513.929	26044.43
514.297	26268.83
514.664	26499.78
515.032	26523.06
515.4	26748.14
515.767	26767.57
516.135	26977.51
516.502	26865.2
516.869	27333.43
517.237	27410.49
517.604	27384.73
517.972	27729.58
518.339	27812.97
518.706	28053.64
519.073	28058.61
519.44	28237.82
519.808	28529.79
520.175	28608.88
520.542	29071.24
520.909	29200.28
521.276	29141.52
521.643	29520.04
522.009	29662.41
522.376	29931.33
522.743	30132.23
523.11	30508.04
523.477	30620.81
523.843	30822.83
524.21	31119.77
524.577	31345.98
524.943	31482.93
525.31	31520.44
525.676	31814.45
526.043	32064.38
526.409	32186.87
526.776	32539.17
527.142	32620.07
527.508	32817.58
527.874	33128.76
528.241	33290.57
528.607	33202.21
528.973	33584.79
529.339	33645.36
529.705	34028.85
530.071	34244.21
530.437	34363.08
530.803	34589.06
531.169	34911.09
531.535	34802.84
531.901	34954.93
532.267	35081.25
532.632	35395.82
532.998	35421.13
533.364	35822.48
533.73	35803.04
534.095	36070.61
534.461	36182.69
534.826	36348.11
535.192	36456.58
535.557	36749.01
535.923	36762.56
536.288	36838.04
536.653	37166.4
537.019	36920.53
537.384	37268.09
537.749	37469.66
538.114	37390.57
538.479	37645.03
538.845	37809.77
539.21	37764.12
539.575	37873.72
539.94	38171.34
540.305	38396.87
540.67	38252.92
541.034	38519.35
541.399	38782.62
541.764	38863.53
542.129	38974.71
542.494	39066.46
542.858	39215.61
543.223	39162.73
543.587	39578.99
543.952	39516.16
544.316	39676.16
544.681	39683.62
545.045	40003.16
545.41	40117.05
545.774	40130.84
546.138	40143.94
546.503	40415.58
546.867	40542.35
547.231	40841.55
547.595	40901.89
547.959	41114.77
548.324	41098.95
548.688	41123.35
549.052	41368.32
549.416	41394.76
549.779	41551.82
550.143	41677.69
550.507	41925.59
550.871	41992.94
551.235	41904.8
551.599	42392.47
551.962	42456.65
552.326	42490.55
552.689	42829.75
553.053	42564.45
553.417	42893.02
553.78	43326.01
554.143	42963.98
554.507	43338.66
554.87	43373.46
555.234	43865.2
555.597	43672.44
555.96	43759.44
556.323	44053.67
556.686	44011.41
557.05	44385.19
557.413	44517.39
557.776	44499.08
558.139	44795.8
558.502	44804.84
558.865	44990.37
559.228	45340.42
559.59	45446.4
559.953	45506.52
560.316	46069.66
560.679	45814.53
561.041	45980.4
561.404	46048.2
561.767	46428.98
562.129	46280.73
562.492	46808.18
562.854	46720.49
563.217	46822.19
563.579	46981.96
563.941	47204.1
564.304	47337.43
564.666	47664.65
565.028	47667.14
565.39	47833.69
565.753	48016.28
566.115	48118.65
566.477	48364.29
566.839	48355.71
567.201	48639.09
567.563	48675.47
567.925	48899.87
568.287	49018.06
568.648	49049.25
569.01	49291.5
569.372	49549.12
569.734	49558.16
570.095	49809.45
570.457	49923.35
570.819	49969.67
571.18	49950.69
571.542	50230.68
571.903	50220.97
572.265	50441.98
572.626	50446.72
572.987	50580.96
573.349	50715.87
573.71	50833.83
574.071	50934.17
574.432	51048.97
574.794	51313.37
575.155	51275.63
575.516	51232.69
575.877	51335.51
576.238	51500.26
576.599	51554.27
576.96	51616.86
577.32	51610.76
577.681	51849.4
578.042	51906.35
578.403	51932.56
578.763	51931.88
579.124	52086
579.485	52145.44
579.845	52265.21
580.206	52163.52
580.566	52232.21
580.927	52269.5
581.287	52412.55
581.648	52330.52
582.008	52539.78
582.368	52501.59
582.728	52494.35
583.089	52553.34
583.449	52527.12
583.809	52593.33
584.169	52587.91
584.529	52595.82
584.889	52880.56
585.249	52666.78
585.609	52557.18
585.969	52798.3
586.329	52688.7
586.688	52819.09
587.048	52726.89
587.408	52727.12
587.768	52889.6
588.127	52808.7
588.487	52871.75
588.846	53066.32
589.206	52777.28
589.565	52852.08
589.925	53072.87
590.284	52911.07
590.643	52821.35
591.003	53049.82
591.362	53151.74
591.721	52987
592.08	53136.37
592.44	53172.75
592.799	53231.74
593.158	53174.79
593.517	53278.74
593.876	53293.43
594.235	53200.1
594.593	53267.44
594.952	53315.12
595.311	53251.4
595.67	53298.85
596.029	53484.16
596.387	53495.91
596.746	53547.43
597.104	53329.81
597.463	53509.24
597.822	53584.72
598.18	53383.82
598.538	53361.22
598.897	53542.46
599.255	53363.26
599.613	53807.99
599.972	53629.47
600.33	53720.76
600.688	53562.12
601.046	53726.86
601.404	53812.51
601.762	53793.08
602.12	53970.93
602.478	53886.41
602.836	53859.74
603.194	53783.13
603.552	53808.9
603.91	53701.1
604.268	53817.71
604.625	53732.29
604.983	53953.52
605.341	53832.4
605.698	53974.77
606.056	53994.65
606.413	53959.4
606.771	54064.71
607.128	54105.39
607.485	54029.46
607.843	54085.05
608.2	54187.87
608.557	54281.88
608.914	54184.93
609.272	54294.53
609.629	54310.8
609.986	54432.38
610.343	54281.2
610.7	54454.3
611.057	54393.74
611.414	54372.95
611.771	54507.86
612.127	54529.33
612.484	54588.54
612.841	54664.47
613.198	54460.18
613.554	54535.2
613.911	54664.69
614.267	54610.91
614.624	54654.75
614.98	54703.11
615.337	54859.49
615.693	54796.67
616.05	54748.98
616.406	54853.39
616.762	54760.96
617.118	54838.7
617.475	54840.51
617.831	54915.31
618.187	54856.55
618.543	54857.46
618.899	55003.89
619.255	55060.16
619.611	54998.47
619.967	55078.69
620.323	55145.58
620.678	55029.2
621.034	54948.07
621.39	54935.87
621.746	54903.1
622.101	55221.29
622.457	55046.83
622.812	55133.38
623.168	55189.88
623.523	55081.86
623.879	55224.9
624.234	55011.12
624.589	55188.97
624.945	55224
625.3	55181.06
625.655	55172.93
626.01	55148.07
626.365	55097.9
626.72	55114.85
627.075	55154.4
627.43	55128.41
627.785	55049.09
628.14	55165.92
628.495	55205.7
628.85	55119.82
629.205	54982.88
629.559	55225.13
629.914	55094.29
630.269	55101.07
630.623	55026.94
630.978	55098.81
631.332	55179.26
631.687	55158.92
632.041	55059.48
632.396	55120.27
632.75	54955.76
633.104	55067.39
633.459	54854.74
633.813	54932.71
634.167	54952.14
634.521	54895.42
634.875	54944.46
635.229	54880.96
635.583	54827.17
635.937	54738.59
636.291	54790.79
636.645	54858.81
636.999	54746.05
637.352	54873.05
637.706	54671.7
638.06	54816.33
638.413	54718.25
638.767	54633.51
639.121	54734.3
639.474	54659.27
639.828	54589.21
640.181	54691.58
640.534	54680.29
640.888	54599.38
641.241	54494.53
641.594	54619.95
641.947	54646.16
642.301	54521.42
642.654	54539.5
643.007	54554.19
643.36	54574.75
643.713	54371.59
644.066	54538.37
644.419	54381.31
644.771	54119.85
645.124	53904.49
645.477	53889.57
645.83	53704.04
646.182	53636.7
646.535	53558.06
646.888	53662.46
647.24	53473.54
647.593	53661.33
647.945	53594.66
648.298	53455.46
648.65	53418.85
649.002	53320.55
649.355	53492.07
649.707	53399.42
650.059	53512.86
650.411	53850.25
650.763	53855
651.115	54235.78
651.467	54128.44
651.819	54110.58
652.171	54102.9
652.523	54078.95
652.875	54066.97
653.227	53854.32
653.578	54096.57
653.93	54095.89
654.282	53953.07
654.633	53860.65
654.985	54000.76
655.337	53845.96
655.688	53898.16
656.039	53933.86
656.391	53701.33
656.742	53802.57
657.094	53825.39
657.445	53899.97
657.796	53838.73
658.147	53740.2
658.498	53672.63
658.849	53833.3
659.2	53702.68
659.551	53649.8
659.902	53731.84
660.253	53723.02
660.604	53791.72
660.955	53624.27
661.306	53734.1
661.656	53637.83
662.007	53653.87
662.358	53679.41
662.708	53607.32
663.059	53620.2
663.409	53485.97
663.76	53581.33
664.11	53698.39
664.461	53694.55
664.811	53661.78
665.161	53614.55
665.511	53528
665.862	53501.56
666.212	53655
666.562	53680.31
666.912	53565.96
667.262	53498.4
667.612	53527.32
667.962	53541.11
668.312	53493.65
668.662	53685.74
669.011	53482.58
669.361	53357.38
669.711	53351.05
670.06	53401
670.41	53306.31
670.76	53242.58
671.109	53438.96
671.459	53315.8
671.808	53177.73
672.157	53256.59
672.507	53032.19
672.856	53115.13
673.205	53168.91
673.554	53231.74
673.904	53064.06
674.253	53218.4
674.602	53174.34
674.951	52631.98
675.3	52491.87
675.649	52986.54
675.998	52947.9
676.346	52927.11
676.695	52984.06
677.044	52742.26
677.393	52857.06
677.741	52865.19
678.09	52765.99
678.438	52708.13
678.787	52811.18
679.135	52727.57
679.484	52521.7
679.832	52668.13
680.181	52456.16
680.529	52527.12
680.877	52538.65
681.225	52379.78
681.573	52550.85
681.922	52322.83
682.27	52295.94
682.618	52317.18
682.966	52114.48
683.314	52203.06
683.661	52048.72
684.009	51945.22
684.357	51858.21
684.705	51828.16
685.053	51839.91
685.4	51700.25
685.748	51656.18
686.095	51557.66
686.443	51502.52
686.79	51407.83
687.138	51294.61
687.485	51455.06
687.832	51231.79
688.18	51220.26
688.527	51047.84
688.874	50940.95
689.221	51000.38
689.568	50744.57
689.915	50669.09
690.262	50716.77
690.609	50581.64
690.956	50524.91
691.303	50407.18
691.65	50358.14
691.997	50244.02
692.344	50089.9
692.69	50107.98
693.037	50045.38
693.383	49749.79
693.73	49858.72
694.077	49680.64
694.423	49593.41
694.769	49616.24
695.116	49359.52
695.462	49357.49
695.808	49292.86
696.155	49388.45
696.501	48970.61
696.847	49001.34
697.193	48751.63
697.539	48817.84
697.885	48575.14
698.231	48497.85
698.577	48542.82
698.923	48461.47
699.269	48281.81
699.614	48162.49
699.96	48077.75
700.306	48023.74
700.651	47897.19
700.997	47785.55
701.342	47727.25
701.688	47684.99
702.033	47576.07
702.379	47451.55
702.724	47405.45
703.069	47454.94
703.415	46976.08
703.76	47116.87
704.105	47041.84
704.45	46903.09
704.795	46701.51
705.14	46570.44
705.485	46586.26
705.83	46418.36
706.175	46478.92
706.52	46299.94
706.865	46237.8
707.209	46108.31
707.554	45920.52
707.899	46110.34
708.243	45832.38
708.588	45714.65
708.932	45588.32
709.277	45540.19
709.621	45577.25
709.966	45233.53
710.31	45453.86
710.654	45023.36
710.998	45085.28
711.342	45081.89
711.687	44864.27
712.031	44732.07
712.375	44646.42
712.719	44784.27
713.063	44670.38
713.407	44847.32
713.75	44493.43
714.094	44421.57
714.438	44310.84
714.782	44307.45
715.125	44198.75
715.469	44096.38
715.812	44010.74
716.156	43768.93
716.499	43799.44
716.843	43789.72
717.186	43567.58
717.53	43777.75
717.873	43787.24
718.216	43620.69
718.559	43400.36
718.902	43198.33
719.246	43255.73
719.589	43088.73
719.932	43032.68
720.275	42928.05
720.617	42943.64
720.96	42838.79
721.303	42982.06
721.646	42831.56
721.989	42679.47
722.331	42665.69
722.674	42658.68
723.016	42586.59
723.359	42357.45
723.701	42599.02
724.044	42252.82
724.386	42081.97
724.729	42187.51
725.071	42162.42
725.413	42146.38
725.755	41961.07
726.097	41849.21
726.439	41734.86
726.782	41725.6
727.124	41831.36
727.465	41712.04
727.807	41588.43
728.149	41634.53
728.491	41417.13
728.833	41490.12
729.175	41214.2
729.516	41277.25
729.858	41141.43
730.199	41132.62
730.541	41169.23
730.882	41103.92
731.224	41211.49
731.565	40869.58
731.906	40992.51
732.248	40982.11
732.589	40641.11
732.93	40678.85
733.271	40665.96
733.612	40718.84
733.953	40743.48
734.294	40436.82
734.635	40468.23
734.976	40521.56
735.317	40170.84
735.658	40342.13
735.999	40206.99
736.339	40217.39
736.68	40346.43
737.021	40158.63
737.361	39879.32
737.702	40129.26
738.042	39953.67
738.383	39882.71
738.723	40027.56
739.063	39814.01
739.404	39836.38
739.744	39707.57
740.084	39572.89
740.424	39616.05
740.764	39522.72
741.104	39613.34
741.444	39388.71
741.784	39319.11
742.124	39435.04
742.464	39490.85
742.804	39143.07
743.143	39129.28
743.483	39184.42
743.823	39055.16
744.162	39049.51
744.502	39027.14
744.841	38815.17
745.181	39037.76
745.52	38860.59
745.86	38844.77
746.199	38673.7
746.538	38657.43
746.877	38667.15
747.216	38689.97
747.556	38523.87
747.895	38577.21
748.234	38459.92
748.573	38304.22
748.911	38274.16
749.25	38226.03
749.589	38209.76
749.928	38186.03
750.267	38127.5
750.605	37950.33
750.944	37900.84
751.283	37857.22
751.621	37920.95
751.96	37571.81
752.298	37763.89
752.636	37739.04
752.975	37393.51
