Data from whiteboard_FLMS001491_00078.txt Node
Date: Wed Feb 08 11:28:03 GMT 2017
User: dcchb
Spectrometer: FLMS00149
Trigger mode: 0
Integration Time (sec): 2.000000E-2
Scans to average: 10
Electric dark correction enabled: true
Nonlinearity correction enabled: false
Boxcar width: 0
XAxis mode: Wavelengths
Number of Pixels in Spectrum: 2048
>>>>>Begin Spectral Data<<<<<
341.393	3.38
341.776	3.38
342.16	3.38
342.543	-52.44
342.927	-51.31
343.31	-55.61
343.693	-63.74
344.077	-69.84
344.46	-75.49
344.843	-45.44
345.226	-28.04
345.61	-24.19
345.993	-25.55
346.376	-12.67
346.759	7.22
347.142	29.59
347.525	33.66
347.908	61.68
348.291	75.24
348.674	88.12
349.057	105.07
349.44	131.96
349.823	135.35
350.206	155.46
350.588	252.41
350.971	240.66
351.354	266.42
351.737	253.09
352.119	292.41
352.502	308.23
352.884	322.69
353.267	315.23
353.65	316.14
354.032	352.29
354.414	328.11
354.797	335.34
355.179	354.55
355.562	351.16
355.944	351.84
356.326	378.51
356.709	365.63
357.091	376.25
357.473	377.83
357.855	362.24
358.238	386.19
358.62	385.29
359.002	360.43
359.384	397.26
359.766	365.4
360.148	394.33
360.53	392.97
360.912	383.48
361.294	378.73
361.676	352.74
362.057	354.1
362.439	369.47
362.821	355.91
363.203	369.92
363.584	366.08
363.966	359.3
364.348	374.44
364.729	366.08
365.111	362.01
365.493	366.08
365.874	362.69
366.256	365.85
366.637	375.12
367.019	367.66
367.4	345.74
367.781	364.95
368.163	383.25
368.544	355.23
368.925	355.46
369.306	376.02
369.688	386.64
370.069	382.8
370.45	370.6
370.831	361.33
371.212	375.12
371.593	356.59
371.974	368.56
372.355	402.46
372.736	379.18
373.117	362.91
373.498	395
373.879	368.11
374.26	371.73
374.641	378.06
375.021	385.06
375.402	384.16
375.783	402.01
376.163	397.49
376.544	404.27
376.925	398.62
377.305	386.42
377.686	406.75
378.066	389.35
378.447	405.17
378.827	390.48
379.208	412.63
379.588	392.29
379.968	413.99
380.349	411.73
380.729	408.34
381.109	404.04
381.489	418.73
381.87	427.32
382.25	422.35
382.63	421.9
383.01	434.1
383.39	411.5
383.77	438.62
384.15	421.22
384.53	441.33
384.91	444.95
385.29	434.55
385.67	470.71
386.049	464.38
386.429	454.44
386.809	445.4
387.189	444.72
387.568	456.25
387.948	466.19
388.328	487.2
388.707	479.97
389.087	482.01
389.466	498.05
389.846	491.5
390.225	487.2
390.605	500.99
390.984	498.96
391.363	517.03
391.743	515.68
392.122	517.94
392.501	525.85
392.881	556.36
393.26	526.07
393.639	562.91
394.018	540.99
394.397	548.22
394.776	579.41
395.155	580.76
395.534	610.37
395.913	598.39
396.292	606.98
396.671	611.5
397.05	638.84
397.429	612.85
397.808	625.96
398.186	650.14
398.565	650.59
398.944	642.91
399.323	677.71
399.701	669.35
400.08	676.35
400.458	701.44
400.837	715.67
401.215	733.07
401.594	724.03
401.972	750.7
402.351	759.74
402.729	754.77
403.107	786.18
403.486	812.62
403.864	808.78
404.242	824.82
404.62	847.87
404.999	838.16
405.377	833.64
405.755	876.8
406.133	922.9
406.511	925.16
406.889	937.14
407.267	980.53
407.645	983.91
408.023	980.98
408.401	1002.45
408.779	1016.68
409.156	1058.26
409.534	1059.17
409.912	1092.39
410.29	1133.74
410.667	1172.38
411.045	1174.64
411.422	1180.75
411.8	1203.12
412.178	1217.81
412.555	1244.02
412.933	1278.6
413.31	1288.99
413.687	1301.87
414.065	1359.5
414.442	1337.58
414.819	1383.68
415.197	1421.64
415.574	1412.6
415.951	1436.78
416.328	1481.08
416.705	1498.03
417.082	1511.58
417.46	1509.55
417.837	1526.95
418.214	1562.2
418.591	1584.13
418.967	1583.45
419.344	1631.13
419.721	1636.55
420.098	1646.95
420.475	1671.13
420.852	1700.28
421.228	1695.76
421.605	1755.19
421.982	1707.96
422.358	1777.57
422.735	1804.46
423.111	1801.97
423.488	1831.12
423.864	1833.61
424.241	1858.69
424.617	1911.57
424.994	1919.94
425.37	1924.68
425.746	1960.16
426.123	1994.96
426.499	1970.1
426.875	2048.29
427.251	2101.17
427.627	2097.78
428.003	2093.49
428.379	2153.38
428.756	2180.49
429.132	2220.94
429.507	2247.61
429.883	2291.45
430.259	2286.48
430.635	2354.27
431.011	2341.62
431.387	2389.08
431.763	2467.49
432.138	2433.59
432.514	2500.49
432.89	2520.6
433.265	2578.45
433.641	2615.51
434.016	2633.36
434.392	2678.79
434.767	2721.95
435.143	2742.96
435.518	2750.2
435.894	2821.38
436.269	2825.67
436.644	2940.7
437.02	2937.31
437.395	2925.56
437.77	2964.65
438.145	3023.86
438.52	3063.41
438.895	3112.22
439.271	3092.33
439.646	3158.32
440.021	3184.76
440.395	3187.47
440.77	3163.52
441.145	3195.61
441.52	3272.44
441.895	3290.97
442.27	3325.77
442.645	3288.94
443.019	3387.24
443.394	3395.38
443.769	3459.33
444.143	3442.16
444.518	3513.57
444.892	3491.19
445.267	3509.27
445.641	3560.12
446.016	3611.19
446.39	3589.27
446.764	3631.08
447.139	3587.46
447.513	3670.62
447.887	3676.73
448.262	3669.27
448.636	3755.14
449.01	3766.44
449.384	3860.22
449.758	3823.61
450.132	3917.17
450.506	3905.42
450.88	3966.66
451.254	3970.5
451.628	4038.75
452.002	4069.03
452.376	4096.38
452.75	4122.59
453.123	4206.2
453.497	4240.55
453.871	4276.94
454.244	4388.8
454.618	4337.95
454.992	4490.72
455.365	4437.61
455.739	4581.56
456.112	4636.7
456.486	4692.74
456.859	4755.12
457.232	4757.15
457.606	4807.77
457.979	4827.2
458.352	4994.43
458.725	5049.34
459.099	5089.8
459.472	5179.06
459.845	5223.35
460.218	5283.69
460.591	5331.15
460.964	5298.6
461.337	5480.29
461.71	5584.47
462.083	5614.08
462.456	5650.46
462.829	5647.52
463.201	5749.44
463.574	5774.75
463.947	5891.36
464.32	6044.57
464.692	6076.44
465.065	6106.94
465.438	6230.56
465.81	6251.8
466.183	6380.61
466.555	6476.65
466.928	6543.32
467.3	6544.9
467.672	6661.73
468.045	6781.73
468.417	6827.83
468.789	6900.37
469.161	7044.09
469.534	7165
469.906	7285.44
470.278	7332.22
470.65	7427.81
471.022	7558.43
471.394	7748.26
471.766	7794.13
472.138	7827.8
472.51	8008.81
472.882	8160
473.253	8199.54
473.625	8369.71
473.997	8532.64
474.369	8596.6
474.74	8744.39
475.112	8877.04
475.484	8971.28
475.855	9150.71
476.227	9253.75
476.598	9525.16
476.97	9560.86
477.341	9780.75
477.713	9990.23
478.084	10024.58
478.455	10256.21
478.827	10389.09
479.198	10605.81
479.569	10680.16
479.94	11017.78
480.311	11111.56
480.682	11339.12
481.053	11598.1
481.424	11833.57
481.795	11865.66
482.166	12033.79
482.537	12197.41
482.908	12406.89
483.279	12617.51
483.65	12797.84
484.021	13091.17
484.391	13238.28
484.762	13302.91
485.133	13528.44
485.503	13712.62
485.874	14010.46
486.244	14098.6
486.615	14384.69
486.985	14494.75
487.356	14772.93
487.726	14945.13
488.097	15237.1
488.467	15310.77
488.837	15616.3
489.207	15798.89
489.578	16095.16
489.948	16205.66
490.318	16365.21
490.688	16444.3
491.058	16688.59
491.428	16909.6
491.798	17069.59
492.168	17447.21
492.538	17572.18
492.908	17672.52
493.278	17958.61
493.648	17952.73
494.017	18184.59
494.387	18369.9
494.757	18474.98
495.126	18694.41
495.496	18724.01
495.866	18827.51
496.235	19134.17
496.605	19349.99
496.974	19439.47
497.344	19635.18
497.713	19631.33
498.082	19782.52
498.452	20042.85
498.821	20143.86
499.19	20162.39
499.559	20479.67
499.928	20616.62
500.298	20637.41
500.667	20964.86
501.036	20843.73
501.405	21135.02
501.774	21152.88
502.143	21354.9
502.512	21386.09
502.88	21667.44
503.249	21633.32
503.618	21931.39
503.987	22055.9
504.356	22153.53
504.724	22387.65
505.093	22405.72
505.462	22574.53
505.83	22737.69
506.199	22944.47
506.567	23076.44
506.936	23191.69
507.304	23492.02
507.672	23560.27
508.041	23611.12
508.409	23802.75
508.777	24085.91
509.145	24188.05
509.514	24256.07
509.882	24495.16
510.25	24527.25
510.618	24796.4
510.986	24788.71
511.354	25069.61
511.722	25206.33
512.09	25461.24
512.458	25389.15
512.826	25749.14
513.193	25917.04
513.561	26018.51
513.929	26298.28
514.297	26425.51
514.664	26663.47
515.032	26696.91
515.4	27048.99
515.767	27117.69
516.135	27223.22
516.502	27158.82
516.869	27663.89
517.237	27717
517.604	27714.06
517.972	28098.46
518.339	28192.46
518.706	28428.39
519.073	28587.93
519.44	28787.48
519.808	28998.55
520.175	28939.79
520.542	29300.46
520.909	29498.87
521.276	29577.29
521.643	29912.19
522.009	30037.16
522.376	30258.63
522.743	30606.19
523.11	30815.45
523.477	31145.16
523.843	31170.69
524.21	31670.79
524.577	31831.47
524.943	31946.94
525.31	32126.37
525.676	32448.62
526.043	32633.48
526.409	32823.98
526.776	33085.44
527.142	33212.67
527.508	33436.62
527.874	33668.48
528.241	33859.21
528.607	33958.42
528.973	34412.64
529.339	34431.4
529.705	34711.16
530.071	34952.29
530.437	34999.52
530.803	35275.67
531.169	35460.75
531.535	35586.17
531.901	35654.64
532.267	35856.44
532.632	36142.99
532.998	36223.89
533.364	36474.51
533.73	36408.29
534.095	36956.3
534.461	37025.23
534.826	37200.36
535.192	37288.27
535.557	37477.19
535.923	37522.62
536.288	37605.55
536.653	37855.04
537.019	37783.17
537.384	38059.1
537.749	38176.84
538.114	38215.48
538.479	38386.32
538.845	38676.94
539.21	38503.38
539.575	38773.66
539.94	38903.14
540.305	39188.33
540.67	39135.23
541.034	39359.18
541.399	39437.37
541.764	39564.6
542.129	39650.69
542.494	39788.09
542.858	39960.74
543.223	39991.48
543.587	40206.84
543.952	40232.15
544.316	40363.22
544.681	40452.26
545.045	40605.25
545.41	40858.35
545.774	40952.13
546.138	41096.08
546.503	41230.99
546.867	41216.76
547.231	41640.92
547.595	41717.31
547.959	41866.23
548.324	41770.41
548.688	42012.44
549.052	42008.37
549.416	42233.9
549.779	42221.25
550.143	42358.65
550.507	42692.65
550.871	42810.84
551.235	42881.57
551.599	43220.77
551.962	43322.46
552.326	43408.34
552.689	43683.81
553.053	43504.6
553.417	43683.58
553.78	44167.86
554.143	44039.51
554.507	44134.64
554.87	44452.38
555.234	44790.9
555.597	44552.49
555.96	44829.09
556.323	44986.15
556.686	45039.71
557.05	45378.45
557.413	45392.92
557.776	45461.39
558.139	45799.91
558.502	45825.22
558.865	45787.48
559.228	46241.48
559.59	46424.75
559.953	46427.24
560.316	46851.86
560.679	46900.22
561.041	47143.15
561.404	47238.07
561.767	47556.25
562.129	47537.04
562.492	47860.87
562.854	47935.22
563.217	47816.81
563.579	48084.82
563.941	48316.68
564.304	48459.73
564.666	48639.61
565.028	48701.3
565.39	48873.28
565.753	48988.53
566.115	49110.33
566.477	49248.18
566.839	49381.51
567.201	49651.11
567.563	49664.89
567.925	49921.16
568.287	50026.02
568.648	49999.58
569.01	50271.66
569.372	50384.42
569.734	50369.96
570.095	50499.67
570.457	50832.1
570.819	50816.5
571.18	50759.33
571.542	51052.43
571.903	51086.1
572.265	51164.06
572.626	51226.89
572.987	51444.96
573.349	51473.89
573.71	51594.56
574.071	51622.58
574.432	51754.78
574.794	51964.95
575.155	51992.52
575.516	51891.5
575.877	52124.27
576.238	52190.48
576.599	52195
576.96	52223.47
577.32	52284.71
577.681	52411.04
578.042	52443.58
578.403	52580.07
578.763	52580.3
579.124	52599.05
579.485	52684.93
579.845	52792.95
580.206	52714.76
580.566	52772.38
580.927	52719.96
581.287	52964.24
581.648	52814.19
582.008	52978.03
582.368	52964.69
582.728	53070.91
583.089	52946.16
583.449	52999.04
583.809	52994.52
584.169	53048.08
584.529	53037.46
584.889	53283.78
585.249	53042.43
585.609	53068.87
585.969	53296.21
586.329	53132.83
586.688	53201.98
587.048	53165.59
587.408	53074.75
587.768	53159.49
588.127	53143.9
588.487	53113.84
588.846	53308.64
589.206	53073.39
589.565	53142.32
589.925	53218.02
590.284	53221.19
590.643	53229.77
591.003	53366.49
591.362	53404.23
591.721	53357.68
592.08	53329.88
592.44	53321.97
592.799	53385.7
593.158	53358.81
593.517	53295.08
593.876	53428.86
594.235	53366.72
594.593	53344.35
594.952	53450.33
595.311	53346.15
595.67	53391.12
596.029	53518.58
596.387	53497.56
596.746	53522.65
597.104	53378.02
597.463	53331.92
597.822	53417.11
598.18	53399.26
598.538	53423.44
598.897	53650.33
599.255	53321.07
599.613	53821.85
599.972	53578.69
600.33	53677.22
600.688	53529.43
601.046	53669.99
601.404	53738.91
601.762	53678.35
602.12	53843.77
602.478	53840.38
602.836	53685.13
603.194	53654.85
603.552	53694.62
603.91	53622.08
604.268	53769.87
604.625	53735.52
604.983	53780.72
605.341	53585.7
605.698	53836.54
606.056	53796.54
606.413	53869.53
606.771	53879.25
607.128	53938.91
607.485	53843.32
607.843	53922.41
608.2	54019.36
608.557	54198.79
608.914	53971
609.272	54151.56
609.629	54227.03
609.986	54263.64
610.343	54126.7
610.7	54347.94
611.057	54321.27
611.414	54328.27
611.771	54281.27
612.127	54473.81
612.484	54361.72
612.841	54436.07
613.198	54335.96
613.554	54350.87
613.911	54485.78
614.267	54499.34
614.624	54384.32
614.98	54522.85
615.337	54597.42
615.693	54533.47
616.05	54527.82
616.406	54674.03
616.762	54651.43
617.118	54734.59
617.475	54596.74
617.831	54689.85
618.187	54700.92
618.543	54660.47
618.899	54896.85
619.255	54802.61
619.611	54723.74
619.967	54885.55
620.323	54856.85
620.678	54711.54
621.034	54749.28
621.39	54756.96
621.746	54730.3
622.101	54881.93
622.457	54698.21
622.812	54748.83
623.168	54738.89
623.523	54713.58
623.879	54884.42
624.234	54630.64
624.589	54715.38
624.945	54694.82
625.3	54755.61
625.655	54713.12
626.01	54715.16
626.365	54848.26
626.72	54750.64
627.075	54755.61
627.43	54744.76
627.785	54618.66
628.14	54729.39
628.495	54654.37
628.85	54689.4
629.205	54558.55
629.559	54762.16
629.914	54538.89
630.269	54487.59
630.623	54403.53
630.978	54415.96
631.332	54582.05
631.687	54549.96
632.041	54425.45
632.396	54427.48
632.75	54260.93
633.104	54351.33
633.459	54217.32
633.813	54167.6
634.167	54098.9
634.521	54154.04
634.875	54248.73
635.229	54082.63
635.583	53974.16
635.937	54026.14
636.291	53952.47
636.645	53935.06
636.999	53883.77
637.352	53961.73
637.706	53749.08
638.06	53816.42
638.413	53775.52
638.767	53707.05
639.121	53794.28
639.474	53547.5
639.828	53633.83
640.181	53672.7
640.534	53583.89
640.888	53550.67
641.241	53399.71
641.594	53563.55
641.947	53515.64
642.301	53464.34
642.654	53346.15
643.007	53387.96
643.36	53494.62
643.713	53305.48
644.066	53487.85
644.419	53252.6
644.771	52968.54
645.124	52670.01
645.477	52583.24
645.83	52430.7
646.182	52296.46
646.535	52297.82
646.888	52383.69
647.24	52155.22
647.593	52363.35
647.945	52143.7
648.298	52078.39
648.65	52082.68
649.002	51914.1
649.355	52008.11
649.707	51970.37
650.059	52033.87
650.411	52337.59
650.763	52452.62
651.115	52742.55
651.467	52694.19
651.819	52534.2
652.171	52529.45
652.523	52434.99
652.875	52525.84
653.227	52384.6
653.578	52531.94
653.93	52520.41
654.282	52372.17
654.633	52224.6
654.985	52303.47
655.337	52294.66
655.688	52110.25
656.039	52371.49
656.391	51967.43
656.742	52063.25
657.094	52021.44
657.445	52127.2
657.796	52018.96
658.147	51902.8
658.498	51922.24
658.849	52090.82
659.2	52034.32
659.551	51804.95
659.902	51917.04
660.253	51867.77
660.604	51914.78
660.955	51663.49
661.306	51807.66
661.656	51684.95
662.007	51723.6
662.358	51789.81
662.708	51719.76
663.059	51709.59
663.409	51458.07
663.76	51752.52
664.11	51694.45
664.461	51580.55
664.811	51579.42
665.161	51644.05
665.511	51491.97
665.862	51509.82
666.212	51603.37
666.562	51481.12
666.912	51554.34
667.262	51474.11
667.612	51484.96
667.962	51449.25
668.312	51346.43
668.662	51494.23
669.011	51291.29
669.361	51287.9
669.711	51252.42
670.06	51221.01
670.41	51270.05
670.76	51051.3
671.109	51232.99
671.459	51045.2
671.808	51109.38
672.157	51195.93
672.507	51000.68
672.856	50811.98
673.205	51035.48
673.554	50969.04
673.904	50823.96
674.253	51058.08
674.602	50844.98
674.951	50517.08
675.3	50276.4
675.649	50757.75
675.998	50779.44
676.346	50643.85
676.695	50780.8
677.044	50516.85
677.393	50756.17
677.741	50661.03
678.09	50521.82
678.438	50494.03
678.787	50520.92
679.135	50454.03
679.484	50249.29
679.832	50391.88
680.181	50247.03
680.529	50180.81
680.877	50160.02
681.225	50122.51
681.573	50272.79
681.922	49901.5
682.27	49930.2
682.618	49956.19
682.966	49762.52
683.314	49848.62
683.661	49661.73
684.009	49577.89
684.357	49475.75
684.705	49407.05
685.053	49417.22
685.4	49413.38
685.748	49197.34
686.095	49239.37
686.443	49007.51
686.79	48973.16
687.138	49100.39
687.485	49042.99
687.832	49004.8
688.18	48846.84
688.527	48751.25
688.874	48628.99
689.221	48539.5
689.568	48366.62
689.915	48268.77
690.262	48257.47
690.609	48220.41
690.956	48082.56
691.303	47948.78
691.65	47690.71
691.997	47715.34
692.344	47552.41
692.69	47548.79
693.037	47571.16
693.383	47051.4
693.73	47294.34
694.077	47035.13
694.423	47027.9
694.769	46658.87
695.116	46645.77
695.462	46688.93
695.808	46566.9
696.155	46585.65
696.501	46193.35
696.847	46229.28
697.193	46006.46
697.539	46166
697.885	45817.09
698.231	45743.19
698.577	45750.2
698.923	45556.3
699.269	45454.16
699.614	45119.93
699.96	45056.88
700.306	45106.6
700.651	44942.08
700.997	44757.91
701.342	44612.6
701.688	44778.02
702.033	44507.74
702.379	44454.86
702.724	44458.7
703.069	44336.9
703.415	43900.07
703.76	43941.88
704.105	43932.16
704.45	43807.65
704.795	43540.76
705.14	43474.77
705.485	43357.94
705.83	43198.17
706.175	43157.27
706.52	43113.43
706.865	43039.08
707.209	43057.16
707.554	42787.11
707.899	42901.91
708.243	42661.69
708.588	42608.81
708.932	42351.41
709.277	42315.26
709.621	42334.47
709.966	42119.56
710.31	42270.29
710.654	41988.49
710.998	41936.28
711.342	41950.3
711.687	41873.46
712.031	41454.04
712.375	41437.77
712.719	41629.17
713.063	41332.23
713.407	41513.92
713.75	41266.92
714.094	41221.95
714.438	41099.47
714.782	41027.38
715.125	40962.98
715.469	40893.6
715.812	40817.44
716.156	40612.93
716.499	40618.13
716.843	40687.05
717.186	40339.72
717.53	40387.17
717.873	40449.77
718.216	40221.53
718.559	40193.51
718.902	39894.53
719.246	39892.5
719.589	39774.31
719.932	39618.38
720.275	39808.88
720.617	39653.41
720.96	39568.44
721.303	39446.41
721.646	39416.8
721.989	39233.76
722.331	39341.32
722.674	39168.22
723.016	39207.32
723.359	39007.1
723.701	39045.51
724.044	38984.5
724.386	38736.82
724.729	38815.01
725.071	38618.63
725.413	38587.9
725.755	38605.75
726.097	38372.54
726.439	38138.42
726.782	38199.21
727.124	38533.44
727.465	38092.09
727.807	38017.07
728.149	37815.71
728.491	37862.72
728.833	37859.78
729.175	37711.76
729.516	37648.04
729.858	37512.9
730.199	37663.18
730.541	37366.01
730.882	37429.28
731.224	37507.02
731.565	37098.22
731.906	37110.87
732.248	37211.66
732.589	36895.06
732.93	36904.55
733.271	36866.81
733.612	36874.27
733.953	36976.87
734.294	36702.52
734.635	36595.18
734.976	36769.87
735.317	36531
735.658	36476.31
735.999	36390.22
736.339	36366.04
736.68	36522.87
737.021	36279.71
737.361	36150.67
737.702	36310.67
738.042	36184.8
738.383	35949.78
738.723	36057.12
739.063	35832.04
739.404	35864.58
739.744	35781.42
740.084	35583.91
740.424	35706.84
740.764	35492.39
741.104	35705.26
741.444	35261.43
741.784	35239.06
742.124	35243.58
742.464	35284.93
742.804	35100.31
743.143	35055.34
743.483	35168.78
743.823	34893.98
744.162	34901.22
744.502	34867.09
744.841	34842.23
745.181	34840.88
745.52	34677.94
745.86	34767.21
746.199	34640.43
746.538	34464.39
746.877	34655.12
747.216	34684.27
747.556	34388.69
747.895	34500.77
748.234	34237.5
748.573	34245.64
748.911	34136.26
749.25	34186.43
749.589	34087.45
749.928	34135.59
750.267	34098.07
750.605	33889.04
750.944	33784.86
751.283	33772.43
751.621	33829.15
751.96	33564.08
752.298	33489.05
752.636	33564.53
752.975	33421.25
