Data from white_poster_card_FLMS001491_00087.txt Node
Date: Wed Feb 08 11:52:08 GMT 2017
User: dcchb
Spectrometer: FLMS00149
Trigger mode: 0
Integration Time (sec): 2.000000E-2
Scans to average: 10
Electric dark correction enabled: true
Nonlinearity correction enabled: false
Boxcar width: 0
XAxis mode: Wavelengths
Number of Pixels in Spectrum: 2048
>>>>>Begin Spectral Data<<<<<
341.393	-30.39
341.776	-30.39
342.16	-30.39
342.543	-76.95
342.927	-78.08
343.31	-67
343.693	-68.13
344.077	-67.46
344.46	-56.61
344.843	-58.64
345.226	-34.91
345.61	-44.41
345.993	3.28
346.376	10.96
346.759	16.16
347.142	8.93
347.525	24.52
347.908	51.64
348.291	85.31
348.674	101.58
349.057	94.8
349.44	136.38
349.823	132.31
350.206	137.51
350.588	197.85
350.971	219.09
351.354	231.97
351.737	231.29
352.119	230.16
352.502	237.85
352.884	274.23
353.267	267.9
353.65	271.52
354.032	305.87
354.414	303.61
354.797	328.69
355.179	317.62
355.562	333.66
355.944	314
356.326	312.42
356.709	326.21
357.091	337.73
357.473	344.06
357.855	350.16
358.238	354.68
358.62	335.92
359.002	347
359.384	339.31
359.766	344.74
360.148	326.66
360.53	324.17
360.912	326.21
361.294	319.43
361.676	331.86
362.057	334.12
362.439	320.33
362.821	318.97
363.203	329.14
363.584	330.27
363.966	320.56
364.348	322.82
364.729	324.62
365.111	326.43
365.493	307
365.874	305.87
366.256	309.94
366.637	325.98
367.019	296.38
367.4	290.5
367.781	316.26
368.163	311.07
368.544	310.84
368.925	323.72
369.306	319.43
369.688	280.56
370.069	306.32
370.45	317.39
370.831	330.27
371.212	318.75
371.593	329.82
371.974	313.55
372.355	315.58
372.736	292.76
373.117	312.87
373.498	318.97
373.879	332.08
374.26	316.04
374.641	311.52
375.021	328.92
375.402	317.62
375.783	323.95
376.163	312.42
376.544	333.66
376.925	352.87
377.305	320.56
377.686	325.08
378.066	337.51
378.447	323.72
378.827	340.89
379.208	335.25
379.588	338.18
379.968	343.61
380.349	339.31
380.729	348.35
381.109	322.14
381.489	333.66
381.87	333.21
382.25	353.78
382.63	353.32
383.01	339.99
383.39	349.26
383.77	359.88
384.15	336.83
384.53	346.32
384.91	358.52
385.29	360.56
385.67	368.69
386.049	366.43
386.429	362.36
386.809	348.35
387.189	370.5
387.568	371.4
387.948	369.14
388.328	349.26
388.707	384.51
389.087	373.44
389.466	356.71
389.846	386.54
390.225	375.7
390.605	384.96
390.984	401.01
391.363	365.53
391.743	386.32
392.122	408.69
392.501	401.23
392.881	402.36
393.26	386.77
393.639	379.31
394.018	410.05
394.397	408.69
394.776	403.04
395.155	403.94
395.534	402.14
395.913	418.86
396.292	397.16
396.671	418.41
397.05	422.02
397.429	419.99
397.808	415.92
398.186	415.02
398.565	440.55
398.944	433.1
399.323	442.36
399.701	405.53
400.08	446.88
400.458	440.55
400.837	455.47
401.215	471.06
401.594	454.34
401.972	439.42
402.351	468.58
402.729	476.94
403.107	463.83
403.486	452.98
403.864	481
404.242	469.93
404.62	497.5
404.999	452.76
405.377	490.27
405.755	487.33
406.133	508.12
406.511	521.23
406.889	498.18
407.267	516.94
407.645	512.64
408.023	527.56
408.401	542.92
408.779	546.31
409.156	546.09
409.534	536.14
409.912	575.01
410.29	579.98
410.667	600.32
411.045	554.9
411.422	610.49
411.8	618.85
412.178	619.98
412.555	620.66
412.933	647.33
413.31	679.87
413.687	680.55
414.065	690.72
414.442	712.86
414.819	702.02
415.197	739.3
415.574	742.69
415.951	753.31
416.328	791.28
416.705	771.62
417.082	773.88
417.46	805.29
417.837	827.44
418.214	832.18
418.591	826.08
418.967	865.85
419.344	854.33
419.721	889.13
420.098	916.93
420.475	930.94
420.852	945.62
421.228	923.7
421.605	960.54
421.982	969.58
422.358	990.14
422.735	995.12
423.111	1008.9
423.488	999.41
423.864	1008.67
424.241	1064.94
424.617	1045.74
424.994	1070.14
425.37	1064.49
425.746	1112.17
426.123	1111.04
426.499	1124.38
426.875	1139.74
427.251	1168.22
427.627	1203.47
428.003	1190.14
428.379	1235.56
428.756	1212.74
429.132	1246.86
429.507	1243.7
429.883	1280.08
430.259	1311.49
430.635	1316.91
431.011	1319.85
431.387	1358.04
431.763	1367.76
432.138	1391.49
432.514	1447.08
432.89	1409.34
433.265	1444.82
433.641	1496.34
434.016	1489.57
434.392	1533.63
434.767	1543.12
435.143	1541.54
435.518	1555.78
435.894	1608.43
436.269	1617.7
436.644	1627.87
437.02	1637.58
437.395	1657.02
437.77	1705.6
438.145	1706.51
438.52	1717.81
438.895	1704.25
439.271	1748.54
439.646	1761.65
440.021	1793.06
440.395	1785.38
440.77	1787.41
441.145	1835.32
441.52	1856.11
441.895	1862.44
442.27	1867.18
442.645	1867.18
443.019	1894.3
443.394	1900.4
443.769	1921.64
444.143	1903.34
444.518	1947.63
444.892	1930.91
445.267	1954.41
445.641	1983.11
446.016	1962.32
446.39	2009.55
446.764	2038.93
447.139	2002.55
447.513	2017.46
447.887	2045.93
448.262	2056.1
448.636	2070.57
449.01	2097.91
449.384	2106.27
449.758	2122.54
450.132	2152.15
450.506	2149.21
450.88	2158.25
451.254	2161.86
451.628	2197.57
452.002	2238.7
452.376	2257
452.75	2250
453.123	2262.2
453.497	2314.85
453.871	2326.83
454.244	2373.38
454.618	2380.39
454.992	2417.22
455.365	2406.6
455.739	2483.21
456.112	2484.57
456.486	2501.29
456.859	2555.07
457.232	2563.44
457.606	2576.99
457.979	2628.52
458.352	2680.04
458.725	2668.29
459.099	2709.87
459.472	2756.65
459.845	2791.23
460.218	2783.99
460.591	2833.48
460.964	2822.41
461.337	2893.82
461.71	2980.15
462.083	3010.88
462.456	2963.42
462.829	3015.4
463.201	3065.57
463.574	3086.13
463.947	3104.21
464.32	3233.7
464.692	3207.71
465.065	3226.47
465.438	3242.97
465.81	3270.99
466.183	3339.23
466.555	3436.18
466.928	3422.62
467.3	3402.28
467.672	3494.26
468.045	3564.54
468.417	3579.91
468.789	3659.9
469.161	3661.26
469.534	3717.76
469.906	3788.49
470.278	3826.68
470.65	3874.14
471.022	3935.6
471.394	3972.21
471.766	4007.24
472.138	4048.82
472.51	4171.98
472.882	4198.65
473.253	4226.89
473.625	4273.9
473.997	4371.75
474.369	4404.06
474.74	4478.64
475.112	4563.61
475.484	4593.44
475.855	4687.45
476.227	4723.38
476.598	4835.47
476.97	4881.79
477.341	4983.26
477.713	5032.07
478.084	5089.24
478.455	5198.85
478.827	5226.42
479.198	5377.15
479.569	5414.89
479.94	5555.22
480.311	5606.75
480.682	5739.4
481.053	5846.29
481.424	5973.52
481.795	6005.83
482.166	6069.33
482.537	6128.54
482.908	6293.51
483.279	6351.13
483.65	6452.15
484.021	6608.07
484.391	6650.33
484.762	6677.45
485.133	6706.6
485.503	6851.23
485.874	7029.76
486.244	7107.5
486.615	7208.29
486.985	7309.07
487.356	7469.07
487.726	7492.57
488.097	7593.59
488.467	7661.15
488.837	7802.17
489.207	7876.29
489.578	7984.99
489.948	8067.25
490.318	8239.9
490.688	8273.57
491.058	8345.2
491.428	8437.86
491.798	8561.47
492.168	8692.99
492.538	8792.88
492.908	8862.25
493.278	8971.4
493.648	8991.51
494.017	9151.06
494.387	9244.39
494.757	9277.84
495.126	9370.94
495.496	9438.73
495.866	9484.84
496.235	9591.73
496.605	9753.75
496.974	9754.66
497.344	9979.51
497.713	9914.43
498.082	9987.2
498.452	10196
498.821	10174.31
499.19	10250.92
499.559	10318.71
499.928	10391.03
500.298	10496.11
500.667	10624.47
501.036	10567.52
501.405	10685.71
501.774	10753.73
502.143	10810
502.512	10844.35
502.88	10999.6
503.249	11007.28
503.618	11059.94
503.987	11198.24
504.356	11214.73
504.724	11346.48
505.093	11368.18
505.462	11435.07
505.83	11590.32
506.199	11626.47
506.567	11760.48
506.936	11777.2
507.304	11888.16
507.672	12027.82
508.041	12049.51
508.409	12118.66
508.777	12281.82
509.145	12280.47
509.514	12368.15
509.882	12485.43
510.25	12542.61
510.618	12614.24
510.986	12692.43
511.354	12812.43
511.722	12908.93
512.09	12987.79
512.458	12994.8
512.826	13177.85
513.193	13181.91
513.561	13331.74
513.929	13372.42
514.297	13555.46
514.664	13644.27
515.032	13668.91
515.4	13731.5
515.767	13867.77
516.135	13846.08
516.502	13883.82
516.869	14122
517.237	14184.37
517.604	14277.03
517.972	14401.99
518.339	14488.55
518.706	14579.16
519.073	14650.8
519.44	14760.63
519.808	14894.86
520.175	14960.62
520.542	15143.22
520.909	15245.59
521.276	15361.97
521.643	15446.49
522.009	15592.92
522.376	15738.91
522.743	15736.2
523.11	15872.46
523.477	16054.83
523.843	16104.1
524.21	16309.06
524.577	16430.64
524.943	16513.13
525.31	16597.19
525.676	16762.84
526.043	16881.48
526.409	17010.06
526.776	17165.31
527.142	17236.72
527.508	17344.97
527.874	17581.57
528.241	17717.16
528.607	17693.21
528.973	17785.18
529.339	17924.84
529.705	18123.25
530.071	18252.74
530.437	18318.05
530.803	18388.56
531.169	18582.68
531.535	18525.5
531.901	18659.28
532.267	18671.49
532.632	18836.68
532.998	18954.42
533.364	19121.87
533.73	19135.2
534.095	19256.78
534.461	19342.88
534.826	19525.93
535.192	19532.03
535.557	19669.43
535.923	19739.03
536.288	19739.93
536.653	19852.25
537.019	19889.76
537.384	19993.26
537.749	20015.41
538.114	20137.89
538.479	20237.1
538.845	20311.67
539.21	20254.72
539.575	20408.84
539.94	20490.65
540.305	20616.52
540.67	20598.44
541.034	20785.78
541.399	20798.21
541.764	20870.07
542.129	21023.06
542.494	21035.27
542.858	21148.48
543.223	21112.1
543.587	21290.4
543.952	21261.93
544.316	21405.43
544.681	21461.7
545.045	21581.01
545.41	21675.48
545.774	21680.67
546.138	21599.32
546.503	21885.64
546.867	21800.22
547.231	22192.52
547.595	22011.51
547.959	22110.49
548.324	22195.69
548.688	22249.92
549.052	22372.63
549.416	22375.8
549.779	22481.56
550.143	22589.58
550.507	22714.54
550.871	22735.11
551.235	22837.7
551.599	22971.71
551.962	22953.41
552.326	23071.82
552.689	23241.76
553.053	23085.38
553.417	23249.22
553.78	23489.21
554.143	23425.49
554.507	23603.33
554.87	23718.81
555.234	23837.68
555.597	23777.57
555.96	23966.04
556.323	24035.87
556.686	23970.1
557.05	24255.97
557.413	24401.73
557.776	24424.78
558.139	24592.69
558.502	24611.9
558.865	24624.78
559.228	24804.21
559.59	24886.92
559.953	25062.28
560.316	25259.79
560.679	25309.28
561.041	25434.25
561.404	25659.1
561.767	25687.12
562.129	25759.44
562.492	25944.74
562.854	25933.22
563.217	25892.09
563.579	26139.99
563.941	26277.16
564.304	26431.51
564.666	26607.1
565.028	26711.73
565.39	26783.59
565.753	26940.65
566.115	26974.54
566.477	27157.14
566.839	27297.47
567.201	27391.26
567.563	27369.34
567.925	27609.56
568.287	27679.61
568.648	27612.49
569.01	27863.11
569.372	27907.63
569.734	27907.4
570.095	28105.59
570.457	28212.93
570.819	28296.77
571.18	28237.11
571.542	28462.87
571.903	28596.65
572.265	28598.68
572.626	28697.21
572.987	28763.65
573.349	28876.42
573.71	28926.13
574.071	28989.63
574.432	29140.14
574.794	29324.99
575.155	29289.51
575.516	29209.74
575.877	29471.43
576.238	29525.44
576.599	29587.81
576.96	29605.89
577.32	29697.86
577.681	29877.29
578.042	29784.64
578.403	29851.08
578.763	29993
579.124	29829.16
579.485	30106.21
579.845	30216.72
580.206	30041.13
580.566	30089.72
580.927	30183.73
581.287	30256.49
581.648	30159.32
582.008	30310.05
582.368	30197.74
582.728	30223.95
583.089	30254.23
583.449	30326.32
583.809	30452.42
584.169	30422.14
584.529	30349.6
584.889	30529.03
585.249	30300.33
585.609	30378.52
585.969	30452.65
586.329	30378.75
586.688	30511.18
587.048	30380.78
587.408	30454.45
587.768	30423.95
588.127	30254.46
588.487	30502.81
588.846	30544.17
589.206	30428.24
589.565	30413.1
589.925	30595.01
590.284	30406.77
590.643	30486.77
591.003	30465.3
591.362	30712.98
591.721	30493.32
592.08	30531.29
592.44	30561.12
592.799	30585.52
593.158	30517.73
593.517	30483.15
593.876	30659.87
594.235	30633.43
594.593	30637.5
594.952	30689.25
595.311	30536.26
595.67	30724.5
596.029	30868.91
596.387	30897.61
596.746	30830.26
597.104	30698.06
597.463	30705.29
597.822	30910.49
598.18	30694.9
598.538	30825.29
598.897	30917.49
599.255	30578.74
599.613	31077.71
599.972	30933.31
600.33	31016.02
600.688	30910.71
601.046	31108.22
601.404	31212.85
601.762	31060.99
602.12	31281.78
602.478	31099.41
602.836	31226.64
603.194	31049.01
603.552	31257.6
603.91	31135.57
604.268	31231.38
604.625	31214.89
604.983	31373.98
605.341	31184.38
605.698	31385.05
606.056	31534.43
606.413	31477.25
606.771	31588.89
607.128	31600.86
607.485	31429.8
607.843	31409.23
608.2	31693.74
608.557	31718.15
608.914	31557.93
609.272	31696.91
609.629	31857.35
609.986	31832.27
610.343	31640.64
610.7	32117.23
611.057	31878.82
611.414	31924.02
611.771	31848.77
612.127	31964.92
612.484	32035.43
612.841	32094.64
613.198	32033.85
613.554	32086.5
613.911	32227.74
614.267	32179.38
614.624	32154.07
614.98	32217.34
615.337	32399.04
615.693	32255.54
616.05	32202.2
616.406	32475.42
616.762	32314.97
617.118	32191.13
617.475	32344.8
617.831	32376.44
618.187	32578.69
618.543	32336.66
618.899	32624.57
619.255	32625.02
619.611	32531.91
619.967	32658.24
620.323	32684
620.678	32588.41
621.034	32423.22
621.39	32521.52
621.746	32421.86
622.101	32793.6
622.457	32491.91
622.812	32657.56
623.168	32651.23
623.523	32489.65
623.879	32848.51
624.234	32520.16
624.589	32685.81
624.945	32676.77
625.3	32719.48
625.655	32714.96
626.01	32702.53
626.365	32710.89
626.72	32623.66
627.075	32640.16
627.43	32516.09
627.785	32508.64
628.14	32634.74
628.495	32571.69
628.85	32587.05
629.205	32466.6
629.559	32599.93
629.914	32396.1
630.269	32501.41
630.623	32305.25
630.978	32394.06
631.332	32403.1
631.687	32370.79
632.041	32291.02
632.396	32422.99
632.75	32229.1
633.104	32278.81
633.459	32111.81
633.813	32106.61
634.167	32130.12
634.521	32101.64
634.875	32127.86
635.229	32061.87
635.583	31895.32
635.937	31943
636.291	31994.53
636.645	31995.66
636.999	31839.95
637.352	31952.27
637.706	31736.68
638.06	31882.89
638.413	31698.04
638.767	31549.11
639.121	31633.18
639.474	31574.65
639.828	31456.24
640.181	31607.19
640.534	31587.53
640.888	31343.7
641.241	31399.97
641.594	31369.91
641.947	31331.94
642.301	31342.57
642.654	31258.73
643.007	31355.9
643.36	31258.5
643.713	31117.26
644.066	31324.71
644.419	31088.34
644.771	30941.45
645.124	30515.47
645.477	30384.62
645.83	30145.08
646.182	30227.11
646.535	30248.13
646.888	30132.2
647.24	29924.52
647.593	30116.38
647.945	30058.98
648.298	29797.75
648.65	29807.01
649.002	29677.98
649.355	29825.77
649.707	29866.22
650.059	29895.6
650.411	30349.82
650.763	30340.33
651.115	30493.1
651.467	30395.47
651.819	30442.02
652.171	30336.49
652.523	30375.59
652.875	30360.9
653.227	30119.32
653.578	30385.53
653.93	30353.89
654.282	30225.08
654.633	30164.29
654.985	30090.17
655.337	30122.26
655.688	30021.24
656.039	30190.51
656.391	29893.11
656.742	30120.22
657.094	30078.19
657.445	30066.44
657.796	29922.49
658.147	29821.7
658.498	29827.8
658.849	29913.22
659.2	29819.67
659.551	29847.69
659.902	29760.23
660.253	29877.97
660.604	29886.33
660.955	29677.07
661.306	29856.73
661.656	29746.22
662.007	29741.03
662.358	29757.52
662.708	29572.22
663.059	29509.85
663.409	29489.51
663.76	29656.06
664.11	29684.08
664.461	29687.24
664.811	29508.49
665.161	29562.27
665.511	29475.95
665.862	29558.66
666.212	29586.45
666.562	29462.84
666.912	29464.65
667.262	29433.69
667.612	29371.09
667.962	29468.94
668.312	29260.81
668.662	29558.88
669.011	29383.97
669.361	29370.87
669.711	29376.97
670.06	29268.95
670.41	29233.47
670.76	29073.25
671.109	29296.74
671.459	29299.23
671.808	29174.49
672.157	29222.85
672.507	29042.06
672.856	29113.92
673.205	29034.83
673.554	29287.7
673.904	29103.08
674.253	29266.46
674.602	29109.63
674.951	28663.54
675.3	28595.75
675.649	29025.79
675.998	28982.85
676.346	28980.14
676.695	29037.77
677.044	28781.28
677.393	28810.2
677.741	28895.17
678.09	28794.16
678.438	28740.83
678.787	28816.98
679.135	28771.79
679.484	28642.75
679.832	28642.98
680.181	28518.91
680.529	28526.59
680.877	28582.64
681.225	28471.23
681.573	28693.37
681.922	28430.55
682.27	28389.2
682.618	28311.68
682.966	28265.81
683.314	28337.9
683.661	28099.26
684.009	28124.12
684.357	27968.19
684.705	28044.8
685.053	28043.44
685.4	27891.36
685.748	27901.75
686.095	27853.84
686.443	27662.89
686.79	27599.84
687.138	27695.88
687.485	27759.16
687.832	27537.02
688.18	27456.34
688.527	27526.17
688.874	27456.11
689.221	27389.9
689.568	27311.03
689.915	27273.52
690.262	27256.35
690.609	27048.44
690.956	26955.79
691.303	27022.91
691.65	26931.83
691.997	26846.64
692.344	26817.49
692.69	26644.38
693.037	26719.64
693.383	26514.22
693.73	26579.3
694.077	26416.14
694.423	26341.34
694.769	26319.87
695.116	26183.61
695.462	26130.73
695.808	26104.51
696.155	26209.59
696.501	25976.61
696.847	25881.69
697.193	25662.49
697.539	25878.98
697.885	25594.92
698.231	25540.01
698.577	25517.41
698.923	25545.66
699.269	25302.27
699.614	25284.87
699.96	25238.32
700.306	25291.88
700.651	25121.94
700.997	25070.41
701.342	25023.86
701.688	24972.11
702.033	24913.36
702.379	24863.87
702.724	24775.05
703.069	24785.22
703.415	24564.44
703.76	24531.45
704.105	24543.87
704.45	24444.44
704.795	24368.29
705.14	24188.18
705.485	24278.34
705.83	24143.43
706.175	24282.19
706.52	24176.43
706.865	24025.47
707.209	24034.28
707.554	23925.59
707.899	23926.94
708.243	23763.1
708.588	23792.93
708.932	23548.65
709.277	23534.86
709.621	23563.34
709.966	23364.24
710.31	23490.79
710.654	23279.5
710.998	23348.65
711.342	23324.47
711.687	23232.72
712.031	23025.95
712.375	22986.85
712.719	23151.82
713.063	22940.53
713.407	22973.97
713.75	23002.22
714.094	22835.67
714.438	22731.49
714.782	22821.21
715.125	22634.32
715.469	22660.08
715.812	22650.14
716.156	22466.41
716.499	22487.43
716.843	22438.17
717.186	22361.78
717.53	22425.96
717.873	22479.97
718.216	22368.11
718.559	22328.57
718.902	22126.31
719.246	22236.36
719.589	22136.25
719.932	22071.62
720.275	22110.49
720.617	22042.7
720.96	22006.31
721.303	21931.51
721.646	21993.43
721.989	21914.57
722.331	21869.82
722.674	21836.83
723.016	21787.34
723.359	21785.75
723.701	21797.05
724.044	21509.83
724.386	21532.43
724.729	21492.88
725.071	21490.4
725.413	21426.89
725.755	21534.24
726.097	21346.44
726.439	21181.48
726.782	21307.12
727.124	21354.58
727.465	21256.73
727.807	21115.94
728.149	21113.46
728.491	21104.19
728.833	21166.34
729.175	21033.01
729.516	20863.07
729.858	20816.29
730.199	20968.15
730.541	20917.53
730.882	20906
731.224	20895.16
731.565	20718.89
731.906	20795.05
732.248	20881.6
732.589	20723.41
732.93	20649.97
733.271	20569.52
733.612	20705.11
733.953	20635.73
734.294	20559.12
734.635	20474.38
734.976	20596.63
735.317	20342.85
735.658	20424.89
735.999	20411.33
736.339	20340.82
736.68	20335.62
737.021	20306.47
737.361	20217.89
737.702	20349.86
738.042	20339.92
738.383	20190.77
738.723	20286.59
739.063	20167.27
739.404	20236.87
739.744	20076.65
740.084	19936.54
740.424	20096.99
740.764	20016.31
741.104	19948.52
741.444	19868.97
741.784	19749.88
742.124	19874.84
742.464	19860.38
742.804	19672.36
743.143	19791.23
743.483	19692.48
743.823	19527.28
744.162	19671.46
744.502	19619.71
744.841	19616.09
745.181	19568.41
745.52	19556.89
745.86	19494.06
746.199	19441.64
746.538	19421.75
746.877	19442.09
747.216	19496.55
747.556	19388.53
747.895	19318.93
748.234	19160.29
748.573	19130.01
748.911	19123.23
749.25	19238.03
749.589	19069.67
749.928	19096.79
750.267	19085.26
750.605	18924.59
750.944	18809.56
751.283	18868.54
751.621	18944.47
751.96	18740.19
752.298	18775.66
752.636	18785.83
752.975	18657.93
753.313	18669.68
753.651	18726.4
753.989	18535.9
754.327	18571.15
754.666	18432.62
