Data from white_steel_sheet_FLMS001491_084.txt Node
Date: Tue Feb 07 10:58:36 GMT 2017
User: dcchb
Spectrometer: FLMS00149
Trigger mode: 0
Integration Time (sec): 2.000000E-2
Scans to average: 10
Electric dark correction enabled: true
Nonlinearity correction enabled: false
Boxcar width: 0
XAxis mode: Wavelengths
Number of Pixels in Spectrum: 2048
>>>>>Begin Spectral Data<<<<<
341.393	-22.98
341.776	-22.98
342.16	-22.98
342.543	-50.78
342.927	-53.49
343.31	-62.53
343.693	-63.88
344.077	-68.85
344.46	-93.49
344.843	-57.1
345.226	-36.54
345.61	-22.53
345.993	-19.36
346.376	-1.74
346.759	24.25
347.142	39.62
347.525	47.08
347.908	43.23
348.291	69.9
348.674	106.96
349.057	94.98
349.44	127.52
349.823	121.88
350.206	166.39
350.588	196.9
350.971	233.74
351.354	259.5
351.737	245.71
352.119	285.94
352.502	261.98
352.884	301.53
353.267	285.03
353.65	294.3
354.032	328.42
354.414	292.04
354.797	320.29
355.179	334.98
355.562	320.06
355.944	344.24
356.326	365.94
356.709	349.67
357.091	353.51
357.473	360.74
357.855	346.73
358.238	346.5
358.62	339.27
359.002	353.51
359.384	362.09
359.766	345.15
360.148	347.86
360.53	332.72
360.912	354.41
361.294	340.4
361.676	346.5
362.057	352.6
362.439	359.38
362.821	345.82
363.203	353.96
363.584	329.55
363.966	355.99
364.348	359.16
364.729	317.8
365.111	339.95
365.493	331.81
365.874	338.14
366.256	325.49
366.637	342.21
367.019	324.58
367.4	343.79
367.781	312.38
368.163	339.72
368.544	330.91
368.925	319.38
369.306	362.09
369.688	349.44
370.069	340.4
370.45	337.01
370.831	341.08
371.212	318.25
371.593	358.71
371.974	319.38
372.355	342.66
372.736	344.02
373.117	341.98
373.498	365.71
373.879	355.32
374.26	337.01
374.641	346.05
375.021	323.45
375.402	325.71
375.783	350.34
376.163	370.91
376.544	352.15
376.925	361.64
377.305	351.25
377.686	346.73
378.066	359.16
378.447	368.87
378.827	381.53
379.208	363.45
379.588	355.99
379.968	386.73
380.349	357.8
380.729	385.82
381.109	370.23
381.489	383.56
381.87	367.29
382.25	384.92
382.63	371.36
383.01	362.55
383.39	377.46
383.77	372.72
384.15	373.39
384.53	360.06
384.91	387.41
385.29	403.45
385.67	386.5
386.049	394.86
386.429	386.5
386.809	391.7
387.189	404.81
387.568	415.88
387.948	407.74
388.328	420.85
388.707	411.81
389.087	418.36
389.466	424.01
389.846	433.73
390.225	426.05
390.605	438.93
390.984	433.28
391.363	444.35
391.743	441.64
392.122	463.56
392.501	466.27
392.881	468.31
393.26	471.02
393.639	470.57
394.018	482.32
394.397	470.11
394.776	480.96
395.155	495.88
395.534	487.06
395.913	512.83
396.292	506.72
396.671	509.44
397.05	500.17
397.429	545.14
397.808	520.51
398.186	535.65
398.565	567.51
398.944	534.97
399.323	538.14
399.701	541.98
400.08	574.74
400.458	568.42
400.837	586.72
401.215	570.23
401.594	614.74
401.972	622.88
402.351	606.38
402.729	600.51
403.107	638.92
403.486	637.57
403.864	608.42
404.242	649.55
404.62	684.57
404.999	683.89
405.377	693.16
405.755	690.45
406.133	711.46
406.511	690.22
406.889	734.51
407.267	737.9
407.645	775.19
408.023	742.65
408.401	776.77
408.779	791.69
409.156	812.03
409.534	785.36
409.912	829.43
410.29	829.2
410.667	841.86
411.045	896.77
411.422	847.05
411.8	861.74
412.178	894.51
412.555	907.62
412.933	932.25
413.31	946.71
413.687	945.13
414.065	968.86
414.442	972.47
414.819	976.77
415.197	988.07
415.574	998.46
415.951	989.65
416.328	1022.64
416.705	1044.79
417.082	1030.1
417.46	1035.07
417.837	1054.28
418.214	1098.8
418.591	1103.54
418.967	1094.96
419.344	1098.57
419.721	1143.09
420.098	1136.09
420.475	1135.63
420.852	1174.5
421.228	1174.5
421.605	1163.88
421.982	1191.23
422.358	1204.33
422.735	1239.59
423.111	1214.73
423.488	1224.45
423.864	1272.35
424.241	1269.19
424.617	1294.5
424.994	1283.2
425.37	1304.44
425.746	1275.97
426.123	1336.76
426.499	1325.91
426.875	1354.61
427.251	1396.87
427.627	1422.86
428.003	1435.51
428.379	1443.87
428.756	1474.61
429.132	1460.82
429.507	1484.55
429.883	1510.09
430.259	1533.82
430.635	1555.06
431.011	1592.35
431.387	1591.22
431.763	1641.61
432.138	1624.89
432.514	1677.77
432.89	1694.26
433.265	1691.1
433.641	1717.77
434.016	1748.5
434.392	1790.31
434.767	1819.68
435.143	1794.6
435.518	1824.88
435.894	1852.68
436.269	1860.59
436.644	1902.17
437.02	1914.6
437.395	1891.77
437.77	1959.57
438.145	2004.99
438.52	1993.69
438.895	2027.81
439.271	2010.19
439.646	2064.42
440.021	2102.16
440.395	2086.12
440.77	2095.83
441.145	2141.94
441.52	2152.78
441.895	2159.11
442.27	2202.72
442.645	2200.24
443.019	2230.97
443.394	2216.74
443.769	2264.87
444.143	2246.11
444.518	2284.98
444.892	2267.36
445.267	2364.98
445.641	2360.46
446.016	2325.21
446.39	2360.01
446.764	2395.49
447.139	2378.99
447.513	2409.05
447.887	2414.92
448.262	2428.48
448.636	2443.17
449.01	2484.98
449.384	2471.64
449.758	2543.28
450.132	2591.87
450.506	2573.56
450.88	2596.39
451.254	2643.39
451.628	2674.58
452.002	2706.21
452.376	2716.84
452.75	2750.96
453.123	2769.26
453.497	2814.23
453.871	2843.16
454.244	2897.85
454.618	2929.94
454.992	2950.05
455.365	2943.04
455.739	3025.98
456.112	3034.79
456.486	3059.88
456.859	3081.57
457.232	3147.78
457.606	3152.98
457.979	3227.1
458.352	3260.1
458.725	3315.69
459.099	3298.06
459.472	3395.46
459.845	3361.79
460.218	3442.01
460.591	3462.58
460.964	3464.16
461.337	3579.64
461.71	3654.21
462.083	3673.87
462.456	3681.78
462.829	3709.58
463.201	3788.45
463.574	3779.63
463.947	3826.86
464.32	3916.35
464.692	3952.96
465.065	3972.17
465.438	4065.73
465.81	4078.38
466.183	4126.29
466.555	4247.64
466.928	4238.83
467.3	4240.64
467.672	4341.2
468.045	4411.48
468.417	4444.7
468.789	4444.25
469.161	4482.21
469.534	4568.54
469.906	4716.56
470.278	4707.07
470.65	4839.94
471.022	4909.32
471.394	4990.67
471.766	5014.18
472.138	5067.51
472.51	5203.78
472.882	5189.09
473.253	5261.4
473.625	5351.34
473.997	5505.46
474.369	5502.07
474.74	5607.15
475.112	5701.39
475.484	5797.66
475.855	5853.7
476.227	5952.23
476.598	6117.88
476.97	6152
477.341	6269.74
477.713	6367.59
478.084	6403.97
478.455	6575.26
478.827	6644.42
479.198	6824.75
479.569	6843.28
479.94	7040.79
480.311	7141.8
480.682	7264.51
481.053	7404.85
481.424	7561.68
481.795	7596.71
482.166	7736.59
482.537	7871.5
482.908	8026.75
483.279	8065.85
483.65	8228.78
484.021	8420.19
484.391	8536.57
484.762	8591.94
485.133	8587.19
485.503	8807.07
485.874	9005.48
486.244	9040.74
486.615	9294.06
486.985	9343.55
487.356	9555.75
487.726	9587.84
488.097	9777.67
488.467	9828.96
488.837	9960.71
489.207	10119.13
489.578	10252.23
489.948	10371.1
490.318	10571.32
490.688	10583.3
491.058	10663.75
491.428	10899.67
491.798	11019.89
492.168	11255.82
492.538	11268.93
492.908	11403.16
493.278	11479.09
493.648	11568.13
494.017	11737.39
494.387	11829.82
494.757	11968.12
495.126	12098.51
495.496	12151.62
495.866	12229.58
496.235	12439.07
496.605	12550.7
496.974	12565.84
497.344	12728.78
497.713	12756.8
498.082	12802.67
498.452	12960.63
498.821	13081.31
499.19	13135.54
499.559	13326.27
499.928	13449.89
500.298	13482.88
500.667	13693.95
501.036	13695.3
501.405	13788.41
501.774	13815.53
502.143	14009.19
502.512	13937.11
502.88	14224.56
503.249	14228.62
503.618	14380.03
503.987	14368.51
504.356	14424.1
504.724	14597.88
505.093	14677.42
505.462	14807.59
505.83	14920.13
506.199	15024.53
506.567	15183.17
506.936	15168.71
507.304	15447.8
507.672	15483.73
508.041	15567.12
508.409	15697.74
508.777	15836.49
509.145	15917.17
509.514	15930.27
509.882	16102.92
510.25	16156.48
510.618	16233.99
510.986	16320.32
511.354	16576.36
511.722	16666.98
512.09	16868.78
512.458	16847.99
512.826	16974.31
513.193	17094.31
513.561	17166.62
513.929	17252.27
514.297	17487.29
514.664	17625.6
515.032	17804.12
515.4	17901.07
515.767	18042.76
516.135	18193.94
516.502	18028.3
516.869	18466.03
517.237	18455.63
517.604	18512.58
517.972	18773.81
518.339	18810.42
518.706	19017.65
519.073	18994.6
519.44	19209.28
519.808	19407.7
520.175	19489.73
520.542	19695.15
520.909	19882.71
521.276	19814.46
521.643	20091.52
522.009	20185.98
522.376	20474.56
522.743	20541.45
523.11	20698.51
523.477	21005.17
523.843	21046.07
524.21	21380.75
524.577	21412.84
524.943	21458.94
525.31	21668.43
525.676	21898.25
526.043	22154.29
526.409	22165.14
526.776	22409.88
527.142	22494.85
527.508	22637.67
527.874	22905.01
528.241	22929.64
528.607	23045.11
528.973	23239.01
529.339	23266.8
529.705	23501.15
530.071	23706.34
530.437	23848.94
530.803	23944.75
531.169	24183.62
531.535	24204.86
531.901	24268.36
532.267	24325.31
532.632	24567.33
532.998	24687.33
533.364	24770.04
533.73	24942.92
534.095	25151.95
534.461	25055.46
534.826	25278.73
535.192	25414.09
535.557	25551.94
535.923	25633.75
536.288	25670.13
536.653	25898.15
537.019	25831.03
537.384	25972.04
537.749	26127.07
538.114	26260.4
538.479	26250.45
538.845	26445.48
539.21	26446.61
539.575	26555.76
539.94	26566.38
540.305	26868.06
540.67	26882.75
541.034	26978.12
541.399	27048.17
541.764	27134.5
542.129	27209.98
542.494	27407.71
542.858	27454.94
543.223	27530.87
543.587	27687.03
543.952	27674.82
544.316	27873.69
544.681	27895.16
545.045	27891.77
545.41	28143.74
545.774	28152.1
546.138	28222.83
546.503	28366.56
546.867	28317.52
547.231	28569.94
547.595	28752.76
547.959	28797.96
548.324	28817.84
548.688	28925.86
549.052	29123.15
549.416	29197.49
549.779	29216.25
550.143	29308
550.507	29562.68
550.871	29549.8
551.235	29679.97
551.599	29886.06
551.962	29985.72
552.326	29988.43
552.689	30049.45
553.053	29938.94
553.417	30049.45
553.78	30516.33
554.143	30315.66
554.507	30653.05
554.87	30678.81
555.234	30901.18
555.597	30842.65
555.96	30982.98
556.323	31131
556.686	31221.17
557.05	31387.72
557.413	31481.5
557.776	31537.77
558.139	31809.63
558.502	31940.7
558.865	31923.98
559.228	32236.29
559.59	32302.95
559.953	32372.1
560.316	32636.95
560.679	32578.2
561.041	32748.59
561.404	33078.75
561.767	33188.58
562.129	33215.02
562.492	33573.43
562.854	33454.11
563.217	33592.86
563.579	33752.4
563.941	33883.25
564.304	34024.94
564.666	34282.11
565.028	34263.58
565.39	34411.82
565.753	34687.07
566.115	34675.32
566.477	34798.03
566.839	35037.34
567.201	35107.62
567.563	35319.37
567.925	35380.84
568.287	35519.59
568.648	35540.61
569.01	35728.17
569.372	36000.03
569.734	35903.31
570.095	36116.41
570.457	36232.79
570.819	36317.76
571.18	36430.53
571.542	36627.58
571.903	36607.92
572.265	36692.67
572.626	36895.15
572.987	36950.96
573.349	37015.37
573.71	37213.78
574.071	37273.44
574.432	37336.94
574.794	37639.08
575.155	37490.61
575.516	37386.21
575.877	37539.65
576.238	37723.37
576.599	37793.88
576.96	37770.83
577.32	37856.93
577.681	38045.62
578.042	38072.06
578.403	38078.84
578.763	38125.4
579.124	38052.63
579.485	38257.6
579.845	38237.94
580.206	38180.99
580.566	38397.03
580.927	38293.53
581.287	38573.29
581.648	38363.13
582.008	38474.54
582.368	38513.41
582.728	38571.49
583.089	38494.88
583.449	38589.56
583.809	38636.12
584.169	38525.84
584.529	38515.44
584.889	38824.36
585.249	38464.6
585.609	38540.3
585.969	38701.88
586.329	38609.45
586.688	38636.79
587.048	38651.48
587.408	38575.33
587.768	38556.57
588.127	38630.24
588.487	38608.32
588.846	38800.18
589.206	38510.02
589.565	38565.16
589.925	38812.16
590.284	38644.48
590.643	38700.3
591.003	38648.77
591.362	38791.37
591.721	38719.28
592.08	38817.13
592.44	38723.35
592.799	38788.2
593.158	38747.53
593.517	38634.76
593.876	38723.35
594.235	38660.3
594.593	38724.93
594.952	38720.41
595.311	38668.88
595.67	38771.03
596.029	39024.36
596.387	39082.66
596.746	39066.84
597.104	38852.61
597.463	38817.58
597.822	39080.17
598.18	38946.84
598.538	38655.1
598.897	39002.89
599.255	38786.62
599.613	39221.41
599.972	39056.67
600.33	39089.21
600.688	38900.29
601.046	39079.04
601.404	39227.29
601.762	38956.33
602.12	39264.8
602.478	39231.13
602.836	39217.57
603.194	38985.03
603.552	39163.11
603.91	38977.12
604.268	39248.3
604.625	39259.6
604.983	39122.88
605.341	39128.99
605.698	39393.84
606.056	39299.83
606.413	39393.39
606.771	39477.68
607.128	39519.94
607.485	39304.12
607.843	39270.22
608.2	39471.12
608.557	39470.67
608.914	39668.18
609.272	39649.65
609.629	39765.58
609.986	39867.27
610.343	39584.57
610.7	39949.08
611.057	39959.92
611.414	39885.58
611.771	39868.63
612.127	40064.1
612.484	40004.44
612.841	40184.32
613.198	39923.31
613.554	39865.01
613.911	40283.76
614.267	40170.09
614.624	40154.5
614.98	40330.08
615.337	40393.13
615.693	40323.3
616.05	40345
616.406	40554.03
616.762	40274.27
617.118	40447.59
617.475	40367.37
617.831	40665.67
618.187	40619.34
618.543	40693.01
618.899	40752.22
619.255	40859.79
619.611	40814.14
619.967	40746.12
620.323	40962.84
620.678	40803.07
621.034	40666.12
621.39	40760.58
621.746	40660.02
622.101	41300.45
622.457	40847.81
622.812	40858.21
623.168	40987.47
623.523	40950.86
623.879	41078.99
624.234	40800.13
624.589	40873.57
624.945	40974.59
625.3	41024.75
625.655	40929.39
626.01	40958.32
626.365	41161.02
626.72	40990.18
627.075	40964.19
627.43	40781.15
627.785	40817.08
628.14	41003.96
628.495	40794.03
628.85	40930.29
629.205	40740.69
629.559	40989.28
629.914	40681.94
630.269	40733.69
630.623	40635.39
630.978	40532.79
631.332	40776.63
631.687	40760.13
632.041	40568.95
632.396	40663.63
632.75	40482.4
633.104	40476.52
633.459	40391.32
633.813	40427.71
634.167	40319.46
634.521	40299.58
634.875	40418.67
635.229	40197.88
635.583	40047.61
635.937	40142.07
636.291	40201.05
636.645	39931.68
636.999	39955.63
637.352	40023.65
637.706	39729.2
638.06	39918.12
638.413	39758.35
638.767	39734.39
639.121	39769.19
639.474	39517.45
639.828	39564.45
640.181	39610.55
640.534	39590.89
640.888	39472.48
641.241	39286.27
641.594	39521.97
641.947	39509.54
642.301	39331.24
642.654	39299.15
643.007	39324.91
643.36	39345.48
643.713	39142.32
644.066	39037.01
644.419	39086.5
644.771	38802.21
645.124	38388.21
645.477	38333.3
645.83	37969.92
646.182	38058.05
646.535	37809.7
646.888	37942.58
647.24	37747.1
647.593	37989.35
647.945	37857.83
648.298	37790.26
648.65	37577.84
649.002	37599.53
649.355	37645.18
649.707	37575.35
650.059	37689.48
650.411	38089.69
650.763	38219.63
651.115	38546.85
651.467	38344.6
651.819	38250.59
652.171	38019.18
652.523	38186.64
652.875	38200.2
653.227	37996.36
653.578	38249.01
653.93	38042.01
654.282	37969.69
654.633	37970.15
654.985	37981.67
655.337	37925.4
655.688	37877.04
656.039	37948.9
656.391	37576.48
656.742	37833.2
657.094	37747.1
657.445	37945.74
657.796	37756.14
658.147	37749.59
658.498	37615.35
658.849	37710.94
659.2	37584.85
659.551	37537.16
659.902	37642.02
660.253	37429.59
660.604	37460.33
660.955	37267.79
661.306	37354.34
661.656	37276.6
662.007	37235.48
662.358	37282.93
662.708	37180.11
663.059	37216.95
663.409	36740.12
663.76	36997.52
664.11	37009.49
664.461	37036.16
664.811	37085.65
665.161	36968.36
665.511	36636.85
665.862	36640.01
666.212	36675.94
666.562	36682.27
666.912	36565.44
667.262	36451.77
667.612	36378.32
667.962	36331.77
668.312	36242.51
668.662	36289.96
669.011	36092.68
669.361	35990.54
669.711	36001.84
670.06	35791.45
670.41	35692.24
670.76	35566.82
671.109	35766.59
671.459	35652.24
671.808	35597.1
672.157	35660.38
672.507	35339.93
672.856	35232.82
673.205	35181.07
673.554	35286.6
673.904	35234.62
674.253	35312.14
674.602	35065.59
674.951	34582.89
675.3	34300.64
675.649	34826.5
675.998	34939.49
676.346	34917.57
676.695	35014.97
677.044	34749.44
677.393	34885.93
677.741	34822.66
678.09	34624.47
678.438	34530.24
678.787	34649.33
679.135	34684.36
679.484	34327.98
679.832	34601.42
680.181	34455.44
680.529	34547.64
680.877	34455.21
681.225	34342.44
681.573	34493.85
681.922	34449.11
682.27	34331.15
682.618	34552.61
682.966	34464.48
683.314	34429.22
683.661	34409.79
684.009	34356.46
684.357	34348.32
684.705	34251.83
685.053	34378.6
685.4	34272.62
685.748	34202.56
686.095	34250.24
686.443	34125.28
686.79	34226.97
687.138	34269.45
687.485	34296.34
687.832	34284.82
688.18	34377.7
688.527	34147.42
688.874	34175.67
689.221	34106.52
689.568	34113.07
689.915	34074.43
690.262	33985.84
690.609	33908.56
690.956	33876.47
691.303	34027.42
691.65	33763.48
691.997	33829.01
692.344	33625.4
692.69	33759.86
693.037	33608.68
693.383	33559.19
693.73	33529.36
694.077	33572.3
694.423	33518.51
694.769	33470.83
695.116	33355.13
695.462	33369.36
695.808	33205.07
696.155	33254.79
696.501	33167.11
696.847	33133.89
697.193	33061.57
697.539	33007.34
697.885	32854.57
698.231	32602.6
698.577	32740.23
698.923	32628.14
699.269	32475.37
699.614	32464.98
699.96	32369.84
700.306	32449.61
700.651	32327.36
700.997	32148.83
701.342	32169.39
701.688	32097.76
702.033	31965.56
702.379	32050.3
702.724	31829.29
703.069	31988.61
703.415	31575.96
703.76	31620.71
704.105	31479.47
704.45	31538.68
704.795	31277.89
705.14	31204.22
705.485	31255.97
705.83	30994.06
706.175	31251.9
706.52	31065.69
706.865	31017.56
707.209	30920.61
707.554	30753.61
707.899	30748.87
708.243	30828.64
708.588	30645.37
708.932	30434.3
709.277	30415.32
709.621	30470.23
709.966	30402.89
710.31	30356.56
710.654	30183.01
710.998	30177.36
711.342	30233.4
711.687	30093.74
712.031	29913.86
712.375	29915.22
712.719	29919.06
713.063	29867.31
713.407	30024.82
713.75	29684.26
714.094	29721.1
714.438	29582.8
714.782	29602.68
715.125	29393.2
715.469	29534.21
715.812	29359.75
716.156	29169.47
716.499	29316.59
716.843	29245.86
717.186	29109.36
717.53	29211.51
717.873	29166.08
718.216	29020.32
718.559	28836.15
718.902	28772.65
719.246	28966.99
719.589	28718.19
719.932	28596.15
720.275	28683.61
720.617	28584.86
720.96	28569.71
721.303	28567
721.646	28579.21
721.989	28317.29
722.331	28488.81
722.674	28300.8
723.016	28298.08
723.359	28228.48
723.701	28254.47
724.044	28069.39
724.386	27960.24
724.729	28096.28
725.071	27923.86
725.413	27980.8
725.755	27883.41
726.097	27841.6
726.439	27746.23
726.782	27689.51
727.124	27874.82
727.465	27640.02
727.807	27621.72
728.149	27612.68
728.491	27547.82
728.833	27517.77
729.175	27331.33
729.516	27380.14
729.858	27392.57
730.199	27316.64
730.541	27320.93
730.882	27209.52
731.224	27144.67
731.565	27076.65
731.906	27144.67
732.248	27096.53
732.589	26917.1
732.93	26906.48
733.271	26862.42
733.612	26913.04
733.953	26930.66
734.294	26808.18
734.635	26744.23
734.976	26827.16
735.317	26665.81
735.658	26741.29
735.999	26590.33
736.339	26629.65
736.68	26656.09
737.021	26530.22
737.361	26364.35
737.702	26553.95
738.042	26375.65
738.383	26318.25
738.723	26395.31
739.063	26281.87
739.404	26244.35
739.744	26202.32
740.084	26170.91
740.424	26266.27
740.764	26071.02
741.104	26239.61
741.444	25838.04
741.784	25837.36
742.124	25914.87
742.464	25880.75
742.804	25814.31
743.143	25758.49
743.483	25793.97
743.823	25662.9
744.162	25664.93
744.502	25680.53
744.841	25561.66
745.181	25661.99
745.52	25467.65
745.86	25541.77
746.199	25408.89
746.538	25370.7
746.877	25413.19
747.216	25310.82
747.556	25237.83
747.895	25172.74
748.234	25186.75
748.573	25107.43
748.911	25155.12
749.25	25149.92
749.589	24914.22
749.928	24904.27
750.267	24950.6
750.605	24858.4
750.944	24674.45
751.283	24730.95
751.621	24735.01
751.96	24693.88
752.298	24617.95
752.636	24714.9
752.975	24406.89
753.313	24463.83
