Data from white_steel_sheet_FLMS001491_051.txt Node
Date: Tue Feb 07 10:58:04 GMT 2017
User: dcchb
Spectrometer: FLMS00149
Trigger mode: 0
Integration Time (sec): 2.000000E-2
Scans to average: 10
Electric dark correction enabled: true
Nonlinearity correction enabled: false
Boxcar width: 0
XAxis mode: Wavelengths
Number of Pixels in Spectrum: 2048
>>>>>Begin Spectral Data<<<<<
341.393	-15.21
341.776	-15.21
342.16	-15.21
342.543	-46.4
342.927	-63.12
343.31	-57.47
343.693	-60.41
344.077	-69
344.46	-64.93
344.843	-74.87
345.226	-52.05
345.61	-38.49
345.993	-26.74
346.376	4
346.759	16.43
347.142	31.57
347.525	45.8
347.908	47.39
348.291	93.26
348.674	87.84
349.057	117.67
349.44	117.89
349.823	131.45
350.206	174.16
350.588	211.9
350.971	234.27
351.354	244.89
351.737	242.18
352.119	263.2
352.502	265.91
352.884	284.67
353.267	296.19
353.65	326.25
354.032	295.51
354.414	286.93
354.797	300.26
355.179	337.1
355.562	324.21
355.944	346.13
356.326	347.04
356.709	342.97
357.091	341.39
357.473	357.43
357.855	356.53
358.238	356.08
358.62	333.71
359.002	339.13
359.384	343.42
359.766	351.11
360.148	351.33
360.53	368.51
360.912	333.93
361.294	335.51
361.676	358.11
362.057	359.69
362.439	349.07
362.821	356.98
363.203	328.96
363.584	338.23
363.966	317.21
364.348	338
364.729	325.12
365.111	338
365.493	309.98
365.874	321.5
366.256	321.05
366.637	333.03
367.019	338
367.4	321.73
367.781	330.54
368.163	325.34
368.544	323.31
368.925	333.03
369.306	342.75
369.688	325.12
370.069	331.9
370.45	342.75
370.831	321.05
371.212	324.89
371.593	325.12
371.974	354.04
372.355	330.09
372.736	335.97
373.117	346.36
373.498	345.01
373.879	368.51
374.26	345.46
374.641	324.44
375.021	349.07
375.402	332.58
375.783	334.84
376.163	339.36
376.544	368.06
376.925	361.95
377.305	355.17
377.686	362.41
378.066	340.94
378.447	359.24
378.827	363.99
379.208	349.07
379.588	376.42
379.968	377.55
380.349	368.06
380.729	370.99
381.109	358.11
381.489	373.48
381.87	361.73
382.25	393.37
382.63	366.25
383.01	371.9
383.39	387.49
383.77	373.25
384.15	391.56
384.53	385.46
384.91	403.08
385.29	388.85
385.67	390.2
386.049	393.59
386.429	413.03
386.809	410.09
387.189	401.73
387.568	414.61
387.948	422.74
388.328	417.32
388.707	426.81
389.087	429.07
389.466	415.96
389.846	425.91
390.225	441.05
390.605	442.63
390.984	441.73
391.363	442.4
391.743	444.44
392.122	454.15
392.501	455.96
392.881	476.75
393.26	465.23
393.639	468.39
394.018	467.26
394.397	472.01
394.776	496.64
395.155	494.15
395.534	499.13
395.913	500.26
396.292	525.34
396.671	513.81
397.05	518.56
397.429	525.34
397.808	535.73
398.186	531.67
398.565	536.41
398.944	557.88
399.323	550.2
399.701	561.04
400.08	571.89
400.458	569.86
400.837	575.96
401.215	610.99
401.594	595.17
401.972	608.73
402.351	617.99
402.729	608.05
403.107	606.02
403.486	637.65
403.864	622.06
404.242	653.25
404.62	651.44
404.999	690.08
405.377	665.67
405.755	674.49
406.133	738.89
406.511	700.25
406.889	727.14
407.267	742.28
407.645	757.65
408.023	755.16
408.401	756.75
408.779	781.83
409.156	806.01
409.534	804.43
409.912	810.98
410.29	859.12
410.667	822.96
411.045	873.58
411.422	868.83
411.8	895.27
412.178	910.87
412.555	926.91
412.933	919.23
413.31	940.02
413.687	934.14
414.065	961.49
414.442	950.64
414.819	1003.29
415.197	1005.55
415.574	996.97
415.951	1003.07
416.328	1023.41
416.705	1025.67
417.082	1049.85
417.46	1075.16
417.837	1077.42
418.214	1085.1
418.591	1128.49
418.967	1099.34
419.344	1110.41
419.721	1133.01
420.098	1135.49
420.475	1165.55
420.852	1174.14
421.228	1159.45
421.605	1191.76
421.982	1205.1
422.358	1227.02
422.735	1183.63
423.111	1221.82
423.488	1245.55
423.864	1247.81
424.241	1284.87
424.617	1274.47
424.994	1298.43
425.37	1301.59
425.746	1316.5
426.123	1335.04
426.499	1372.77
426.875	1371.42
427.251	1396.05
427.627	1422.94
428.003	1451.87
428.379	1440.12
428.756	1431.53
429.132	1493.9
429.507	1496.61
429.883	1513.34
430.259	1534.8
430.635	1544.75
431.011	1568.02
431.387	1617.29
431.763	1675.14
432.138	1643.05
432.514	1655.03
432.89	1683.73
433.265	1722.6
433.641	1739.32
434.016	1758.3
434.392	1766.89
434.767	1775.7
435.143	1796.04
435.518	1831.07
435.894	1862.25
436.269	1878.52
436.644	1895.92
437.02	1931.4
437.395	1918.75
437.77	1980.67
438.145	1968.01
438.52	2041.01
438.895	2036.94
439.271	2048.46
439.646	2068.58
440.021	2088.91
440.395	2082.81
440.77	2135.47
441.145	2152.42
441.52	2155.58
441.895	2150.38
442.27	2207.55
442.645	2198.06
443.019	2222.7
443.394	2235.8
443.769	2248.23
444.143	2257.5
444.518	2300.43
444.892	2279.19
445.267	2337.72
445.641	2366.19
446.016	2359.19
446.39	2345.4
446.764	2366.42
447.139	2405.74
447.513	2467.89
447.887	2474.67
448.262	2482.8
448.636	2460.66
449.01	2503.14
449.384	2553.53
449.758	2555.12
450.132	2603.93
450.506	2594.89
450.88	2628.79
451.254	2610.71
451.628	2682.8
452.002	2724.15
452.376	2727.32
452.75	2767.09
453.123	2779.97
453.497	2846.86
453.871	2864.03
454.244	2894.99
454.618	2881.44
454.992	2950.81
455.365	2987.2
455.739	3013.86
456.112	3039.85
456.486	3113.07
456.859	3108.32
457.232	3153.07
457.606	3161.88
457.979	3224.93
458.352	3249.79
458.725	3303.8
459.099	3338.37
459.472	3422.44
459.845	3393.29
460.218	3455.88
460.591	3484.36
460.964	3523.9
461.337	3607.07
461.71	3670.79
462.083	3683.45
462.456	3674.41
462.829	3711.92
463.201	3788.08
463.574	3785.82
463.947	3876.21
464.32	3919.15
464.692	3941.52
465.065	3957.57
465.438	4048.18
465.81	4124.79
466.183	4134.74
466.555	4233.26
466.928	4251.79
467.3	4242.76
467.672	4368.4
468.045	4428.06
468.417	4459.7
468.789	4498.12
469.161	4557.78
469.534	4622.18
469.906	4714.38
470.278	4726.36
470.65	4790.99
471.022	4895.85
471.394	4964.32
471.766	4976.97
472.138	5095.84
472.51	5180.13
472.882	5300.58
473.253	5362.73
473.625	5387.36
473.997	5498.54
474.369	5538.99
474.74	5621.48
475.112	5750.06
475.484	5788.03
475.855	5941.69
476.227	5936.27
476.598	6091.75
476.97	6133.33
477.341	6284.28
477.713	6355.92
478.084	6422.81
478.455	6676.59
478.827	6731.96
479.198	6889.69
479.569	6890.6
479.94	7106.18
480.311	7105.28
480.682	7313.64
481.053	7466.17
481.424	7608.32
481.795	7677.02
482.166	7735.09
482.537	7860.29
482.908	8097.57
483.279	8150.68
483.65	8284.23
484.021	8463.89
484.391	8535.52
484.762	8627.27
485.133	8638.12
485.503	8822.07
485.874	8985
486.244	9112.46
486.615	9271.32
486.985	9324.66
487.356	9576.4
487.726	9622.73
488.097	9840.8
488.467	9823.63
488.837	10055.03
489.207	10165.99
489.578	10267.91
489.948	10408.47
490.318	10640.33
490.688	10560.1
491.058	10774.79
491.428	10903.6
491.798	11027.66
492.168	11295.45
492.538	11334.32
492.908	11474.66
493.278	11609.57
493.648	11659.06
494.017	11838.26
494.387	11932.72
494.757	12077.13
495.126	12102.21
495.496	12206.16
495.866	12267.18
496.235	12446.83
496.605	12646.15
496.974	12645.92
497.344	12852.92
497.713	12898.8
498.082	12941.28
498.452	13097.44
498.821	13201.39
499.19	13221.73
499.559	13365.91
499.928	13485.22
500.298	13565.9
500.667	13701.94
501.036	13705.56
501.405	13859.23
501.774	13873.91
502.143	14060.58
502.512	14089.73
502.88	14256.96
503.249	14271.87
503.618	14361.36
503.987	14456.05
504.356	14649.49
504.724	14693.78
505.093	14739.65
505.462	14804.51
505.83	15019.42
506.199	15072.53
506.567	15253.09
506.936	15312.52
507.304	15500.99
507.672	15640.42
508.041	15657.14
508.409	15809.68
508.777	15867.08
509.145	16021.2
509.514	15990.24
509.882	16135.55
510.25	16229.11
510.618	16397.92
510.986	16593.39
511.354	16653.5
511.722	16776.21
512.09	17001.97
512.458	16996.09
512.826	17175.52
513.193	17255.97
513.561	17251.23
513.929	17536.19
514.297	17722.4
514.664	17743.19
515.032	17812.34
515.4	18053.47
515.767	18095.95
516.135	18337.98
516.502	18201.71
516.869	18651.64
517.237	18598.76
517.604	18632.66
517.972	18849.83
518.339	18997.62
518.706	19135.92
519.073	19159.43
519.44	19351.51
519.808	19524.16
520.175	19622.69
520.542	19815.68
520.909	19969.12
521.276	19980.19
521.643	20229
522.009	20352.16
522.376	20552.84
522.743	20679.16
523.11	20880.96
523.477	21085.48
523.843	21301.52
524.21	21412.93
524.577	21545.8
524.943	21665.35
525.31	21778.11
525.676	22028.73
526.043	22144.43
526.409	22348.27
526.776	22542.16
527.142	22557.75
527.508	22826.67
527.874	22913.45
528.241	23108.25
528.607	23152.09
528.973	23465.98
529.339	23426.43
529.705	23674.34
530.071	23871.39
530.437	23946.64
530.803	24047.88
531.169	24264.83
531.535	24369.01
531.901	24460.08
532.267	24579.4
532.632	24798.83
532.998	24937.35
533.364	25042.21
533.73	25040.63
534.095	25284.91
534.461	25442.42
534.826	25496.43
535.192	25597.45
535.557	25796.77
535.923	25725.81
536.288	25959.7
536.653	25989.53
537.019	26032.69
537.384	26328.05
537.749	26312.01
538.114	26366.02
538.479	26393.13
538.845	26567.82
539.21	26692.56
539.575	26762.16
539.94	26920.13
540.305	27108.14
540.67	27054.81
541.034	27135.71
541.399	27344.07
541.764	27336.39
542.129	27465.2
542.494	27512.88
542.858	27611.86
543.223	27650.28
543.587	27945.64
543.952	27974.34
544.316	28048.01
544.681	28083.71
545.045	28238.96
545.41	28343.36
545.774	28497.71
546.138	28392.86
546.503	28510.14
546.867	28668.33
547.231	28792.39
547.595	28834.43
547.959	28973.63
548.324	28998.94
548.688	29086.62
549.052	29185.83
549.416	29324.13
549.779	29351.25
550.143	29439.38
550.507	29623.56
550.871	29820.61
551.235	29707.17
551.599	29958.46
551.962	29932.48
552.326	30064
552.689	30222.86
553.053	30156.88
553.417	30296.99
553.78	30603.19
554.143	30638.22
554.507	30921.83
554.87	30885.44
555.234	31182.16
555.597	30991.66
555.96	31041.37
556.323	31372.44
556.686	31415.83
557.05	31640.23
557.413	31754.12
557.776	31917.28
558.139	31948.24
558.502	32078.18
558.865	32108.46
559.228	32406.76
559.59	32550.71
559.953	32572.63
560.316	32911.15
560.679	32890.14
561.041	33081.09
561.404	33209.9
561.767	33515.43
562.129	33451.03
562.492	33847.18
562.854	33693.51
563.217	33777.12
563.579	33986.83
563.941	34166.04
564.304	34250.1
564.666	34393.6
565.028	34595.4
565.39	34680.6
565.753	34693.25
566.115	34903.42
566.477	35139.12
566.839	35267.02
567.201	35408.26
567.563	35376.63
567.925	35663.85
568.287	35610.07
568.648	35758.76
569.01	36014.58
569.372	36249.15
569.734	36066.78
570.095	36374.57
570.457	36589.48
570.819	36629.7
571.18	36584.73
571.542	36926.64
571.903	36831.96
572.265	36968.9
572.626	36977.71
572.987	37165.28
573.349	37201.21
573.71	37418.83
574.071	37338.61
574.432	37587.64
574.794	37823.57
575.155	37776.34
575.516	37727.75
575.877	37878.03
576.238	37864.24
576.599	38092.94
576.96	37991.92
577.32	38061.53
577.681	38149.89
578.042	38409.31
578.403	38317.34
578.763	38431.91
579.124	38399.15
579.485	38528.86
579.845	38460.84
580.206	38449.31
580.566	38595.3
580.927	38621.29
581.287	38799.14
581.648	38667.16
582.008	38765.01
582.368	38751.23
582.728	38870.32
583.089	38675.52
583.449	38668.97
583.809	38862.64
584.169	38877.55
584.529	38738.12
584.889	39039.58
585.249	38779.93
585.609	38610.21
585.969	38878
586.329	38800.49
586.688	38945.12
587.048	38910.54
587.408	38778.34
587.768	38856.53
588.127	38872.35
588.487	38808.17
588.846	39142.18
589.206	38781.96
589.565	38764.33
589.925	39135.85
590.284	38955.97
590.643	38932.69
591.003	38979.02
591.362	39021.5
591.721	38851.56
592.08	38979.92
592.44	39046.36
592.799	38949.41
593.158	38967.72
593.517	38970.88
593.876	38863.09
594.235	38984.67
594.593	39001.16
594.952	39063.54
595.311	39036.87
595.67	39115.96
596.029	39290.65
596.387	39209.97
596.746	39172.46
597.104	39158
597.463	39212.23
597.822	39309.4
598.18	39068.96
598.538	39176.75
598.897	39359.12
599.255	39047.72
599.613	39569.96
599.972	39229.41
600.33	39185.57
600.688	39122.52
601.046	39263.76
601.404	39351.89
601.762	39311.66
602.12	39480.47
602.478	39320.7
602.836	39574.03
603.194	39209.29
603.552	39342.4
603.91	39252.23
604.268	39497.42
604.625	39360.48
604.983	39449.29
605.341	39222.63
605.698	39588.27
606.056	39567.48
606.413	39529.74
606.771	39760.92
607.128	39636.18
607.485	39593.24
607.843	39633.92
608.2	39792.56
608.557	39931.76
608.914	39834.59
609.272	40084.53
609.629	40169.72
609.986	40085.2
610.343	39979.22
610.7	40196.84
611.057	40184.86
611.414	40139.21
611.771	40136.95
612.127	40283.62
612.484	40258.53
612.841	40357.96
613.198	40240.91
613.554	40335.37
613.911	40524.97
614.267	40523.16
614.624	40418.98
614.98	40632.31
615.337	40686.77
615.693	40613.32
616.05	40624.17
616.406	40924.73
616.762	40675.24
617.118	40726.32
617.475	40692.19
617.831	40876.59
618.187	40876.37
618.543	40894.9
618.899	41034.33
619.255	41142.12
619.611	40979.64
619.967	41042.01
620.323	41000.66
620.678	40958.63
621.034	41013.09
621.39	40981.68
621.746	41033.43
622.101	41574.43
622.457	41147.55
622.812	41256.7
623.168	41313.42
623.523	41268.67
623.879	41418.73
624.234	41134.22
624.589	41279.97
624.945	41263.25
625.3	41320.88
625.655	41185.29
626.01	41174.67
626.365	41300.09
626.72	41237.49
627.075	41255.57
627.43	41212.41
627.785	41162.91
628.14	41270.03
628.495	41245.4
628.85	41124.05
629.205	41038.62
629.559	41235
629.914	41084.27
630.269	41103.26
630.623	41017.38
630.978	40906.88
631.332	41038.17
631.687	41012.18
632.041	40751.4
632.396	41010.15
632.75	40823.49
633.104	40776.03
633.459	40593.21
633.813	40664.4
634.167	40702.36
634.521	40609.03
634.875	40592.99
635.229	40604.74
635.583	40324.07
635.937	40373.78
636.291	40478.19
636.645	40254.01
636.999	40283.39
637.352	40280.23
637.706	40019.89
638.06	40408.58
638.413	40129.04
638.767	39988.93
639.121	40129.72
639.474	39919.78
639.828	39959.33
640.181	39856.28
640.534	39867.81
640.888	39815.83
641.241	39531.55
641.594	39720.69
641.947	39776.28
642.301	39582.84
642.654	39670.98
643.007	39495.61
643.36	39453.36
643.713	39449.97
644.066	39457.2
644.419	39206.81
644.771	39043.2
645.124	38626.94
645.477	38508.52
645.83	38269.88
646.182	38232.6
646.535	38040.51
646.888	38174.07
647.24	37957.58
647.593	38247.96
647.945	38000.96
648.298	37970.23
648.65	37796.9
649.002	37797.35
649.355	37949.67
649.707	37662.67
650.059	37951.02
650.411	38440.27
650.763	38348.07
651.115	38803.43
651.467	38604.34
651.819	38638.24
652.171	38534.51
652.523	38408.64
652.875	38509.88
653.227	38299.71
653.578	38657.22
653.93	38410.22
654.282	38311.24
654.633	38229.66
654.985	38355.08
655.337	38284.8
655.688	38259.04
656.039	38350.33
656.391	38053.84
656.742	38045.93
657.094	38147.17
657.445	38259.94
657.796	38196.21
658.147	38093.39
658.498	37932.49
658.849	38163.22
659.2	37871.7
659.551	37828.31
659.902	37905.15
660.253	37895.2
660.604	37857.69
660.955	37660.41
661.306	37713.51
661.656	37722.33
662.007	37547.42
662.358	37668.32
662.708	37462.22
663.059	37477.81
663.409	37210.02
663.76	37509
664.11	37295.45
664.461	37358.5
664.811	37280.31
665.161	37142.68
665.511	37048.45
665.862	37018.39
666.212	37197.14
666.562	37029.69
666.912	36996.02
667.262	36766.87
667.612	36759.41
667.962	36661.79
668.312	36418.18
668.662	36689.13
669.011	36448.46
669.361	36314.91
669.711	36289.82
670.06	36227.45
670.41	36099.32
670.76	35935.93
671.109	36026.33
671.459	36035.59
671.808	35934.35
672.157	36024.74
672.507	35629.05
672.856	35626.79
673.205	35603.74
673.554	35882.38
673.904	35480.13
674.253	35706.11
674.602	35467.92
674.951	34914.49
675.3	34636.53
675.649	35350.41
675.998	35378.43
676.346	35310.64
676.695	35295.95
677.044	34998.33
677.393	35005.11
677.741	35050.99
678.09	35026.13
678.438	35002.17
678.787	35053.24
679.135	34997.65
679.484	34795.85
679.832	34949.07
680.181	34891.22
680.529	34938.22
680.877	34756.53
681.225	34708.62
681.573	34984.77
681.922	34747.49
682.27	34700.26
682.618	34699.13
682.966	34661.62
683.314	34873.81
683.661	34621.39
684.009	34567.61
684.357	34533.71
684.705	34620.71
685.053	34632.01
685.4	34568.74
685.748	34606.03
686.095	34538.68
686.443	34475.63
686.79	34437.22
687.138	34492.58
687.485	34528.29
687.832	34427.5
688.18	34547.04
688.527	34382.98
688.874	34567.83
689.221	34536.65
689.568	34396.54
689.915	34330.78
690.262	34419.59
690.609	34245.58
690.956	34192.7
691.303	34184.12
691.65	34038.13
691.997	34148.64
692.344	33958.81
692.69	33977.34
693.037	34088.98
693.383	33815.54
693.73	33948.42
694.077	33749.78
694.423	33862.54
694.769	33799.04
695.116	33740.51
695.462	33724.24
695.808	33491.48
696.155	33688.54
696.501	33433.63
696.847	33488.54
697.193	33330.35
697.539	33407.86
697.885	33038.38
698.231	33071.38
698.577	33055.78
698.923	32986.86
699.269	32844.94
699.614	32735.34
699.96	32686.08
700.306	32605.17
700.651	32628
700.997	32478.85
701.342	32302.13
701.688	32299.19
702.033	32422.81
702.379	32298.29
702.724	32181.23
703.069	32207.67
703.415	31878.87
703.76	31903.95
704.105	31978.52
704.45	31833.22
704.795	31741.47
705.14	31605.2
705.485	31547.35
705.83	31483.62
706.175	31555.94
706.52	31312.33
706.865	31202.5
707.209	31272.55
707.554	31179.22
707.899	31191.43
708.243	30964.99
708.588	30974.93
708.932	30833.92
709.277	30922.51
709.621	30930.42
709.966	30619.69
710.31	30752.34
710.654	30332.47
710.998	30454.5
711.342	30465.57
711.687	30367.72
712.031	30206.37
712.375	30188.97
712.719	30159.36
713.063	30082.75
713.407	30096.31
713.75	30091.12
714.094	29870.56
714.438	29900.39
714.782	29847.51
715.125	29791.69
715.469	29812.03
715.812	29646.16
716.156	29462.43
716.499	29475.99
716.843	29477.8
717.186	29357.35
717.53	29457.91
717.873	29410.23
718.216	29233.29
718.559	29294.07
718.902	29034.65
719.246	29071.93
719.589	28985.61
719.932	28849.11
720.275	28900.64
720.617	28912.62
720.96	28819.74
721.303	28800.75
721.646	28783.35
721.989	28512.63
722.331	28638.05
722.674	28443.02
723.016	28465.17
723.359	28424.04
723.701	28515.79
724.044	28350.37
724.386	28222.92
724.729	28336.36
725.071	28322.12
725.413	28228.34
725.755	28217.49
726.097	28082.35
726.439	27996.71
726.782	27919.87
727.124	28147.89
727.465	27888.91
727.807	27770.27
728.149	27897.95
728.491	27817.73
728.833	27787.45
729.175	27677.62
729.516	27540
729.858	27541.13
730.199	27539.32
730.541	27593.55
730.882	27513.78
731.224	27551.52
731.565	27458.42
731.906	27387.46
732.248	27391.98
732.589	27037.86
732.93	27145.66
733.271	27159.22
733.612	27083.06
733.953	27122.38
734.294	27025.66
734.635	27085.54
734.976	26917.19
735.317	26803.52
735.658	26895.27
735.999	26777.08
736.339	26782.73
736.68	26943.4
737.021	26740.02
737.361	26655.73
737.702	26814.82
738.042	26609.85
738.383	26471.55
738.723	26553.58
739.063	26480.36
739.404	26617.53
739.744	26376.86
740.084	26354.04
740.424	26452.79
740.764	26319.46
741.104	26376.86
741.444	26230.2
741.784	26090.54
742.124	26166.47
742.464	26165.34
742.804	26081.5
743.143	25889.19
743.483	26079.92
743.823	25876.09
744.162	25910.21
744.502	25930.77
744.841	25791.57
745.181	25822.08
745.52	25770.33
745.86	25808.52
746.199	25699.82
746.538	25601.06
746.877	25581.86
747.216	25615.75
747.556	25499.37
747.895	25487.62
748.234	25374.4
748.573	25314.52
748.911	25300.06
749.25	25272.49
749.589	25067.74
749.928	25185.71
750.267	25132.15
750.605	25055.99
750.944	24982.55
751.283	25051.47
751.621	25051.47
751.96	24846.51
752.298	24772.84
752.636	24842.44
752.975	24797.24
753.313	24659.62
