Data from whiteboard_FLMS001491_00004.txt Node
Date: Wed Feb 08 11:24:55 GMT 2017
User: dcchb
Spectrometer: FLMS00149
Trigger mode: 0
Integration Time (sec): 2.000000E-2
Scans to average: 10
Electric dark correction enabled: true
Nonlinearity correction enabled: false
Boxcar width: 0
XAxis mode: Wavelengths
Number of Pixels in Spectrum: 2048
>>>>>Begin Spectral Data<<<<<
341.393	1.48
341.776	1.48
342.16	1.48
342.543	-69.93
342.927	-60.21
343.31	-64.05
343.693	-55.69
344.077	-61.11
344.46	-63.37
344.843	-39.19
345.226	-46.88
345.61	-17.5
345.993	-19.53
346.376	-8.46
346.759	-7.56
347.142	28.83
347.525	25.89
347.908	54.36
348.291	75.61
348.674	87.81
349.057	110.86
349.44	133
349.823	138.43
350.206	179.56
350.588	212.1
350.971	249.39
351.354	264.3
351.737	275.6
352.119	294.36
352.502	304.98
352.884	319.67
353.267	330.51
353.65	328.71
354.032	323.73
354.414	345.88
354.797	347.46
355.179	351.98
355.562	378.2
355.944	369.16
356.326	375.48
356.709	365.77
357.091	394.47
357.473	371.87
357.855	403.05
358.238	370.51
358.62	388.14
359.002	392.66
359.384	382.94
359.766	369.83
360.148	407.35
360.53	377.52
360.912	383.62
361.294	363.96
361.676	376.39
362.057	379.33
362.439	388.14
362.821	362.38
363.203	372.09
363.584	360.8
363.966	378.42
364.348	380.46
364.729	386.33
365.111	373.45
365.493	371.42
365.874	372.32
366.256	373
366.637	376.84
367.019	382.26
367.4	381.36
367.781	394.69
368.163	385.65
368.544	387.01
368.925	380.46
369.306	395.14
369.688	368.7
370.069	399.21
370.45	387.01
370.831	410.06
371.212	386.78
371.593	386.33
371.974	382.04
372.355	387.01
372.736	400.57
373.117	392.89
373.498	389.95
373.879	408.93
374.26	399.89
374.641	389.95
375.021	398.99
375.402	398.53
375.783	393.34
376.163	427.23
376.544	423.17
376.925	416.84
377.305	435.82
377.686	414.81
378.066	441.7
378.447	436.27
378.827	446.44
379.208	443.96
379.588	456.61
379.968	442.6
380.349	454.13
380.729	437.18
381.109	454.35
381.489	429.72
381.87	455.71
382.25	447.12
382.63	461.58
383.01	455.03
383.39	472.21
383.77	475.82
384.15	483.28
384.53	484.63
384.91	476.05
385.29	507.46
385.67	481.24
386.049	535.71
386.429	531.41
386.809	518.31
387.189	513.79
387.568	537.74
387.948	509.27
388.328	545.2
388.707	550.17
389.087	565.31
389.466	560.79
389.846	560.79
390.225	595.59
390.605	575.71
390.984	591.3
391.363	585.42
391.743	594.01
392.122	613.9
392.501	600.34
392.881	606.21
393.26	615.25
393.639	647.34
394.018	629.26
394.397	649.38
394.776	635.36
395.155	673.78
395.534	652.77
395.913	648.92
396.292	672.88
396.671	690.28
397.05	689.83
397.429	682.82
397.808	707.91
398.186	731.41
398.565	720.33
398.944	742.48
399.323	740.45
399.701	773.44
400.08	764.85
400.458	780.45
400.837	782.71
401.215	814.34
401.594	822.48
401.972	837.39
402.351	836.94
402.729	870.61
403.107	852.99
403.486	895.47
403.864	875.58
404.242	908.8
404.62	921.01
404.999	923.27
405.377	963.27
405.755	963.94
406.133	977.5
406.511	1005.07
406.889	1010.95
407.267	1028.35
407.645	1049.82
408.023	1084.84
408.401	1107.44
408.779	1110.15
409.156	1143.15
409.534	1155.35
409.912	1152.87
410.29	1201.68
410.667	1202.58
411.045	1230.83
411.422	1240.32
411.8	1251.62
412.178	1290.71
412.555	1341.11
412.933	1321.22
413.31	1380.43
413.687	1383.59
414.065	1392.41
414.442	1448.45
414.819	1455
415.197	1458.39
415.574	1526.87
415.951	1513.99
416.328	1535
416.705	1527.54
417.082	1536.36
417.46	1603.47
417.837	1617.49
418.214	1642.57
418.591	1610.03
418.967	1676.92
419.344	1685.51
419.721	1685.51
420.098	1714.43
420.475	1769.12
420.852	1725.96
421.228	1777.03
421.605	1779.97
421.982	1857.93
422.358	1818.38
422.735	1890.7
423.111	1887.76
423.488	1904.94
423.864	1930.47
424.241	1951.26
424.617	2004.59
424.994	1994.65
425.37	2003.24
425.746	2020.41
426.123	2058.6
426.499	2065.84
426.875	2110.81
427.251	2134.31
427.627	2207.75
428.003	2199.17
428.379	2269.22
428.756	2286.85
429.132	2337.69
429.507	2376.11
429.883	2346.96
430.259	2418.82
430.635	2432.15
431.011	2494.75
431.387	2528.2
431.763	2588.08
432.138	2593.73
432.514	2605.71
432.89	2658.14
433.265	2690
433.641	2736.1
434.016	2811.13
434.392	2792.37
434.767	2850.67
435.143	2897.9
435.518	2914.85
435.894	2981.07
436.269	3007.51
436.644	3031.46
437.02	3086.37
437.395	3076.66
437.77	3130.89
438.145	3184
438.52	3194.17
438.895	3278.46
439.271	3287.05
439.646	3355.29
440.021	3373.37
440.395	3395.52
440.77	3361.39
441.145	3391.9
441.52	3456.99
441.895	3518.23
442.27	3540.37
442.645	3538.57
443.019	3604.1
443.394	3600.26
443.769	3668.96
444.143	3634.83
444.518	3721.61
444.892	3728.62
445.267	3758.45
445.641	3772.46
446.016	3807.26
446.39	3848.39
446.764	3858.78
447.139	3885.67
447.513	3914.37
447.887	3943.53
448.262	3995.73
448.636	3983.53
449.01	4057.87
449.384	4082.96
449.758	4161.6
450.132	4218.1
450.506	4198.43
450.88	4235.5
451.254	4265.1
451.628	4315.49
452.002	4327.24
452.376	4441.82
452.75	4470.07
453.123	4496.05
453.497	4552.32
453.871	4606.56
454.244	4735.6
454.618	4770.85
454.992	4833.67
455.365	4832.09
455.739	4998.19
456.112	5000.22
456.486	5043.61
456.859	5112.99
457.232	5244.96
457.606	5212.42
457.979	5296.03
458.352	5385.75
458.725	5443.6
459.099	5508.23
459.472	5612.41
459.845	5626.87
460.218	5765.63
460.591	5772.86
460.964	5828
461.337	5952.96
461.71	6066.86
462.083	6125.84
462.456	6152.51
462.829	6193.41
463.201	6317.7
463.574	6397.7
463.947	6449
464.32	6608.77
464.692	6642.89
465.065	6713.85
465.438	6761.53
465.81	6919.27
466.183	6943
466.555	7154.29
466.928	7176.44
467.3	7194.06
467.672	7302.99
468.045	7531.68
468.417	7548.4
468.789	7551.34
469.161	7683.31
469.534	7859.36
469.906	7985.45
470.278	8062.51
470.65	8174.83
471.022	8419.11
471.394	8503.41
471.766	8550.41
472.138	8686.9
472.51	8905.88
472.882	9076.5
473.253	9159.89
473.625	9229.49
473.997	9442.59
474.369	9539.99
474.74	9637.61
475.112	9856.37
475.484	10022.01
475.855	10220.2
476.227	10200.76
476.598	10578.61
476.97	10686.4
477.341	10897.02
477.713	11047.75
478.084	11124.35
478.455	11407.06
478.827	11557.56
479.198	11927.05
479.569	11913.03
479.94	12302.85
480.311	12421.95
480.682	12755.05
481.053	13007.02
481.424	13183.51
481.795	13264.19
482.166	13461.24
482.537	13657.85
482.908	14037.5
483.279	14085.18
483.65	14396.58
484.021	14618.73
484.391	14872.28
484.762	14991.37
485.133	15197.92
485.503	15331.25
485.874	15652.37
486.244	15961.97
486.615	16043.1
486.985	16326.7
487.356	16660.71
487.726	16747.71
488.097	17119.45
488.467	17292.1
488.837	17576.84
489.207	17783.39
489.578	18078.07
489.948	18245.52
490.318	18558.06
490.688	18623.37
491.058	19057.93
491.428	19089.34
491.798	19403.01
492.168	19779.72
492.538	19960.73
492.908	20055.87
493.278	20360.27
493.648	20419.03
494.017	20656.31
494.387	20903.08
494.757	21125.22
495.126	21396.85
495.496	21367.93
495.866	21544.19
496.235	21888.59
496.605	22026.44
496.974	22195.7
497.344	22455.81
497.713	22617.61
498.082	22762.01
498.452	22964.27
498.821	23089.24
499.19	23114.1
499.559	23383.47
499.928	23502.11
500.298	23646.29
500.667	23950.46
501.036	23881.53
501.405	24216.89
501.774	24213.5
502.143	24458.69
502.512	24585.47
502.88	24898.91
503.249	24862.3
503.618	24982.07
503.987	25103.87
504.356	25375.96
504.724	25500.25
505.093	25553.35
505.462	25762.84
505.83	25912.89
506.199	26175.94
506.567	26574.57
506.936	26461.35
507.304	26917.61
507.672	26949.93
508.041	27213.87
508.409	27367.54
508.777	27655.45
509.145	27808.21
509.514	27859.73
509.882	28157.35
510.25	28183.57
510.618	28562.54
510.986	28528.64
511.354	28922.98
511.722	29128.4
512.09	29495.4
512.458	29490.43
512.826	29649.97
513.193	30029.62
513.561	29971.09
513.929	30258.54
514.297	30589.61
514.664	30797.74
515.032	30855.36
515.4	31203.15
515.767	31356.59
516.135	31611.27
516.502	31470.03
516.869	32001.77
517.237	32249.45
517.604	32192.95
517.972	32493.28
518.339	32809.66
518.706	32795.42
519.073	33123.78
519.44	33371.68
519.808	33562.41
520.175	33729.64
520.542	34060.7
520.909	34121.49
521.276	34287.36
521.643	34659.55
522.009	34799.66
522.376	35053.89
522.743	35271.74
523.11	35699.53
523.477	35967.54
523.843	36058.39
524.21	36529.79
524.577	36730.46
524.943	36873.28
525.31	37132.94
525.676	37536.77
526.043	37574.28
526.409	37877.1
526.776	38274.6
527.142	38367.71
527.508	38610.64
527.874	38976.05
528.241	39090.62
528.607	39225.31
528.973	39639.54
529.339	39711.85
529.705	40236.58
530.071	40484.03
530.437	40569.68
530.803	40806.29
531.169	41157.24
531.535	40989.78
531.901	41269.1
532.267	41563.1
532.632	41863.21
532.998	41974.39
533.364	42230.88
533.73	42369.86
534.095	42714.71
534.461	42899.34
534.826	43054.36
535.192	43189.05
535.557	43507.91
535.923	43520.11
536.288	43739.09
536.653	43974.79
537.019	43826.55
537.384	44149.93
537.749	44340.2
538.114	44469.92
538.479	44521.22
538.845	44854.09
539.21	44740.19
539.575	44852.73
539.94	45076.23
540.305	45335.66
540.67	45250.91
541.034	45536.56
541.399	45542.88
541.764	45764.57
542.129	45831.92
542.494	46055.19
542.858	46081.63
543.223	46156.65
543.587	46375.86
543.952	46286.82
544.316	46572.24
544.681	46502.63
545.045	46720.93
545.41	46940.59
545.774	47066.91
546.138	47012.68
546.503	47092.22
546.867	47191.88
547.231	47366.34
547.595	47441.59
547.959	47605.2
548.324	47727.23
548.688	47740.57
549.052	47875.03
549.416	48075.7
549.779	48152.99
550.143	48217.62
550.507	48526.31
550.871	48647.89
551.235	48553.88
551.599	48952.96
551.962	48948.67
552.326	49056.01
552.689	49370.58
553.053	49085.84
553.417	49257.81
553.78	49792.72
554.143	49624.59
554.507	49808.53
554.87	50062.09
555.234	50287.17
555.597	50219.6
555.96	50378.46
556.323	50574.62
556.686	50689.42
557.05	50968.5
557.413	51080.14
557.776	51165.79
558.139	51416.4
558.502	51401.04
558.865	51595.83
559.228	51759.9
559.59	51938.42
559.953	52073.33
560.316	52417.96
560.679	52370.05
561.041	52580.44
561.404	52691.17
561.767	52935.01
562.129	52747.89
562.492	53168.45
562.854	53199.86
563.217	53209.35
563.579	53298.16
563.941	53579.96
564.304	53660.41
564.666	53769.11
565.028	53803.01
565.39	53935.88
565.753	54078.03
566.115	54107.4
566.477	54228.08
566.839	54295.65
567.201	54539.48
567.563	54464.46
567.925	54637.33
568.287	54696.32
568.648	54686.82
569.01	54867.61
569.372	55009.75
569.734	54892.92
570.095	55114.61
570.457	55191.67
570.819	55222.4
571.18	55194.38
571.542	55359.8
571.903	55470.08
572.265	55585.33
572.626	55577.2
572.987	55611.32
573.349	55757.31
573.71	55842.73
574.071	55940.8
574.432	56013.12
574.794	56030.74
575.155	56191.87
575.516	56108.26
575.877	56133.57
576.238	56310.28
576.599	56317.06
576.96	56400.9
577.32	56347.12
577.681	56508.25
578.042	56672.54
578.403	56601.12
578.763	56691.29
579.124	56704.17
579.485	56834.56
579.845	56892.87
580.206	56902.81
580.566	56922.7
580.927	56930.16
581.287	57015.58
581.648	56942.81
582.008	57052.86
582.368	57108.46
582.728	57146.87
583.089	57201.79
583.449	57244.27
583.809	57208.11
584.169	57249.92
584.529	57219.64
584.889	57416.92
585.249	57262.35
585.609	57192.52
585.969	57402.23
586.329	57310.48
586.688	57369.69
587.048	57336.25
587.408	57280.88
587.768	57286.98
588.127	57351.39
588.487	57299.19
588.846	57479.29
589.206	57240.66
589.565	57340.09
589.925	57443.14
590.284	57321.11
590.643	57364.95
591.003	57453.53
591.362	57458.96
591.721	57341.9
592.08	57419.63
592.44	57468.9
592.799	57442.01
593.158	57345.96
593.517	57345.74
593.876	57414.21
594.235	57321.56
594.593	57432.52
594.952	57405.85
595.311	57394.78
595.67	57420.31
596.029	57620.31
596.387	57521.33
596.746	57515.45
597.104	57398.62
597.463	57401.56
597.822	57531.5
598.18	57393.65
598.538	57392.29
598.897	57641.32
599.255	57481.33
599.613	57742.11
599.972	57612.4
600.33	57606.07
600.688	57572.4
601.046	57682.9
601.404	57676.35
601.762	57696.69
602.12	57856.91
602.478	57841.09
602.836	57844.03
603.194	57655.79
603.552	57779.17
603.91	57636.13
604.268	57827.08
604.625	57736.91
604.983	57886.06
605.341	57666.63
605.698	57878.38
606.056	57936
606.413	57841.77
606.771	57964.48
607.128	58079.73
607.485	57914.76
607.843	57988.43
608.2	58091.03
608.557	58164.02
608.914	58121.76
609.272	58258.93
609.629	58270.01
609.986	58349.1
610.343	58224.13
610.7	58403.34
611.057	58367.63
611.414	58348.65
611.771	58334.64
612.127	58431.36
612.484	58431.13
612.841	58448.53
613.198	58392.94
613.554	58428.65
613.911	58582.09
614.267	58558.59
614.624	58517.46
614.98	58567.4
615.337	58666.61
615.693	58572.82
616.05	58571.47
616.406	58753.38
616.762	58558.36
617.118	58635.87
617.475	58628.64
617.831	58756.77
618.187	58774.4
618.543	58747.28
618.899	58809.2
619.255	58753.84
619.611	58796.55
619.967	58834.96
620.323	58833.38
620.678	58781.18
621.034	58808.3
621.39	58825.7
621.746	58794.97
622.101	59089.19
622.457	58806.72
622.812	58881.74
623.168	58947.96
623.523	58912.02
623.879	58992.25
624.234	58854.85
624.589	58945.7
624.945	58920.61
625.3	58985.47
625.655	58894.17
626.01	58942.31
626.365	58925.58
626.72	58847.17
627.075	58841.52
627.43	58869.77
627.785	58830.9
628.14	58897.34
628.495	58871.57
628.85	58872.93
629.205	58729.2
629.559	58945.47
629.914	58838.81
630.269	58794.29
630.623	58728.3
630.978	58620.05
631.332	58806.04
631.687	58800.39
632.041	58612.15
632.396	58662.54
632.75	58604.69
633.104	58612.6
633.459	58400.63
633.813	58453.96
634.167	58454.18
634.521	58469.78
634.875	58404.69
635.229	58329.44
635.583	58201.31
635.937	58232.72
636.291	58204.02
636.645	58158.37
636.999	58075.21
637.352	58088.54
637.706	57965.61
638.06	58130.35
638.413	58039.28
638.767	57896.68
639.121	57997.02
639.474	57842.67
639.828	57919.06
640.181	57877.02
640.534	57879.06
640.888	57768.78
641.241	57698.95
641.594	57734.65
641.947	57763.58
642.301	57631.83
642.654	57657.59
643.007	57656.24
643.36	57629.12
643.713	57497.82
644.066	57625.73
644.419	57485.85
644.771	57350.03
645.124	57106.42
645.477	57129.92
645.83	56983.26
646.182	56896.94
646.535	56766.54
646.888	56749.14
647.24	56634.34
647.593	56770.61
647.945	56718.18
648.298	56633.21
648.65	56600.67
649.002	56475.7
649.355	56653.55
649.707	56610.62
650.059	56753.44
650.411	57088.34
650.763	57140.77
651.115	57341.67
651.467	57242.92
651.819	57224.84
652.171	57155.01
652.523	57114.33
652.875	57177.61
653.227	57056.25
653.578	57260.54
653.93	57088.8
654.282	57080.43
654.633	56962.92
654.985	57107.55
655.337	57068.23
655.688	56969.93
656.039	57138.06
656.391	56894.68
656.742	56953.66
657.094	56889.7
657.445	57016.71
657.796	56847.45
658.147	56851.74
658.498	56783.94
658.849	56782.81
659.2	56775.81
659.551	56715.25
659.902	56703.04
660.253	56687.9
660.604	56671.63
660.955	56573.55
661.306	56638.19
661.656	56505.76
662.007	56542.37
662.358	56437.51
662.708	56503.05
663.059	56389.83
663.409	56226.9
663.76	56410.4
664.11	56355.93
664.461	56381.24
664.811	56327.69
665.161	56291.75
665.511	56187.35
665.862	56186.9
666.212	56245.2
666.562	56210.4
666.912	56165.2
667.262	56110.97
667.612	56100.35
667.962	56116.17
668.312	56099.44
668.662	56088.14
669.011	56129.95
669.361	56027.35
669.711	55993.46
670.06	56011.99
670.41	55941.93
670.76	55877.53
671.109	56053.12
671.459	55967.7
671.808	55856.51
672.157	55957.53
672.507	55735.84
672.856	55782.84
673.205	55781.94
673.554	55946.68
673.904	55793.69
674.253	55865.55
674.602	55814.03
674.951	55373.36
675.3	55271.89
675.649	55692.22
675.998	55692.67
676.346	55662.17
676.695	55773.12
677.044	55460.82
677.393	55683.63
677.741	55774.25
678.09	55724.09
678.438	55604.09
678.787	55690.64
679.135	55589.4
679.484	55435.51
679.832	55529.51
680.181	55415.85
680.529	55412.23
680.877	55324.32
681.225	55324.32
681.573	55481.38
681.922	55306.02
682.27	55245.23
682.618	55184.44
682.966	55181.5
683.314	55161.16
683.661	55081.16
684.009	54887.27
684.357	54917.33
684.705	54842.3
685.053	54768.86
685.4	54704.68
685.748	54626.49
686.095	54663.77
686.443	54545.36
686.79	54560.27
687.138	54613.61
687.485	54461.07
687.832	54433.27
688.18	54425.81
688.527	54172.49
688.874	54149.66
689.221	54204.58
689.568	53994.19
689.915	53903.12
690.262	53948.77
690.609	53909.22
690.956	53650.47
691.303	53638.94
691.65	53444.82
691.997	53504.71
692.344	53309.46
692.69	53179.52
693.037	53219.97
693.383	53020.2
693.73	53120.54
694.077	52942.46
694.423	52858.4
694.769	52726.65
695.116	52666.76
695.462	52646.65
695.808	52564.62
696.155	52595.35
696.501	52339.09
696.847	52346.32
697.193	52142.94
697.539	52247.34
697.885	51953.34
698.231	51875.6
698.577	51908.59
698.923	51846
699.269	51631.31
699.614	51582.95
699.96	51466.57
700.306	51562.84
700.651	51265.45
700.997	51232.45
701.342	51130.53
701.688	51088.73
702.033	50981.16
702.379	51098.9
702.724	50827.04
703.069	50998.11
703.415	50627.5
703.76	50652.13
704.105	50534.84
704.45	50450.55
704.795	50314.96
705.14	50233.16
705.485	50128.07
705.83	50058.47
706.175	50082.43
706.52	49784.58
706.865	49790.46
707.209	49626.39
707.554	49675.21
707.899	49734.41
708.243	49506.17
708.588	49442.67
708.932	49170.81
709.277	49278.61
709.621	49292.62
709.966	48951.83
710.31	49101.89
710.654	48729.24
710.998	48851.95
711.342	48919.74
711.687	48682.01
712.031	48497.83
712.375	48366.09
712.719	48457.16
713.063	48299.87
713.407	48374
713.75	48130.39
714.094	48161.8
714.438	47910.96
714.782	47977.4
715.125	47721.58
715.469	47836.38
715.812	47637.97
716.156	47503.51
716.499	47557.52
716.843	47435.72
717.186	47001.6
717.53	47208.83
717.873	47141.26
718.216	46983.3
718.559	46908.05
718.902	46646.36
719.246	46762.29
719.589	46621.27
719.932	46384.22
720.275	46403.88
720.617	46255.41
720.96	46192.36
721.303	46194.84
721.646	46078.46
721.989	45941.07
722.331	46085.24
722.674	45890.22
723.016	45838.24
723.359	45845.02
723.701	45748.53
724.044	45500.63
724.386	45325.04
724.729	45571.36
725.071	45243.68
725.413	45360.74
725.755	45134.76
726.097	45066.51
726.439	44979.51
726.782	44937.02
727.124	45109.9
727.465	44777.03
727.807	44882.34
728.149	44781.32
728.491	44580.2
728.833	44560.76
729.175	44553.98
729.516	44472.4
729.858	44280.09
730.199	44353.76
730.541	44306.31
730.882	44243.94
731.224	44207.78
731.565	44041.68
731.906	44056.82
732.248	43922.36
732.589	43708.81
732.93	43586.1
733.271	43585.65
733.612	43667.91
733.953	43640.56
734.294	43566.44
734.635	43409.83
734.976	43613.67
735.317	43302.72
735.658	43451.41
735.999	43207.13
736.339	43344.98
736.68	43276.96
737.021	43251.42
737.361	43014.36
737.702	43166.68
738.042	43078.32
738.383	42927.13
738.723	42988.15
739.063	42860.02
739.404	42823.18
739.744	42803.07
740.084	42561.72
740.424	42664.32
740.764	42594.49
741.104	42732.56
741.444	42482.17
741.784	42201.05
742.124	42411.89
742.464	42272.46
742.804	42156.31
743.143	42192.69
743.483	42028.4
743.823	41848.07
744.162	41812.59
744.502	41889.42
744.841	41741.4
745.181	41804.45
745.52	41638.13
745.86	41756.54
746.199	41517.45
746.538	41548.64
746.877	41565.81
747.216	41466.16
747.556	41424.35
747.895	41330.57
748.234	41210.34
748.573	40986.39
748.911	40980.07
749.25	40778.26
749.589	40578.5
749.928	40708.44
750.267	40762.67
750.605	40678.15
750.944	40527.2
751.283	40384.83
751.621	40499.18
751.96	40154.1
752.298	40140.77
752.636	40098.28
752.975	39924.28
