Data from whiteboard_FLMS001491_00031.txt Node
Date: Wed Feb 08 11:26:16 GMT 2017
User: dcchb
Spectrometer: FLMS00149
Trigger mode: 0
Integration Time (sec): 2.000000E-2
Scans to average: 10
Electric dark correction enabled: true
Nonlinearity correction enabled: false
Boxcar width: 0
XAxis mode: Wavelengths
Number of Pixels in Spectrum: 2048
>>>>>Begin Spectral Data<<<<<
341.393	-16.69
341.776	-16.69
342.16	-16.69
342.543	-51.5
342.927	-61.67
343.31	-57.15
343.693	-67.09
344.077	-76.35
344.46	-51.5
344.843	-62.79
345.226	-44.26
345.61	-20.99
345.993	-31.84
346.376	-9.24
346.759	15.85
347.142	28.5
347.525	39.8
347.908	44.09
348.291	96.07
348.674	84.32
349.057	112.57
349.44	116.41
349.823	136.52
350.206	150.53
350.588	251.55
350.971	244.32
351.354	287.03
351.737	295.84
352.119	278.89
352.502	289.29
352.884	312.79
353.267	314.14
353.65	329.74
354.032	332.67
354.414	347.59
354.797	342.17
355.179	372.45
355.562	368.38
355.944	369.74
356.326	387.81
356.709	363.41
357.091	380.13
357.473	380.58
357.855	391.2
358.238	373.35
358.62	368.61
359.002	388.94
359.384	412.67
359.766	387.14
360.148	389.4
360.53	389.17
360.912	395.27
361.294	373.8
361.676	386.23
362.057	400.92
362.439	398.44
362.821	394.37
363.203	373.35
363.584	374.48
363.966	394.37
364.348	387.14
364.729	368.61
365.111	377.19
365.493	380.81
365.874	367.7
366.256	381.04
366.637	380.36
367.019	359.79
367.4	385.78
367.781	374.48
368.163	378.1
368.544	368.61
368.925	401.6
369.306	379.45
369.688	380.13
370.069	395.05
370.45	377.42
370.831	384.2
371.212	408.38
371.593	391.2
371.974	392.56
372.355	408.83
372.736	398.66
373.117	402.5
373.498	396.63
373.879	408.38
374.26	400.7
374.641	402.28
375.021	407.48
375.402	428.04
375.783	402.73
376.163	427.36
376.544	423.07
376.925	428.27
377.305	441.37
377.686	395.27
378.066	441.15
378.447	429.4
378.827	428.94
379.208	444.99
379.588	433.01
379.968	440.24
380.349	442.5
380.729	454.48
381.109	446.12
381.489	467.59
381.87	446.8
382.25	469.62
382.63	477.53
383.01	474.14
383.39	486.57
383.77	471.43
384.15	496.96
384.53	497.42
384.91	494.25
385.29	498.09
385.67	502.39
386.049	509.39
386.429	515.72
386.809	500.81
387.189	528.83
387.568	517.08
387.948	524.53
388.328	552.56
388.707	547.36
389.087	558.21
389.466	556.62
389.846	552.33
390.225	565.66
390.605	564.76
390.984	565.66
391.363	586.23
391.743	576.74
392.122	606.57
392.501	622.84
392.881	604.53
393.26	616.06
393.639	626.9
394.018	615.38
394.397	666.68
394.776	666.45
395.155	654.93
395.534	658.77
395.913	669.62
396.292	696.96
396.671	731.76
397.05	713.46
397.429	710.07
397.808	725.21
398.186	731.99
398.565	738.54
398.944	746.9
399.323	779.67
399.701	782.38
400.08	776.05
400.458	788.71
400.837	812.44
401.215	829.84
401.594	829.61
401.972	837.29
402.351	861.25
402.729	892.89
403.107	909.83
403.486	896.73
403.864	879.55
404.242	900.12
404.62	924.52
404.999	944.18
405.377	983.73
405.755	986.89
406.133	1014.24
406.511	1028.48
406.889	1040.68
407.267	1054.24
407.645	1070.73
408.023	1118.87
408.401	1134.91
408.779	1144.63
409.156	1148.02
409.534	1173.1
409.912	1195.03
410.29	1232.31
410.667	1227.57
411.045	1254.91
411.422	1269.6
411.8	1278.19
412.178	1348.24
412.555	1341.91
412.933	1369.94
413.31	1415.81
413.687	1404.51
414.065	1429.37
414.442	1466.43
414.819	1500.33
415.197	1514.34
415.574	1542.13
415.951	1542.59
416.328	1536.03
416.705	1561.57
417.082	1612.19
417.46	1650.61
417.837	1639.31
418.214	1665.97
418.591	1688.57
418.967	1721.11
419.344	1747.33
419.721	1779.87
420.098	1763.37
420.475	1795.69
420.852	1846.53
421.228	1845.63
421.605	1861.22
421.982	1905.97
422.358	1899.64
422.735	1929.24
423.111	1950.94
423.488	1941.9
423.864	2023.48
424.241	2033.87
424.617	2074.32
424.994	2052.18
425.37	2076.13
425.746	2112.06
426.123	2153.42
426.499	2176.02
426.875	2193.19
427.251	2245.62
427.627	2293.98
428.003	2322
428.379	2323.13
428.756	2403.35
429.132	2442.45
429.507	2482
429.883	2471.6
430.259	2554.54
430.635	2545.05
431.011	2576.23
431.387	2633.63
431.763	2652.61
432.138	2717.24
432.514	2767.87
432.89	2768.09
433.265	2831.59
433.641	2845.6
434.016	2907.07
434.392	2956.11
434.767	3005.37
435.143	3006.5
435.518	3050.12
435.894	3112.04
436.269	3142.77
436.644	3190
437.02	3258.02
437.395	3222.54
437.77	3311.13
438.145	3363.33
438.52	3379.6
438.895	3412.37
439.271	3439.94
439.646	3450.56
440.021	3523.33
440.395	3571.23
440.77	3528.3
441.145	3612.14
441.52	3658.01
441.895	3683.32
442.27	3713.38
442.645	3704.79
443.019	3755.41
443.394	3799.02
443.769	3833.37
444.143	3812.13
444.518	3899.13
444.892	3883.32
445.267	3912.92
445.641	3986.36
446.016	4000.6
446.39	4021.84
446.764	4057.32
447.139	4053.03
447.513	4132.8
447.887	4171.44
448.262	4145.91
448.636	4185.23
449.01	4246.02
449.384	4318.56
449.758	4332.34
450.132	4404.66
450.506	4397.88
450.88	4470.87
451.254	4436.52
451.628	4500.7
452.002	4576.18
452.376	4622.28
452.75	4699.57
453.123	4750.64
453.497	4829.51
453.871	4809.62
454.244	4947.24
454.618	5002.61
454.992	5061.36
455.365	5039.22
455.739	5209.38
456.112	5276.27
456.486	5334.58
456.859	5347.91
457.232	5470.39
457.606	5435.59
457.979	5587.23
458.352	5682.82
458.725	5723.72
459.099	5754.45
459.472	5912.19
459.845	5993.09
460.218	6017.27
460.591	6069.7
460.964	6094.56
461.337	6277.6
461.71	6410.26
462.083	6455
462.456	6528.44
462.829	6498.61
463.201	6671.27
463.574	6703.13
463.947	6819.28
464.32	6949
464.692	6965.72
465.065	7042.1
465.438	7165.94
465.81	7288.88
466.183	7327.29
466.555	7572.03
466.928	7567.29
467.3	7614.07
467.672	7735.87
468.045	7935.86
468.417	7917.11
468.789	8085.69
469.161	8158.91
469.534	8328.62
469.906	8543.98
470.278	8552.57
470.65	8635.51
471.022	8837.76
471.394	8983.29
471.766	9047.93
472.138	9152.78
472.51	9403.17
472.882	9531.76
473.253	9731.98
473.625	9755.03
473.997	10071.4
474.369	10117.5
474.74	10216.71
475.112	10376.93
475.484	10663.25
475.855	10774.43
476.227	10819.63
476.598	11236.79
476.97	11300.3
477.341	11554.98
477.713	11751.13
478.084	11830.45
478.455	12175.75
478.827	12213.72
479.198	12773.25
479.569	12644.89
479.94	13032
480.311	13199.91
480.682	13561.03
481.053	13754.69
481.424	14035.82
481.795	14142.48
482.166	14352.87
482.537	14576.14
482.908	14923.48
483.279	15061.55
483.65	15291.83
484.021	15628.77
484.391	15848.2
484.762	15958.25
485.133	16162.77
485.503	16372.25
485.874	16766.37
486.244	16885.69
486.615	17271.89
486.985	17457.2
487.356	17838.88
487.726	17894.47
488.097	18166.33
488.467	18319.32
488.837	18692.19
489.207	19009.47
489.578	19193.2
489.948	19443.13
490.318	19754.54
490.688	19762.22
491.058	20047.64
491.428	20318.82
491.798	20562.2
492.168	21164.22
492.538	21043.54
492.908	21377.09
493.278	21644.2
493.648	21758.1
494.017	22053.91
494.387	22289.61
494.757	22512.88
495.126	22863.16
495.496	22810.5
495.866	23000.1
496.235	23311.28
496.605	23475.34
496.974	23648.45
497.344	23945.16
497.713	24048.21
498.082	24233.52
498.452	24447.3
498.821	24607.06
499.19	24669.21
499.559	25011.8
499.928	25023.78
500.298	25240.49
500.667	25404.11
501.036	25480.71
501.405	25752.35
501.774	25776.75
502.143	26112.34
502.512	26299.68
502.88	26498.54
503.249	26485.21
503.618	26700.34
503.987	26828.02
504.356	26981.92
504.724	27229.82
505.093	27382.36
505.462	27452.87
505.83	27773.76
506.199	27917.94
506.567	28389.11
506.936	28245.16
507.304	28728.09
507.672	28756.11
508.041	29045.37
508.409	29308.41
508.777	29511.79
509.145	29716.99
509.514	29880.82
509.882	30104.55
510.25	30188.61
510.618	30453.69
510.986	30497.08
511.354	31006.9
511.722	31167.57
512.09	31447.56
512.458	31502.25
512.826	31771.85
513.193	31880.77
513.561	32090.26
513.929	32317.37
514.297	32525.95
514.664	32743.57
515.032	32952.61
515.4	33147.18
515.767	33372.48
516.135	33570.22
516.502	33350.79
516.869	33913.49
517.237	34111
517.604	34005.91
517.972	34499.01
518.339	34690.19
518.706	34764.31
519.073	35071.2
519.44	35289.5
519.808	35632.54
520.175	35818.07
520.542	36226.65
520.909	36438.62
521.276	36480.42
521.643	36795.22
522.009	37113.85
522.376	37489.21
522.743	37640.62
523.11	38232.24
523.477	38591.56
523.843	38619.58
524.21	39278.54
524.577	39382.5
524.943	39544.07
525.31	39940.22
525.676	40245.3
526.043	40529.13
526.409	40694.55
526.776	41192.84
527.142	41122.79
527.508	41540.86
527.874	41739.27
528.241	42026.49
528.607	42257.9
528.973	42538.57
529.339	42620.38
529.705	42891.33
530.071	43219.91
530.437	43459.9
530.803	43774.7
531.169	43822.6
531.535	43698.99
531.901	44025.31
532.267	44243.16
532.632	44359.31
532.998	44614
533.364	44744.39
533.73	44876.81
534.095	45195.68
534.461	45191.83
534.826	45414.88
535.192	45475.44
535.557	45832.95
535.923	45924.02
536.288	46188.19
536.653	46238.81
537.019	46229.77
537.384	46446.49
537.749	46747.73
538.114	46777.1
538.479	46897.33
538.845	47218.22
539.21	47154.95
539.575	47381.16
539.94	47516.52
540.305	47870.86
540.67	47900.01
541.034	47969.84
541.399	48205.99
541.764	48408.47
542.129	48592.87
542.494	48730.72
542.858	48925.3
543.223	48979.31
543.587	49313.99
543.952	49205.51
544.316	49408.22
544.681	49374.78
545.045	49598.72
545.41	49809.34
545.774	49883.69
546.138	49981.76
546.503	50010.01
546.867	50076.23
547.231	50399.83
547.595	50434.41
547.959	50427.4
548.324	50468.08
548.688	50518.25
549.052	50717.11
549.416	50702.88
549.779	50705.36
550.143	50913.04
550.507	51050.21
550.871	51071.68
551.235	51118.01
551.599	51412.46
551.962	51386.47
552.326	51442.52
552.689	51646.13
553.053	51537.88
553.417	51608.61
553.78	52002.95
554.143	51869.85
554.507	51995.72
554.87	52172.89
555.234	52460.34
555.597	52301.25
555.96	52440.91
556.323	52611.3
556.686	52738.08
557.05	52971.97
557.413	53063.04
557.776	53158.18
558.139	53437.72
558.502	53423.71
558.865	53549.81
559.228	53804.72
559.59	53926.75
559.953	53973.75
560.316	54340.52
560.679	54331.03
561.041	54472.49
561.404	54690.12
561.767	54956.32
562.129	54825.71
562.492	55237.45
562.854	55162.65
563.217	55180.5
563.579	55361.06
563.941	55512.92
564.304	55639.47
564.666	55795.62
565.028	55860.93
565.39	55897.77
565.753	56123.75
566.115	56128.72
566.477	56276.74
566.839	56321.71
567.201	56470.63
567.563	56420.47
567.925	56669.05
568.287	56596.05
568.648	56646.67
569.01	56817.52
569.372	56899.78
569.734	56834.69
570.095	56973.45
570.457	57018.87
570.819	57084.18
571.18	57115.59
571.542	57292.53
571.903	57276.94
572.265	57292.08
572.626	57391.06
572.987	57470.83
573.349	57532.98
573.71	57596.48
574.071	57647.78
574.432	57689.36
574.794	57925.06
575.155	57893.2
575.516	57860.43
575.877	57986.3
576.238	58029.69
576.599	58138.16
576.96	58136.35
577.32	58205.73
577.681	58278.04
578.042	58381.54
578.403	58452.73
578.763	58466.51
579.124	58530.47
579.485	58677.81
579.845	58732.04
580.206	58757.35
580.566	58733.17
580.927	58785.6
581.287	58979.49
581.648	58860.85
582.008	59049.78
582.368	58991.25
582.728	59003.45
583.089	59017.46
583.449	59037.12
583.809	59058.36
584.169	59138.59
584.529	59076.44
584.889	59267.4
585.249	59175.42
585.609	59033.96
585.969	59246.83
586.329	59151.92
586.688	59183.33
587.048	59150.11
587.408	59025.14
587.768	59070.11
588.127	59048.19
588.487	59036.67
588.846	59203.9
589.206	58999.15
589.565	58995.54
589.925	59115.76
590.284	58990.34
590.643	59026.27
591.003	59079.6
591.362	59125.25
591.721	59083.67
592.08	59005.71
592.44	59025.59
592.799	59088.64
593.158	58986.05
593.517	59024.69
593.876	59118.47
594.235	59037.35
594.593	59027.18
594.952	59107.85
595.311	59011.81
595.67	59102.2
596.029	59260.84
596.387	59212.93
596.746	59264.68
597.104	59140.17
597.463	59152.15
597.822	59305.36
598.18	59223.33
598.538	59196.89
598.897	59407.05
599.255	59153.73
599.613	59591
599.972	59364.34
600.33	59460.16
600.688	59386.72
601.046	59566.82
601.404	59636.2
601.762	59533.6
602.12	59679.36
602.478	59675.75
602.836	59678.46
603.194	59612.92
603.552	59659.25
603.91	59582.64
604.268	59774.05
604.625	59699.25
604.983	59849.08
605.341	59733.15
605.698	59838.68
606.056	59871.22
606.413	59904.22
606.771	59970.65
607.128	59959.81
607.485	59830.55
607.843	59848.85
608.2	59994.61
608.557	60098.56
608.914	59970.65
609.272	60000.71
609.629	60101.72
609.986	60175.85
610.343	60053.59
610.7	60204.09
611.057	60090.88
611.414	60057.66
611.771	60099.46
612.127	60134.04
612.484	60184.66
612.841	60183.76
613.198	60060.37
613.554	60160.25
613.911	60217.88
614.267	60202.74
614.624	60108.5
614.98	60199.35
615.337	60300.14
615.693	60279.57
616.05	60231.89
616.406	60381.04
616.762	60218.56
617.118	60293.58
617.475	60312.79
617.831	60340.81
618.187	60351.66
618.543	60364.99
618.899	60555.05
619.255	60505.78
619.611	60442.28
619.967	60570.19
620.323	60589.4
620.678	60536.29
621.034	60488.61
621.39	60448.83
621.746	60492
622.101	60779.22
622.457	60538.55
622.812	60654.03
623.168	60666.46
623.523	60671.43
623.879	60779.67
624.234	60616.97
624.589	60775.15
624.945	60795.72
625.3	60826.68
625.655	60746.91
626.01	60835.04
626.365	60817.41
626.72	60768.37
627.075	60870.52
627.43	60788.26
627.785	60744.65
628.14	60778.77
628.495	60809.5
628.85	60798.43
629.205	60739.9
629.559	60742.16
629.914	60659
630.269	60743.29
630.623	60617.64
630.978	60567.48
631.332	60644.99
631.687	60636.4
632.041	60511.88
632.396	60563.86
632.75	60523.63
633.104	60498.55
633.459	60429.17
633.813	60384.66
634.167	60326.58
634.521	60303.08
634.875	60303.98
635.229	60213.13
635.583	60107.83
635.937	60130.2
636.291	60046.58
636.645	60077.77
636.999	59943.08
637.352	59983.31
637.706	59857.44
638.06	59922.97
638.413	59912.58
638.767	59725.46
639.121	59842.07
639.474	59695.63
639.828	59595.98
640.181	59714.16
640.534	59584.45
640.888	59530.67
641.241	59459.03
641.594	59496.32
641.947	59642.75
642.301	59486.6
642.654	59531.57
643.007	59519.59
643.36	59509.65
643.713	59439.37
644.066	59560.95
644.419	59395.98
644.771	59280.96
645.124	59110.11
645.477	59085.03
645.83	58921.42
646.182	58747.86
646.535	58789.22
646.888	58816.33
647.24	58676.23
647.593	58811.14
647.945	58765.71
648.298	58710.57
648.65	58688.65
649.002	58553.06
649.355	58724.59
649.707	58792.83
650.059	58894.98
650.411	59160.28
650.763	59142.43
651.115	59368.64
651.467	59290.9
651.819	59254.06
652.171	59224.23
652.523	59160.05
652.875	59165.03
653.227	59100.17
653.578	59251.35
653.93	59179.49
654.282	59049.78
654.633	59057.46
654.985	59077.8
655.337	59057.46
655.688	59022.88
656.039	59086.16
656.391	58925.71
656.742	58854.07
657.094	58825.37
657.445	58943.11
657.796	58780.86
658.147	58682.1
658.498	58715.32
658.849	58766.62
659.2	58607.07
659.551	58569.56
659.902	58622.22
660.253	58556.23
660.604	58554.19
660.955	58452.28
661.306	58498.15
661.656	58374.31
662.007	58398.49
662.358	58378.38
662.708	58266.74
663.059	58313.3
663.409	58090.25
663.76	58322.11
664.11	58217.25
664.461	58234.88
664.811	58210.7
665.161	58107.43
665.511	58132.06
665.862	58085.51
666.212	58147.43
666.562	58119.63
666.912	58035.34
667.262	58041.44
667.612	57955.11
667.962	57998.5
668.312	57935
668.662	58071.95
669.011	58012.06
669.361	57859.07
669.711	57949.01
670.06	57991.5
670.41	57848.22
670.76	57926.19
671.109	58019.75
671.459	57917.15
671.808	57918.05
672.157	57955.79
672.507	57830.37
672.856	57846.87
673.205	57910.37
673.554	57997.83
673.904	57896.81
674.253	58110.14
674.602	57982.01
674.951	57584.05
675.3	57498.4
675.649	57960.54
675.998	57957.83
676.346	57991.72
676.695	58023.14
677.044	57827.89
677.393	57912.4
677.741	58037.82
678.09	57997.37
678.438	57850.26
678.787	57962.35
679.135	57946.53
679.484	57727.1
679.832	57861.56
680.181	57759.19
680.529	57829.47
680.877	57761.22
681.225	57634.22
681.573	57785.18
681.922	57572.53
682.27	57514.22
682.618	57477.61
682.966	57456.14
683.314	57478.29
683.661	57386.32
684.009	57221.57
684.357	57186.32
684.705	57107.23
685.053	57094.12
685.4	56963.05
685.748	56891.41
686.095	56912.88
686.443	56828.59
686.79	56703.17
687.138	56720.8
687.485	56672.66
687.832	56522.38
688.18	56592.44
688.527	56365.78
688.874	56357.42
689.221	56324.65
689.568	56150.42
689.915	56088.05
690.262	56095.73
690.609	55886.02
690.956	55865.23
691.303	55812.57
691.65	55610.54
691.997	55682.41
692.344	55438.12
692.69	55390.89
693.037	55407.61
693.383	55191.35
693.73	55257.11
694.077	55034.06
694.423	55004.68
694.769	54902.77
695.116	54827.74
695.462	54764.92
695.808	54736.89
696.155	54762.2
696.501	54517.24
696.847	54538.71
697.193	54334.87
697.539	54525.83
697.885	54224.59
698.231	54119.96
698.577	54114.99
698.923	54139.62
699.269	54026.18
699.614	53852.17
699.96	53824.15
700.306	53931.04
700.651	53793.19
700.997	53762
701.342	53606.53
701.688	53640.65
702.033	53529.24
702.379	53465.06
702.724	53425.52
703.069	53426.42
703.415	53145.07
703.76	53309.59
704.105	53242.24
704.45	53221.23
704.795	53069.82
705.14	52978.75
705.485	53019.43
705.83	52925.64
706.175	52921.35
706.52	52937.62
706.865	52746.21
707.209	52658.98
707.554	52647.01
707.899	52712.31
708.243	52516.61
708.588	52503.51
708.932	52360.46
709.277	52290.18
709.621	52335.15
709.966	52025.55
710.31	52143.97
710.654	51891.09
710.998	52036.85
711.342	51886.57
711.687	51871.21
712.031	51688.16
712.375	51585.11
712.719	51665.79
713.063	51463.99
713.407	51609.29
713.75	51408.17
714.094	51240.04
714.438	51174.5
714.782	51114.62
715.125	50940.38
715.469	51047.5
715.812	50817.9
716.156	50539.26
716.499	50720.95
716.843	50624.91
717.186	50520.73
717.53	50602.31
717.873	50442.09
718.216	50327.74
718.559	50139.05
718.902	49893.86
719.246	50064.47
719.589	49869.45
719.932	49732.73
720.275	49831.03
720.617	49608.89
720.96	49397.15
721.303	49479.18
721.646	49401.22
721.989	49123.03
722.331	49258.85
722.674	49190.37
723.016	49102.69
723.359	49070.38
723.701	48965.52
724.044	48763.04
724.386	48486.66
724.729	48638.07
725.071	48531.18
725.413	48369.83
725.755	48316.72
726.097	48111.53
726.439	48094.81
726.782	48005.09
727.124	48185.43
727.465	47856.85
727.807	47808.04
728.149	47756.96
728.491	47655.72
728.833	47707.7
729.175	47476.75
729.516	47408.5
729.858	47379.12
730.199	47320.37
730.541	47233.81
730.882	47124.89
731.224	47340.25
731.565	47099.35
731.906	47083.54
732.248	47140.48
732.589	47013.71
732.93	46941.17
733.271	46969.41
733.612	46994.95
733.953	46931.22
734.294	46732.81
734.635	46814.62
734.976	46751.34
735.317	46540.5
735.658	46671.12
735.999	46606.03
736.339	46394.06
736.68	46598.35
737.021	46484
737.361	46397.68
737.702	46550.89
738.042	46416.89
738.383	46295.31
738.723	46401.75
739.063	46228.87
739.404	46408.75
739.744	46245.82
740.084	46086.5
740.424	46133.28
740.764	46007.86
741.104	46186.38
741.444	45885.6
741.784	45840.63
742.124	45975.09
742.464	45772.61
742.804	45630.92
743.143	45634.08
743.483	45694.65
743.823	45452.17
744.162	45500.53
744.502	45472.5
744.841	45131.72
745.181	45384.82
745.52	45242.68
745.86	45260.76
746.199	45164.26
746.538	45111.38
746.877	45160.65
747.216	45144.83
747.556	44997.49
747.895	45018.96
748.234	44652.87
748.573	44682.02
748.911	44673.88
749.25	44496.26
749.589	44424.62
749.928	44317.28
750.267	44399.09
750.605	44096.5
750.944	44070.73
751.283	43886.33
751.621	44035.03
751.96	43651.76
752.298	43716.62
752.636	43724.3
