Data from white_poster_card_FLMS001491_00029.txt Node
Date: Wed Feb 08 11:51:18 GMT 2017
User: dcchb
Spectrometer: FLMS00149
Trigger mode: 0
Integration Time (sec): 2.000000E-2
Scans to average: 10
Electric dark correction enabled: true
Nonlinearity correction enabled: false
Boxcar width: 0
XAxis mode: Wavelengths
Number of Pixels in Spectrum: 2048
>>>>>Begin Spectral Data<<<<<
341.393	-4.56
341.776	-4.56
342.16	-4.56
342.543	-58.8
342.927	-85.01
343.31	-68.06
343.693	-66.03
344.077	-76.2
344.46	-45.01
344.843	-41.4
345.226	-47.95
345.61	-24.67
345.993	-9.53
346.376	-3.66
346.759	20.07
347.142	19.62
347.525	38.83
347.908	39.96
348.291	59.84
348.674	88.77
349.057	115.43
349.44	124.7
349.823	144.13
350.206	173.06
350.588	210.12
350.971	195.21
351.354	239.95
351.737	255.54
352.119	263.91
352.502	256.45
352.884	270.68
353.267	290.8
353.65	292.15
354.032	293.74
354.414	307.07
354.797	305.94
355.179	317.24
355.562	332.83
355.944	319.05
356.326	333.06
356.709	337.58
357.091	337.8
357.473	353.39
357.855	349.1
358.238	344.13
358.62	338.71
359.002	343.9
359.384	335.77
359.766	339.84
360.148	312.94
360.53	333.06
360.912	331.02
361.294	348.65
361.676	324.69
362.057	343.45
362.439	332.6
362.821	341.64
363.203	345.03
363.584	318.14
363.966	325.37
364.348	321.31
364.729	334.86
365.111	306.62
365.493	344.58
365.874	305.03
366.256	318.37
366.637	305.94
367.019	314.3
367.4	321.98
367.781	297.58
368.163	324.69
368.544	314.75
368.925	331.7
369.306	335.99
369.688	320.85
370.069	325.6
370.45	306.62
370.831	311.14
371.212	313.85
371.593	319.27
371.974	333.06
372.355	318.59
372.736	335.99
373.117	319.05
373.498	325.15
373.879	313.4
374.26	312.72
374.641	306.84
375.021	326.05
375.402	311.14
375.783	328.54
376.163	335.54
376.544	332.15
376.925	316.79
377.305	333.73
377.686	344.36
378.066	337.35
378.447	323.79
378.827	343.9
379.208	341.42
379.588	330.34
379.968	329.44
380.349	323.34
380.729	356.33
381.109	344.36
381.489	347.52
381.87	352.72
382.25	346.16
382.63	335.32
383.01	339.61
383.39	338.93
383.77	335.09
384.15	347.97
384.53	341.64
384.91	354.98
385.29	372.38
385.67	355.2
386.049	344.81
386.429	366.28
386.809	372.38
387.189	354.3
387.568	351.59
387.948	361.3
388.328	371.02
388.707	388.65
389.087	346.39
389.466	385.94
389.846	376.22
390.225	388.65
390.605	389.1
390.984	382.32
391.363	386.39
391.743	361.08
392.122	397.46
392.501	389.78
392.881	383.22
393.26	414.86
393.639	413.05
394.018	399.04
394.397	382.55
394.776	405.6
395.155	407.63
395.534	414.86
395.913	406.05
396.292	405.14
396.671	423
397.05	397.24
397.429	391.36
397.808	423.9
398.186	420.06
398.565	424.58
398.944	406.27
399.323	435.88
399.701	435.2
400.08	415.31
400.458	420.96
400.837	431.36
401.215	441.98
401.594	453.96
401.972	444.92
402.351	437.01
402.729	464.8
403.107	468.87
403.486	470.91
403.864	451.7
404.242	456.89
404.62	475.2
404.999	482.2
405.377	500.51
405.755	478.82
406.133	509.77
406.511	492.37
406.889	512.26
407.267	505.26
407.645	533.28
408.023	537.57
408.401	533.73
408.779	545.03
409.156	534.41
409.534	546.84
409.912	562.65
410.29	576.67
410.667	591.58
411.045	601.07
411.422	599.26
411.8	630.45
412.178	600.17
412.555	631.58
412.933	659.15
413.31	653.73
413.687	677.68
414.065	689.66
414.442	719.49
414.819	714.97
415.197	736.66
415.574	743.44
415.951	749.54
416.328	740.73
416.705	760.16
417.082	773.72
417.46	807.17
417.837	798.58
418.214	822.99
418.591	819.15
418.967	841.52
419.344	859.6
419.721	864.12
420.098	877.67
420.475	895.75
420.852	914.51
421.228	926.26
421.605	955.19
421.982	952.25
422.358	951.12
422.735	1003.55
423.111	999.93
423.488	996.54
423.864	1025.02
424.241	1042.87
424.617	1035.86
424.994	1040.38
425.37	1078.12
425.746	1100.49
426.123	1107.73
426.499	1093.26
426.875	1132.81
427.251	1163.32
427.627	1178.68
428.003	1168.06
428.379	1207.16
428.756	1242.41
429.132	1222.3
429.507	1272.47
429.883	1277.44
430.259	1260.26
430.635	1293.93
431.011	1306.14
431.387	1362.86
431.763	1400.82
432.138	1370.09
432.514	1393.37
432.89	1413.25
433.265	1434.5
433.641	1454.38
434.016	1474.27
434.392	1487.83
434.767	1526.47
435.143	1523.31
435.518	1527.6
435.894	1545.23
436.269	1580.48
436.644	1603.53
437.02	1638.33
437.395	1664.09
437.77	1651.21
438.145	1676.52
438.52	1688.95
438.895	1696.41
439.271	1704.09
439.646	1726.92
440.021	1735.28
440.395	1758.78
440.77	1771.44
441.145	1811.66
441.52	1824.77
441.895	1786.58
442.27	1825.45
442.645	1806.92
443.019	1850.08
443.394	1834.71
443.769	1882.39
444.143	1856.86
444.518	1910.64
444.892	1907.25
445.267	1883.75
445.641	1953.35
446.016	1906.12
446.39	1962.17
446.764	1952
447.139	1974.59
447.513	2003.52
447.887	2000.81
448.262	2044.2
448.636	2017.08
449.01	2040.81
449.384	2089.85
449.758	2072.22
450.132	2084.65
450.506	2089.17
450.88	2124.42
451.254	2137.08
451.628	2164.65
452.002	2183.4
452.376	2219.56
452.75	2227.7
453.123	2218.2
453.497	2301.59
453.871	2288.49
454.244	2307.02
454.618	2349.5
454.992	2360.12
455.365	2348.6
455.739	2448.93
456.112	2427.92
456.486	2464.07
456.859	2492.1
457.232	2518.54
457.606	2513.34
457.979	2549.04
458.352	2582.49
458.725	2624.75
459.099	2648.25
459.472	2710.85
459.845	2711.75
460.218	2724.63
460.591	2710.62
460.964	2796.49
461.337	2803.05
461.71	2880.56
462.083	2910.39
462.456	2891.41
462.829	2899.77
463.201	2947.45
463.574	2993.78
463.947	3046.66
464.32	3101.35
464.692	3125.53
465.065	3154.9
465.438	3169.82
465.81	3204.39
466.183	3284.39
466.555	3304.5
466.928	3329.36
467.3	3321.23
467.672	3419.53
468.045	3450.04
468.417	3484.61
468.789	3502.46
469.161	3554.44
469.534	3610.03
469.906	3671.73
470.278	3710.14
470.65	3730.71
471.022	3803.93
471.394	3904.49
471.766	3896.58
472.138	3946.97
472.51	4047.08
472.882	4083.69
473.253	4102.67
473.625	4171.83
473.997	4240.07
474.369	4262.22
474.74	4285.04
475.112	4388.32
475.484	4427.64
475.855	4526.17
476.227	4581.08
476.598	4709.66
476.97	4651.36
477.341	4847.29
477.713	4888.19
478.084	4947.85
478.455	5017.45
478.827	5104
479.198	5250.22
479.569	5246.83
479.94	5339.93
480.311	5454.05
480.682	5538.12
481.053	5675.29
481.424	5695.4
481.795	5759.35
482.166	5879.58
482.537	5969.52
482.908	6093.13
483.279	6178.78
483.65	6211.32
484.021	6364.31
484.391	6456.96
484.762	6491.54
485.133	6561.14
485.503	6611.31
485.874	6743.28
486.244	6877.06
486.615	7006.55
486.985	7066.21
487.356	7183.05
487.726	7219.43
488.097	7374.23
488.467	7397.73
488.837	7542.13
489.207	7677.04
489.578	7709.13
489.948	7879.3
490.318	7982.12
490.688	8036.13
491.058	8147.31
491.428	8195
491.798	8301.66
492.168	8464.82
492.538	8522.9
492.908	8597.7
493.278	8733.97
493.648	8716.34
494.017	8864.36
494.387	8936.67
494.757	8981.19
495.126	9057.12
495.496	9150
495.866	9160.39
496.235	9322.42
496.605	9369.65
496.974	9500.72
497.344	9564.45
497.713	9603.77
498.082	9702.75
498.452	9817.1
498.821	9808.74
499.19	9869.98
499.559	9990.66
499.928	10055.06
500.298	10124.66
500.667	10221.84
501.036	10179.58
501.405	10371.44
501.774	10304.32
502.143	10495.5
502.512	10482.62
502.88	10634.25
503.249	10677.87
503.618	10744.08
503.987	10772.33
504.356	10784.76
504.724	10923.51
505.093	10904.98
505.462	11059.33
505.83	11155.37
506.199	11271.53
506.567	11442.37
506.936	11369.38
507.304	11554
507.672	11587.45
508.041	11640.78
508.409	11710.16
508.777	11883.71
509.145	11887.78
509.514	11949.47
509.882	11957.84
510.25	12068.79
510.618	12169.13
510.986	12243.25
511.354	12390.82
511.722	12475.34
512.09	12583.81
512.458	12572.96
512.826	12699.28
513.193	12765.95
513.561	12920.97
513.929	12981.76
514.297	13106.51
514.664	13214.75
515.032	13230.12
515.4	13341.98
515.767	13387.18
516.135	13505.82
516.502	13470.11
516.869	13700.16
517.237	13789.2
517.604	13748.52
517.972	13900.16
518.339	14086.14
518.706	14065.12
519.073	14225.35
519.44	14327.94
519.808	14486.13
520.175	14421.5
520.542	14682.06
520.909	14752.79
521.276	14761.6
521.643	14931.99
522.009	15048.15
522.376	15187.58
522.743	15229.84
523.11	15401.36
523.477	15629.38
523.843	15686.1
524.21	15813.78
524.577	16052.19
524.943	16110.95
525.31	16131.06
525.676	16352.07
526.043	16503.25
526.409	16486.3
526.776	16703.47
527.142	16675.9
527.508	16826.63
527.874	17076.8
528.241	17032.73
528.607	17170.35
528.973	17230.69
529.339	17325.38
529.705	17526.73
530.071	17716.33
530.437	17695.09
530.803	17789.77
531.169	17937.34
531.535	17968.52
531.901	18110.44
532.267	18183.21
532.632	18331.45
532.998	18382.3
533.364	18421.62
533.73	18561.5
534.095	18727.6
534.461	18764.66
534.826	18824.55
535.192	18889.4
535.557	19060.7
535.923	19194.03
536.288	19193.35
536.653	19192
537.019	19380.92
537.384	19390.41
537.749	19477.19
538.114	19529.61
538.479	19598.09
538.845	19655.03
539.21	19616.17
539.575	19850.74
539.94	19921.47
540.305	20085.31
540.67	19987.23
541.034	20137.06
541.399	20208.47
541.764	20225.41
542.129	20479.87
542.494	20466.76
542.858	20601
543.223	20603.71
543.587	20692.29
543.952	20687.55
544.316	20730.03
544.681	20714.67
545.045	20954.21
545.41	20946.3
545.774	21102.23
546.138	21084.6
546.503	21199.17
546.867	21342
547.231	21539.05
547.595	21510.8
547.959	21532.27
548.324	21639.16
548.688	21616.56
549.052	21733.62
549.416	21821.53
549.779	21806.39
550.143	21867.18
550.507	22021.75
550.871	22134.97
551.235	22140.84
551.599	22337.45
551.962	22401.4
552.326	22334.96
552.689	22634.16
553.053	22440.95
553.417	22560.49
553.78	22838
554.143	22797.32
554.507	23031.44
554.87	23043.19
555.234	23321.6
555.597	23128.16
555.96	23381.49
556.323	23321.6
556.686	23494.03
557.05	23650.18
557.413	23712.55
557.776	23770.18
558.139	23890.18
558.502	23981.25
558.865	24060.79
559.228	24217.4
559.59	24373.33
559.953	24483.61
560.316	24719.99
560.679	24556.83
561.041	24722.7
561.404	24833.2
561.767	25024.84
562.129	24903.48
562.492	25327.65
562.854	25313.19
563.217	25403.13
563.579	25425.28
563.941	25582.79
564.304	25663.01
564.666	25806.51
565.028	25826.85
565.39	26005.6
565.753	26192.26
566.115	26263.22
566.477	26436.55
566.839	26430
567.201	26534.85
567.563	26703.21
567.925	26791.8
568.287	26829.08
568.648	26939.81
569.01	27060.04
569.372	27392.91
569.734	27226.13
570.095	27305.45
570.457	27431.1
570.819	27494.83
571.18	27546.58
571.542	27676.97
571.903	27638.78
572.265	27921.94
572.626	28076.73
572.987	28036.28
573.349	28092.33
573.71	28234.92
574.071	28309.04
574.432	28450.06
574.794	28658.19
575.155	28560.11
575.516	28520.79
575.877	28605.99
576.238	28707
576.599	28854.57
576.96	28855.02
577.32	28869.93
577.681	28977.05
578.042	29064.96
578.403	28938.63
578.763	29049.82
579.124	29168.68
579.485	29291.84
579.845	29335.91
580.206	29066.54
580.566	29260.43
580.927	29383.37
581.287	29438.28
581.648	29403.93
582.008	29583.59
582.368	29513.08
582.728	29613.42
583.089	29478.28
583.449	29496.36
583.809	29489.13
584.169	29616.35
584.529	29638.73
584.889	29707.2
585.249	29524.83
585.609	29585.17
585.969	29740.87
586.329	29539.07
586.688	29694.54
587.048	29575.9
587.408	29548.79
587.768	29539.07
588.127	29672.4
588.487	29659.06
588.846	29703.58
589.206	29637.82
589.565	29745.84
589.925	29742.45
590.284	29640.53
590.643	29792.85
591.003	29777.25
591.362	29930.47
591.721	29770.02
592.08	29771.6
592.44	29915.1
592.799	29763.92
593.158	29800.53
593.517	29736.8
593.876	29921.66
594.235	29961.43
594.593	29853.64
594.952	29987.87
595.311	29808.21
595.67	29972.95
596.029	30108.32
596.387	30119.39
596.746	30074.2
597.104	29949.23
597.463	29988.77
597.822	30105.83
598.18	30048.43
598.538	29927.31
598.897	30163.23
599.255	29857.03
599.613	30329.78
599.972	30269.67
600.33	30303.79
600.688	30124.14
601.046	30203.01
601.404	30402.55
601.762	30391.47
602.12	30487.74
602.478	30234.42
602.836	30410.23
603.194	30349.44
603.552	30429.89
603.91	30237.58
604.268	30403.9
604.625	30400.97
604.983	30535.2
605.341	30383.79
605.698	30409.55
606.056	30652.48
606.413	30634.63
606.771	30668.08
607.128	30775.42
607.485	30732.03
607.843	30750.11
608.2	30807.96
608.557	30977.22
608.914	30747.4
609.272	30899.71
609.629	30967.05
609.986	31094.73
610.343	30862.42
610.7	31054.73
611.057	31053.6
611.414	31016.77
611.771	31084.79
612.127	31248.18
612.484	31200.49
612.841	31386.93
613.198	31307.83
613.554	31144.9
613.911	31427.15
614.267	31357.33
614.624	31350.09
614.98	31493.37
615.337	31704.66
615.693	31416.76
616.05	31509.19
616.406	31680.71
616.762	31552.12
617.118	31529.07
617.475	31606.58
617.831	31633.7
618.187	31623.31
618.543	31653.81
618.899	31771.33
619.255	31714.15
619.611	31729.07
619.967	31866.92
620.323	31915.28
620.678	31789.18
621.034	31722.06
621.39	31754.6
621.746	31726.13
622.101	32036.86
622.457	31748.28
622.812	31828.95
623.168	31920.7
623.523	31914.37
623.879	31927.71
624.234	31699.46
624.589	31743.98
624.945	31768.61
625.3	31997.76
625.655	31880.48
626.01	31970.42
626.365	31876.86
626.72	31910.31
627.075	31846.8
627.43	31653.14
627.785	31756.18
628.14	31835.5
628.495	31870.76
628.85	31751.21
629.205	31702.4
629.559	32001.15
629.914	31759.8
630.269	31750.54
630.623	31563.2
630.978	31612.69
631.332	31677.99
631.687	31832.11
632.041	31482.29
632.396	31562.97
632.75	31461.28
633.104	31581.05
633.459	31389.41
633.813	31397.32
634.167	31369.3
634.521	31341.51
634.875	31408.17
635.229	31304.9
635.583	31304.45
635.937	31226.71
636.291	31146.48
636.645	31093.83
636.999	31024.45
637.352	31062.42
637.706	30903.55
638.06	31083.21
638.413	30899.94
638.767	30782.2
639.121	30882.08
639.474	30723.67
639.828	30668.76
640.181	30792.14
640.534	30734.29
640.888	30670.11
641.241	30471.02
641.594	30535.88
641.947	30666.5
642.301	30403.68
642.654	30643.22
643.007	30565.26
643.36	30464.69
643.713	30412.04
644.066	30559.83
644.419	30241.42
644.771	30090.69
645.124	29903.8
645.477	29742.9
645.83	29664.26
646.182	29470.6
646.535	29374.33
646.888	29412.97
647.24	29288.68
647.593	29417.49
647.945	29334.78
648.298	29116.71
648.65	28984.96
649.002	28972.53
649.355	29120.55
649.707	29042.81
650.059	29211.39
650.411	29591.72
650.763	29588.78
651.115	29892.96
651.467	29682.12
651.819	29739.29
652.171	29529.12
652.523	29601.44
652.875	29631.49
653.227	29478.5
653.578	29569.12
653.93	29570.48
654.282	29408.22
654.633	29337.04
654.985	29437.6
655.337	29416.36
655.688	29324.38
656.039	29585.85
656.391	29280.54
656.742	29298.4
657.094	29226.08
657.445	29391.73
657.796	29314.22
658.147	29251.39
658.498	29225.86
658.849	29245.29
659.2	29182.47
659.551	29151.73
659.902	29183.82
660.253	29066.09
660.604	29106.76
660.955	28958.74
661.306	29165.07
661.656	28934.79
662.007	29025.86
662.358	28912.42
662.708	29031.06
663.059	28934.79
663.409	28826.32
663.76	28926.2
664.11	28892.08
664.461	28918.29
664.811	28981.79
665.161	28819.99
665.511	28777.51
665.862	28818.18
666.212	28871.06
666.562	28871.29
666.912	28787.22
667.262	28633.78
667.612	28739.54
667.962	28715.81
668.312	28669.71
668.662	28828.58
669.011	28709.26
669.361	28638.53
669.711	28714
670.06	28566.89
670.41	28517.17
670.76	28506.55
671.109	28509.26
671.459	28475.59
671.808	28543.61
672.157	28648.92
672.507	28425.42
672.856	28405.31
673.205	28427.01
673.554	28543.84
673.904	28333.68
674.253	28516.95
674.602	28430.17
674.951	27973.91
675.3	27881.48
675.649	28350.85
675.998	28323.51
676.346	28392.43
676.695	28455.48
677.044	28197.18
677.393	28316.28
677.741	28293
678.09	28201.02
678.438	28058.43
678.787	28138.2
679.135	28161.03
679.484	27971.2
679.832	28067.02
680.181	27922.84
680.529	28033.57
680.877	27874.93
681.225	27823.41
681.573	27793.35
681.922	27683.75
682.27	27594.49
682.618	27708.61
682.966	27605.11
683.314	27674.48
683.661	27589.51
684.009	27400.59
684.357	27440.82
684.705	27348.17
685.053	27415.06
685.4	27326.47
685.748	27216.19
686.095	27345
686.443	27069.3
686.79	27035.4
687.138	26989.98
687.485	27134.39
687.832	26978.23
688.18	26991.79
688.527	26786.6
688.874	26785.24
689.221	26715.87
689.568	26640.16
689.915	26610.11
690.262	26596.09
690.609	26515.87
690.956	26401.52
691.303	26295.09
691.65	26276.1
691.997	26246.95
692.344	26158.37
692.69	26070.68
693.037	26028.2
693.383	25801.31
693.73	25958.15
694.077	25787.75
694.423	25721.77
694.769	25605.84
695.116	25628.66
695.462	25563.35
695.808	25404.49
696.155	25485.62
696.501	25250.37
696.847	25298.05
697.193	25212.4
697.539	25217.15
697.885	25049.69
698.231	24958.85
698.577	24965.4
698.923	24857.61
699.269	24827.55
699.614	24622.14
699.96	24699.65
700.306	24527.45
700.651	24549.82
700.997	24431.41
701.342	24412.88
701.688	24360.9
702.033	24220.79
702.379	24303.73
702.724	24165.2
703.069	24178.98
703.415	23957.97
703.76	23924.98
704.105	23934.47
704.45	23889.27
704.795	23824.64
705.14	23735.6
705.485	23722.95
705.83	23661.26
706.175	23549.62
706.52	23496.29
706.865	23388.5
707.209	23315.28
707.554	23209.06
707.899	23354.82
708.243	23176.75
708.588	23196.41
708.932	23015.62
709.277	23101.27
709.621	23035.28
709.966	22916.19
710.31	22961.61
710.654	22686.59
710.998	22797.1
711.342	22823.09
711.687	22672.81
712.031	22639.36
712.375	22568.86
712.719	22538.12
713.063	22539.48
713.407	22530.66
713.75	22455.64
714.094	22294.29
714.438	22330.9
714.782	22271.24
715.125	22152.37
715.469	22206.15
715.812	22126.16
716.156	22114.18
716.499	21941.75
716.843	22059.04
717.186	21867.18
717.53	21913.51
717.873	21914.86
718.216	21875.31
718.559	21799.84
718.902	21576.57
719.246	21639.84
719.589	21569.11
719.932	21436
720.275	21583.12
720.617	21412.73
720.96	21439.62
721.303	21451.82
721.646	21458.15
721.989	21291.15
722.331	21297.48
722.674	21234.2
723.016	21336.8
723.359	21294.76
723.701	21289.57
724.044	21090.02
724.386	20984.94
724.729	21068.56
725.071	21050.93
725.413	21133.41
725.755	20947.2
726.097	20880.99
726.439	20765.29
726.782	20758.73
727.124	20839.86
727.465	20716.25
727.807	20697.49
728.149	20718.96
728.491	20619.08
728.833	20709.24
729.175	20532.07
729.516	20539.3
729.858	20492.3
730.199	20587.66
730.541	20511.06
730.882	20369.14
731.224	20454.34
731.565	20353.32
731.906	20332.76
732.248	20328.46
732.589	20253.21
732.93	20180.9
733.271	20288.01
733.612	20194.23
733.953	20227.9
734.294	20136.83
734.635	20083.95
734.976	20013.67
735.317	19950.39
735.658	20022.71
735.999	19960.56
736.339	19908.13
736.68	19923.73
737.021	19902.49
737.361	19803.73
737.702	19954.69
738.042	19794.01
738.383	19765.54
738.723	19788.82
739.063	19718.76
739.404	19664.3
739.744	19667.01
740.084	19470.41
740.424	19623.85
740.764	19456.4
741.104	19503.4
741.444	19390.63
741.784	19398.09
742.124	19403.29
742.464	19402.39
742.804	19403.52
743.143	19185.67
743.483	19225.89
743.823	19120.58
744.162	19213.01
744.502	19210.07
744.841	19086.91
745.181	19220.02
745.52	19011.89
745.86	19027.03
746.199	18992.9
746.538	18979.12
746.877	18986.58
747.216	18908.61
747.556	18862.06
747.895	18914.94
748.234	18904.77
748.573	18765.11
748.911	18736.64
749.25	18710.43
749.589	18594.5
749.928	18609.64
750.267	18598.34
750.605	18547.04
750.944	18468.4
751.283	18375.97
751.621	18421.39
751.96	18383.2
752.298	18402.41
752.636	18344.11
752.975	18256.43
753.313	18227.05
753.651	18353.15
753.989	18231.12
754.327	18119.03
754.666	18051.23
755.004	18088.97
755.342	18092.82
