Data from whiteboard_FLMS001491_00085.txt Node
Date: Wed Feb 08 11:28:29 GMT 2017
User: dcchb
Spectrometer: FLMS00149
Trigger mode: 0
Integration Time (sec): 2.000000E-2
Scans to average: 10
Electric dark correction enabled: true
Nonlinearity correction enabled: false
Boxcar width: 0
XAxis mode: Wavelengths
Number of Pixels in Spectrum: 2048
>>>>>Begin Spectral Data<<<<<
341.393	-1.53
341.776	-1.53
342.16	-1.53
342.543	-56.89
342.927	-68.19
343.31	-82.65
343.693	-51.02
344.077	-65.7
344.46	-51.24
344.843	-48.3
345.226	-34.07
345.61	-47.85
345.993	-21.64
346.376	0.06
346.759	10.9
347.142	18.36
347.525	43.22
347.908	51.81
348.291	87.29
348.674	83.9
349.057	106.95
349.44	137.91
349.823	173.16
350.206	176.32
350.588	220.16
350.971	243.44
351.354	239.82
351.737	268.75
352.119	266.72
352.502	296.32
352.884	320.27
353.267	308.3
353.65	323.66
354.032	326.6
354.414	321.86
354.797	337.9
355.179	358.47
355.562	363.66
355.944	352.82
356.326	382.65
356.709	360.5
357.091	382.87
357.473	369.76
357.855	368.86
358.238	369.99
358.62	359.14
359.002	377.9
359.384	356.43
359.766	364.11
360.148	374.06
360.53	372.7
360.912	373.83
361.294	385.13
361.676	364.79
362.057	353.72
362.439	366.15
362.821	353.49
363.203	361.85
363.584	369.99
363.966	367.73
364.348	359.82
364.729	353.27
365.111	335.87
365.493	368.18
365.874	364.57
366.256	361.85
366.637	337.9
367.019	351.01
367.4	360.27
367.781	350.33
368.163	365.24
368.544	374.06
368.925	363.89
369.306	358.69
369.688	375.41
370.069	358.69
370.45	374.51
370.831	367.96
371.212	355.3
371.593	364.79
371.974	355.53
372.355	372.7
372.736	368.18
373.117	374.28
373.498	387.16
373.879	381.74
374.26	382.87
374.641	365.02
375.021	372.02
375.402	403.66
375.783	382.65
376.163	388.97
376.544	391.23
376.925	382.65
377.305	378.35
377.686	381.29
378.066	391.91
378.447	404.34
378.827	397.79
379.208	391.23
379.588	398.46
379.968	410.22
380.349	391.68
380.729	410.22
381.109	405.24
381.489	441.4
381.87	421.74
382.25	436.66
382.63	421.74
383.01	439.82
383.39	425.58
383.77	442.53
384.15	436.2
384.53	425.58
384.91	450.44
385.29	434.4
385.67	455.86
386.049	457.45
386.429	457.67
386.809	450.44
387.189	445.02
387.568	466.26
387.948	502.64
388.328	482.53
388.707	508.97
389.087	474.17
389.466	511.68
389.846	495.86
390.225	509.65
390.605	478.91
390.984	512.81
391.363	520.72
391.743	526.37
392.122	524.79
392.501	561.85
392.881	531.57
393.26	523.66
393.639	547.39
394.018	555.07
394.397	567.5
394.776	582.87
395.155	580.38
395.534	580.61
395.913	585.35
396.292	572.47
396.671	624.22
397.05	614.96
397.429	647.72
397.808	651.56
398.186	648.63
398.565	655.63
398.944	659.25
399.323	669.19
399.701	680.04
400.08	692.92
400.458	710.77
400.837	702.41
401.215	709.87
401.594	755.52
401.972	739.92
402.351	747.61
402.729	740.83
403.107	798.91
403.486	803.65
403.864	780.6
404.242	812.01
404.62	843.65
404.999	856.76
405.377	878.9
405.755	898.34
406.133	883.88
406.511	924.1
406.889	930.88
407.267	953.7
407.645	959.35
408.023	971.33
408.401	1011.33
408.779	1035.51
409.156	1047.94
409.534	1061.5
409.912	1086.58
410.29	1104.21
410.667	1159.57
411.045	1173.58
411.422	1197.54
411.8	1210.42
412.178	1234.83
412.555	1252
412.933	1274.37
413.31	1287.03
413.687	1316.63
414.065	1324.77
414.442	1353.24
414.819	1375.39
415.197	1374.94
415.574	1432.56
415.951	1457.65
416.328	1441.6
416.705	1487.7
417.082	1504.42
417.46	1518.43
417.837	1539.9
418.214	1567.92
418.591	1578.09
418.967	1586.46
419.344	1617.87
419.721	1654.93
420.098	1661.26
420.475	1683.4
420.852	1679.79
421.228	1722.72
421.605	1723.63
421.982	1767.24
422.358	1770.63
422.735	1773.34
423.111	1829.16
423.488	1851.31
423.864	1841.59
424.241	1889.27
424.617	1898.99
424.994	1926.33
425.37	1962.72
425.746	1990.96
426.123	2006.11
426.499	2021.92
426.875	2065.09
427.251	2079.1
427.627	2117.74
428.003	2143.73
428.379	2160.68
428.756	2208.36
429.132	2271.64
429.507	2263.05
429.883	2324.52
430.259	2291.3
430.635	2378.3
431.011	2368.81
431.387	2434.34
431.763	2482.93
432.138	2488.13
432.514	2529.71
432.89	2557.5
433.265	2601.8
433.641	2633.89
434.016	2681.34
434.392	2700.32
434.767	2761.11
435.143	2765.18
435.518	2808.34
435.894	2847.89
436.269	2883.6
436.644	2889.7
437.02	2935.8
437.395	2939.19
437.77	3018.96
438.145	3046.76
438.52	3110.71
438.895	3127.21
439.271	3137.15
439.646	3190.71
440.021	3218.28
440.395	3216.24
440.77	3214.89
441.145	3274.55
441.52	3318.16
441.895	3313.64
442.27	3392.96
442.645	3394.32
443.019	3413.98
443.394	3411.72
443.769	3477.03
444.143	3420.98
444.518	3510.47
444.892	3519.96
445.267	3553.64
445.641	3552.96
446.016	3620.3
446.39	3606.97
446.764	3648.55
447.139	3631.83
447.513	3693.52
447.887	3713.41
448.262	3728.09
448.636	3777.58
449.01	3804.02
449.384	3835.21
449.758	3912.95
450.132	3890.8
450.506	3978.71
450.88	4020.06
451.254	3981.42
451.628	4051.25
452.002	4123.34
452.376	4144.81
452.75	4185.94
453.123	4257.57
453.497	4323.33
453.871	4329.43
454.244	4383.67
454.618	4428.41
454.992	4460.28
455.365	4519.94
455.739	4635.64
456.112	4670.89
456.486	4746.6
456.859	4805.35
457.232	4856.2
457.606	4821.62
457.979	4918.12
458.352	5072.47
458.725	5065.91
459.099	5116.76
459.472	5225.91
459.845	5341.16
460.218	5327.6
460.591	5391.33
460.964	5429.07
461.337	5578.21
461.71	5629.29
462.083	5696.4
462.456	5699.79
462.829	5720.36
463.201	5861.82
463.574	5873.57
463.947	5980.69
464.32	6124.19
464.692	6124.42
465.065	6193.57
465.438	6261.13
465.81	6364.18
466.183	6452.09
466.555	6612.54
466.928	6587.68
467.3	6644.63
467.672	6727.79
468.045	6940.89
468.417	6880.1
468.789	7035.8
469.161	7044.17
469.534	7250.71
469.906	7365.51
470.278	7395.79
470.65	7519.86
471.022	7692.74
471.394	7771.6
471.766	7873.97
472.138	7979.06
472.51	8120.75
472.882	8228.99
473.253	8356.45
473.625	8415.2
473.997	8663.56
474.369	8696.33
474.74	8817.68
475.112	8988.97
475.484	9130.66
475.855	9288.85
476.227	9352.8
476.598	9638.67
476.97	9757.77
477.341	9971.55
477.713	10075.72
478.084	10084.99
478.455	10418.77
478.827	10542.38
479.198	10825.99
479.569	10841.13
479.94	11122.7
480.311	11226.2
480.682	11508.23
481.053	11727.43
481.424	11855.11
481.795	12070.47
482.166	12240.41
482.537	12429.56
482.908	12695.99
483.279	12782.55
483.65	12967.4
484.021	13309.31
484.391	13432.02
484.762	13487.61
485.133	13758.56
485.503	13948.62
485.874	14154.71
486.244	14350.41
486.615	14549.5
486.985	14728.03
487.356	15004.18
487.726	15093.22
488.097	15458.63
488.467	15523.49
488.837	15817.04
489.207	16102.68
489.578	16201.44
489.948	16402.34
490.318	16667.64
490.688	16739.05
491.058	17028.76
491.428	17152.83
491.798	17429.65
492.168	17705.81
492.538	17876.2
492.908	17990.09
493.278	18231.89
493.648	18298.78
494.017	18564.54
494.387	18647.93
494.757	18755.04
495.126	18973.34
495.496	19073.23
495.866	19204.07
496.235	19491.3
496.605	19625.3
496.974	19728.13
497.344	19865.3
497.713	20070.04
498.082	20146.42
498.452	20318.17
498.821	20462.57
499.19	20518.84
499.559	20787.53
499.928	20871.82
500.298	21064.36
500.667	21158.6
501.036	21251.93
501.405	21474.29
501.774	21535.76
502.143	21774.85
502.512	21839.26
502.88	22129.42
503.249	22127.16
503.618	22283.76
503.987	22440.82
504.356	22587.94
504.724	22759.46
505.093	22840.81
505.462	22980.92
505.83	23137.98
506.199	23317.64
506.567	23575.93
506.936	23591.53
507.304	23908.13
507.672	23967.56
508.041	24072.42
508.409	24211.4
508.777	24491.62
509.145	24503.37
509.514	24722.12
509.882	24958.72
510.25	25001.88
510.618	25110.58
510.986	25271.93
511.354	25513.28
511.722	25637.12
512.09	25910.79
512.458	25882.99
512.826	26196.2
513.193	26235.3
513.561	26424.45
513.929	26679.81
514.297	26814.72
514.664	27003.87
515.032	27134.94
515.4	27388.94
515.767	27478.88
516.135	27724.98
516.502	27646.34
516.869	28054.23
517.237	28312.31
517.604	28209.48
517.972	28649.47
518.339	28783.93
518.706	28791.84
519.073	29084.04
519.44	29296.69
519.808	29630.92
520.175	29606.74
520.542	30046.72
520.909	30203.1
521.276	30119.49
521.643	30567.84
522.009	30766.25
522.376	30876.08
522.743	31071.78
523.11	31464.09
523.477	31719.22
523.843	31797.19
524.21	32102.04
524.577	32482.59
524.943	32419.09
525.31	32720.78
525.676	33106.53
526.043	33100.2
526.409	33352.17
526.776	33656.35
527.142	33793.74
527.508	33960.07
527.874	34163.45
528.241	34402.54
528.607	34539.49
528.973	34858.35
529.339	34852.7
529.705	35209.53
530.071	35597.76
530.437	35503.76
530.803	35913.69
531.169	36072.33
531.535	36091.08
531.901	36418.53
532.267	36545.76
532.632	36828.47
532.998	36907.11
533.364	37138.97
533.73	37264.84
534.095	37634.32
534.461	37559.29
534.826	37785.96
535.192	37978.49
535.557	38308.65
535.923	38323.57
536.288	38415.32
536.653	38547.74
537.019	38436.33
537.384	38744.35
537.749	38891.01
538.114	39052.59
538.479	39106.15
538.845	39396.99
539.21	39297.1
539.575	39461.84
539.94	39641.95
540.305	39937.31
540.67	39811.67
541.034	40159.45
541.399	40166.46
541.764	40247.81
542.129	40413.91
542.494	40476.28
542.858	40658.87
543.223	40633.79
543.587	40978.41
543.952	40857.06
544.316	41090.73
544.681	41057.06
545.045	41483.03
545.41	41641.9
545.774	41763.7
546.138	41680.99
546.503	41887.54
546.867	41946.75
547.231	42365.5
547.595	42510.58
547.959	42425.61
548.324	42597.58
548.688	42647.52
549.052	42979.72
549.416	43001.41
549.779	43036.67
550.143	43235.53
550.507	43663.77
550.871	43645.69
551.235	43858.11
551.599	44129.52
551.962	44155.05
552.326	44176.97
552.689	44361.83
553.053	44368.16
553.417	44455.16
553.78	45053.56
554.143	44731.08
554.507	45060.34
554.87	45214.69
555.234	45663.26
555.597	45348.24
555.96	45515.92
556.323	45744.16
556.686	45754.79
557.05	45980.32
557.413	46110.26
557.776	46171.05
558.139	46600.41
558.502	46544.14
558.865	46698.72
559.228	46950.46
559.59	47079.27
559.953	47038.37
560.316	47575.98
560.679	47571.69
561.041	47700.27
561.404	47985.01
561.767	48132.8
562.129	48126.25
562.492	48604.43
562.854	48454.6
563.217	48576.18
563.579	48807.81
563.941	48981.59
564.304	49118.76
564.666	49236.5
565.028	49449.38
565.39	49475.82
565.753	49696.38
566.115	49800.33
566.477	50042.13
566.839	50169.36
567.201	50330.26
567.563	50373.42
567.925	50760.53
568.287	50655
568.648	50749.68
569.01	50925.05
569.372	51079.39
569.734	50965.27
570.095	51283
570.457	51435.77
570.819	51388.08
571.18	51499.95
571.542	51808.86
571.903	51754.18
572.265	51896.32
572.626	51861.97
572.987	52010.89
573.349	52108.06
573.71	52149.42
574.071	52292.69
574.432	52447.04
574.794	52634.83
575.155	52516.87
575.516	52515.74
575.877	52617.43
576.238	52736.07
576.599	52909.17
576.96	52879.57
577.32	52900.81
577.681	53104.65
578.042	53098.32
578.403	53143.29
578.763	53174.03
579.124	53277.75
579.485	53293.8
579.845	53406.56
580.206	53259.22
580.566	53315.49
580.927	53347.81
581.287	53549.16
581.648	53390.74
582.008	53569.5
582.368	53529.95
582.728	53439.1
583.089	53467.58
583.449	53511.87
583.809	53622.38
584.169	53663.73
584.529	53657.18
584.889	53805.2
585.249	53679.77
585.609	53574.02
585.969	53804.29
586.329	53644.07
586.688	53744.41
587.048	53722.03
587.408	53675.03
587.768	53696.5
588.127	53664.18
588.487	53592.77
588.846	53769.94
589.206	53615.14
589.565	53648.14
589.925	53865.98
590.284	53766.55
590.643	53772.65
591.003	53888.58
591.362	53876.15
591.721	53927.9
592.08	53846.78
592.44	54004.29
592.799	53976.26
593.158	53822.6
593.517	53905.98
593.876	53873.44
594.235	53821.01
594.593	53876.15
594.952	53974.68
595.311	53873.67
595.67	53942.59
596.029	54006.77
596.387	54083.15
596.746	54117.28
597.104	54000.22
597.463	53931.52
597.822	54043.61
598.18	53983.27
598.538	54053.55
598.897	54141.01
599.255	53928.81
599.613	54410.15
599.972	54189.14
600.33	54254.68
600.688	54211.06
601.046	54274.11
601.404	54393.43
601.762	54323.83
602.12	54463.03
602.478	54414.9
602.836	54388.23
603.194	54254.68
603.552	54384.16
603.91	54243.15
604.268	54401.11
604.625	54275.01
604.983	54338.74
605.341	54263.26
605.698	54370.15
606.056	54412.86
606.413	54327.67
606.771	54487.89
607.128	54497.38
607.485	54299.19
607.843	54412.41
608.2	54503.48
608.557	54636.13
608.914	54533.76
609.272	54673.87
609.629	54691.73
609.986	54767.43
610.343	54655.12
610.7	54816.47
611.057	54818.05
611.414	54720.43
611.771	54736.7
612.127	54951.83
612.484	54856.69
612.841	54953.41
613.198	54844.72
613.554	54939.4
613.911	55029.57
614.267	54991.83
614.624	54893.75
614.98	55082
615.337	55200.41
615.693	55115.9
616.05	55159.06
616.406	55307.75
616.762	55155.44
617.118	55166.06
617.475	55263.24
617.831	55257.36
618.187	55209.23
618.543	55245.61
618.899	55434.98
619.255	55399.05
619.611	55371.93
619.967	55366.74
620.323	55463.68
620.678	55347.98
621.034	55273.18
621.39	55289.9
621.746	55298.72
622.101	55525.15
622.457	55293.07
622.812	55257.81
623.168	55363.8
623.523	55366.96
623.879	55448.32
624.234	55239.96
624.589	55305.95
624.945	55257.59
625.3	55420.75
625.655	55334.42
626.01	55378.71
626.365	55359.05
626.72	55309.79
627.075	55277.25
627.43	55296.91
627.785	55149.34
628.14	55184.14
628.495	55263.69
628.85	55129
629.205	55158.15
629.559	55251.03
629.914	55094.88
630.269	55060.3
630.623	54972.85
630.978	54936.01
631.332	55081.32
631.687	55097.59
632.041	54930.59
632.396	54947.31
632.75	54774.21
633.104	54908.44
633.459	54807.2
633.813	54822.12
634.167	54798.39
634.521	54747.32
634.875	54820.08
635.229	54690.82
635.583	54647.21
635.937	54585.74
636.291	54645.17
636.645	54620.99
636.999	54529.47
637.352	54616.02
637.706	54425.52
638.06	54524.5
638.413	54485.18
638.767	54341
639.121	54442.69
639.474	54250.83
639.828	54319.98
640.181	54348.68
640.534	54390.72
640.888	54197.05
641.241	54130.16
641.594	54159.08
641.947	54231.17
642.301	54123.61
642.654	54077.05
643.007	54139.2
643.36	54181.46
643.713	53962.71
644.066	54039.77
644.419	53860.34
644.771	53674.8
645.124	53386.45
645.477	53185.78
645.83	53079.79
646.182	52984.65
646.535	52954.14
646.888	53103.74
647.24	52792.57
647.593	52993.24
647.945	52903.98
648.298	52720.25
648.65	52674.83
649.002	52560.26
649.355	52733.81
649.707	52582.85
650.059	52742.4
650.411	53089.96
650.763	53116.63
651.115	53328.37
651.467	53282.27
651.819	53207.7
652.171	53174.03
652.523	53026.01
652.875	53060.13
653.227	52915.05
653.578	53161.82
653.93	53026.46
654.282	52931.32
654.633	52764.77
654.985	52901.26
655.337	52854.03
655.688	52855.16
656.039	52936.52
656.391	52632.12
656.742	52668.28
657.094	52707.37
657.445	52792.11
657.796	52619.24
658.147	52495.4
658.498	52640.48
658.849	52610.88
659.2	52568.84
659.551	52466.25
659.902	52596.87
660.253	52450.2
660.604	52467.6
660.955	52327.27
661.306	52449.07
661.656	52392.13
662.007	52404.55
662.358	52457.66
662.708	52422.63
663.059	52301.51
663.409	52151
663.76	52462.86
664.11	52348.06
664.461	52358.23
664.811	52277.1
665.161	52268.51
665.511	52179.25
665.862	52209.31
666.212	52288.17
666.562	52257.89
666.912	52212.24
667.262	52211.79
667.612	52131.57
667.962	52240.26
668.312	52122.53
668.662	52238.46
669.011	52106.48
669.361	52145.13
669.711	52001.85
670.06	51997.79
670.41	51901.74
670.76	51880.27
671.109	51908.97
671.459	51834.17
671.808	51817
672.157	51847.96
672.507	51694.97
672.856	51581.98
673.205	51642.99
673.554	51662.88
673.904	51531.58
674.253	51820.61
674.602	51537.01
674.951	51198.26
675.3	50978.38
675.649	51378.14
675.998	51320.06
676.346	51381.53
676.695	51444.13
677.044	51202.33
677.393	51221.99
677.741	51254.53
678.09	51186.28
678.438	51141.76
678.787	51145.15
679.135	51195.77
679.484	50960.52
679.832	50989.45
680.181	50815.9
680.529	50938.83
680.877	50730.7
681.225	50683.02
681.573	50863.13
681.922	50702
682.27	50542.68
682.618	50510.59
682.966	50393.99
683.314	50468.11
683.661	50273.31
684.009	50194.89
684.357	50094.56
684.705	49999.42
685.053	50055.24
685.4	50193.31
685.748	49891.85
686.095	49791.52
686.443	49679.2
686.79	49628.13
687.138	49682.82
687.485	49693.89
687.832	49510.85
688.18	49535.03
688.527	49445.31
688.874	49342.49
689.221	49319.21
689.568	49062.04
689.915	49048.03
690.262	49064.98
690.609	48987.47
690.956	48815.04
691.303	48747.25
691.65	48542.28
691.997	48534.6
692.344	48273.14
692.69	48301.16
693.037	48202.86
693.383	47863.66
693.73	48028.4
694.077	47844.9
694.423	47813.71
694.769	47556.09
695.116	47462.09
695.462	47446.72
695.808	47462.31
696.155	47551.35
696.501	47080.17
696.847	47239.27
697.193	47008.99
697.539	46991.14
697.885	46708.21
698.231	46545.27
698.577	46614.2
698.923	46566.52
699.269	46367.2
699.614	46165.4
699.96	46157.49
700.306	46026.19
700.651	45770.15
700.997	45671.17
701.342	45717.05
701.688	45526.54
702.033	45397.96
702.379	45428.01
702.724	45127.46
703.069	45287.91
703.415	44804.98
703.76	44806.34
704.105	44781.25
704.45	44707.36
704.795	44458.55
705.14	44346.46
705.485	44345.56
705.83	44169.29
706.175	44296.74
706.52	44059.24
706.865	43929.3
707.209	43907.6
707.554	43634.62
707.899	43792.13
708.243	43522.3
708.588	43373.83
708.932	43157.79
709.277	43261.74
709.621	43244.8
709.966	42992.15
710.31	42969.77
710.654	42593.96
710.998	42862.88
711.342	42715.09
711.687	42531.37
712.031	42288.21
712.375	42255.44
712.719	42200.53
713.063	42206.63
713.407	42190.59
713.75	42039.18
714.094	42024.94
714.438	41793.76
714.782	41862.46
715.125	41660.66
715.469	41663.82
715.812	41487.1
716.156	41218.86
716.499	41265.19
716.843	41436.93
717.186	41072.65
717.53	41203.72
717.873	41226.54
718.216	41037.17
718.559	40789.04
718.902	40455.72
719.246	40554.24
719.589	40449.84
719.932	40487.13
720.275	40366.45
720.617	40241.94
720.96	40137.08
721.303	40306.79
721.646	40096.18
721.989	40048.72
722.331	40114.71
722.674	39960.14
723.016	39838.78
723.359	39786.35
723.701	39826.13
724.044	39485.12
724.386	39329.64
724.729	39448.74
725.071	39386.59
725.413	39368.29
725.755	39352.02
726.097	39000.39
726.439	38871.58
726.782	39120.16
727.124	39055.53
727.465	38834.06
727.807	38863.89
728.149	38600.17
728.491	38680.4
728.833	38657.12
729.175	38531.25
729.516	38446.28
729.858	38404.92
730.199	38318.6
730.541	38232.95
730.882	38160.64
731.224	38284.02
731.565	37978.49
731.906	38083.35
732.248	38040.64
732.589	37796.58
732.93	37561.78
733.271	37858.95
733.612	37696.47
733.953	37666.86
734.294	37588.22
734.635	37472.52
734.976	37665.51
735.317	37321.56
735.658	37396.36
735.999	37402.91
736.339	37261.68
736.68	37297.38
737.021	37058.07
737.361	37032.3
737.702	37240.43
738.042	36940.55
738.383	36826.88
738.723	36787.56
739.063	36758.41
739.404	36872.76
739.744	36552.09
740.084	36661.92
740.424	36550.96
740.764	36437.97
741.104	36475.71
741.444	36373.11
741.784	36149.61
742.124	36161.14
742.464	36102.61
742.804	36051.09
743.143	36011.54
743.483	36016.28
743.823	35783.75
744.162	35665.11
744.502	35834.59
744.841	35662.62
745.181	35741.49
745.52	35373.59
745.86	35543.3
746.199	35417.43
746.538	35454.49
746.877	35409.52
747.216	35301.73
747.556	35251.33
747.895	35228.96
748.234	35018.57
748.573	34972.24
748.911	34818.8
749.25	34915.75
749.589	34706.94
749.928	34647.06
750.267	34607.96
750.605	34529.32
750.944	34446.16
751.283	34241.64
751.621	34336.55
751.96	34163.23
752.298	34116.22
752.636	34141.08
752.975	33964.36
