Data from White_paper_FLMS001491_053.txt Node
Date: Tue Feb 07 10:35:16 GMT 2017
User: dcchb
Spectrometer: FLMS00149
Trigger mode: 0
Integration Time (sec): 2.000000E-2
Scans to average: 10
Electric dark correction enabled: true
Nonlinearity correction enabled: false
Boxcar width: 0
XAxis mode: Wavelengths
Number of Pixels in Spectrum: 2048
>>>>>Begin Spectral Data<<<<<
341.393	-6.17
341.776	-6.17
342.16	-6.17
342.543	-59.96
342.927	-76.9
343.31	-76.45
343.693	-66.51
344.077	-60.18
344.46	-62.44
344.843	-44.82
345.226	-41.2
345.61	-28.54
345.993	-2.56
346.376	-22.22
346.759	6.48
347.142	22.53
347.525	39.93
347.908	66.14
348.291	55.52
348.674	91
349.057	123.32
349.44	130.77
349.823	120.38
350.206	168.06
350.588	223.2
350.971	243.31
351.354	262.75
351.737	247.38
352.119	267.49
352.502	310.2
352.884	316.08
353.267	298
353.65	324.21
354.032	345.01
354.414	328.51
354.797	337.77
355.179	362.41
355.562	361.95
355.944	347.04
356.326	355.4
356.709	352.24
357.091	354.95
357.473	372.35
357.855	384.55
358.238	356.76
358.62	361.28
359.002	370.09
359.384	382.07
359.766	374.16
360.148	385
360.53	363.76
360.912	376.19
361.294	359.47
361.676	374.61
362.057	352.24
362.439	375.74
362.821	366.93
363.203	376.64
363.584	352.46
363.966	363.99
364.348	345.68
364.729	344.78
365.111	380.03
365.493	356.53
365.874	366.47
366.256	370.09
366.637	367.6
367.019	360.6
367.4	357.21
367.781	351.33
368.163	364.67
368.544	364.89
368.925	355.63
369.306	360.6
369.688	351.11
370.069	359.02
370.45	363.08
370.831	365.34
371.212	378.9
371.593	380.71
371.974	359.24
372.355	356.53
372.736	372.35
373.117	375.74
373.498	372.8
373.879	384.33
374.26	356.76
374.641	373.93
375.021	370.09
375.402	354.5
375.783	368.28
376.163	407.83
376.544	403.31
376.925	388.85
377.305	390.88
377.686	380.71
378.066	385.46
378.447	402.63
378.827	400.37
379.208	397.66
379.588	405.12
379.968	429.97
380.349	423.42
380.729	413.93
381.109	408.51
381.489	401.27
381.87	410.09
382.25	416.64
382.63	411.9
383.01	450.54
383.39	420.26
383.77	432.23
384.15	440.6
384.53	436.98
384.91	458
385.29	455.96
385.67	450.99
386.049	458.9
386.429	457.32
386.809	455.28
387.189	458.22
387.568	465.23
387.948	489.41
388.328	472.69
388.707	478.33
389.087	490.76
389.466	504.32
389.846	524.89
390.225	517.43
390.605	489.63
390.984	506.58
391.363	504.32
391.743	512.23
392.122	544.32
392.501	520.37
392.881	541.61
393.26	534.38
393.639	528.05
394.018	548.84
394.397	561.95
394.776	573.7
395.155	551.78
395.534	571.21
395.913	568.5
396.292	554.04
396.671	604.89
397.05	594.04
397.429	566.02
397.808	593.13
398.186	610.76
398.565	600.37
398.944	626.35
399.323	616.86
399.701	631.55
400.08	636.97
400.458	650.31
400.837	675.17
401.215	679.01
401.594	674.94
401.972	669.52
402.351	667.26
402.729	701.61
403.107	724.66
403.486	722.62
403.864	700.93
404.242	737.99
404.62	744.09
404.999	768.27
405.377	789.06
405.755	795.39
406.133	802.39
406.511	818.66
406.889	842.62
407.267	865.9
407.645	878.1
408.023	896.85
408.401	902.05
408.779	940.24
409.156	956.74
409.534	987.7
409.912	1014.59
410.29	1036.29
410.667	1056.85
411.045	1097.98
411.422	1122.39
411.8	1136.62
412.178	1144.31
412.555	1179.11
412.933	1221.14
413.31	1209.16
413.687	1271.08
414.065	1288.48
414.442	1335.94
414.819	1377.97
415.197	1392.89
415.574	1427.24
415.951	1456.16
416.328	1483.05
416.705	1493.9
417.082	1507.69
417.46	1555.59
417.837	1602.15
418.214	1606.67
418.591	1638.98
418.967	1640.79
419.344	1683.5
419.721	1716.49
420.098	1723.73
420.475	1762.59
420.852	1792.42
421.228	1827.9
421.605	1813.22
421.982	1895.92
422.358	1883.04
422.735	1929.82
423.111	1914.91
423.488	1979.76
423.864	1992.42
424.241	2072.42
424.617	2062.25
424.994	2080.78
425.37	2090.95
425.746	2114.22
426.123	2155.35
426.499	2184.5
426.875	2228.12
427.251	2268.8
427.627	2275.35
428.003	2304.05
428.379	2378.17
428.756	2400.54
429.132	2411.39
429.507	2442.35
429.883	2506.3
430.259	2560.99
430.635	2579.07
431.011	2565.96
431.387	2671.72
431.763	2672.18
432.138	2700.88
432.514	2766.41
432.89	2818.84
433.265	2835.11
433.641	2897.71
434.016	2939.29
434.392	2979.96
434.767	3056.35
435.143	2989.46
435.518	3059.96
435.894	3118.27
436.269	3162.56
436.644	3175.67
437.02	3243.01
437.395	3271.71
437.77	3329.79
438.145	3352.38
438.52	3385.83
438.895	3435.77
439.271	3428.77
439.646	3477.58
440.021	3591.93
440.395	3579.95
440.77	3520.29
441.145	3583.11
441.52	3652.94
441.895	3688.87
442.27	3717.8
442.645	3659.95
443.019	3752.83
443.394	3730.23
443.769	3787.17
444.143	3770.9
444.518	3839.15
444.892	3836.89
445.267	3855.87
445.641	3923.89
446.016	3900.17
446.39	3925.93
446.764	3982.2
447.139	3977.23
447.513	4020.39
447.887	4055.64
448.262	4081.18
448.636	4111.01
449.01	4167.05
449.384	4173.83
449.758	4191.46
450.132	4249.99
450.506	4270.33
450.88	4262.42
451.254	4300.38
451.628	4399.36
452.002	4394.39
452.376	4448.4
452.75	4527.49
453.123	4541.05
453.497	4574.5
453.871	4664.67
454.244	4725.91
454.618	4781.05
454.992	4839.35
455.365	4817.43
455.739	4988.95
456.112	4970.19
456.486	4978.1
456.859	5063.75
457.232	5191.66
457.606	5160.25
457.979	5221.26
458.352	5374.25
458.725	5414.93
459.099	5451.31
459.472	5582.61
459.845	5628.71
460.218	5694.47
460.591	5746.67
460.964	5742.15
461.337	5864.18
461.71	5949.38
462.083	6076.61
462.456	6071.41
462.829	6058.3
463.201	6203.16
463.574	6229.37
463.947	6312.76
464.32	6485.63
464.692	6501.45
465.065	6555.69
465.438	6639.53
465.81	6765.18
466.183	6758.62
466.555	6926.53
466.928	6990.03
467.3	6983.47
467.672	7133.53
468.045	7373.07
468.417	7325.61
468.789	7414.2
469.161	7487.87
469.534	7622.33
469.906	7765.6
470.278	7855.77
470.65	7920.63
471.022	8097.57
471.394	8218.7
471.766	8284.01
472.138	8479.03
472.51	8611.45
472.882	8737.55
473.253	8789.75
473.625	8997.66
473.997	9119.69
474.369	9165.56
474.74	9304.32
475.112	9486.69
475.484	9617.3
475.855	9800.58
476.227	9868.6
476.598	10149.04
476.97	10216.38
477.341	10452.76
477.713	10585.41
478.084	10754
478.455	11026.31
478.827	11023.59
479.198	11381.33
479.569	11398.27
479.94	11737.7
480.311	11830.8
480.682	12043.68
481.053	12247.74
481.424	12481.41
481.795	12631.01
482.166	12827.61
482.537	13019.7
482.908	13282.74
483.279	13433.93
483.65	13568.84
484.021	13934.7
484.391	14090.18
484.762	14174.92
485.133	14263.74
485.503	14462.83
485.874	14845.64
486.244	14963.6
486.615	15208.34
486.985	15397.04
487.356	15669.8
487.726	15724.04
488.097	16184.59
488.467	16090.35
488.837	16472.49
489.207	16706.83
489.578	16794.52
489.948	17054.4
490.318	17258.91
490.688	17447.38
491.058	17638.11
491.428	17862.96
491.798	17967.59
492.168	18332.1
492.538	18483.29
492.908	18644.18
493.278	18878.3
493.648	18961.69
494.017	19120.1
494.387	19376.6
494.757	19355.35
495.126	19632.18
495.496	19606.65
495.866	19843.25
496.235	20043.7
496.605	20278.27
496.974	20397.81
497.344	20600.52
497.713	20667.18
498.082	20762.77
498.452	21103.1
498.821	21125.25
499.19	21161.86
499.559	21433.94
499.928	21572.02
500.298	21650.89
500.667	21876.87
501.036	21858.11
501.405	22080.7
501.774	22093.36
502.143	22433.46
502.512	22371.32
502.88	22723.17
503.249	22663.51
503.618	22851.98
503.987	22989.61
504.356	23084.97
504.724	23358.19
505.093	23364.06
505.462	23595.92
505.83	23696.93
506.199	23892.63
506.567	24180.76
506.936	24142.57
507.304	24456.91
507.672	24512.96
508.041	24681.77
508.409	24802.67
508.777	24878.6
509.145	25128.99
509.514	25257.8
509.882	25353.16
510.25	25397
510.618	25693.04
510.986	25831.11
511.354	26085.8
511.722	26286.7
512.09	26406.47
512.458	26464.77
512.826	26710.41
513.193	26875.61
513.561	26962.38
513.929	27238.54
514.297	27351.07
514.664	27589.49
515.032	27665.42
515.4	27942.7
515.767	28013.43
516.135	28235.8
516.502	28175.69
516.869	28557.6
517.237	28609.8
517.604	28669.68
517.972	29022.67
518.339	29134.3
518.706	29266.73
519.073	29351.02
519.44	29640.96
519.808	29937.67
520.175	30038.69
520.542	30386.93
520.909	30462.41
521.276	30506.92
521.643	30920.92
522.009	31127.25
522.376	31227.81
522.743	31482.04
523.11	31764.52
523.477	31949.15
523.843	32261
524.21	32524.95
524.577	32727.2
524.943	32853.53
525.31	33009.68
525.676	33299.62
526.043	33453.29
526.409	33654.64
526.776	33910.22
527.142	34099.37
527.508	34192.7
527.874	34557.21
528.241	34723.54
528.607	34825.23
528.973	35180.25
529.339	35171.66
529.705	35571.88
530.071	35758.76
530.437	35965.76
530.803	36094.8
531.169	36331.86
531.535	36308.81
531.901	36591.96
532.267	36622.24
532.632	36905.17
532.998	37099.29
533.364	37327.31
533.73	37320.98
534.095	37715.32
534.461	37779.95
534.826	37928.2
535.192	38159.83
535.557	38346.94
535.923	38408.41
536.288	38345.36
536.653	38657.44
537.019	38633.04
537.384	38933.59
537.749	39078.9
538.114	39263.76
538.479	39274.15
538.845	39403.87
539.21	39306.69
539.575	39689.06
539.94	39866.68
540.305	40090.63
540.67	39901.71
541.034	40152.09
541.399	40448.81
541.764	40529.26
542.129	40705.07
542.494	40849.93
542.858	40876.14
543.223	41174.44
543.587	41229.13
543.952	41129.7
544.316	41338.05
544.681	41422.8
545.045	41754.09
545.41	41826.17
545.774	41900.3
546.138	42045.83
546.503	42171.93
546.867	42250.34
547.231	42596.55
547.595	42589.32
547.959	42752.93
548.324	42799.71
548.688	42997.22
549.052	43087.61
549.416	43249.41
549.779	43258.9
550.143	43465.45
550.507	43619.12
550.871	43871.77
551.235	43820.25
551.599	44191.08
551.962	44243.96
552.326	44327.13
552.689	44481.02
553.053	44421.81
553.417	44465.43
553.78	45071.74
554.143	44910.84
554.507	44923.72
554.87	45270.15
555.234	45553.99
555.597	45436.93
555.96	45698.84
556.323	45795.34
556.686	45890.25
557.05	46211.14
557.413	46198.71
557.776	46281.88
558.139	46600.06
558.502	46632.15
558.865	46745.59
559.228	47070.1
559.59	47066.26
559.953	47224.9
560.316	47665.12
560.679	47548.96
561.041	47665.57
561.404	47917.99
561.767	48201.83
562.129	48065.33
562.492	48514.13
562.854	48527.69
563.217	48566.56
563.579	48609.72
563.941	48934.69
564.304	49097.62
564.666	49305.98
565.028	49289.03
565.39	49443.6
565.753	49784.38
566.115	49746.42
566.477	49945.96
566.839	50060.31
567.201	50267.31
567.563	50415.78
567.925	50524.7
568.287	50566.74
568.648	50618.03
569.01	50867.52
569.372	50976.22
569.734	51035.88
570.095	51312.03
570.457	51472.7
570.819	51397.67
571.18	51568.97
571.542	51702.52
571.903	51727.38
572.265	51869.53
572.626	51922.18
572.987	52024.1
573.349	52127.82
573.71	52241.72
574.071	52403.3
574.432	52516.51
574.794	52704.08
575.155	52653.01
575.516	52536.85
575.877	52754.25
576.238	52810.29
576.599	53056.61
576.96	53077.86
577.32	53160.79
577.681	53208.02
578.042	53342.71
578.403	53242.37
578.763	53362.14
579.124	53438.98
579.485	53534.79
579.845	53626.09
580.206	53564.85
580.566	53613.21
580.927	53623.38
581.287	53815.46
581.648	53665.18
582.008	53873.54
582.368	53839.64
582.728	53903.37
583.089	53827.67
583.449	53875.35
583.809	53885.74
584.169	54016.81
584.529	53975.23
584.889	54211.61
585.249	54021.56
585.609	53924.61
585.969	54132.52
586.329	54015.23
586.688	54143.82
587.048	54257.26
587.408	54193.98
587.768	54124.38
588.127	54102.01
588.487	54148.56
588.846	54271.27
589.206	54133.2
589.565	54150.14
589.925	54351.95
590.284	54214.1
590.643	54245.51
591.003	54332.06
591.362	54485.5
591.721	54433.98
592.08	54419.29
592.44	54455.22
592.799	54576.35
593.158	54431.04
593.517	54478.72
593.876	54547.87
594.235	54513.07
594.593	54588.1
594.952	54598.49
595.311	54534.99
595.67	54572.28
596.029	54774.08
596.387	54833.29
596.746	54874.19
597.104	54681.2
597.463	54685.05
597.822	54849.11
598.18	54819.96
598.538	54713.74
598.897	54918.94
599.255	54650.24
599.613	55123.23
599.972	54864.7
600.33	55071.25
600.688	54895.89
601.046	55032.38
601.404	55017.92
601.762	54988.99
602.12	55201.64
602.478	55149.89
602.836	55193.73
603.194	55083.68
603.552	55171.13
603.91	55038.48
604.268	55143.56
604.625	55059.5
604.983	55309.66
605.341	55109.21
605.698	55232.83
606.056	55286.84
606.413	55236.44
606.771	55339.04
607.128	55381.98
607.485	55287.74
607.843	55356.44
608.2	55494.06
608.557	55502.42
608.914	55400.73
609.272	55553.04
609.629	55575.64
609.986	55665.81
610.343	55555.76
610.7	55706.26
611.057	55728.41
611.414	55650.22
611.771	55714.62
612.127	55842.98
612.484	55742.42
612.841	55856.31
613.198	55805.24
613.554	55803.66
613.911	55922.07
614.267	55854.28
614.624	55920.94
614.98	55923.88
615.337	56084.78
615.693	55952.36
616.05	55951.68
616.406	56094.05
616.762	56008.63
617.118	56023.77
617.475	56010.43
617.831	56139.92
618.187	56144.67
618.543	56108.51
618.899	56308.96
619.255	56239.13
619.611	56187.83
619.967	56287.71
620.323	56308.73
620.678	56294.49
621.034	56100.15
621.39	56183.76
621.746	56234.83
622.101	56460.37
622.457	56207.72
622.812	56305.57
623.168	56423.98
623.523	56304.89
623.879	56406.58
624.234	56236.19
624.589	56346.47
624.945	56352.8
625.3	56378.33
625.655	56395.73
626.01	56418.78
626.365	56448.84
626.72	56406.81
627.075	56409.07
627.43	56309.86
627.785	56245.91
628.14	56320.93
628.495	56345.79
628.85	56284.33
629.205	56273.7
629.559	56381.5
629.914	56305.57
630.269	56261.73
630.623	56232.12
630.978	56300.82
631.332	56329.52
631.687	56370.88
632.041	56239.35
632.396	56252.69
632.75	56227.83
633.104	56263.76
633.459	56127.49
633.813	56147.83
634.167	56089.98
634.521	56143.99
634.875	56175.63
635.229	56132.24
635.583	55956.65
635.937	56051.56
636.291	56016.54
636.645	56043.43
636.999	55906.71
637.352	56009.98
637.706	55883.88
638.06	56057.66
638.413	55967.72
638.767	55842.98
639.121	55906.03
639.474	55819.7
639.828	55859.48
640.181	55840.04
640.534	55861.96
640.888	55801.17
641.241	55671.91
641.594	55806.15
641.947	55889.08
642.301	55744.45
642.654	55822.19
643.007	55716.88
643.36	55697.45
643.713	55613.38
644.066	55785.81
644.419	55548.07
644.771	55497.23
645.124	55103.57
645.477	55162.09
645.83	55000.29
646.182	54867.64
646.535	54809.79
646.888	54847.75
647.24	54722.11
647.593	54859.5
647.945	54871.93
648.298	54685.5
648.65	54718.72
649.002	54622
649.355	54745.61
649.707	54692.73
650.059	54814.76
650.411	55209.78
650.763	55136.78
651.115	55447.29
651.467	55343.33
651.819	55335.42
652.171	55225.6
652.523	55269.21
652.875	55301.98
653.227	55149.89
653.578	55362.54
653.93	55243.9
654.282	55133.85
654.633	55121.64
654.985	55207.29
655.337	55178.37
655.688	55170
656.039	55196.9
656.391	54978.82
656.742	55054.08
657.094	55058.14
657.445	55114.86
657.796	55114.41
658.147	55057.24
658.498	55039.39
658.849	55143.34
659.2	54978.37
659.551	54980.63
659.902	55057.92
660.253	54931.59
660.604	55000.29
660.955	54960.29
661.306	54944.47
661.656	54862.22
662.007	54924.13
662.358	54948.77
662.708	54924.36
663.059	54894.31
663.409	54870.58
663.76	54920.75
664.11	54884.36
664.461	54961.2
664.811	54848.43
665.161	54901.31
665.511	54723.91
665.862	54713.29
666.212	54927.98
666.562	54861.09
666.912	54766.85
667.262	54689.79
667.612	54712.84
667.962	54831.93
668.312	54701.32
668.662	54816.79
669.011	54695.89
669.361	54667.87
669.711	54704.71
670.06	54618.15
670.41	54602.34
670.76	54562.34
671.109	54587.65
671.459	54601.66
671.808	54500.87
672.157	54554.88
672.507	54328.67
672.856	54417.03
673.205	54454.32
673.554	54457.03
673.904	54357.6
674.253	54609.57
674.602	54439.63
674.951	53981.11
675.3	53775.46
675.649	54276.69
675.998	54205.96
676.346	54242.34
676.695	54370.25
677.044	54233.31
677.393	54173.19
677.741	54215.23
678.09	54088.68
678.438	53983.82
678.787	54125.51
679.135	54046.87
679.484	53826.99
679.832	53976.36
680.181	53851.85
680.529	53755.8
680.877	53656.82
681.225	53763.71
681.573	53858.85
681.922	53599.42
682.27	53542.02
682.618	53558.97
682.966	53441.24
683.314	53514.91
683.661	53424.97
684.009	53263.84
684.357	53260.22
684.705	53144.75
685.053	53220.9
685.4	53140
685.748	53053.22
686.095	52907.24
686.443	52919.22
686.79	52802.61
687.138	52849.39
687.485	52752.67
687.832	52617.75
688.18	52653.01
688.527	52508.61
688.874	52509.96
689.221	52399.68
689.568	52334.15
689.915	52229.52
690.262	52215.51
690.609	52109.07
690.956	51996.98
691.303	52027.94
691.65	51794.27
691.997	51863.42
692.344	51576.65
692.69	51575.75
693.037	51533.72
693.383	51264.57
693.73	51428.41
694.077	51226.61
694.423	51238.36
694.769	51103.9
695.116	51002.43
695.462	50925.82
695.808	50868.65
696.155	50818.71
696.501	50654.87
696.847	50681.08
697.193	50416.91
697.539	50628.65
697.885	50355.22
698.231	50190.47
698.577	50143.7
698.923	50093.75
699.269	49904.15
699.614	49778.51
699.96	49757.72
700.306	49658.28
700.651	49496.03
700.997	49422.81
701.342	49316.82
701.688	49352.3
702.033	49187.56
702.379	49207
702.724	49111.63
703.069	49010.62
703.415	48616.05
703.76	48781.02
704.105	48721.81
704.45	48622.15
704.795	48367.25
705.14	48341.94
705.485	48334.7
705.83	48236.63
706.175	48182.39
706.52	48146.91
706.865	48005.45
707.209	47897.65
707.554	47718.9
707.899	47812.68
708.243	47703.76
708.588	47489.98
708.932	47409.3
709.277	47372.92
709.621	47363.2
709.966	47016.77
710.31	47049.54
710.654	46826.27
710.998	46828.53
711.342	46852.48
711.687	46695.42
712.031	46605.71
712.375	46548.76
712.719	46450.23
713.063	46397.58
713.407	46579.27
713.75	46333.4
714.094	46186.74
714.438	46140.64
714.782	46146.29
715.125	45885.05
715.469	46029.45
715.812	45657.71
716.156	45516.02
716.499	45518.28
716.843	45662.23
717.186	45413.88
717.53	45567.54
717.873	45491.61
718.216	45485.97
718.559	45328.91
718.902	45044.39
719.246	45143.15
719.589	44998.29
719.932	44785.42
720.275	44779.77
720.617	44721.47
720.96	44580.45
721.303	44691.18
721.646	44604.41
721.989	44400.12
722.331	44505.65
722.674	44321.93
723.016	44445.99
723.359	44245.32
723.701	44245.55
724.044	44000.81
724.386	43694.37
724.729	44066.79
725.071	43864.31
725.413	43757.87
725.755	43765.11
726.097	43638.33
726.439	43349.3
726.782	43620.48
727.124	43721.27
727.465	43276.31
727.807	43420.48
728.149	43302.29
728.491	43125.58
728.833	43420.48
729.175	43004.67
729.516	43057.1
729.858	43047.84
730.199	42962.19
730.541	42888.29
730.882	42829.31
731.224	42931.91
731.565	42695.53
731.906	42645.81
732.248	42690.78
732.589	42555.87
732.93	42375.31
733.271	42373.05
733.612	42533.73
733.953	42481.75
734.294	42230.01
734.635	42206.73
734.976	42205.83
735.317	41999.28
735.658	41978.26
735.999	41959.05
736.339	41963.8
736.68	41955.89
737.021	41910.69
737.361	41683.35
737.702	41942.1
738.042	41702.79
738.383	41597.03
738.723	41566.52
739.063	41562.23
739.404	41599.06
739.744	41566.75
740.084	41406.07
740.424	41528.78
740.764	41207.66
741.104	41388.9
741.444	41174.44
741.784	40935.8
742.124	41151.84
742.464	41103.48
742.804	40987.33
743.143	40873.88
743.483	40943.26
743.823	40644.74
744.162	40721.12
744.502	40731.74
744.841	40538.98
745.181	40675.47
745.52	40461.01
745.86	40578.52
746.199	40435.25
746.538	40423.5
746.877	40410.62
747.216	40433.22
747.556	40287.23
747.895	40239.32
748.234	40134.92
748.573	39949.84
748.911	40057.41
749.25	40079.78
749.589	39763.86
749.928	39819.22
750.267	39835.49
750.605	39750.07
750.944	39536.52
751.283	39416.07
751.621	39693.57
751.96	39411.1
752.298	39325.22
752.636	39292.68
752.975	39191.89
