Data from white_poster_card_FLMS001491_00034.txt Node
Date: Wed Feb 08 11:51:25 GMT 2017
User: dcchb
Spectrometer: FLMS00149
Trigger mode: 0
Integration Time (sec): 2.000000E-2
Scans to average: 10
Electric dark correction enabled: true
Nonlinearity correction enabled: false
Boxcar width: 0
XAxis mode: Wavelengths
Number of Pixels in Spectrum: 2048
>>>>>Begin Spectral Data<<<<<
341.393	-20.27
341.776	-20.27
342.16	-20.27
342.543	-63.43
342.927	-51.68
343.31	-75.41
343.693	-70.89
344.077	-67.72
344.46	-69.76
344.843	-35.18
345.226	-53.94
345.61	-32.47
345.993	-11.91
346.376	4.14
346.759	12.73
347.142	19.05
347.525	56.11
347.908	37.81
348.291	73.52
348.674	112.16
349.057	101.76
349.44	140.41
349.823	163
350.206	154.87
350.588	220.4
350.971	222.21
351.354	242.55
351.737	239.61
352.119	224.02
352.502	271.93
352.884	282.32
353.267	293.85
353.65	271.93
354.032	290.46
354.414	295.43
354.797	305.83
355.179	333.62
355.562	339.72
355.944	347.18
356.326	315.32
356.709	319.84
357.091	361.64
357.473	373.62
357.855	360.74
358.238	350.57
358.62	360.51
359.002	347.18
359.384	326.84
359.766	349.89
360.148	347.41
360.53	341.3
360.912	337.69
361.294	336.11
361.676	337.01
362.057	325.49
362.439	309.22
362.821	318.03
363.203	353.06
363.584	334.3
363.966	356.22
364.348	341.08
364.729	312.6
365.111	326.84
365.493	343.56
365.874	335.43
366.256	332.04
366.637	314.41
367.019	326.84
367.4	310.12
367.781	326.62
368.163	336.11
368.544	307.63
368.925	327.75
369.306	321.42
369.688	310.12
370.069	307.63
370.45	327.29
370.831	304.92
371.212	314.64
371.593	311.02
371.974	319.38
372.355	297.24
372.736	322.55
373.117	320.97
373.498	306.5
373.879	306.28
374.26	332.94
374.641	326.62
375.021	312.6
375.402	307.41
375.783	341.53
376.163	318.71
376.544	335.66
376.925	310.8
377.305	331.59
377.686	335.2
378.066	329.78
378.447	321.19
378.827	331.36
379.208	338.37
379.588	336.11
379.968	310.12
380.349	357.58
380.729	330.68
381.109	355.09
381.489	324.36
381.87	347.41
382.25	359.38
382.63	343.79
383.01	359.16
383.39	324.13
383.77	358.71
384.15	371.59
384.53	365.03
384.91	364.58
385.29	373.85
385.67	348.31
386.049	360.29
386.429	373.39
386.809	366.16
387.189	373.17
387.568	353.06
387.948	364.35
388.328	372.94
388.707	352.83
389.087	378.82
389.466	380.85
389.846	359.61
390.225	386.5
390.605	377.24
390.984	389.66
391.363	381.98
391.743	377.91
392.122	380.63
392.501	372.26
392.881	392.6
393.26	412.72
393.639	403.68
394.018	396.44
394.397	426.5
394.776	426.27
395.155	420.17
395.534	434.18
395.913	406.39
396.292	413.62
396.671	421.53
397.05	414.75
397.429	410.91
397.808	435.99
398.186	404.58
398.565	438.93
398.944	430.79
399.323	428.76
399.701	429.89
400.08	426.95
400.458	478.25
400.837	448.19
401.215	452.26
401.594	457.01
401.972	464.92
402.351	459.49
402.729	466.27
403.107	485.03
403.486	489.78
403.864	473.73
404.242	496.33
404.62	487.97
404.999	472.83
405.377	483
405.755	494.97
406.133	513.96
406.511	508.31
406.889	534.29
407.267	512.83
407.645	513.73
408.023	550.11
408.401	565.71
408.779	538.59
409.156	562.09
409.534	560.51
409.912	590.34
410.29	578.59
410.667	611.13
411.045	582.43
411.422	598.7
411.8	614.74
412.178	646.61
412.555	641.86
412.933	654.97
413.31	653.61
413.687	675.53
414.065	693.61
414.442	711.46
414.819	702.43
415.197	723.22
415.574	744.23
415.951	755.3
416.328	758.47
416.705	761.63
417.082	772.93
417.46	825.13
417.837	830.56
418.214	845.92
418.591	864.91
418.967	860.61
419.344	860.84
419.721	889.76
420.098	900.84
420.475	918.01
420.852	938.13
421.228	951.46
421.605	925.47
421.982	983.77
422.358	981.97
422.735	1009.31
423.111	1002.76
423.488	1023.55
423.864	1061.51
424.241	1046.37
424.617	1066.71
424.994	1049.76
425.37	1125.46
425.746	1110.32
426.123	1139.7
426.499	1122.53
426.875	1142.64
427.251	1188.97
427.627	1195.07
428.003	1211.79
428.379	1207.27
428.756	1214.73
429.132	1243.88
429.507	1247.95
429.883	1280.26
430.259	1327.04
430.635	1336.76
431.011	1342.63
431.387	1359.13
431.763	1391.22
432.138	1400.94
432.514	1431.22
432.89	1441.16
433.265	1455.85
433.641	1480.26
434.016	1527.94
434.392	1546.24
434.767	1563.19
435.143	1539.69
435.518	1586.02
435.894	1607.49
436.269	1627.6
436.644	1654.04
437.02	1653.13
437.395	1691.33
437.77	1693.59
438.145	1709.4
438.52	1730.65
438.895	1733.13
439.271	1779.01
439.646	1777.65
440.021	1802.74
440.395	1808.84
440.77	1787.37
441.145	1826.24
441.52	1861.94
441.895	1840.7
442.27	1859
442.645	1866.69
443.019	1897.65
443.394	1896.97
443.769	1948.04
444.143	1905.11
444.518	1951.43
444.892	1953.24
445.267	1961.6
445.641	1984.65
446.016	2020.13
446.39	1999.34
446.764	1995.95
447.139	2051.32
447.513	2043.86
447.887	2046.12
448.262	2070.07
448.636	2089.96
449.01	2117.3
449.384	2091.32
449.758	2120.92
450.132	2141.48
450.506	2176.06
450.88	2194.14
451.254	2169.51
451.628	2220.58
452.002	2220.58
452.376	2286.34
452.75	2280.46
453.123	2295.38
453.497	2331.76
453.871	2317.07
454.244	2371.08
454.618	2383.51
454.992	2414.02
455.365	2428.03
455.739	2469.84
456.112	2501.7
456.486	2512.32
456.859	2583.51
457.232	2569.27
457.606	2603.84
457.979	2640.68
458.352	2660.11
458.725	2690.85
459.099	2713.67
459.472	2760.22
459.845	2760.9
460.218	2840
460.591	2835.48
460.964	2841.8
461.337	2920.9
461.71	2953.89
462.083	2969.48
462.456	3012.19
462.829	3051.97
463.201	3079.09
463.574	3088.35
463.947	3168.8
464.32	3178.29
464.692	3222.81
465.065	3251.74
465.438	3291.96
465.81	3326.76
466.183	3328.12
466.555	3447.21
466.928	3449.7
467.3	3434.78
467.672	3491.73
468.045	3584.16
468.417	3586.19
468.789	3618.73
469.161	3645.17
469.534	3710.71
469.906	3764.94
470.278	3807.2
470.65	3857.14
471.022	3936.69
471.394	4016.46
471.766	4028.21
472.138	4091.49
472.51	4110.47
472.882	4224.82
473.253	4269.11
473.625	4271.37
473.997	4368.32
474.369	4379.62
474.74	4452.61
475.112	4522.89
475.484	4617.8
475.855	4704.35
476.227	4688.99
476.598	4904.35
476.97	4892.15
477.341	4977.57
477.713	5037.9
478.084	5120.16
478.455	5272.93
478.827	5289.42
479.198	5397.89
479.569	5420.95
479.94	5576.65
480.311	5614.61
480.682	5712.46
481.053	5841.72
481.424	5982.74
481.795	6009.86
482.166	6079.23
482.537	6161.49
482.908	6294.59
483.279	6330.75
483.65	6513.35
484.021	6575.72
484.391	6695.71
484.762	6749.27
485.133	6811.42
485.503	6927.57
485.874	7015.71
486.244	7063.16
486.615	7226.32
486.985	7299.54
487.356	7502.92
487.726	7487.56
488.097	7659.76
488.467	7713.09
488.837	7877.83
489.207	7975.23
489.578	8044.38
489.948	8167.99
490.318	8274.43
490.688	8326.41
491.058	8436.91
491.428	8522.56
491.798	8619.28
492.168	8746.96
492.538	8825.83
492.908	8920.97
493.278	8970.91
493.648	8994.18
494.017	9228.08
494.387	9249.54
494.757	9367.06
495.126	9407.28
495.496	9496.32
495.866	9555.07
496.235	9665.81
496.605	9800.04
496.974	9809.3
497.344	9892.69
497.713	9965.01
498.082	10082.07
498.452	10165.23
498.821	10236.64
499.19	10257.88
499.559	10384.43
499.928	10528.61
500.298	10548.04
500.667	10647.47
501.036	10668.04
501.405	10786
501.774	10711.88
502.143	10849.73
502.512	10990.74
502.88	11022.61
503.249	11052.66
503.618	11145.09
503.987	11183.51
504.356	11350.73
504.724	11335.82
505.093	11416.95
505.462	11538.75
505.83	11546.89
506.199	11583.72
506.567	11871.85
506.936	11834.34
507.304	11978.51
507.672	12001.56
508.041	12094.67
508.409	12144.38
508.777	12272.29
509.145	12372.4
509.514	12431.61
509.882	12438.39
510.25	12565.62
510.618	12628.89
510.986	12815.33
511.354	12935.32
511.722	13002.44
512.09	13143.68
512.458	13121.31
512.826	13231.36
513.193	13254.19
513.561	13373.73
513.929	13493.95
514.297	13684.23
514.664	13783.66
515.032	13831.57
515.4	13873.38
515.767	13947.73
516.135	14022.3
516.502	13955.86
516.869	14212.58
517.237	14313.14
517.604	14359.24
517.972	14422.52
518.339	14628.61
518.706	14732.11
519.073	14746.8
519.44	14882.39
519.808	14972.11
520.175	15031.77
520.542	15274.92
520.909	15307.01
521.276	15391.53
521.643	15500.45
522.009	15648.92
522.376	15789.71
522.743	15822.93
523.11	15961.23
523.477	16195.13
523.843	16194.45
524.21	16453.88
524.577	16541.33
524.943	16527.09
525.31	16714.89
525.676	16905.61
526.043	17004.14
526.409	17123.69
526.776	17250.24
527.142	17433.96
527.508	17478.71
527.874	17573.85
528.241	17744.01
528.607	17826.27
528.973	17998.69
529.339	18000.95
529.705	18245.01
530.071	18309.87
530.437	18460.15
530.803	18544.89
531.169	18670.31
531.535	18708.73
531.901	18765.23
532.267	18748.5
532.632	18995.28
532.998	19071.66
533.364	19211.99
533.73	19218.1
534.095	19407.7
534.461	19516.62
534.826	19564.98
535.192	19572.89
535.557	19762.49
535.923	19802.04
536.288	19912.32
536.653	19978.75
537.019	19959.77
537.384	20098.3
537.749	20204.06
538.114	20296.26
538.479	20326.32
538.845	20425.07
539.21	20486.54
539.575	20622.35
539.94	20546.2
540.305	20759.3
540.67	20689.7
541.034	20927.43
541.399	20923.59
541.764	21021.89
542.129	20997.71
542.494	21171.94
542.858	21257.59
543.223	21228.66
543.587	21408.77
543.952	21399.51
544.316	21529.9
544.681	21539.17
545.045	21672.72
545.41	21746.62
545.774	21763.34
546.138	21911.13
546.503	21957.23
546.867	22022.54
547.231	22032.03
547.595	22204.68
547.959	22327.17
548.324	22338.24
548.688	22349.31
549.052	22482.42
549.416	22494.62
549.779	22565.8
550.143	22492.81
550.507	22726.93
550.871	22804.67
551.235	22770.09
551.599	23086.92
551.962	23116.3
552.326	23124.66
552.689	23277.88
553.053	23258.44
553.417	23368.27
553.78	23731.88
554.143	23542.73
554.507	23681.71
554.87	23781.37
555.234	23970.29
555.597	23921.93
555.96	24076.73
556.323	24161.02
556.686	24286.44
557.05	24368.92
557.413	24437.85
557.776	24457.73
558.139	24710.38
558.502	24748.35
558.865	24904.05
559.228	25070.37
559.59	25092.07
559.953	25206.41
560.316	25415.67
560.679	25370.03
561.041	25634.42
561.404	25660.41
561.767	25914.64
562.129	25862.44
562.492	25961.65
562.854	26008.2
563.217	26138.59
563.579	26129.78
563.941	26497.23
564.304	26583.33
564.666	26795.07
565.028	26777.9
565.39	26846.6
565.753	27057.89
566.115	27085.23
566.477	27257.21
566.839	27279.58
567.201	27394.38
567.563	27538.1
567.925	27739
568.287	27699.68
568.648	27828.49
569.01	27948.71
569.372	28074.59
569.734	28077.07
570.095	28254.02
570.457	28356.16
570.819	28493.33
571.18	28434.58
571.542	28592.77
571.903	28746.43
572.265	28784.85
572.626	28864.85
572.987	28846.32
573.349	28960.44
573.71	29082.47
574.071	29164.05
574.432	29429.58
574.794	29399.3
575.155	29400.88
575.516	29441.78
575.877	29524.49
576.238	29554.77
576.599	29788.89
576.96	29807.65
577.32	29760.87
577.681	29948.21
578.042	29845.39
578.403	29978.04
578.763	30072.05
579.124	30140.52
579.485	30163.57
579.845	30184.14
580.206	30177.36
580.566	30170.12
580.927	30309.33
581.287	30256.22
581.648	30249.44
582.008	30468.42
582.368	30415.54
582.728	30355.88
583.089	30292.16
583.449	30383.9
583.809	30467.97
584.169	30583.45
584.529	30444.47
584.889	30717.68
585.249	30471.13
585.609	30399.95
585.969	30752.03
586.329	30529.66
586.688	30646.5
587.048	30607.63
587.408	30607.4
587.768	30496.9
588.127	30555.88
588.487	30558.59
588.846	30745.48
589.206	30545.03
589.565	30533.28
589.925	30735.08
590.284	30719.04
590.643	30721.75
591.003	30689.43
591.362	30732.37
591.721	30784.35
592.08	30708.19
592.44	30802.42
592.799	30814.85
593.158	30705.03
593.517	30833.38
593.876	30874.74
594.235	30793.61
594.593	30820.28
594.952	30886.26
595.311	30771.69
595.67	30778.02
596.029	30940.95
596.387	31096.2
596.746	31044.23
597.104	30957
597.463	31018.46
597.822	31101.17
598.18	30903.66
598.538	30956.54
598.897	31033.83
599.255	30924.68
599.613	31296.65
599.972	31072.02
600.33	31174.84
600.688	31181.4
601.046	31169.42
601.404	31462.52
601.762	31266.37
602.12	31444.67
602.478	31390.88
602.836	31374.39
603.194	31334.16
603.552	31385.23
603.91	31193.37
604.268	31456.42
604.625	31376.42
604.983	31390.66
605.341	31394.5
605.698	31460.94
606.056	31553.59
606.413	31466.81
606.771	31634.95
607.128	31666.36
607.485	31476.98
607.843	31616.19
608.2	31740.93
608.557	31907.93
608.914	31882.4
609.272	31880.14
609.629	31838.33
609.986	31906.58
610.343	31958.78
610.7	32131.2
611.057	32093.46
611.414	32030.64
611.771	31986.8
612.127	32189.28
612.484	32126.91
612.841	32262.95
613.198	32062.05
613.554	32203.97
613.911	32285.55
614.267	32317.41
614.624	32178.66
614.98	32394.47
615.337	32462.27
615.693	32552.21
616.05	32253.23
616.406	32587.46
616.762	32434.92
617.118	32428.6
617.475	32391.99
617.831	32623.17
618.187	32566.9
618.543	32666.78
618.899	32773.67
619.255	32714.69
619.611	32681.47
619.967	32769.38
620.323	32851.18
620.678	32732.77
621.034	32711.3
621.39	32704.52
621.746	32617.07
622.101	33048.24
622.457	32730.96
622.812	32740
623.168	32833.33
623.523	32820.68
623.879	33048.02
624.234	32727.8
624.589	32780.9
624.945	32881.01
625.3	33006.89
625.655	32869.04
626.01	32908.13
626.365	32969.15
626.72	32704.75
627.075	32827.68
627.43	32745.2
627.785	32775.48
628.14	32797.85
628.495	32729.83
628.85	32780.9
629.205	32635.37
629.559	32782.49
629.914	32600.57
630.269	32617.29
630.623	32568.71
630.978	32504.75
631.332	32648.03
631.687	32602.83
632.041	32488.93
632.396	32616.16
632.75	32479.89
633.104	32464.53
633.459	32291.65
633.813	32405.55
634.167	32356.51
634.521	32296.85
634.875	32337.75
635.229	32209.62
635.583	32172.56
635.937	32116.29
636.291	32063.41
636.645	32154.71
636.999	31987.25
637.352	32059.57
637.706	31858.67
638.06	32034.48
638.413	31949.96
638.767	31768.27
639.121	31830.19
639.474	31624.78
639.828	31632.23
640.181	31723.3
640.534	31743.87
640.888	31472.24
641.241	31362.41
641.594	31319.7
641.947	31520.6
642.301	31448.51
642.654	31442.86
643.007	31429.3
643.36	31323.54
643.713	31266.59
644.066	31467.94
644.419	31138.01
644.771	30933.72
645.124	30699.15
645.477	30690.79
645.83	30467.29
646.182	30263.46
646.535	30268.65
646.888	30379.84
647.24	30137.36
647.593	30241.99
647.945	30069.11
648.298	30004.93
648.65	29970.81
649.002	29934.42
649.355	29888.32
649.707	29972.16
650.059	30069.56
650.411	30401.31
650.763	30455.32
651.115	30653.05
651.467	30586.39
651.819	30677.46
652.171	30654.41
652.523	30517.46
652.875	30423.68
653.227	30281.99
653.578	30560.62
653.93	30409.21
654.282	30269.56
654.633	30209.67
654.985	30204.02
655.337	30335.54
655.688	30278.82
656.039	30333.28
656.391	30135.78
656.742	30131.71
657.094	30157.47
657.445	30151.14
657.796	30110.01
658.147	29944.14
658.498	30057.13
658.849	30085.16
659.2	29953.41
659.551	30006.29
659.902	30071.6
660.253	29937.59
660.604	30092.16
660.955	29872.28
661.306	29935.78
661.656	29815.33
662.007	29851.26
662.358	29830.02
662.708	29813.07
663.059	29778.72
663.409	29648.1
663.76	29880.41
664.11	29843.35
664.461	29818.27
664.811	29784.15
665.161	29658.5
665.511	29643.13
665.862	29781.89
666.212	29695.56
666.562	29638.61
666.912	29535.34
667.262	29633.87
667.612	29597.03
667.962	29667.09
668.312	29519.75
668.662	29754.32
669.011	29516.58
669.361	29551.61
669.711	29599.07
670.06	29556.36
670.41	29395.91
670.76	29381.22
671.109	29502.35
671.459	29451.05
671.808	29425.74
672.157	29531.27
672.507	29214.67
672.856	29244.5
673.205	29292.18
673.554	29390.94
673.904	29238.62
674.253	29278.4
674.602	29304.84
674.951	28868.69
675.3	28704.4
675.649	29223.48
675.998	29098.74
676.346	29028.46
676.695	29130.6
677.044	28887.67
677.393	29079.31
677.741	29041.57
678.09	28962.7
678.438	28852.19
678.787	28944.62
679.135	28874.34
679.484	28855.13
679.832	28852.19
680.181	28774
680.529	28711.63
680.877	28778.07
681.225	28698.07
681.573	28774.46
681.922	28516.61
682.27	28517.06
682.618	28570.84
682.966	28338.31
683.314	28449.49
683.661	28352.77
684.009	28269.61
684.357	28231.42
684.705	28212.66
685.053	28241.81
685.4	28094.7
685.748	27973.57
686.095	27991.88
686.443	27894.7
686.79	27935.38
687.138	27866.68
687.485	27886.57
687.832	27583.07
688.18	27754.14
688.527	27519.35
688.874	27615.62
689.221	27562.28
689.568	27409.75
689.915	27159.36
690.262	27336.53
690.609	27181.5
690.956	27181.95
691.303	27082.97
691.65	26987.84
691.997	26941.96
692.344	26742.87
692.69	26760.27
693.037	26944.67
693.383	26645.25
693.73	26718.46
694.077	26433.05
694.423	26517.11
694.769	26354.63
695.116	26405.7
695.462	26330
695.808	26280.06
696.155	26208.87
696.501	26167.52
696.847	26159.16
697.193	25991.93
697.539	25994.64
697.885	25729.34
698.231	25678.94
698.577	25714.2
698.923	25698.83
699.269	25618.61
699.614	25423.58
699.96	25321.21
700.306	25456.8
700.651	25335
700.997	25169.58
701.342	25268.33
701.688	25171.39
702.033	25079.41
702.379	25082.8
702.724	24944.73
703.069	25053.88
703.415	24740.21
703.76	24720.1
704.105	24654.11
704.45	24704.73
704.795	24503.83
705.14	24485.98
705.485	24492.53
705.83	24288.92
706.175	24411.86
706.52	24246.89
706.865	24166.44
707.209	24078.08
707.554	24098.65
707.899	24073.56
708.243	23947.46
708.588	23996.95
708.932	23744.53
709.277	23663.63
709.621	23745.66
709.966	23574.82
710.31	23596.06
710.654	23417.99
710.998	23492.33
711.342	23396.97
711.687	23370.53
712.031	23328.5
712.375	23158.11
712.719	23367.14
713.063	23217.77
713.407	23220.48
713.75	23074.72
714.094	23058.22
714.438	22942.74
714.782	22954.72
715.125	22930.54
715.469	22939.35
715.812	22806.25
716.156	22864.1
716.499	22770.55
716.843	22652.58
717.186	22603.77
717.53	22703.43
717.873	22515.86
718.216	22598.8
718.559	22452.59
718.902	22274.97
719.246	22314.96
719.589	22265.02
719.932	22135.31
720.275	22127.62
720.617	22168.98
720.96	22134.63
721.303	22202.88
721.646	22043.33
721.989	22017.8
722.331	22054.41
722.674	21904.81
723.016	21899.83
723.359	21856.9
723.701	21928.08
724.044	21644.02
724.386	21619.39
724.729	21679.95
725.071	21669.33
725.413	21595.21
725.755	21759.05
726.097	21545.72
726.439	21520.41
726.782	21441.77
727.124	21642.89
727.465	21343.69
727.807	21382.33
728.149	21252.62
728.491	21257.59
728.833	21313.18
729.175	21198.16
729.516	21139.18
729.858	21151.83
730.199	21096.24
730.541	21158.38
730.882	21059.86
731.224	21093.08
731.565	20959.07
731.906	20910.03
732.248	20945.96
732.589	20784.61
732.93	20705.29
733.271	20798.17
733.612	20768.56
733.953	20740.54
734.294	20630.49
734.635	20648.57
734.976	20648.57
735.317	20548
735.658	20647.89
735.999	20516.82
736.339	20565.41
736.68	20543.94
737.021	20489.02
737.361	20400.89
737.702	20498.74
738.042	20368.57
738.383	20332.42
738.723	20390.95
739.063	20318.63
739.404	20298.07
739.744	20288.12
740.084	20183.95
740.424	20135.59
740.764	20104.4
741.104	20165.19
741.444	19995.03
741.784	19980.56
742.124	19988.92
742.464	19953.67
742.804	19946.44
743.143	19948.25
743.483	19882.26
743.823	19830.74
744.162	19727.91
744.502	19632.77
744.841	19785.31
745.181	19784.86
745.52	19703.73
745.86	19688.37
746.199	19618.76
746.538	19583.06
746.877	19652.44
747.216	19535.6
747.556	19593.68
747.895	19522.5
748.234	19368.83
748.573	19369.28
748.911	19477.98
749.25	19337.42
749.589	19251.54
749.928	19300.13
750.267	19255.84
750.605	19179.23
750.944	19175.16
751.283	19155.27
751.621	19091.32
751.96	18986.69
752.298	19006.35
752.636	18912.57
752.975	18847.94
753.313	18835.51
753.651	18725.23
753.989	18744.44
754.327	18684.55
