Data from White_reflection_standard_FLMS001491_030.txt Node
Date: Tue Feb 07 10:32:01 GMT 2017
User: dcchb
Spectrometer: FLMS00149
Trigger mode: 0
Integration Time (sec): 2.000000E-2
Scans to average: 10
Electric dark correction enabled: true
Nonlinearity correction enabled: false
Boxcar width: 0
XAxis mode: Wavelengths
Number of Pixels in Spectrum: 2048
>>>>>Begin Spectral Data<<<<<
341.393	-14.48
341.776	-14.48
342.16	-14.48
342.543	-52.22
342.927	-81.14
343.31	-72.1
343.693	-77.07
344.077	-51.99
344.46	-47.7
344.843	-56.06
345.226	-28.94
345.61	-29.84
345.993	-25.78
346.376	11.29
346.759	1.12
347.142	29.14
347.525	37.5
347.908	38.4
348.291	73.2
348.674	85.86
349.057	112.98
349.44	115.01
349.823	130.15
350.206	159.08
350.588	222.35
350.971	241.79
351.354	268
351.737	271.62
352.119	293.09
352.502	288.34
352.884	329.69
353.267	314.1
353.65	301.67
354.032	341.67
354.414	349.13
354.797	363.59
355.179	379.18
355.562	390.48
355.944	374.44
356.326	397.26
356.709	384.16
357.091	382.12
357.473	367.66
357.855	383.25
358.238	395.23
358.62	410.6
359.002	374.21
359.384	400.2
359.766	369.02
360.148	409.24
360.53	413.99
360.912	425.51
361.294	425.74
361.676	410.37
362.057	418.05
362.439	387.77
362.821	410.37
363.203	405.17
363.584	420.09
363.966	392.29
364.348	392.97
364.729	424.16
365.111	414.66
365.493	413.31
365.874	422.12
366.256	401.56
366.637	413.76
367.019	416.02
367.4	413.76
367.781	416.47
368.163	423.7
368.544	418.96
368.925	437.94
369.306	417.38
369.688	423.48
370.069	426.87
370.45	448.34
370.831	425.96
371.212	445.85
371.593	444.27
371.974	450.14
372.355	443.59
372.736	470.71
373.117	447.21
373.498	447.88
373.879	450.37
374.26	457.83
374.641	444.95
375.021	455.34
375.402	456.92
375.783	467.54
376.163	505.96
376.544	521.33
376.925	494.44
377.305	481.33
377.686	493.31
378.066	494.66
378.447	514.77
378.827	530.14
379.208	508
379.588	496.47
379.968	502.8
380.349	508
380.729	522.68
381.109	519.75
381.489	527.88
381.87	540.54
382.25	550.25
382.63	553.64
383.01	539.18
383.39	551.16
383.77	556.13
384.15	563.81
384.53	576.47
384.91	584.83
385.29	587.09
385.67	596.58
386.049	597.71
386.429	609.69
386.809	620.31
387.189	607.88
387.568	642.68
387.948	669.35
388.328	658.5
388.707	660.99
389.087	679.97
389.466	680.19
389.846	676.8
390.225	694.2
390.605	690.59
390.984	719.74
391.363	720.64
391.743	716.13
392.122	717.71
392.501	760.64
392.881	747.31
393.26	757.03
393.639	754.32
394.018	731.27
394.397	804.03
394.776	774.88
395.155	811.72
395.534	807.2
395.913	792.96
396.292	792.73
396.671	824.14
397.05	841.09
397.429	841.55
397.808	841.77
398.186	847.65
398.565	831.6
398.944	868.89
399.323	876.12
399.701	893.07
400.08	890.36
400.458	899.85
400.837	919.28
401.215	920.41
401.594	962.9
401.972	937.14
402.351	948.66
402.729	947.53
403.107	956.8
403.486	976.46
403.864	968.32
404.242	1004.03
404.62	1021.65
404.999	1034.99
405.377	1052.61
405.755	1028.43
406.133	1063.69
406.511	1094.19
406.889	1081.77
407.267	1126.96
407.645	1150.46
408.023	1138.26
408.401	1152.95
408.779	1166.51
409.156	1222.78
409.534	1203.12
409.912	1218.48
410.29	1215.32
410.667	1281.31
411.045	1274.75
411.422	1305.26
411.8	1307.97
412.178	1320.4
412.555	1366.28
412.933	1367.41
413.31	1385.26
413.687	1384.36
414.065	1402.66
414.442	1424.13
414.819	1476.78
415.197	1470.46
415.574	1485.37
415.951	1480.17
416.328	1531.47
416.705	1525.82
417.082	1516.33
417.46	1572.6
417.837	1589.77
418.214	1560.85
418.591	1611.24
418.967	1623.22
419.344	1631.13
419.721	1638.59
420.098	1653.95
420.475	1692.37
420.852	1704.12
421.228	1718.36
421.605	1747.28
421.982	1770.56
422.358	1798.58
422.735	1838.81
423.111	1782.99
423.488	1826.15
423.864	1867.51
424.241	1913.16
424.617	1906.15
424.994	1904.12
425.37	1951.8
425.746	1972.14
426.123	1972.82
426.499	2015.75
426.875	2027.5
427.251	2056.65
427.627	2154.51
428.003	2093.49
428.379	2115.86
428.756	2164.9
429.132	2209.42
429.507	2240.83
429.883	2259.81
430.259	2334.61
430.635	2336.2
431.011	2384.56
431.387	2410.77
431.763	2456.19
432.138	2459.13
432.514	2516.76
432.89	2528.05
433.265	2575.06
433.641	2608.28
434.016	2633.36
434.392	2697.54
434.767	2701.38
435.143	2731.21
435.518	2752.91
435.894	2767.14
436.269	2824.09
436.644	2848.95
437.02	2902.73
437.395	2909.74
437.77	2919.68
438.145	3022.96
438.52	3003.07
438.895	3053.24
439.271	3084.88
439.646	3151.54
440.021	3150.64
440.395	3201.03
440.77	3142.5
441.145	3194.25
441.52	3295.72
441.895	3240.13
442.27	3300.46
442.645	3336.62
443.019	3366.9
443.394	3360.8
443.769	3420.01
444.143	3362.16
444.518	3433.57
444.892	3469.73
445.267	3495.71
445.641	3523.06
446.016	3567.8
446.39	3583.85
446.764	3633.79
447.139	3638.31
447.513	3677.4
447.887	3687.57
448.262	3678.99
448.636	3700
449.01	3771.86
449.384	3812.32
449.758	3812.32
450.132	3936.38
450.506	3931.86
450.88	3924.85
451.254	4001.69
451.628	4024.74
452.002	4068.13
452.376	4115.13
452.75	4125.75
453.123	4178.18
453.497	4227.67
453.871	4272.19
454.244	4360.78
454.618	4424.05
454.992	4439.87
455.365	4505.4
455.739	4597.61
456.112	4599.41
456.486	4684.83
456.859	4707.43
457.232	4847.32
457.606	4839.41
457.979	4897.48
458.352	4975.45
458.725	5066.52
459.099	5099.29
459.472	5170.02
459.845	5208.44
460.218	5309.9
460.591	5365.95
460.964	5389.22
461.337	5497.69
461.71	5577.47
462.083	5645.71
462.456	5674.19
462.829	5765.71
463.201	5796.67
463.574	5828.31
463.947	5941.3
464.32	6085.93
464.692	6116.21
465.065	6130.67
465.438	6260.16
465.81	6320.5
466.183	6411.57
466.555	6520.49
466.928	6528.63
467.3	6554.84
467.672	6661.05
468.045	6930.65
468.417	6885.45
468.789	6908.28
469.161	7075.73
469.534	7145.56
469.906	7321.15
470.278	7428.94
470.65	7480.92
471.022	7608.37
471.394	7776.28
471.766	7849.5
472.138	7981.7
472.51	8075.93
472.882	8246.32
473.253	8304.63
473.625	8414.23
473.997	8607.9
474.369	8641.57
474.74	8740.32
475.112	8946.64
475.484	9133.08
475.855	9236.13
476.227	9357.93
476.598	9566.29
476.97	9716.11
477.341	9904.13
477.713	10073.85
478.084	10120.85
478.455	10354.97
478.827	10506.15
479.198	10798.35
479.569	10808.74
479.94	11133.25
480.311	11280.37
480.682	11460.7
481.053	11748.6
481.424	11880.35
481.795	12045.77
482.166	12277.86
482.537	12385.2
482.908	12735.02
483.279	12822.7
483.65	13042.81
484.021	13271.28
484.391	13421.78
484.762	13530.03
485.133	13707.42
485.503	13890.24
485.874	14292.27
486.244	14304.69
486.615	14552.82
486.985	14873.72
487.356	14961.17
487.726	15141.06
488.097	15582.4
488.467	15557.54
488.837	15891.55
489.207	16037.08
489.578	16305.09
489.948	16561.36
490.318	16809.71
490.688	16807.45
491.058	17035.24
491.428	17287.21
491.798	17470.94
492.168	17796.58
492.538	17819.63
492.908	18066.18
493.278	18391.14
493.648	18349.33
494.017	18625.94
494.387	18739.83
494.757	18918.13
495.126	19136.66
495.496	19140.27
495.866	19488.29
496.235	19485.35
496.605	19732.8
496.974	19926.24
497.344	20161.94
497.713	20150.64
498.082	20350.41
498.452	20533.68
498.821	20737.52
499.19	20681.48
499.559	21014.12
499.928	21074.01
500.298	21219.31
500.667	21447.33
501.036	21538.18
501.405	21669.92
501.774	21836.02
502.143	21890.94
502.512	22059.07
502.88	22335.67
503.249	22391.49
503.618	22487.76
503.987	22626.74
504.356	22879.38
504.724	22871.02
505.093	23111.92
505.462	23182.43
505.83	23438.92
506.199	23537.45
506.567	23985.8
506.936	23840.26
507.304	24251.55
507.672	24349.4
508.041	24383.07
508.409	24610.64
508.777	24838.2
509.145	25008.37
509.514	25080.23
509.882	25353.22
510.25	25348.92
510.618	25595.02
510.986	25613.78
511.354	25944.16
511.722	26094.22
512.09	26375.11
512.458	26378.5
512.826	26776.91
513.193	26758.6
513.561	26905.95
513.929	27153.62
514.297	27518.36
514.664	27569.43
515.032	27649.65
515.4	28071.79
515.767	27984.79
516.135	28327.15
516.502	28160.6
516.869	28698.89
517.237	28807.82
517.604	28849.17
517.972	29076.74
518.339	29388.59
518.706	29339.55
519.073	29665.65
519.44	29976.37
519.808	30301.56
520.175	30232.41
520.542	30704.49
520.909	30783.81
521.276	30847.08
521.643	31297.92
522.009	31523.22
522.376	31690.23
522.743	31777.46
523.11	32244.11
523.477	32503.54
523.843	32703.53
524.21	33084.09
524.577	33169.28
524.943	33386
525.31	33625.77
525.676	33950.73
526.043	34302.59
526.409	34187.34
526.776	34765.4
527.142	34855.34
527.508	35056.24
527.874	35341.88
528.241	35460.52
528.607	35572.61
528.973	35972.6
529.339	35936.89
529.705	36335.53
530.071	36742.3
530.437	36773.71
530.803	37185.22
531.169	37210.98
531.535	37171.44
531.901	37480.36
532.267	37588.15
532.632	37770.07
532.998	37912.89
533.364	38248.92
533.73	38475.58
534.095	38496.83
534.461	38789.93
534.826	38982.46
535.192	39081.22
535.557	39438.5
535.923	39460.19
536.288	39541.32
536.653	39735.44
537.019	39763.01
537.384	39913.74
537.749	40171.36
538.114	40317.8
538.479	40382.65
538.845	40480.5
539.21	40623.78
539.575	40816.31
539.94	40889.08
540.305	41155.97
540.67	40962.98
541.034	41412.91
541.399	41387.6
541.764	41582.85
542.129	41718.89
542.494	41846.8
542.858	41942.39
543.223	42068.26
543.587	42272.09
543.952	42223.28
544.316	42502.6
544.681	42508.92
545.045	42684.74
545.41	42955.92
545.774	42958.86
546.138	43065.07
546.503	43264.39
546.867	43316.59
547.231	43763.13
547.595	43921.54
547.959	43947.08
548.324	43879.96
548.688	44016.46
549.052	44176.68
549.416	44367.63
549.779	44407.86
550.143	44532.37
550.507	44844.68
550.871	44887.85
551.235	44936.43
551.599	45373.03
551.962	45281.06
552.326	45424.1
552.689	45671.33
553.053	45547.04
553.417	45763.53
553.78	46311.99
554.143	46151.09
554.507	46362.61
554.87	46409.61
555.234	46798.3
555.597	46713.56
555.96	46847.79
556.323	47226.31
556.686	47175.47
557.05	47476.03
557.413	47613.42
557.776	47683.03
558.139	48130.92
558.502	48016.35
558.865	48136.35
559.228	48353.74
559.59	48583.34
559.953	48634.87
560.316	49004.57
560.679	49085.02
561.041	49164.79
561.404	49394.62
561.767	49670.09
562.129	49619.02
562.492	49970.2
562.854	49891.78
563.217	50065.34
563.579	50219.68
563.941	50447.47
564.304	50472.11
564.666	50802.94
565.028	50735.15
565.39	50977.18
565.753	51159.09
566.115	51209.26
566.477	51332.42
566.839	51455.13
567.201	51594.34
567.563	51726.08
567.925	51944.16
568.287	51979.41
568.648	52045.4
569.01	52281.1
569.372	52442.67
569.734	52396.8
570.095	52556.12
570.457	52677.02
570.819	52760.18
571.18	52815.32
571.542	52985.03
571.903	53034.98
572.265	53128.76
572.626	53235.65
572.987	53330.11
573.349	53444.46
573.71	53550.44
574.071	53578.01
574.432	53702.3
574.794	53808.06
575.155	53852.36
575.516	53768.29
575.877	53861.85
576.238	53996.08
576.599	54133.25
576.96	54104.33
577.32	54148.84
577.681	54313.13
578.042	54319.91
578.403	54342.51
578.763	54246.47
579.124	54315.85
579.485	54527.37
579.845	54573.24
580.206	54505.22
580.566	54537.31
580.927	54564.65
581.287	54675.61
581.648	54595.61
582.008	54744.31
582.368	54624.99
582.728	54664.09
583.089	54694.82
583.449	54703.41
583.809	54791.99
584.169	54837.64
584.529	54699.56
584.889	54947.24
585.249	54846.23
585.609	54692.11
585.969	54925.32
586.329	54801.71
586.688	54897.98
587.048	54864.31
587.408	54814.59
587.768	54713.8
588.127	54815.04
588.487	54733.24
588.846	54945.66
589.206	54729.17
589.565	54815.04
589.925	54928.71
590.284	54769.85
590.643	54902.05
591.003	54968.03
591.362	55011.87
591.721	54905.89
592.08	54980.91
592.44	54963.51
592.799	55001.48
593.158	54901.37
593.517	55020.46
593.876	54949.5
594.235	54963.96
594.593	54978.43
594.952	55028.82
595.311	54954.47
595.67	55034.47
596.029	55190.17
596.387	55125.09
596.746	55204.64
597.104	55112.44
597.463	55088.03
597.822	55194.01
598.18	55116.05
598.538	55097.29
598.897	55277.4
599.255	55012.78
599.613	55472.88
599.972	55213
600.33	55358.3
600.688	55259.1
601.046	55351.07
601.404	55396.27
601.762	55367.8
602.12	55546.55
602.478	55498.87
602.836	55543.38
603.194	55442.82
603.552	55450.05
603.91	55319.89
604.268	55468.36
604.625	55404.63
604.983	55577.51
605.341	55561.24
605.698	55589.03
606.056	55651.63
606.413	55591.29
606.771	55697.5
607.128	55779.31
607.485	55630.84
607.843	55677.62
608.2	55866.99
608.557	55917.39
608.914	55804.17
609.272	55968.46
609.629	55951.96
609.986	55982.24
610.343	55916.93
610.7	56152.18
611.057	56085.29
611.414	55992.86
611.771	56129.13
612.127	56221.33
612.484	56125.97
612.841	56146.53
613.198	56126.87
613.554	56119.41
613.911	56331.84
614.267	56321.22
614.624	56217.49
614.98	56284.61
615.337	56432.4
615.693	56270.82
616.05	56287.09
616.406	56513.53
616.762	56393.76
617.118	56363.25
617.475	56360.99
617.831	56504.04
618.187	56461.55
618.543	56479.63
618.899	56666.74
619.255	56582.68
619.611	56490.48
619.967	56647.76
620.323	56666.97
620.678	56600.53
621.034	56548.33
621.39	56479.4
621.746	56477.37
622.101	56739.06
622.457	56510.36
622.812	56625.84
623.168	56581.77
623.523	56615.67
623.879	56713.97
624.234	56533.64
624.589	56546.52
624.945	56651.15
625.3	56664.26
625.655	56651.38
626.01	56638.95
626.365	56609.57
626.72	56617.03
627.075	56672.62
627.43	56570.48
627.785	56541.1
628.14	56610.47
628.495	56597.82
628.85	56512.62
629.205	56495.9
629.559	56622.23
629.914	56440.76
630.269	56526.86
630.623	56364.15
630.978	56330.48
631.332	56470.59
631.687	56448.45
632.041	56368.67
632.396	56382.01
632.75	56286.19
633.104	56297.94
633.459	56202.58
633.813	56201.67
634.167	56167.32
634.521	56110.83
634.875	56226.76
635.229	56106.99
635.583	55892.08
635.937	55990.83
636.291	55975.92
636.645	55921.45
636.999	55928.01
637.352	55939.98
637.706	55811.17
638.06	55935.69
638.413	55784.96
638.767	55765.53
639.121	55796.03
639.474	55542.48
639.828	55641.46
640.181	55655.7
640.534	55656.15
640.888	55542.93
641.241	55465.87
641.594	55455.48
641.947	55598.75
642.301	55413.44
642.654	55451.18
643.007	55458.87
643.36	55414.8
643.713	55308.59
644.066	55414.35
644.419	55182.49
644.771	55040.12
645.124	54719.9
645.477	54689.85
645.83	54551.09
646.182	54363.98
646.535	54334.6
646.888	54383.41
647.24	54203.31
647.593	54317.2
647.945	54359.69
648.298	54157.66
648.65	54086.02
649.002	53955.4
649.355	54203.08
649.707	53987.72
650.059	54119.47
650.411	54528.72
650.763	54468.16
651.115	54763.52
651.467	54619.57
651.819	54629.96
652.171	54556.97
652.523	54517.2
652.875	54464.09
653.227	54391.1
653.578	54600.36
653.93	54403.08
654.282	54327.37
654.633	54208.05
654.985	54230.88
655.337	54217.77
655.688	54292.8
656.039	54352.68
656.391	54143.65
656.742	54126.92
657.094	54124.66
657.445	54194.72
657.796	54133.48
658.147	54107.04
658.498	54014.61
658.849	54209.41
659.2	54120.37
659.551	53933.71
659.902	54084.67
660.253	54008.51
660.604	54005.12
660.955	53869.53
661.306	53931.9
661.656	53932.35
662.007	53884.9
662.358	53969.87
662.708	53929.19
663.059	53835.41
663.409	53699.36
663.76	53872.92
664.11	53807.16
664.461	53833.37
664.811	53784.33
665.161	53741.62
665.511	53587.28
665.862	53620.04
666.212	53791.11
666.562	53763.77
666.912	53653.72
667.262	53614.62
667.612	53623.66
667.962	53704.34
668.312	53576.2
668.662	53729.42
669.011	53539.82
669.361	53422.99
669.711	53446.04
670.06	53433.38
670.41	53451.46
670.76	53450.33
671.109	53523.1
671.459	53411.46
671.808	53289.88
672.157	53397.45
672.507	53149.55
672.856	53222.32
673.205	53265.03
673.554	53294.4
673.904	53157.46
674.253	53257.79
674.602	53232.03
674.951	52693.29
675.3	52628.88
675.649	53143.22
675.998	52971.93
676.346	53016.22
676.695	53173.95
677.044	52906.84
677.393	52979.61
677.741	52975.77
678.09	52927.18
678.438	52832.04
678.787	52932.83
679.135	52934.19
679.484	52604.93
679.832	52754.53
680.181	52578.04
680.529	52707.3
680.877	52576
681.225	52587.53
681.573	52745.72
681.922	52423.24
682.27	52300.31
682.618	52369.91
682.966	52291.04
683.314	52377.37
683.661	52239.97
684.009	52026.41
684.357	51978.51
684.705	51955.46
685.053	52034.55
685.4	51953.87
685.748	51829.81
686.095	51736.03
686.443	51574.45
686.79	51564.73
687.138	51586.43
687.485	51576.03
687.832	51369.26
688.18	51333.33
688.527	51269.37
688.874	51272.54
689.221	51199.77
689.568	51066.44
689.915	50941.02
690.262	50923.84
690.609	50827.58
690.956	50678.88
691.303	50650.86
691.65	50473.24
691.997	50420.36
692.344	50264.43
692.69	50213.58
693.037	50215.61
693.383	49875.06
693.73	50219.23
694.077	49893.36
694.423	49851.78
694.769	49760.26
695.116	49606.37
695.462	49634.39
695.808	49484.56
696.155	49464.45
696.501	49225.58
696.847	49225.81
697.193	48946.72
697.539	49117.79
697.885	48855.2
698.231	48671.7
698.577	48677.35
698.923	48585.15
699.269	48385.83
699.614	48257.47
699.96	48258.83
700.306	48200.75
700.651	48009.8
700.997	47963.02
701.342	47772.74
701.688	47801.44
702.033	47646.64
702.379	47674.21
702.724	47482.35
703.069	47528.45
703.415	47111.29
703.76	47204.39
704.105	47074.45
704.45	46984.51
704.795	46703.39
705.14	46683.96
705.485	46692.77
705.83	46361.25
706.175	46594.47
706.52	46246
706.865	46205.78
707.209	46107.02
707.554	45935.28
707.899	45936.41
708.243	45811.89
708.588	45850.53
708.932	45562.4
709.277	45598.11
709.621	45517.66
709.966	45281.73
710.31	45281.73
710.654	44981.85
710.998	44963.78
711.342	45038.12
711.687	44924.45
712.031	44791.58
712.375	44570.11
712.719	44608.76
713.063	44534.86
713.407	44617.8
713.75	44439.72
714.094	44472.04
714.438	44296
714.782	44085.61
715.125	43936.91
715.469	44156.34
715.812	43843.58
716.156	43696.46
716.499	43660.76
716.843	43618.5
717.186	43447.43
717.53	43516.36
717.873	43542.57
718.216	43350.71
718.559	43298.28
718.902	43023.71
719.246	43148.91
719.589	42936.94
719.932	42928.57
720.275	42802.48
720.617	42671.63
720.96	42669.6
721.303	42670.73
721.646	42548.7
721.989	42327.23
722.331	42542.14
722.674	42299.21
723.016	42428.93
723.359	42246.11
723.701	42210.18
724.044	41952.33
724.386	41945.78
724.729	41956.62
725.071	41798.66
725.413	41841.37
725.755	41816.97
726.097	41578.1
726.439	41358.22
726.782	41445.68
727.124	41497.65
727.465	41186.7
727.807	41314.15
728.149	41184.21
728.491	41039.13
728.833	41232.35
729.175	40997.1
729.516	40875.75
729.858	40884.79
730.199	40778.8
730.541	40661.74
730.882	40719.14
731.224	40692.02
731.565	40574.74
731.906	40492.48
732.248	40597.11
732.589	40168.2
732.93	40212.49
733.271	40119.83
733.612	40226.5
733.953	40257.23
734.294	39976.79
734.635	39930.01
734.976	39962.32
735.317	39788.54
735.658	39766.17
735.999	39787.41
736.339	39630.81
736.68	39715.33
737.021	39544.71
737.361	39420.19
737.702	39532.73
738.042	39431.72
738.383	39302.46
738.723	39363.7
739.063	39095
739.404	39158.28
739.744	39192.4
740.084	38948.11
740.424	39072.4
740.764	38822.24
741.104	38904.05
741.444	38759.87
741.784	38615.92
742.124	38740.44
742.464	38603.72
742.804	38529.59
743.143	38483.04
743.483	38434
743.823	38152.88
744.162	38245.31
744.502	38336.38
744.841	38004.18
745.181	38188.59
745.52	38001.92
745.86	38112.88
746.199	37903.4
746.538	37786.34
746.877	37841.93
747.216	37796.73
747.556	37605.55
747.895	37672.89
748.234	37444.65
748.573	37443.07
748.911	37428.61
749.25	37410.08
749.589	37250.76
749.928	37082.4
750.267	37282.85
750.605	37246.46
750.944	37011.89
751.283	36859.58
751.621	36983.65
751.96	36614.84
752.298	36662.75
752.636	36665.69
