Data from whiteboard_FLMS001491_00036.txt Node
Date: Wed Feb 08 11:26:17 GMT 2017
User: dcchb
Spectrometer: FLMS00149
Trigger mode: 0
Integration Time (sec): 2.000000E-2
Scans to average: 10
Electric dark correction enabled: true
Nonlinearity correction enabled: false
Boxcar width: 0
XAxis mode: Wavelengths
Number of Pixels in Spectrum: 2048
>>>>>Begin Spectral Data<<<<<
341.393	0.17
341.776	0.17
342.16	0.17
342.543	-75.08
342.927	-71.69
343.31	-79.6
343.693	-89.77
344.077	-64.46
344.46	-71.02
344.843	-41.41
345.226	-33.28
345.61	-31.24
345.993	-16.1
346.376	18.02
346.759	7.17
347.142	36.1
347.525	37.91
347.908	57.57
348.291	79.49
348.674	80.62
349.057	110
349.44	117.23
349.823	126.27
350.206	169.66
350.588	221.63
350.971	270.67
351.354	279.26
351.737	283.78
352.119	295.98
352.502	306.15
352.884	287.62
353.267	315.19
353.65	324.68
354.032	345.02
354.414	334.62
354.797	358.35
355.179	377.56
355.562	363.78
355.944	368.97
356.326	384.11
356.709	376.2
357.091	391.35
357.473	371.23
357.855	379.14
358.238	381.63
358.62	411.01
359.002	399.71
359.384	414.4
359.766	403.55
360.148	386.37
360.53	397
360.912	393.15
361.294	377.33
361.676	410.78
362.057	376.66
362.439	390.22
362.821	382.53
363.203	386.83
363.584	389.76
363.966	395.87
364.348	385.92
364.729	390.44
365.111	374.62
365.493	382.31
365.874	390.44
366.256	374.17
366.637	374.62
367.019	390.67
367.4	382.76
367.781	376.43
368.163	389.09
368.544	393.15
368.925	402.19
369.306	374.4
369.688	385.7
370.069	394.06
370.45	402.64
370.831	385.02
371.212	399.03
371.593	387.73
371.974	403.32
372.355	389.09
372.736	388.41
373.117	408.97
373.498	392.48
373.879	410.55
374.26	394.74
374.641	397.9
375.021	391.12
375.402	394.06
375.783	421.85
376.163	425.92
376.544	425.24
376.925	429.54
377.305	417.33
377.686	430.21
378.066	438.8
378.447	432.7
378.827	440.61
379.208	435.19
379.588	454.39
379.968	456.2
380.349	453.26
380.729	436.77
381.109	466.37
381.489	460.95
381.87	468.63
382.25	456.65
382.63	493.94
383.01	490.1
383.39	462.53
383.77	487.61
384.15	477.45
384.53	509.53
384.91	484.68
385.29	502.3
385.67	502.76
386.049	518.57
386.429	514.28
386.809	511.34
387.189	517.22
387.568	511.79
387.948	528.07
388.328	540.95
388.707	545.24
389.087	558.35
389.466	556.31
389.846	565.58
390.225	560.83
390.605	584.79
390.984	597.67
391.363	600.61
391.743	618.46
392.122	604.9
392.501	610.32
392.881	628.4
393.26	634.96
393.639	624.79
394.018	664.56
394.397	641.96
394.776	653.94
395.155	663.65
395.534	671.34
395.913	684.67
396.292	697.55
396.671	729.87
397.05	712.92
397.429	728.29
397.808	741.39
398.186	737.33
398.565	755.63
398.944	740.49
399.323	777.1
399.701	762.64
400.08	777.32
400.458	807.83
400.837	825.68
401.215	812.8
401.594	834.27
401.972	885.12
402.351	860.26
402.729	894.38
403.107	900.71
403.486	886.02
403.864	933.93
404.242	920.37
404.62	942.07
404.999	939.58
405.377	980.71
405.755	950.65
406.133	1022.29
406.511	1034.27
406.889	1038.11
407.267	1040.59
407.645	1079.01
408.023	1091.44
408.401	1117.2
408.779	1116.52
409.156	1176.41
409.534	1195.84
409.912	1200.36
410.29	1238.33
410.667	1236.75
411.045	1261.61
411.422	1304.32
411.8	1306.35
412.178	1318.78
412.555	1394.26
412.933	1381.83
413.31	1397.87
413.687	1415.95
414.065	1480.36
414.442	1475.84
414.819	1519.9
415.197	1510.86
415.574	1534.37
415.951	1565.33
416.328	1601.03
416.705	1589.05
417.082	1634.93
417.46	1649.84
417.837	1667.47
418.214	1666.79
418.591	1705.44
418.967	1701.14
419.344	1729.16
419.721	1792.66
420.098	1804.87
420.475	1842.15
420.852	1832.89
421.228	1869.05
421.605	1844.19
421.982	1888.93
422.358	1888.03
422.735	1912.66
423.111	1945.88
423.488	1986.33
423.864	1980.46
424.241	2034.69
424.617	2052.77
424.994	2045.77
425.37	2104.07
425.746	2118.98
426.123	2155.37
426.499	2181.13
426.875	2238.75
427.251	2272.88
427.627	2293.89
428.003	2275.36
428.379	2349.26
428.756	2367.11
429.132	2409.6
429.507	2458.41
429.883	2456.83
430.259	2535.24
430.635	2555.58
431.011	2590.61
431.387	2647.33
431.763	2675.13
432.138	2685.3
432.514	2734.79
432.89	2781.11
433.265	2866.31
433.641	2886.2
434.016	2872.64
434.392	2964.39
434.767	3006.42
435.143	2977.72
435.518	3073.99
435.894	3096.81
436.269	3144.04
436.644	3204.61
437.02	3206.86
437.395	3235.79
437.77	3287.54
438.145	3365.73
438.52	3385.84
438.895	3399.85
439.271	3446.41
439.646	3507.87
440.021	3551.04
440.395	3536.12
440.77	3568.66
441.145	3600.75
441.52	3670.81
441.895	3663.35
442.27	3697.93
442.645	3688.21
443.019	3764.59
443.394	3841.65
443.769	3837.58
444.143	3817.02
444.518	3863.12
444.892	3878.03
445.267	3922.55
445.641	3961.2
446.016	3998.48
446.39	4006.17
446.764	4065.6
447.139	4048.2
447.513	4103.34
447.887	4182.66
448.262	4184.24
448.636	4207.29
449.01	4287.29
449.384	4267.18
449.758	4338.59
450.132	4379.49
450.506	4379.26
450.88	4450
451.254	4436.21
451.628	4522.54
452.002	4599.6
452.376	4630.1
452.75	4703.1
453.123	4724.34
453.497	4834.17
453.871	4855.64
454.244	4956.65
454.618	5021.51
454.992	5103.76
455.365	5101.96
455.739	5245.23
456.112	5228.96
456.486	5310.76
456.859	5342.4
457.232	5433.02
457.606	5489.97
457.979	5574.49
458.352	5690.42
458.725	5779.45
459.099	5810.41
459.472	5949.62
459.845	6011.76
460.218	6042.5
460.591	6076.85
460.964	6149.39
461.337	6270.29
461.71	6407.46
462.083	6445.88
462.456	6428.48
462.829	6550.73
463.201	6676.15
463.574	6672.76
463.947	6729.94
464.32	6962.25
464.692	7039.98
465.065	7078.4
465.438	7225.06
465.81	7316.81
466.183	7418.51
466.555	7554.1
466.928	7639.97
467.3	7590.48
467.672	7797.25
468.045	7911.83
468.417	8020.52
468.789	8057.13
469.161	8156.11
469.534	8305.04
469.906	8509.55
470.278	8516.56
470.65	8672.94
471.022	8830.67
471.394	8951.12
471.766	9111.12
472.138	9215.07
472.51	9391.11
472.882	9523.76
473.253	9643.31
473.625	9781.38
473.997	10048.49
474.369	10065.22
474.74	10189.28
475.112	10420.69
475.484	10598.53
475.855	10803.5
476.227	10832.2
476.598	11192.87
476.97	11302.02
477.341	11563.93
477.713	11738.39
478.084	11784.27
478.455	12227.42
478.827	12352.84
479.198	12654.53
479.569	12576.79
479.94	13092.48
480.311	13165.7
480.682	13449.53
481.053	13787.38
481.424	14013.59
481.795	14204.32
482.166	14411.54
482.537	14596.62
482.908	14944.18
483.279	15070.73
483.65	15307.79
484.021	15594.34
484.391	15758.17
484.762	15961.78
485.133	16136.69
485.503	16312.06
485.874	16773.51
486.244	16895.54
486.615	17251.69
486.985	17423.67
487.356	17790.21
487.726	17899.36
488.097	18339.35
488.467	18364.88
488.837	18760.35
489.207	18930.07
489.578	19257.06
489.948	19500.22
490.318	19729.37
490.688	19733.44
491.058	20126.65
491.428	20404.83
491.798	20585.16
492.168	21088.65
492.538	21149.44
492.908	21331.59
493.278	21620.84
493.648	21744.91
494.017	22085.01
494.387	22260.83
494.757	22437.09
495.126	22774.03
495.496	22834.15
495.866	23113.69
496.235	23249.73
496.605	23446.11
496.974	23694.01
497.344	23844.06
497.713	23992.76
498.082	24229.59
498.452	24516.81
498.821	24594.33
499.19	24638.62
499.559	24896.01
499.928	25105.27
500.298	25240.86
500.667	25498.48
501.036	25515.2
501.405	25813.05
501.774	25785.93
502.143	26149.99
502.512	26243.55
502.88	26494.16
503.249	26467.04
503.618	26753.14
503.987	26953.59
504.356	27069.06
504.724	27240.13
505.093	27330.52
505.462	27534.36
505.83	27789.5
506.199	28074.01
506.567	28365.75
506.936	28355.13
507.304	28679.64
507.672	28915.12
508.041	28971.84
508.409	29264.26
508.777	29495.44
509.145	29711.03
509.514	29862.44
509.882	30016.56
510.25	30137
510.618	30513.04
510.986	30684.11
511.354	30798.68
511.722	31209.97
512.09	31481.15
512.458	31524.76
512.826	31800.24
513.193	31982.61
513.561	32079.1
513.929	32302.82
514.297	32641.57
514.664	32889.47
515.032	32880.43
515.4	33099.86
515.767	33331.5
516.135	33476.58
516.502	33446.75
516.869	34061.19
517.237	34171.25
517.604	34106.17
517.972	34458.92
518.339	34748.41
518.706	34951.79
519.073	35034.28
519.44	35317.66
519.808	35775.95
520.175	35750.42
520.542	36230.4
520.909	36347.69
521.276	36493.45
521.643	36812.53
522.009	37246.65
522.376	37505.17
522.743	37822.45
523.11	38189.9
523.477	38361.19
523.843	38626.5
524.21	39209.53
524.577	39426.25
524.943	39654.04
525.31	39841.38
525.676	40247.25
526.043	40552.32
526.409	40627.8
526.776	41209.03
527.142	41183.72
527.508	41578.51
527.874	41917.94
528.241	42116.35
528.607	42141.21
528.973	42520.18
529.339	42653.51
529.705	43047.63
530.071	43239.26
530.437	43381.4
530.803	43582.07
531.169	43938
531.535	43838.11
531.901	43995.4
532.267	44137.77
532.632	44541.15
532.998	44664.98
533.364	44801.25
533.73	44939.78
534.095	45157.17
534.461	45290.73
534.826	45468.35
535.192	45490.05
535.557	45989.24
535.923	45752.86
536.288	46128
536.653	46260.65
537.019	46226.07
537.384	46531.15
537.749	46754.87
538.114	46897.92
538.479	47013.4
538.845	47211.36
539.21	47194.86
539.575	47362.77
539.94	47471.69
540.305	47862.41
540.67	47803.88
541.034	48104.44
541.399	48331.1
541.764	48436.41
542.129	48572.45
542.494	48657.42
542.858	48824.87
543.223	48989.84
543.587	49223.06
543.952	49313.9
544.316	49387.12
544.681	49401.58
545.045	49662.14
545.41	49799.09
545.774	49892.42
546.138	49989.59
546.503	50096.93
546.867	50193.2
547.231	50378.51
547.595	50436.81
547.959	50505.96
548.324	50464.38
548.688	50465.28
549.052	50671.38
549.416	50689.46
549.779	50792.28
550.143	50959.06
550.507	51065.95
550.871	51141.65
551.235	51127.64
551.599	51365.37
551.962	51437.01
552.326	51419.83
552.689	51653.95
553.053	51530.79
553.417	51559.72
553.78	51996.99
554.143	51918.13
554.507	52048.52
554.87	52110.66
555.234	52425.68
555.597	52256.42
555.96	52473.37
556.323	52641.5
556.686	52677.2
557.05	52975.05
557.413	53097.08
557.776	53094.14
558.139	53423.17
558.502	53479.89
558.865	53544.07
559.228	53817.06
559.59	53994.91
559.953	54014.34
560.316	54333.88
560.679	54422.02
561.041	54598.73
561.404	54752.85
561.767	54902.23
562.129	54822.68
562.492	55178.15
562.854	55237.36
563.217	55229
563.579	55382.67
563.941	55576.79
564.304	55647.75
564.666	55891.13
565.028	55811.13
565.39	55971.58
565.753	56062.65
566.115	56207.73
566.477	56347.16
566.839	56341.51
567.201	56512.36
567.563	56533.15
567.925	56684.1
568.287	56622.64
568.648	56644.1
569.01	56814.95
569.372	56893.14
569.734	56816.08
570.095	57010.42
570.457	57066.69
570.819	57164.99
571.18	57101.94
571.542	57264.43
571.903	57283.18
572.265	57359.34
572.626	57406.12
572.987	57448.38
573.349	57560.01
573.71	57564.53
574.071	57645.89
574.432	57674.13
574.794	57929.49
575.155	57874.81
575.516	57820.8
575.877	58013.56
576.238	57996.84
576.599	58133.56
576.96	58142.14
577.32	58221.24
577.681	58277.28
578.042	58401.12
578.403	58383.72
578.763	58489.03
579.124	58557.5
579.485	58681.34
579.845	58741.45
580.206	58764.05
580.566	58769.47
580.927	58759.53
581.287	58965.85
581.648	58904.16
582.008	59026.41
582.368	59018.96
582.728	59059.18
583.089	59034.78
583.449	59036.13
583.809	59127.65
584.169	59174.21
584.529	59144.83
584.889	59274.77
585.249	59159.07
585.609	59099.18
585.969	59217.14
586.329	59165.85
586.688	59120.65
587.048	59165.17
587.408	59055.57
587.768	59032.97
588.127	59101.44
588.487	58975.79
588.846	59234.77
589.206	58985.96
589.565	58973.99
589.925	59149.12
590.284	59014.44
590.643	59029.58
591.003	59048.33
591.362	59088.79
591.721	58978.28
592.08	58971.05
592.44	59020.31
592.799	59143.7
593.158	59018.96
593.517	58993.87
593.876	59101.21
594.235	59007.43
594.593	59019.86
594.952	59151.16
595.311	59083.36
595.67	59146.64
596.029	59251.49
596.387	59205.62
596.746	59257.59
597.104	59169.01
597.463	59157.48
597.822	59272.51
598.18	59158.39
598.538	59183.7
598.897	59325.62
599.255	59167.2
599.613	59544.14
599.972	59377.14
600.33	59451.94
600.688	59432.73
601.046	59479.74
601.404	59641.31
601.762	59581.88
602.12	59701.42
602.478	59633.18
602.836	59700.97
603.194	59582.33
603.552	59799.5
603.91	59643.8
604.268	59819.84
604.625	59777.35
604.983	59842.44
605.341	59704.59
605.698	59848.54
606.056	59939.16
606.413	59875.66
606.771	59972.6
607.128	59953.17
607.485	59815.77
607.843	59886.96
608.2	60066.84
608.557	60040.4
608.914	59985.03
609.272	60050.12
609.629	60087.63
609.986	60174.18
610.343	60069.55
610.7	60211.69
611.057	60067.06
611.414	60116.55
611.771	60152.03
612.127	60155.65
612.484	60103
612.841	60209.43
613.198	60102.54
613.554	60162.88
613.911	60261.18
614.267	60259.15
614.624	60151.13
614.98	60203.33
615.337	60310.22
615.693	60213.95
616.05	60212.6
616.406	60305.48
616.762	60266.16
617.118	60246.72
617.475	60257.79
617.831	60384.8
618.187	60371.46
618.543	60411.01
618.899	60459.6
619.255	60484.45
619.611	60477.68
619.967	60574.4
620.323	60588.41
620.678	60535.07
621.034	60445.36
621.39	60551.12
621.746	60465.7
622.101	60781.17
622.457	60590.67
622.812	60639.48
623.168	60740.27
623.523	60728.52
623.879	60810.1
624.234	60639.7
624.589	60758.57
624.945	60782.53
625.3	60849.42
625.655	60788.4
626.01	60861.39
626.365	60848.29
626.72	60829.53
627.075	60874.05
627.43	60825.91
627.785	60812.13
628.14	60792.24
628.495	60851.45
628.85	60796.54
629.205	60711.57
629.559	60802.41
629.914	60692.36
630.269	60710.66
630.623	60651.46
630.978	60632.93
631.332	60607.84
631.687	60687.16
632.041	60484.68
632.396	60600.38
632.75	60452.37
633.104	60519.71
633.459	60389.54
633.813	60346.83
634.167	60264.12
634.521	60280.17
634.875	60348.41
635.229	60286.27
635.583	60169.66
635.937	60135.99
636.291	60012.38
636.645	60019.16
636.999	59987.97
637.352	59971.7
637.706	59789.11
638.06	59911.81
638.413	59855.32
638.767	59781.42
639.121	59857.8
639.474	59653.74
639.828	59682.22
640.181	59622.33
640.534	59647.64
640.888	59600.18
641.241	59449.68
641.594	59531.94
641.947	59613.29
642.301	59568.77
642.654	59554.54
643.007	59566.06
643.36	59581.2
643.713	59425.05
644.066	59536.23
644.419	59389.34
644.771	59313.19
645.124	59026.87
645.477	59075.23
645.83	58966.53
646.182	58908.68
646.535	58750.26
646.888	58850.37
647.24	58646.31
647.593	58833.2
647.945	58776.03
648.298	58626.2
648.65	58673.65
649.002	58584.39
649.355	58740.32
649.707	58716.37
650.059	58936.7
650.411	59155.68
650.763	59163.59
651.115	59412.17
651.467	59262.11
651.819	59263.7
652.171	59309.12
652.523	59204.71
652.875	59240.65
653.227	59083.36
653.578	59226.63
653.93	59207.43
654.282	59104.6
654.633	59053.53
654.985	59065.06
655.337	59106.64
655.688	59000.88
656.039	59114.77
656.391	58852.86
656.742	58947.77
657.094	58928.11
657.445	58969.69
657.796	58792.97
658.147	58790.04
658.498	58715.24
658.849	58782.8
659.2	58638.4
659.551	58604.05
659.902	58688.8
660.253	58535.13
660.604	58590.72
660.955	58447.22
661.306	58501.46
661.656	58328.35
662.007	58410.39
662.358	58284.29
662.708	58353.89
663.059	58310.27
663.409	58146.21
663.76	58279.77
664.11	58250.62
664.461	58195.48
664.811	58231.41
665.161	58098.75
665.511	58062.15
665.862	58091.07
666.212	58112.99
666.562	58134.91
666.912	58061.24
667.262	58067.8
667.612	58038.87
667.962	58025.54
668.312	58014.69
668.662	58045.87
669.011	57989.83
669.361	57961.36
669.711	57927.91
670.06	57964.52
670.41	57970.4
670.76	57927.01
671.109	57998.87
671.459	57922.26
671.808	57877.07
672.157	57988.7
672.507	57890.62
672.856	57898.76
673.205	57934.47
673.554	58002.03
673.904	57985.31
674.253	58073.67
674.602	58020.34
674.951	57636.62
675.3	57541.48
675.649	57973.79
675.998	57977.63
676.346	57965.88
676.695	58103.5
677.044	57830.06
677.393	57981.02
677.741	57993.22
678.09	57993.22
678.438	57888.36
678.787	57840.91
679.135	57974.92
679.484	57730.85
679.832	57960.45
680.181	57718.43
680.529	57759.55
680.877	57740.12
681.225	57699.67
681.573	57844.75
681.922	57624.42
682.27	57516.62
682.618	57461.94
682.966	57428.94
683.314	57427.81
683.661	57391.43
684.009	57237.53
684.357	57164.32
684.705	57183.52
685.053	57156.41
685.4	57123.19
685.748	56948.28
686.095	56950.54
686.443	56861.5
686.79	56719.81
687.138	56688.17
687.485	56727.94
687.832	56577.89
688.18	56625.35
688.527	56409.76
688.874	56322.98
689.221	56280.5
689.568	56124.8
689.915	56090.9
690.262	56077.34
690.609	55948.3
690.956	55854.29
691.303	55852.26
691.65	55697.01
691.997	55592.38
692.344	55439.62
692.69	55458.37
693.037	55416.11
693.383	55043.92
693.73	55283.46
694.077	55093.86
694.423	55052.06
694.769	54902.91
695.116	54824.72
695.462	54695.68
695.808	54689.8
696.155	54671.27
696.501	54516.25
696.847	54563.25
697.193	54325.29
697.539	54449.59
697.885	54255.24
698.231	54121.91
698.577	54121.01
698.923	54137.05
699.269	53963.95
699.614	53856.61
699.96	53859.09
700.306	53944.97
700.651	53772.77
700.997	53696.16
701.342	53671.98
701.688	53578.87
702.033	53516.5
702.379	53612.32
702.724	53441.25
703.069	53556.5
703.415	53274.02
703.76	53271.76
704.105	53319.45
704.45	53129.62
704.795	53018.66
705.14	53018.66
705.485	52975.73
705.83	52942.51
706.175	52975.5
706.52	52902.06
706.865	52859.57
707.209	52764.43
707.554	52753.13
707.899	52684.89
708.243	52563.53
708.588	52421.16
708.932	52350.43
709.277	52431.33
709.621	52305.91
709.966	52125.8
710.31	52145.92
710.654	51957.45
710.998	51961.97
711.342	52008.29
711.687	51849.88
712.031	51745.48
712.375	51616.89
712.719	51585.03
713.063	51571.02
713.407	51557.01
713.75	51405.6
714.094	51347.07
714.438	51039.51
714.782	51059.62
715.125	50983.46
715.469	51028.66
715.812	50829.34
716.156	50645.84
716.499	50649.69
716.843	50693.75
717.186	50444.94
717.53	50529.01
717.873	50470.48
718.216	50388.9
718.559	50252.18
718.902	49934
719.246	50013.77
719.589	49889.03
719.932	49743.49
720.275	49700.11
720.617	49683.38
720.96	49564.29
721.303	49494.01
721.646	49457.17
721.989	49110.29
722.331	49276.39
722.674	49128.6
723.016	49126.56
723.359	48936.96
723.701	49028.94
724.044	48600.25
724.386	48645.67
724.729	48574.94
725.071	48469.86
725.413	48415.17
725.755	48361.38
726.097	48201.16
726.439	48203.2
726.782	48064.44
727.124	48156.87
727.465	47958.46
727.807	47899.02
728.149	47772.92
728.491	47686.83
728.833	47765.69
729.175	47538.13
729.516	47356.44
729.858	47356.89
730.199	47317.34
730.541	47321.86
730.882	47307.4
731.224	47430.56
731.565	47069.89
731.906	47127.74
732.248	47100.17
732.589	46948.31
732.93	46841.42
733.271	46916.22
733.612	47034.64
733.953	46895.21
734.294	46830.58
734.635	46806.62
734.976	46826.73
735.317	46719.39
735.658	46715.1
735.999	46661.54
736.339	46460.87
736.68	46600.75
737.021	46601.43
737.361	46240.99
737.702	46456.12
738.042	46363.47
738.383	46196.24
738.723	46358.95
739.063	46320.08
739.404	46390.14
739.744	46124.61
740.084	46038.28
740.424	46239.63
740.764	46079.86
741.104	46008.9
741.444	45952.41
741.784	45834.22
742.124	45906.99
742.464	45883.03
742.804	45833.54
743.143	45683.26
743.483	45761.45
743.823	45552.87
744.162	45516.26
744.502	45462.93
744.841	45455.92
745.181	45537.05
745.52	45285.98
745.86	45342.25
746.199	45062.04
746.538	45093.67
746.877	45216.16
747.216	45074.92
747.556	44961.93
747.895	44903.4
748.234	44854.13
748.573	44737.52
748.911	44668.6
749.25	44542.5
749.589	44366.69
749.928	44369.4
750.267	44261.83
750.605	44233.13
750.944	44008.5
751.283	43865.23
751.621	43897.09
751.96	43747.04
752.298	43761.05
752.636	43625.69
