Data from whiteboard_FLMS001491_00082.txt Node
Date: Wed Feb 08 11:28:28 GMT 2017
User: dcchb
Spectrometer: FLMS00149
Trigger mode: 0
Integration Time (sec): 2.000000E-2
Scans to average: 10
Electric dark correction enabled: true
Nonlinearity correction enabled: false
Boxcar width: 0
XAxis mode: Wavelengths
Number of Pixels in Spectrum: 2048
>>>>>Begin Spectral Data<<<<<
341.393	4.82
341.776	4.82
342.16	4.82
342.543	-72.02
342.927	-53.94
343.31	-68.85
343.693	-83.99
344.077	-81.51
344.46	-58.68
344.843	-62.98
345.226	-61.4
345.61	-31.57
345.993	-0.38
346.376	-2.42
346.759	26.28
347.142	18.6
347.525	49.33
347.908	59.28
348.291	76.68
348.674	103.34
349.057	118.26
349.44	118.26
349.823	148.32
350.206	157.35
350.588	211.82
350.971	216.79
351.354	242.1
351.737	270.8
352.119	292.04
352.502	279.61
352.884	304.24
353.267	311.47
353.65	300.63
354.032	337.91
354.414	339.95
354.797	354.41
355.179	351.02
355.562	356.9
355.944	345.82
356.326	358.71
356.709	344.02
357.091	351.7
357.473	373.85
357.855	365.94
358.238	385.15
358.62	379.72
359.002	370
359.384	364.81
359.766	362.09
360.148	380.63
360.53	361.64
360.912	392.6
361.294	377.69
361.676	346.5
362.057	374.3
362.439	358.48
362.821	365.03
363.203	358.25
363.584	361.42
363.966	352.15
364.348	357.8
364.729	342.43
365.111	355.32
365.493	355.54
365.874	364.35
366.256	388.76
366.637	340.17
367.019	370.91
367.4	369.55
367.781	355.09
368.163	345.6
368.544	369.78
368.925	343.34
369.306	369.78
369.688	386.5
370.069	367.52
370.45	345.82
370.831	354.86
371.212	349.67
371.593	335.88
371.974	349.89
372.355	360.29
372.736	374.52
373.117	370.91
373.498	365.94
373.879	379.95
374.26	357.58
374.641	386.73
375.021	369.55
375.402	370.68
375.783	380.17
376.163	399.38
376.544	377.24
376.925	402.32
377.305	388.53
377.686	408.2
378.066	392.6
378.447	385.15
378.827	403.45
379.208	375.43
379.588	393.28
379.968	403
380.349	412.49
380.729	397.35
381.109	407.74
381.489	409.1
381.87	405.03
382.25	399.38
382.63	412.26
383.01	420.17
383.39	423.79
383.77	426.95
384.15	428.53
384.53	437.35
384.91	455.65
385.29	416.1
385.67	424.69
386.049	453.39
386.429	446.16
386.809	446.16
387.189	448.42
387.568	464.01
387.948	475.76
388.328	454.07
388.707	500.17
389.087	468.53
389.466	481.87
389.846	487.29
390.225	495.2
390.605	499.49
390.984	507.85
391.363	494.07
391.743	543.11
392.122	514.86
392.501	538.81
392.881	550.79
393.26	529.77
393.639	557.8
394.018	562.54
394.397	539.04
394.776	565.93
395.155	583.56
395.534	551.24
395.913	585.37
396.292	575.87
396.671	599.38
397.05	609.55
397.429	626.27
397.808	633.73
398.186	656.32
398.565	652.93
398.944	641.64
399.323	689.77
399.701	647.74
400.08	677.11
400.458	712.37
400.837	715.76
401.215	719.83
401.594	705.81
401.972	735.19
402.351	757.79
402.729	752.14
403.107	770.45
403.486	801.41
403.864	806.6
404.242	817.9
404.62	842.31
404.999	851.12
405.377	868.75
405.755	899.48
406.133	906.94
406.511	918.46
406.889	938.58
407.267	966.37
407.645	987.84
408.023	1014.73
408.401	1004.34
408.779	1043.43
409.156	1051.79
409.534	1063.09
409.912	1085.24
410.29	1127.95
410.667	1138.8
411.045	1171.57
411.422	1177.67
411.8	1214.5
412.178	1235.29
412.555	1256.31
412.933	1287.72
413.31	1289.53
413.687	1319.36
414.065	1343.76
414.442	1347.83
414.819	1375.18
415.197	1407.49
415.574	1418.79
415.951	1452.69
416.328	1470.31
416.705	1465.12
417.082	1505.79
417.46	1516.19
417.837	1550.99
418.214	1530.43
418.591	1604.55
418.967	1558.45
419.344	1623.3
419.721	1650.42
420.098	1654.72
420.475	1706.01
420.852	1718.67
421.228	1734.94
421.605	1768.84
421.982	1758.67
422.358	1746.24
422.735	1800.02
423.111	1817.88
423.488	1875.95
423.864	1843.86
424.241	1887.48
424.617	1940.58
424.994	1933.13
425.37	1968.83
425.746	1992.33
426.123	2012.9
426.499	2011.32
426.875	2043.86
427.251	2084.99
427.627	2104.87
428.003	2169.05
428.379	2186.45
428.756	2204.98
429.132	2214.02
429.507	2273.46
429.883	2306.68
430.259	2320.91
430.635	2348.26
431.011	2380.35
431.387	2450.85
431.763	2491.53
432.138	2463.06
432.514	2516.39
432.89	2536.28
433.265	2579.44
433.641	2673.67
434.016	2668.93
434.392	2679.32
434.767	2784.4
435.143	2760.45
435.518	2830.73
435.894	2823.73
436.269	2856.72
436.644	2932.87
437.02	2955.02
437.395	2935.13
437.77	3001.12
438.145	3033.89
438.52	3092.87
438.895	3118.63
439.271	3098.97
439.646	3169.25
440.021	3219.65
440.395	3211.96
440.77	3235.01
441.145	3253.54
441.52	3299.87
441.895	3293.32
442.27	3352.75
442.645	3373.32
443.019	3392.75
443.394	3396.59
443.769	3418.51
444.143	3437.04
444.518	3509.36
444.892	3539.19
445.267	3575.12
445.641	3594.1
446.016	3616.92
446.39	3670.48
446.764	3606.98
447.139	3679.75
447.513	3681.1
447.887	3715
448.262	3730.59
448.636	3786.41
449.01	3858.05
449.384	3820.31
449.758	3866.64
450.132	3907.54
450.506	3957.93
450.88	4032.51
451.254	4006.52
451.628	4076.12
452.002	4111.37
452.376	4146.18
452.75	4201.99
453.123	4196.8
453.497	4291.03
453.871	4321.76
454.244	4434.53
454.618	4452.61
454.992	4515.21
455.365	4526.73
455.739	4607.86
456.112	4694.41
456.486	4767.85
456.859	4745.03
457.232	4888.98
457.606	4842.88
457.979	4987.06
458.352	5069.32
458.725	5100.05
459.099	5089.88
459.472	5234.51
459.845	5312.47
460.218	5288.97
460.591	5397.67
460.964	5348.18
461.337	5572.58
461.71	5597.66
462.083	5690.09
462.456	5689.19
462.829	5754.04
463.201	5889.41
463.574	5865.45
463.947	5986.81
464.32	6125.56
464.692	6152.23
465.065	6196.97
465.438	6261.15
465.81	6395.16
466.183	6448.26
466.555	6577.75
466.928	6610.29
467.3	6645.32
467.672	6761.02
468.045	6973.67
468.417	6989.72
468.789	7000.79
469.161	7072.65
469.534	7283.49
469.906	7366.2
470.278	7455.69
470.65	7549.48
471.022	7640.32
471.394	7786.76
471.766	7866.76
472.138	7964.83
472.51	8142.68
472.882	8252.06
473.253	8341.32
473.625	8489.56
473.997	8690.92
474.369	8729.56
474.74	8835.54
475.112	9034.64
475.484	9129.1
475.855	9332.25
476.227	9392.14
476.598	9603.21
476.97	9737.67
477.341	9942.63
477.713	10084.55
478.084	10152.57
478.455	10428.27
478.827	10484.31
479.198	10848.15
479.569	10854.47
479.94	11139.89
480.311	11275.48
480.682	11550.05
481.053	11720.44
481.424	11981.9
481.795	12094.67
482.166	12284.27
482.537	12379.18
482.908	12622.11
483.279	12779.85
483.65	13023.23
484.021	13320.17
484.391	13543.44
484.762	13555.19
485.133	13747.28
485.503	13844.45
485.874	14180.71
486.244	14323.54
486.615	14606.24
486.985	14820.92
487.356	15080.58
487.726	15202.16
488.097	15484.41
488.467	15576.61
488.837	15886.43
489.207	16037.62
489.578	16282.81
489.948	16410.71
490.318	16674.43
490.688	16718.5
491.058	17005.5
491.428	17284.14
491.798	17360.74
492.168	17770.9
492.538	17860.39
492.908	18058.13
493.278	18125.02
493.648	18187.39
494.017	18521.39
494.387	18661.05
494.757	18795.06
495.126	19038.67
495.496	19110.3
495.866	19231.2
496.235	19553.23
496.605	19681.81
496.974	19717.74
497.344	19949.15
497.713	20103.04
498.082	20187.79
498.452	20320.21
498.821	20438.18
499.19	20555.69
499.559	20870.26
499.928	20989.58
500.298	21115.45
500.667	21329.45
501.036	21280.64
501.405	21565.61
501.774	21574.19
502.143	21814.86
502.512	21921.08
502.88	22090.79
503.249	22105.25
503.618	22402.42
503.987	22424.57
504.356	22666.14
504.724	22683.32
505.093	22862.75
505.462	23061.84
505.83	23128.28
506.199	23351.1
506.567	23661.6
506.936	23640.13
507.304	23876.73
507.672	23977.07
508.041	24092.77
508.409	24154.01
508.777	24484.62
509.145	24634.23
509.514	24667.22
509.882	24932.3
510.25	25090.26
510.618	25212.06
510.986	25327.09
511.354	25481.43
511.722	25683.24
512.09	25945.6
512.458	25925.94
512.826	26164.35
513.193	26354.63
513.561	26451.8
513.929	26701.29
514.297	26917.78
514.664	27068.06
515.032	27224.67
515.4	27383.98
515.767	27552.57
516.135	27876.4
516.502	27657.2
516.869	28125.21
517.237	28349.38
517.604	28246.11
517.972	28706.66
518.339	28810.84
518.706	28981
519.073	29061
519.44	29418.51
519.808	29745.73
520.175	29633.64
520.542	30048.55
520.909	30175.55
521.276	30222.33
521.643	30586.84
522.009	30783.67
522.376	30966.26
522.743	31191.57
523.11	31445.8
523.477	31874.94
523.843	31832.68
524.21	32177.53
524.577	32582.72
524.943	32554.47
525.31	32755.37
525.676	33061.57
526.043	33203.27
526.409	33432.19
526.776	33687.09
527.142	33880.99
527.508	33962.57
527.874	34175.67
528.241	34397.58
528.607	34650.23
528.973	34939.04
529.339	34822.66
529.705	35282.53
530.071	35578.34
530.437	35670.32
530.803	35995.28
531.169	36270.53
531.535	36087.26
531.901	36261.26
532.267	36530.86
532.632	36913.22
532.998	36957.52
533.364	37184.63
533.73	37368.13
534.095	37604.05
534.461	37722.47
534.826	37889.47
535.192	37919.53
535.557	38183.02
535.923	38238.39
536.288	38371.72
536.653	38664.82
537.019	38616.68
537.384	38945.04
537.749	38878.82
538.114	39138.02
538.479	39195.88
538.845	39469.09
539.21	39415.98
539.575	39599.03
539.94	39703.89
540.305	40095.06
540.67	39910.43
541.034	40046.48
541.399	40313.13
541.764	40388.16
542.129	40626.35
542.494	40577.31
542.858	40668.83
543.223	40826.34
543.587	41044.64
543.952	40996.28
544.316	41302.49
544.681	41346.55
545.045	41471.75
545.41	41600.33
545.774	41888.69
546.138	41832.19
546.503	42039.42
546.867	41954.45
547.231	42499.52
547.595	42409.58
547.959	42585.62
548.324	42683.24
548.688	42925.27
549.052	42896.8
549.416	43184.92
549.779	43272.38
550.143	43375.88
550.507	43525.71
550.871	43749.65
551.235	43750.78
551.599	44042.98
551.962	44146.71
552.326	44230.77
552.689	44612.46
553.053	44209.76
553.417	44478.22
553.78	44939
554.143	44812.9
554.507	45102.16
554.87	45164.08
555.234	45694.24
555.597	45358.65
555.96	45535.6
556.323	45830.28
556.686	45778.08
557.05	46175.58
557.413	46272.98
557.776	46333.54
558.139	46490.83
558.502	46663.93
558.865	46734.89
559.228	47039.74
559.59	47099.4
559.953	47145.05
560.316	47605.82
560.679	47561.08
561.041	47834.75
561.404	47967.17
561.767	48290.78
562.129	48177.33
562.492	48482.86
562.854	48545.91
563.217	48650.32
563.579	48765.34
563.941	48981.16
564.304	49164.65
564.666	49446.23
565.028	49410.07
565.39	49492.55
565.753	49801.47
566.115	49801.7
566.477	49999.43
566.839	50124.63
567.201	50436.26
567.563	50395.13
567.925	50668.12
568.287	50793.76
568.648	50793.76
569.01	51042.12
569.372	51206.86
569.734	51139.97
570.095	51332.28
570.457	51513.52
570.819	51460.86
571.18	51616.79
571.542	51805.49
571.903	51805.94
572.265	51980.4
572.626	52044.35
572.987	52082.54
573.349	52130.68
573.71	52247.06
574.071	52254.06
574.432	52444.34
574.794	52718.01
575.155	52614.05
575.516	52536.54
575.877	52701.06
576.238	52853.6
576.599	52915.97
576.96	52962.75
577.32	53000.48
577.681	53117.54
578.042	53268.5
578.403	53167.03
578.763	53260.82
579.124	53278.67
579.485	53430.76
579.845	53466.69
580.206	53392.11
580.566	53391.66
580.927	53446.12
581.287	53505.1
581.648	53461.72
582.008	53690.41
582.368	53499.91
582.728	53657.19
583.089	53551.66
583.449	53622.39
583.809	53636.63
584.169	53734.02
584.529	53607.7
584.889	53854.25
585.249	53652.22
585.609	53599.34
585.969	53811.99
586.329	53722.5
586.688	53744.42
587.048	53746.45
587.408	53793.46
587.768	53717.53
588.127	53725.44
588.487	53664.2
588.846	53864.87
589.206	53646.34
589.565	53688.38
589.925	53815.6
590.284	53763.63
590.643	53830.52
591.003	53915.26
591.362	53992.55
591.721	53896.05
592.08	53883.4
592.44	53958.88
592.799	53957.52
593.158	53946.45
593.517	53917.3
593.876	53885.66
594.235	53901.93
594.593	53914.81
594.952	53938.77
595.311	53864.64
595.67	53933.57
596.029	54089.5
596.387	54112.32
596.746	54168.36
597.104	54029.61
597.463	53941.25
597.822	54098.31
598.18	54053.34
598.538	54064.19
598.897	54239.1
599.255	54044.75
599.613	54431.41
599.972	54271.64
600.33	54268.02
600.688	54254.24
601.046	54343.5
601.404	54407
601.762	54268.25
602.12	54448.81
602.478	54441.13
602.836	54407.68
603.194	54301.47
603.552	54396.83
603.91	54284.29
604.268	54426.89
604.625	54346.21
604.983	54492.65
605.341	54202.49
605.698	54483.84
606.056	54414.91
606.413	54436.83
606.771	54493.55
607.128	54503.72
607.485	54414.46
607.843	54447.68
608.2	54597.73
608.557	54667.79
608.914	54572.42
609.272	54723.6
609.629	54785.3
609.986	54805.18
610.343	54646.77
610.7	54901.68
611.057	54777.61
611.414	54782.58
611.771	54816.03
612.127	54982.58
612.484	54910.94
612.841	54949.81
613.198	54923.37
613.554	54925.18
613.911	55038.4
614.267	55033.2
614.624	54943.71
614.98	55118.62
615.337	55209.47
615.693	55133.54
616.05	55132.86
616.406	55356.81
616.762	55200.65
617.118	55202.23
617.475	55230.03
617.831	55351.61
618.187	55338.95
618.543	55382.12
618.899	55442.45
619.255	55387.54
619.611	55402
619.967	55480.65
620.323	55456.47
620.678	55381.89
621.034	55195.68
621.39	55399.29
621.746	55247.21
622.101	55587.99
622.457	55301.89
622.812	55354.55
623.168	55420.31
623.523	55448.78
623.879	55475.22
624.234	55287.43
624.589	55320.2
624.945	55461.21
625.3	55359.07
625.655	55329.01
626.01	55383.02
626.365	55469.35
626.72	55300.54
627.075	55317.94
627.43	55246.75
627.785	55168.79
628.14	55234.78
628.495	55279.52
628.85	55224.38
629.205	55096.02
629.559	55243.59
629.914	55086.76
630.269	55110.49
630.623	55064.84
630.978	54955.24
631.332	55120.2
631.687	55098.96
632.041	55051.05
632.396	55006.53
632.75	54903.26
633.104	54931.51
633.459	54777.84
633.813	54816.03
634.167	54933.54
634.521	54792.08
634.875	54862.13
635.229	54824.84
635.583	54636.83
635.937	54704.85
636.291	54571.74
636.645	54593.66
636.999	54609.93
637.352	54705.07
637.706	54424.85
638.06	54628.46
638.413	54579.88
638.767	54429.15
639.121	54494.91
639.474	54397.28
639.828	54337.85
640.181	54386.44
640.534	54419.66
640.888	54289.72
641.241	54083.39
641.594	54201.81
641.947	54245.42
642.301	54171.75
642.654	54091.98
643.007	54089.04
643.36	54043.4
643.713	54090.63
644.066	54227.57
644.419	53882.5
644.771	53718.21
645.124	53378.78
645.477	53268.73
645.83	53121.16
646.182	52962.97
646.535	52891.79
646.888	53096.08
647.24	52846.36
647.593	53080.48
647.945	52936.76
648.298	52747.61
648.65	52669.87
649.002	52589.87
649.355	52638.01
649.707	52674.62
650.059	52691.11
650.411	53062.86
650.763	53078.67
651.115	53340.81
651.467	53219.24
651.819	53278.22
652.171	53119.35
652.523	53060.14
652.875	53173.14
653.227	52931.79
653.578	53141.95
653.93	53052.01
654.282	53016.3
654.633	52885.91
654.985	52926.36
655.337	52950.99
655.688	52835.29
656.039	52928.4
656.391	52678.46
656.742	52790.09
657.094	52774.73
657.445	52807.27
657.796	52707.61
658.147	52633.94
658.498	52608.63
658.849	52693.37
659.2	52624.45
659.551	52471.91
659.902	52612.25
660.253	52573.83
660.604	52588.52
660.955	52365.02
661.306	52432.36
661.656	52460.39
662.007	52454.06
662.358	52518.01
662.708	52426.94
663.059	52421.29
663.409	52171.58
663.76	52452.48
664.11	52490.22
664.461	52420.61
664.811	52440.5
665.161	52358.24
665.511	52232.82
665.862	52284.8
666.212	52367.96
666.562	52289.77
666.912	52247.06
667.262	52227.4
667.612	52279.37
667.962	52182.43
668.312	52232.14
668.662	52253.39
669.011	52240.73
669.361	52129.77
669.711	52108.76
670.06	52038.02
670.41	51887.75
670.76	51903.34
671.109	51986.05
671.459	51902.89
671.808	51830.12
672.157	51966.84
672.507	51729.33
672.856	51717.81
673.205	51769.1
673.554	51774.53
673.904	51682.78
674.253	51814.98
674.602	51629
674.951	51156.01
675.3	50932.74
675.649	51502.67
675.998	51333.86
676.346	51397.59
676.695	51457.47
677.044	51146.75
677.393	51282.11
677.741	51287.31
678.09	51274.65
678.438	51179.74
678.787	51139.74
679.135	51162.57
679.484	51001.44
679.832	51109.24
680.181	50886.19
680.529	51050.48
680.877	50893.2
681.225	50764.16
681.573	50843.48
681.922	50561.9
682.27	50544.96
682.618	50655.01
682.966	50425.19
683.314	50468.8
683.661	50437.16
684.009	50280.78
684.357	50205.53
684.705	50080.34
685.053	50276.71
685.4	50086.89
685.748	49854.8
686.095	49891.64
686.443	49802.15
686.79	49783.85
687.138	49931.41
687.485	49718.09
687.832	49681.93
688.18	49514.7
688.527	49522.61
688.874	49393.8
689.221	49337.76
689.568	49167.82
689.915	49006.92
690.262	49029.52
690.609	48942.06
690.956	48795.17
691.303	48801.27
691.65	48521.28
691.997	48570.54
692.344	48369.87
692.69	48260.27
693.037	48436.76
693.383	48061.86
693.73	48145.47
694.077	47864.8
694.423	47897.79
694.769	47759.04
695.116	47604.47
695.462	47578.48
695.808	47439.95
696.155	47541.42
696.501	47208.77
696.847	47204.71
697.193	46882.68
697.539	47053.52
697.885	46845.17
698.231	46586.42
698.577	46649.24
698.923	46627.77
699.269	46292.86
699.614	46151.4
699.96	46056.71
700.306	46126.77
700.651	45772.65
700.997	45740.34
701.342	45738.3
701.688	45583.05
702.033	45537.18
702.379	45352.32
702.724	45180.13
703.069	45334.92
703.415	44780.59
703.76	44958.44
704.105	44796.86
704.45	44629.86
704.795	44550.76
705.14	44508.28
705.485	44321.62
705.83	44216.76
706.175	44231.68
706.52	44118.91
706.865	43935.64
707.209	43864.23
707.554	43762.08
707.899	43897.22
708.243	43565.25
708.588	43456.78
708.932	43254.53
709.277	43290.23
709.621	43281.64
709.966	43018.37
710.31	43113.97
710.654	42577.93
710.998	42889.56
711.342	42787.19
711.687	42707.2
712.031	42397.6
712.375	42358.5
712.719	42362.35
713.063	42246.42
713.407	42495.9
713.75	42146.99
714.094	42007.55
714.438	41904.28
714.782	42026.76
715.125	41745.87
715.469	41697.28
715.812	41462.48
716.156	41205.77
716.499	41381.36
716.843	41391.52
717.186	41077.41
717.53	41242.83
717.873	41197.41
718.216	41163.96
718.559	41006.22
718.902	40546.58
719.246	40683.97
719.589	40599.68
719.932	40394.49
720.275	40349.52
720.617	40343.42
720.96	40278.11
721.303	40275.62
721.646	40305
721.989	40077.89
722.331	40143.87
722.674	39957.21
723.016	39904.33
723.359	39971.45
723.701	39906.14
724.044	39622.76
724.386	39410.79
724.729	39546.38
725.071	39512.7
725.413	39425.47
725.755	39321.52
726.097	39196.33
726.439	38932.61
726.782	39097.57
727.124	39106.39
727.465	38926.96
727.807	38827.3
728.149	38745.04
728.491	38714.98
728.833	38765.6
729.175	38540.3
729.516	38527.65
729.858	38415.33
730.199	38450.13
730.541	38363.13
730.882	38263.92
731.224	38238.39
731.565	38058.5
731.906	38070.48
732.248	38105.96
732.589	37846.76
732.93	37781.22
733.271	37820.55
733.612	37786.42
733.953	37848.57
734.294	37710.27
734.635	37439.31
734.976	37638.4
735.317	37486.32
735.658	37374.91
735.999	37374.23
736.339	37332.87
736.68	37298.3
737.021	37142.14
737.361	37015.37
737.702	37163.39
738.042	36986.89
738.383	36858.99
738.723	37009.72
739.063	36747.35
739.404	36844.98
739.744	36613.57
740.084	36577.64
740.424	36591.88
740.764	36549.62
741.104	36715.49
741.444	36404.31
741.784	36266.46
742.124	36279.57
742.464	36244.32
742.804	36286.12
743.143	36089.97
743.483	36090.42
743.823	35867.6
744.162	35853.59
744.502	35833.25
744.841	35703.54
745.181	35867.15
745.52	35583.77
745.86	35637.78
746.199	35422.19
746.538	35476.43
746.877	35475.97
747.216	35445.01
747.556	35284.11
747.895	35174.96
748.234	35115.08
748.573	35082.31
748.911	34869.89
749.25	34989.89
749.589	34705.6
749.928	34825.6
750.267	34871.92
750.605	34618.82
750.944	34530.24
751.283	34492.05
751.621	34521.42
751.96	34200.53
752.298	34277.81
752.636	34241.2
752.975	34038.27
