Data from whiteboard_FLMS001491_00090.txt Node
Date: Wed Feb 08 11:28:30 GMT 2017
User: dcchb
Spectrometer: FLMS00149
Trigger mode: 0
Integration Time (sec): 2.000000E-2
Scans to average: 10
Electric dark correction enabled: true
Nonlinearity correction enabled: false
Boxcar width: 0
XAxis mode: Wavelengths
Number of Pixels in Spectrum: 2048
>>>>>Begin Spectral Data<<<<<
341.393	1.85
341.776	1.85
342.16	1.85
342.543	-60.97
342.927	-73.63
343.31	-55.55
343.693	-69.33
344.077	-60.52
344.46	-71.37
344.843	-44.48
345.226	-51.93
345.61	-40.18
345.993	-17.81
346.376	5.01
346.759	3.43
347.142	33.94
347.525	40.95
347.908	53.15
348.291	77.55
348.674	83.43
349.057	113.71
349.44	118.91
349.823	151
350.206	169.3
350.588	240.26
350.971	244.33
351.354	258.34
351.737	257.44
352.119	276.65
352.502	289.07
352.884	312.12
353.267	333.82
353.65	302.63
354.032	331.11
354.414	345.57
354.797	358.68
355.179	358
355.562	364.78
355.944	354.38
356.326	375.4
356.709	374.72
357.091	365.91
357.473	387.15
357.855	343.99
358.238	383.76
358.62	376.76
359.002	396.87
359.384	392.35
359.766	367.72
360.148	383.08
360.53	378.79
360.912	372.69
361.294	377.66
361.676	362.52
362.057	373.14
362.439	374.04
362.821	369.98
363.203	387.15
363.584	353.48
363.966	366.59
364.348	368.39
364.729	359.81
365.111	358.68
365.493	362.52
365.874	341.05
366.256	375.85
366.637	364.78
367.019	357.32
367.4	346.93
367.781	366.81
368.163	355.06
368.544	366.13
368.925	365.91
369.306	353.25
369.688	368.62
370.069	359.58
370.45	372.69
370.831	358.23
371.212	361.16
371.593	354.16
371.974	351.22
372.355	386.47
372.736	389.18
373.117	369.52
373.498	363.87
373.879	358.68
374.26	372.46
374.641	360.94
375.021	358.23
375.402	380.37
375.783	373.59
376.163	405.46
376.544	383.54
376.925	400.48
377.305	379.92
377.686	391.67
378.066	381.05
378.447	397.09
378.827	400.71
379.208	387.6
379.588	390.54
379.968	404.78
380.349	447.49
380.729	402.97
381.109	404.55
381.489	406.36
381.87	443.19
382.25	419.92
382.63	414.95
383.01	423.08
383.39	428.73
383.77	442.06
384.15	430.99
384.53	453.82
384.91	459.01
385.29	443.42
385.67	440.71
386.049	470.76
386.429	445.91
386.809	454.49
387.189	461.27
387.568	477.77
387.948	488.62
388.328	481.16
388.707	491.33
389.087	492.23
389.466	472.8
389.846	491.1
390.225	487.49
390.605	512.8
390.984	518.67
391.363	505.79
391.743	518.9
392.122	506.02
392.501	532.46
392.881	540.14
393.26	565.45
393.639	564.1
394.018	566.13
394.397	563.42
394.776	584.89
395.155	571.33
395.534	596.41
395.913	594.38
396.292	608.84
396.671	614.49
397.05	631.66
397.429	620.37
397.808	627.37
398.186	632.79
398.565	669.4
398.944	661.27
399.323	679.12
399.701	673.47
400.08	704.66
400.458	717.09
400.837	707.59
401.215	736.97
401.594	739.91
401.972	751.44
402.351	762.06
402.729	761.6
403.107	784.43
403.486	821.72
403.864	773.58
404.242	803.86
404.62	849.51
404.999	879.79
405.377	889.96
405.755	887.7
406.133	899.91
406.511	919.34
406.889	926.12
407.267	970.19
407.645	990.3
408.023	966.12
408.401	994.59
408.779	1059.22
409.156	1075.72
409.534	1086.57
409.912	1096.96
410.29	1109.84
410.667	1139.9
411.045	1164.98
411.422	1197.98
411.8	1209.73
412.178	1223.51
412.555	1259.44
412.933	1263.74
413.31	1308.71
413.687	1302.16
414.065	1333.79
414.442	1350.52
414.819	1380.57
415.197	1388.71
415.574	1428.71
415.951	1451.08
416.328	1481.59
416.705	1499.44
417.082	1481.13
417.46	1530.85
417.837	1562.49
418.214	1564.3
418.591	1605.88
418.967	1582.15
419.344	1604.97
419.721	1658.98
420.098	1689.49
420.475	1696.27
420.852	1692.43
421.228	1750.5
421.605	1741.92
421.982	1772.65
422.358	1767.45
422.735	1825.53
423.111	1783.05
423.488	1843.61
423.864	1847
424.241	1894.46
424.617	1909.6
424.994	1929.03
425.37	2001.35
425.746	1960.89
426.123	2011.74
426.499	2003.83
426.875	2016.94
427.251	2074.56
427.627	2105.07
428.003	2156.82
428.379	2169.93
428.756	2225.29
429.132	2234.79
429.507	2251.51
429.883	2274.56
430.259	2302.81
430.635	2341.22
431.011	2373.99
431.387	2416.48
431.763	2455.12
432.138	2493.99
432.514	2555
432.89	2564.72
433.265	2626.87
433.641	2644.04
434.016	2653.53
434.392	2702.57
434.767	2772.85
435.143	2773.98
435.518	2819.18
435.894	2825.5
436.269	2872.28
436.644	2966.52
437.02	2980.53
437.395	2944.6
437.77	2979.85
438.145	3053.75
438.52	3120.86
438.895	3124.48
439.271	3147.3
439.646	3213.07
440.021	3235.89
440.395	3218.94
440.77	3170.13
441.145	3269.11
441.52	3296.9
441.895	3316.34
442.27	3348.2
442.645	3391.59
443.019	3417.58
443.394	3426.84
443.769	3434.3
444.143	3461.19
444.518	3496.9
444.892	3510.68
445.267	3526.96
445.641	3558.14
446.016	3574.64
446.39	3639.04
446.764	3677.91
447.139	3682.88
447.513	3688.31
447.887	3732.15
448.262	3721.07
448.636	3765.37
449.01	3810.79
449.384	3885.14
449.758	3913.61
450.132	3954.29
450.506	3980.73
450.88	3987.73
451.254	4026.38
451.628	4072.48
452.002	4128.75
452.376	4139.59
452.75	4189.54
453.123	4221.17
453.497	4289.65
453.871	4306.37
454.244	4431.56
454.618	4394.28
454.992	4541.17
455.365	4540.49
455.739	4645.12
456.112	4702.52
456.486	4677.89
456.859	4776.41
457.232	4858.45
457.606	4857.09
457.979	4900.03
458.352	5037.2
458.725	5110.42
459.099	5137.76
459.472	5223.41
459.845	5294.14
460.218	5366
460.591	5398.32
460.964	5389.96
461.337	5559.22
461.71	5630.4
462.083	5741.36
462.456	5712.89
462.829	5762.15
463.201	5851.64
463.574	5925.08
463.947	5933.67
464.32	6091.86
464.692	6157.39
465.065	6260.22
465.438	6267.67
465.81	6402.59
466.183	6434.68
466.555	6595.12
466.928	6645.29
467.3	6605.74
467.672	6746.76
468.045	6904.72
468.417	6905.85
468.789	6939.75
469.161	7106.97
469.534	7246.41
469.906	7425.84
470.278	7380.64
470.65	7503.8
471.022	7659.5
471.394	7801.19
471.766	7880.06
472.138	7926.61
472.51	8119.15
472.882	8215.19
473.253	8365.92
473.625	8507.62
473.997	8569.31
474.369	8727.27
474.74	8802.52
475.112	8993.48
475.484	9177.65
475.855	9232.79
476.227	9364.54
476.598	9625.78
476.97	9737.87
477.341	10007.01
477.713	10039.1
478.084	10167.01
478.455	10425.98
478.827	10559.31
479.198	10849.7
479.569	10889.25
479.94	11150.48
480.311	11306.64
480.682	11460.98
481.053	11725.84
481.424	11945.27
481.795	12091.48
482.166	12254.18
482.537	12484.23
482.908	12618.47
483.279	12850.33
483.65	13034.73
484.021	13282.18
484.391	13475.17
484.762	13558.1
485.133	13787.25
485.503	13912.9
485.874	14184.53
486.244	14344.07
486.615	14570.73
486.985	14747.45
487.356	14943.83
487.726	15149.25
488.097	15579.07
488.467	15471.05
488.837	15819.06
489.207	16059.51
489.578	16256.11
489.948	16512.83
490.318	16641.19
490.688	16734.97
491.058	17013.61
491.428	17228.29
491.798	17457.89
492.168	17753.7
492.538	17817.43
492.908	17972.23
493.278	18240.47
493.648	18276.62
494.017	18535.37
494.387	18614.47
494.757	18780.57
495.126	19066.66
495.496	19129.71
495.866	19316.37
496.235	19490.83
496.605	19655.12
496.974	19744.83
497.344	19933.76
497.713	20025.5
498.082	20127.65
498.452	20384.82
498.821	20447.87
499.19	20614.87
499.559	20788.42
499.928	20987.51
500.298	21041.3
500.667	21214.85
501.036	21237.22
501.405	21443.77
501.774	21599.7
502.143	21817.1
502.512	21935.28
502.88	22150.65
503.249	22151.32
503.618	22313.81
503.987	22393.13
504.356	22570.75
504.724	22741.59
505.093	22855.26
505.462	22967.8
505.83	23170.05
506.199	23331.63
506.567	23672.41
506.936	23594.45
507.304	23835.57
507.672	23961.67
508.041	24114.89
508.409	24258.39
508.777	24478.04
509.145	24595.1
509.514	24634.42
509.882	24929.56
510.25	24936.56
510.618	25085.48
510.986	25185.59
511.354	25466.94
511.722	25739.03
512.09	25964.56
512.458	25787.61
512.826	26285
513.193	26285.9
513.561	26440.48
513.929	26663.07
514.297	26919.79
514.664	26971.31
515.032	27273.68
515.4	27358.65
515.767	27549.83
516.135	27728.58
516.502	27621.01
516.869	28116.37
517.237	28291.73
517.604	28278.39
517.972	28688.78
518.339	28783.92
518.706	28922.9
519.073	29117.92
519.44	29351.59
519.808	29612.15
520.175	29712.71
520.542	30011.46
520.909	30191.56
521.276	30254.84
521.643	30578.22
522.009	30875.16
522.376	30957.87
522.743	31103.41
523.11	31488.71
523.477	31788.36
523.843	31942.48
524.21	32221.57
524.577	32480.09
524.943	32600.32
525.31	32747.43
525.676	32866.52
526.043	33231.26
526.409	33344.02
526.776	33676.22
527.142	33826.5
527.508	33956.44
527.874	34188.3
528.241	34420.15
528.607	34517.33
528.973	34877.54
529.339	35018.33
529.705	35241.83
530.071	35592.33
530.437	35711.65
530.803	35991.64
531.169	35976.05
531.535	36230.95
531.901	36307.34
532.267	36566.76
532.632	36967.21
532.998	36925.63
533.364	37287.65
533.73	37243.13
534.095	37644.48
534.461	37600.64
534.826	37916.33
535.192	37981.64
535.557	38313.39
535.923	38225.25
536.288	38489.88
536.653	38666.37
537.019	38628.41
537.384	38726.26
537.749	38901.39
538.114	39058.45
538.479	39215.96
538.845	39429.29
539.21	39351.55
539.575	39440.59
539.94	39693.01
540.305	39930.07
540.67	39874.02
541.034	40007.35
541.399	40302.03
541.764	40239.44
542.129	40399.43
542.494	40412.99
542.858	40642.14
543.223	40721.01
543.587	41013.43
543.952	40999.19
544.316	41245.51
544.681	41331.16
545.045	41423.36
545.41	41772.28
545.774	41737.93
546.138	41761.66
546.503	42015.21
546.867	42109.9
547.231	42371.81
547.595	42483.22
547.959	42655.19
548.324	42744.46
548.688	42855.19
549.052	42924.11
549.416	43114.16
549.779	43132.02
550.143	43312.8
550.507	43688.39
550.871	43605.45
551.235	43706.46
551.599	43993.91
551.962	44141.03
552.326	44242.49
552.689	44457.86
553.053	44296.73
553.417	44488.36
553.78	44981.23
554.143	44869.82
554.507	45113.43
554.87	45236.14
555.234	45480.65
555.597	45371.05
555.96	45630.48
556.323	45745.28
556.686	45841.32
557.05	45987.31
557.413	46219.17
557.776	46247.87
558.139	46548.2
558.502	46567.41
558.865	46694.41
559.228	46900.73
559.59	46946.38
559.953	47096.88
560.316	47578.68
560.679	47556.31
561.041	47794.49
561.404	48066.8
561.767	48093.92
562.129	48112
562.492	48524.19
562.854	48475.83
563.217	48527.58
563.579	48708.14
563.941	48972.31
564.304	49097.06
564.666	49429.7
565.028	49372.76
565.39	49498.85
565.753	49808
566.115	49849.81
566.477	50114.43
566.839	50132.28
567.201	50365.5
567.563	50429.45
567.925	50649.11
568.287	50641.2
568.648	50780.63
569.01	50993.5
569.372	51218.36
569.734	51048.19
570.095	51288.64
570.457	51419.03
570.819	51488.63
571.18	51495.64
571.542	51692.47
571.903	51856.76
572.265	51904.89
572.626	51975.62
572.987	52012.01
573.349	52174.72
573.71	52251.55
574.071	52247.71
574.432	52359.57
574.794	52706.91
575.155	52608.15
575.516	52528.15
575.877	52710.97
576.238	52715.27
576.599	52844.98
576.96	52901.48
577.32	52877.52
577.681	53131.53
578.042	53202.49
578.403	53219.66
578.763	53186.89
579.124	53281.58
579.485	53378.75
579.845	53440.9
580.206	53337.4
580.566	53435.47
580.927	53476.6
581.287	53565.41
581.648	53370.84
582.008	53516.83
582.368	53486.77
582.728	53604.51
583.089	53560.67
583.449	53519.31
583.809	53678.4
584.169	53695.13
584.529	53648.12
584.889	53919.08
585.249	53684.73
585.609	53643.6
585.969	53806.76
586.329	53799.08
586.688	53806.99
587.048	53746.2
587.408	53693.77
587.768	53718.18
588.127	53755.47
588.487	53726.99
588.846	53860.1
589.206	53609.93
589.565	53671.63
589.925	53754.79
590.284	53717.73
590.643	53842.02
591.003	53876.82
591.362	53988
591.721	53880.66
592.08	53837.72
592.44	53922.01
592.799	53978.28
593.158	53998.4
593.517	53926.53
593.876	53972.41
594.235	53874.11
594.593	53924.95
594.952	53926.08
595.311	53915.69
595.67	53916.82
596.029	54032.52
596.387	54137.38
596.746	54108.68
597.104	53964.5
597.463	54049.24
597.822	54132.18
598.18	54070.03
598.538	54000.2
598.897	54260.99
599.255	53980.32
599.613	54445.16
599.972	54267.09
600.33	54287.65
600.688	54151.61
601.046	54352.06
601.404	54429.57
601.762	54321.55
602.12	54427.31
602.478	54428.89
602.836	54443.36
603.194	54267.77
603.552	54407.43
603.91	54245.85
604.268	54446.52
604.625	54315.45
604.983	54528.33
605.341	54250.59
605.698	54387.54
606.056	54514.77
606.413	54502.11
606.771	54480.19
607.128	54553.18
607.485	54396.8
607.843	54469.57
608.2	54590.02
608.557	54606.97
608.914	54514.54
609.272	54721.54
609.629	54740.98
609.986	54749.34
610.343	54725.38
610.7	54898.49
611.057	54836.79
611.414	54848.32
611.771	54810.58
612.127	54905.27
612.484	54877.24
612.841	54967.86
613.198	54876.34
613.554	54934.64
613.911	55070.46
614.267	55031.82
614.624	55000.86
614.98	55116.56
615.337	55225.48
615.693	55143
616.05	55100.97
616.406	55351.58
616.762	55229.32
617.118	55171.7
617.475	55161.98
617.831	55228.42
618.187	55279.04
618.543	55342.77
618.899	55448.08
619.255	55415.76
619.611	55424.12
619.967	55444.01
620.323	55479.94
620.678	55387.74
621.034	55338.47
621.39	55346.61
621.746	55237.69
622.101	55558.58
622.457	55361.75
622.812	55371.47
623.168	55361.75
623.523	55440.84
623.879	55495.53
624.234	55229.55
624.589	55330.79
624.945	55332.37
625.3	55403.33
625.655	55297.8
626.01	55382.54
626.365	55397.23
626.72	55324.92
627.075	55310.68
627.43	55241.3
627.785	55145.03
628.14	55272.49
628.495	55313.39
628.85	55236.1
629.205	55124.69
629.559	55297.35
629.914	55053.28
630.269	55147.07
630.623	55097.58
630.978	55010.12
631.332	55065.49
631.687	55105.03
632.041	54947.75
632.396	54998.37
632.75	54971.03
633.104	54978.48
633.459	54750.47
633.813	54810.58
634.167	54860.07
634.521	54792.5
634.875	54869.33
635.229	54763.12
635.583	54602.22
635.937	54687.87
636.291	54689.23
636.645	54651.71
636.999	54542.11
637.352	54545.05
637.706	54471.83
638.06	54629.57
638.413	54518.61
638.767	54413.98
639.121	54506.63
639.474	54251.27
639.828	54352.29
640.181	54301.44
640.534	54418.05
640.888	54201.33
641.241	54168.56
641.594	54108.22
641.947	54221.22
642.301	54086.98
642.654	54149.81
643.007	54131.05
643.36	54117.26
643.713	53971.05
644.066	54054.21
644.419	53865.74
644.771	53701.68
645.124	53264.86
645.477	53317.74
645.83	53149.38
646.182	53009.27
646.535	52894.7
646.888	52953
647.24	52847.01
647.593	52981.25
647.945	52959.33
648.298	52724.76
648.65	52659.22
649.002	52661.03
649.355	52739.45
649.707	52614.93
650.059	52784.19
650.411	53105.31
650.763	53142.15
651.115	53350.28
651.467	53291.75
651.819	53296.95
652.171	53182.37
652.523	53032.09
652.875	53128.59
653.227	52959.1
653.578	53143.73
653.93	52981.7
654.282	52864.42
654.633	52807.24
654.985	52928.59
655.337	52907.58
655.688	52896.96
656.039	52989.38
656.391	52682.5
656.742	52700.35
657.094	52669.39
657.445	52853.57
657.796	52751.65
658.147	52569.51
658.498	52680.24
658.849	52715.49
659.2	52619.68
659.551	52483.63
659.902	52569.51
660.253	52524.76
660.604	52589.85
660.955	52400.7
661.306	52560.24
661.656	52449.06
662.007	52420.81
662.358	52393.69
662.708	52493.58
663.059	52419.91
663.409	52212.91
663.76	52423.97
664.11	52426.91
664.461	52454.93
664.811	52391.21
665.161	52287.93
665.511	52221.49
665.862	52197.77
666.212	52238.22
666.562	52290.42
666.912	52242.51
667.262	52190.99
667.612	52148.05
667.962	52148.95
668.312	52106.47
668.662	52315.5
669.011	52174.49
669.361	52172.68
669.711	52034.83
670.06	52043.87
670.41	51984.21
670.76	51842.07
671.109	52011.56
671.459	51877.77
671.808	51807.04
672.157	51890.66
672.507	51673.26
672.856	51664.22
673.205	51809.3
673.554	51927.04
673.904	51611.11
674.253	51786.25
674.602	51711.45
674.951	51087.06
675.3	50995.99
675.649	51377
675.998	51338.58
676.346	51388.52
676.695	51431.46
677.044	51186.49
677.393	51304.68
677.741	51337.68
678.09	51225.59
678.438	51029.21
678.787	51200.96
679.135	51245.7
679.484	50907.63
679.832	51050.9
680.181	50861.98
680.529	50976.56
680.877	50777.69
681.225	50781.08
681.573	50867.41
681.922	50553.97
682.27	50601.42
682.618	50568.66
682.966	50396.46
683.314	50558.49
683.661	50336.8
684.009	50190.81
684.357	50130.7
684.705	50109.46
685.053	50112.17
685.4	50129.8
685.748	49986.07
686.095	49906.07
686.443	49775.91
686.79	49773.2
687.138	49802.8
687.485	49852.06
687.832	49523.94
688.18	49578.4
688.527	49420.66
688.874	49362.13
689.221	49299.99
689.568	49226.54
689.915	49066.32
690.262	49077.85
690.609	48895.93
690.956	48816.61
691.303	48785.43
691.65	48706.78
691.997	48560.12
692.344	48418.88
692.69	48353.8
693.037	48299.56
693.383	47888.73
693.73	48148.61
694.077	47747.26
694.423	47751.78
694.769	47648.06
695.116	47646.7
695.462	47569.41
695.808	47526.93
696.155	47601.5
696.501	47223.89
696.847	47330.55
697.193	46950.22
697.539	47100.72
697.885	46713.39
698.231	46768.53
698.577	46761.3
698.923	46512.04
699.269	46311.59
699.614	46190.47
699.96	46116.12
700.306	46215.55
700.651	45920.64
700.997	45724.26
701.342	45656.02
701.688	45525.4
702.033	45526.75
702.379	45266.65
702.724	45214.67
703.069	45337.61
703.415	44715.02
703.76	44797.28
704.105	44894.68
704.45	44703.5
704.795	44538.76
705.14	44547.12
705.485	44323.4
705.83	44122.5
706.175	44262.16
706.52	44027.36
706.865	44014.93
707.209	43964.31
707.554	43797.08
707.899	43966.8
708.243	43416.08
708.588	43477.09
708.932	43188.74
709.277	43230.54
709.621	43266.48
709.966	42910.1
710.31	43053.83
710.654	42638.02
710.998	42719.37
711.342	42807.05
711.687	42525.7
712.031	42557.12
712.375	42071.93
712.719	42407.74
713.063	42187.63
713.407	42416.33
713.75	42068.99
714.094	42027.19
714.438	41858.6
714.782	41873.97
715.125	41753.52
715.469	41793.75
715.812	41445.96
716.156	41306.3
716.499	41350.82
716.843	41317.83
717.186	41172.52
717.53	41245.51
717.873	41081.22
718.216	41156.93
718.559	40827.22
718.902	40623.83
719.246	40687.33
719.589	40540.22
719.932	40463.61
720.275	40503.16
720.617	40225.43
720.96	40251.41
721.303	40220.45
721.646	40215.71
721.989	39976.62
722.331	40035.15
722.674	40078.08
723.016	39872.89
723.359	39874.02
723.701	39754.93
724.044	39535.95
724.386	39441.72
724.729	39611.88
725.071	39496.18
725.413	39399.23
725.755	39193.14
726.097	39178.67
726.439	38938
726.782	38940.26
727.124	39152.69
727.465	38812.58
727.807	38931.9
728.149	38846.03
728.491	38672.02
728.833	38687.84
729.175	38572.14
729.516	38471.57
729.858	38392.93
730.199	38495.3
730.541	38245.36
730.882	38182.54
731.224	38174.18
731.565	38049.66
731.906	37917.24
732.248	38024.81
732.589	37953.62
732.93	37752.95
733.271	37769.9
733.612	37797.92
733.953	37753.17
734.294	37615.32
734.635	37622.1
734.976	37620.3
735.317	37371.26
735.658	37490.13
735.999	37445.61
736.339	37251.72
736.68	37246.75
737.021	37158.84
737.361	36921.56
737.702	37131.04
738.042	36959.07
738.383	36904.83
738.723	36937.38
739.063	36736.93
739.404	36911.84
739.744	36789.58
740.084	36580.78
740.424	36592.07
740.764	36417.84
741.104	36558.18
741.444	36356.6
741.784	36261.91
742.124	36347.79
742.464	36161.58
742.804	36220.33
743.143	36084.29
743.483	36026.67
743.823	35743.74
744.162	35737.86
744.502	35832.32
744.841	35735.6
745.181	35633.23
745.52	35474.14
745.86	35706.9
746.199	35480.24
746.538	35338.32
746.877	35496.96
747.216	35374.71
747.556	35200.02
747.895	35269.17
748.234	35199.57
748.573	34988.73
748.911	34930.42
749.25	34887.49
749.589	34738.11
749.928	34774.27
750.267	34885.23
750.605	34494.28
750.944	34571.79
751.283	34431.68
751.621	34472.81
751.96	34232.14
752.298	34112.37
752.636	34045.25
752.975	33967.51
