Data from White_reflection_standard_FLMS001491_087.txt Node
Date: Tue Feb 07 10:32:12 GMT 2017
User: dcchb
Spectrometer: FLMS00149
Trigger mode: 0
Integration Time (sec): 2.000000E-2
Scans to average: 10
Electric dark correction enabled: true
Nonlinearity correction enabled: false
Boxcar width: 0
XAxis mode: Wavelengths
Number of Pixels in Spectrum: 2048
>>>>>Begin Spectral Data<<<<<
341.393	-33.81
341.776	-33.81
342.16	-33.81
342.543	-65.68
342.927	-64.77
343.31	-70.65
343.693	-68.39
344.077	-58.9
344.46	-65.68
344.843	-68.84
345.226	-29.74
345.61	-29.97
345.993	-14.6
346.376	18.39
346.759	2.34
347.142	30.14
347.525	45.96
347.908	49.8
348.291	71.5
348.674	97.71
349.057	90.93
349.44	113.53
349.823	137.71
350.206	173.87
350.588	239.4
350.971	285.95
351.354	273.52
351.737	270.59
352.119	284.82
352.502	296.57
352.884	324.14
353.267	326.86
353.65	327.53
354.032	338.61
354.414	357.14
354.797	331.6
355.179	363.69
355.562	363.01
355.944	372.96
356.326	383.8
356.709	372.28
357.091	393.97
357.473	400.53
357.855	407.31
358.238	386.74
358.62	384.48
359.002	425.16
359.384	397.81
359.766	398.49
360.148	388.32
360.53	394.42
360.912	403.24
361.294	422.45
361.676	413.18
362.057	399.4
362.439	419.96
362.821	421.32
363.203	414.99
363.584	389
363.966	389.68
364.348	401.66
364.729	403.01
365.111	395.78
365.493	410.7
365.874	390.13
366.256	404.82
366.637	430.36
367.019	417.02
367.4	412.5
367.781	402.56
368.163	417.7
368.544	432.39
368.925	433.29
369.306	440.53
369.688	433.29
370.069	427.87
370.45	425.16
370.831	416.12
371.212	435.78
371.593	397.59
371.974	443.24
372.355	446.63
372.736	440.07
373.117	476.46
373.498	447.76
373.879	424.03
374.26	440.98
374.641	444.37
375.021	444.14
375.402	457.7
375.783	454.76
376.163	503.35
376.544	492.95
376.925	477.81
377.305	480.98
377.686	496.57
378.066	492.28
378.447	507.64
378.827	499.05
379.208	513.97
379.588	519.62
379.968	494.54
380.349	497.25
380.729	494.54
381.109	545.16
381.489	520.07
381.87	538.15
382.25	516
382.63	547.64
383.01	557.58
383.39	546.74
383.77	566.4
384.15	574.08
384.53	584.93
384.91	601.2
385.29	606.62
385.67	601.88
386.049	597.58
386.429	618.37
386.809	631.03
387.189	629.9
387.568	636.45
387.948	620.41
388.328	621.99
388.707	660.41
389.087	663.34
389.466	683.91
389.846	690.91
390.225	699.05
390.605	694.53
390.984	686.17
391.363	697.92
391.743	731.82
392.122	722.1
392.501	720.29
392.881	727.52
393.26	747.64
393.639	720.97
394.018	739.27
394.397	772.04
394.776	773.4
395.155	779.95
395.534	764.13
395.913	801.42
396.292	815.66
396.671	821.53
397.05	816.33
397.429	821.31
397.808	838.93
398.186	825.6
398.565	866.05
398.944	857.69
399.323	881.19
399.701	874.41
400.08	891.13
400.458	903.34
400.837	928.2
401.215	892.94
401.594	938.59
401.972	934.07
402.351	955.99
402.729	965.48
403.107	939.27
403.486	986.27
403.864	985.14
404.242	983.56
404.62	1018.82
404.999	1002.54
405.377	1030.57
405.755	1027.18
406.133	1074.18
406.511	1061.98
406.889	1092.94
407.267	1098.59
407.645	1125.48
408.023	1122.54
408.401	1162.99
408.779	1155.31
409.156	1190.11
409.534	1181.07
409.912	1207.28
410.29	1247.06
410.667	1262.65
411.045	1266.27
411.422	1277.57
411.8	1268.75
412.178	1329.54
412.555	1322.54
412.933	1369.09
413.31	1372.03
413.687	1387.17
414.065	1400.5
414.442	1414.51
414.819	1441.18
415.197	1459.71
415.574	1487.05
415.951	1500.38
416.328	1498.12
416.705	1534.28
417.082	1552.59
417.46	1560.95
417.837	1558.46
418.214	1566.6
418.591	1609.53
418.967	1614.73
419.344	1625.13
419.721	1675.29
420.098	1669.42
420.475	1693.6
420.852	1707.38
421.228	1722.98
421.605	1734.73
421.982	1790.32
422.358	1762.07
422.735	1809.3
423.111	1780.15
423.488	1823.77
423.864	1814.95
424.241	1870.32
424.617	1898.79
424.994	1887.27
425.37	1931.56
425.746	1930.43
426.123	1974.5
426.499	1991.44
426.875	2014.72
427.251	2086.13
427.627	2115.51
428.003	2128.16
428.379	2116.64
428.756	2208.61
429.132	2204.77
429.507	2242.51
429.883	2288.39
430.259	2304.88
430.635	2324.32
431.011	2348.95
431.387	2426.91
431.763	2439.12
432.138	2423.75
432.514	2505.1
432.89	2487.7
433.265	2599.34
433.641	2595.5
434.016	2610.19
434.392	2680.69
434.767	2724.31
435.143	2766.79
435.518	2757.53
435.894	2826.45
436.269	2825.32
436.644	2869.39
437.02	2881.82
437.395	2900.57
437.77	2941.25
438.145	2976.96
438.52	3010.4
438.895	3032.32
439.271	3077.52
439.646	3122.71
440.021	3137.18
440.395	3187.12
440.77	3181.92
441.145	3214.69
441.52	3272.54
441.895	3260.56
442.27	3323.39
442.645	3291.3
443.019	3369.04
443.394	3391.41
443.769	3411.07
444.143	3399.32
444.518	3459.65
444.892	3481.8
445.267	3520.22
445.641	3500.78
446.016	3543.95
446.39	3577.62
446.764	3621.23
447.139	3606.54
447.513	3642.25
447.887	3706.88
448.262	3661.91
448.636	3741.23
449.01	3794.34
449.384	3813.09
449.758	3830.49
450.132	3877.04
450.506	3940.55
450.88	3964.95
451.254	3944.84
451.628	3983.93
452.002	4050.6
452.376	4111.62
452.75	4116.13
453.123	4188.68
453.497	4232.97
453.871	4281.1
454.244	4364.04
454.618	4412.17
454.992	4466.18
455.365	4508.21
455.739	4575.33
456.112	4620.75
456.486	4745.5
456.859	4682
457.232	4801.54
457.606	4825.04
457.979	4901.88
458.352	5015.09
458.725	5000.63
459.099	5062.78
459.472	5176.45
459.845	5253.28
460.218	5281.53
460.591	5322.43
460.964	5358.81
461.337	5477.68
461.71	5552.71
462.083	5632.48
462.456	5723.78
462.829	5724
463.201	5808.97
463.574	5828.18
463.947	5914.96
464.32	6041.06
464.692	6068.17
465.065	6132.35
465.438	6290.54
465.81	6266.13
466.183	6369.86
466.555	6499.12
466.928	6514.49
467.3	6526.01
467.672	6690.98
468.045	6843.29
468.417	6862.73
468.789	6907.47
469.161	7038.77
469.534	7191.76
469.906	7356.05
470.278	7373.22
470.65	7456.84
471.022	7585.42
471.394	7819.31
471.766	7796.04
472.138	7984.73
472.51	8058.86
472.882	8220.89
473.253	8299.08
473.625	8448.22
473.997	8634.43
474.369	8594.89
474.74	8801.44
475.112	8974.99
475.484	9105.16
475.855	9258.82
476.227	9366.84
476.598	9626.05
476.97	9695.65
477.341	9884.8
477.713	10054.51
478.084	10152.36
478.455	10421.51
478.827	10496.31
479.198	10816.3
479.569	10783.08
479.94	11103.3
480.311	11240.24
480.682	11358.88
481.053	11748.02
481.424	12011.75
481.795	12024.85
482.166	12243.38
482.537	12404.05
482.908	12676.14
483.279	12799.97
483.65	13028.89
484.021	13276.57
484.391	13335.78
484.762	13528.54
485.133	13700.74
485.503	13945.93
485.874	14241.97
486.244	14360.16
486.615	14569.87
486.985	14803.54
487.356	15067.26
487.726	15203.75
488.097	15492.11
488.467	15539.11
488.837	15842.38
489.207	16097.06
489.578	16301.58
489.948	16468.58
490.318	16711.06
490.688	16686.2
491.058	17000.77
491.428	17243.25
491.798	17431.72
492.168	17799.16
492.538	17707.87
492.908	18073.51
493.278	18310.79
493.648	18313.28
494.017	18589.65
494.387	18688.86
494.757	18957.1
495.126	19070.54
495.496	19092.24
495.866	19323.19
496.235	19659
496.605	19836.4
496.974	19865.78
497.344	20106.9
497.713	20183.51
498.082	20301.7
498.452	20530.39
498.821	20601.58
499.19	20854.45
499.559	20991.4
499.928	21027.1
500.298	21263.93
500.667	21454.89
501.036	21432.29
501.405	21728.78
501.774	21795.44
502.143	21973.29
502.512	22108.2
502.88	22246.96
503.249	22343.9
503.618	22519.04
503.987	22715.87
504.356	22802.65
504.724	23003.55
505.093	23105.24
505.462	23200.38
505.83	23298
506.199	23657.09
506.567	23902.28
506.936	23833.58
507.304	24118.77
507.672	24274.7
508.041	24319.67
508.409	24619.1
508.777	24833.1
509.145	24930.73
509.514	24962.82
509.882	25247.56
510.25	25264.51
510.618	25444.16
510.986	25682.12
511.354	26005.28
511.722	26175.67
512.09	26522.1
512.458	26304.93
512.826	26610.46
513.193	26715.09
513.561	26955.76
513.929	27078.92
514.297	27469.64
514.664	27557.78
515.032	27675.74
515.4	28046.58
515.767	28089.74
516.135	28330.87
516.502	28061.27
516.869	28740.35
517.237	28784.86
517.604	28820.34
517.972	29243.16
518.339	29405.19
518.706	29424.4
519.073	29624.39
519.44	29880.88
519.808	30153.19
520.175	30233.19
520.542	30562.9
520.909	30742.33
521.276	30971.02
521.643	31222.77
522.009	31461.63
522.376	31608.52
522.743	31773.71
523.11	32220.03
523.477	32434.71
523.843	32692.56
524.21	33054.36
524.577	33291.64
524.943	33390.62
525.31	33508.58
525.676	33910.38
526.043	34037.83
526.409	34325.74
526.776	34695.44
527.142	34772.28
527.508	35038.94
527.874	35240.97
528.241	35501.98
528.607	35619.04
528.973	35999.36
529.339	35951.46
529.705	36311.45
530.071	36587.37
530.437	36811.55
530.803	36984.87
531.169	37168.37
531.535	37166.11
531.901	37452.66
532.267	37596.84
532.632	37835.93
532.998	37959.54
533.364	38168.57
533.73	38385.52
534.095	38570.37
534.461	38604.72
534.826	38917.03
535.192	38980.3
535.557	39411.93
535.923	39349.11
536.288	39610.12
536.653	39727.18
537.019	39712.49
537.384	39937.34
537.749	40234.06
538.114	40263.43
538.479	40356.54
538.845	40643.54
539.21	40580.49
539.575	40685.34
539.94	40881.27
540.305	41176.4
540.67	41055.28
541.034	41252.56
541.399	41460.24
541.764	41392.89
542.129	41716.28
542.494	41805.09
542.858	41915.37
543.223	41989.94
543.587	42385.41
543.952	42270.16
544.316	42539.76
544.681	42382.02
545.045	42669.25
545.41	43034.89
545.774	43057.26
546.138	43066.97
546.503	43295.9
546.867	43264.48
547.231	43706.73
547.595	43704.02
547.959	43955.09
548.324	43962.54
548.688	44053.39
549.052	44199.83
549.416	44425.13
549.779	44323.89
550.143	44603.66
550.507	44812.01
550.871	44957.55
551.235	45073.93
551.599	45400.47
551.962	45433.92
552.326	45637.98
552.689	45680.01
553.053	45624.2
553.417	45927.69
553.78	46191.86
554.143	46173.79
554.507	46282.48
554.87	46460.11
555.234	46856.93
555.597	46642.47
555.96	46897.83
556.323	47260.76
556.686	47227.32
557.05	47488.78
557.413	47578.27
557.776	47781.65
558.139	47956.56
558.502	48096.45
558.865	48120.4
559.228	48385.93
559.59	48484.69
559.953	48724.23
560.316	49107.04
560.679	48939.14
561.041	49303.65
561.404	49413.47
561.767	49524.43
562.129	49551.32
562.492	49969.84
562.854	50001.26
563.217	49899.11
563.579	50238.09
563.941	50345.2
564.304	50478.08
564.666	50772.08
565.028	50893.44
565.39	50980.67
565.753	51062.47
566.115	51153.54
566.477	51347.66
566.839	51487.77
567.201	51628.11
567.563	51662.91
567.925	51904.26
568.287	52005.72
568.648	52038.26
569.01	52238.71
569.372	52493.62
569.734	52442.1
570.095	52603
570.457	52714.18
570.819	52795.98
571.18	52807.96
571.542	52922.76
571.903	53049.54
572.265	53165.69
572.626	53202.08
572.987	53240.27
573.349	53368.62
573.71	53483.2
574.071	53570.88
574.432	53603.2
574.794	53859.01
575.155	53811.1
575.516	53787.82
575.877	53864.66
576.238	53957.31
576.599	54058.55
576.96	54200.69
577.32	54061.71
577.681	54254.25
578.042	54254.48
578.403	54349.84
578.763	54329.96
579.124	54362.27
579.485	54504.64
579.845	54496.73
580.206	54529.95
580.566	54566.33
580.927	54626.9
581.287	54687.01
581.648	54534.24
582.008	54701.7
582.368	54685.2
582.728	54743.28
583.089	54691.75
583.449	54688.14
583.809	54753.67
584.169	54825.08
584.529	54755.71
584.889	54955.7
585.249	54723.62
585.609	54736.27
585.969	54785.08
586.329	54805.65
586.688	54789.38
587.048	54831.86
587.408	54754.58
587.768	54796.38
588.127	54736.72
588.487	54730.62
588.846	54930.62
589.206	54774.46
589.565	54810.85
589.925	54890.17
590.284	54813.56
590.643	54847.68
591.003	54875.93
591.362	55032.54
591.721	54936.49
592.08	54955.02
592.44	54911.41
592.799	54991.63
593.158	54907.79
593.517	54911.18
593.876	54987.34
594.235	54868.92
594.593	54947.57
594.952	55009.03
595.311	54916.15
595.67	55030.28
596.029	55227.33
596.387	55100.56
596.746	55208.58
597.104	55089.48
597.463	55090.39
597.822	55244.06
598.18	55116.6
598.538	55053.33
598.897	55275.24
599.255	54952.09
599.613	55446.99
599.972	55272.3
600.33	55368.12
600.688	55289.03
601.046	55347.1
601.404	55464.16
601.762	55425.75
602.12	55482.02
602.478	55476.37
602.836	55456.71
603.194	55393.66
603.552	55373.54
603.91	55325.18
604.268	55599.53
604.625	55441.56
604.983	55608.57
605.341	55461
605.698	55621.45
606.056	55674.55
606.413	55600.43
606.771	55711.16
607.128	55748.68
607.485	55582.8
607.843	55730.82
608.2	55831.61
608.557	55897.15
608.914	55848.33
609.272	55955.45
609.629	55989.35
609.986	56053.98
610.343	55872.51
610.7	56006.52
611.057	56015.56
611.414	56009.23
611.771	56064.15
612.127	56142.56
612.484	56164.26
612.841	56202.45
613.198	56076.58
613.554	56143.24
613.911	56292.39
614.267	56246.97
614.624	56229.79
614.98	56217.82
615.337	56463.23
615.693	56276.8
616.05	56360.86
616.406	56458.94
616.762	56393.18
617.118	56330.36
617.475	56359.28
617.831	56491.25
618.187	56462.55
618.543	56513.85
618.899	56665.71
619.255	56555.21
619.611	56559.73
619.967	56614.64
620.323	56653.06
620.678	56543.23
621.034	56481.31
621.39	56635.66
621.746	56549.11
622.101	56732.15
622.457	56505.04
622.812	56568.99
623.168	56612.16
623.523	56603.79
623.879	56757.69
624.234	56515.89
624.589	56607.18
624.945	56631.14
625.3	56669.1
625.655	56595.66
626.01	56677.24
626.365	56692.83
626.72	56570.8
627.075	56536
627.43	56575.55
627.785	56542.33
628.14	56534.87
628.495	56607.64
628.85	56546.85
629.205	56482.44
629.559	56586.17
629.914	56417.13
630.269	56451.48
630.623	56366.06
630.978	56365.38
631.332	56455.32
631.687	56474.31
632.041	56325.38
632.396	56362.22
632.75	56310.92
633.104	56307.76
633.459	56162.45
633.813	56176.69
634.167	56184.6
634.521	56113.86
634.875	56260.07
635.229	56091.49
635.583	55960.65
635.937	55979.4
636.291	55953.42
636.645	55990.48
636.999	55859.86
637.352	56023.7
637.706	55821.44
638.06	55892.63
638.413	55788.9
638.767	55775.12
639.121	55804.95
639.474	55546.87
639.828	55665.29
640.181	55623.93
640.534	55571.73
640.888	55582.35
641.241	55451.73
641.594	55524.95
641.947	55559.98
642.301	55398.18
642.654	55392.75
643.007	55417.38
643.36	55351.85
643.713	55275.47
644.066	55364.28
644.419	55199.99
644.771	55034.8
645.124	54718.87
645.477	54715.03
645.83	54489.27
646.182	54443.62
646.535	54308.04
646.888	54421.7
647.24	54176.97
647.593	54289.73
647.945	54224.87
648.298	54037.99
648.65	54016.97
649.002	53939.46
649.355	54151.2
649.707	53992.11
650.059	54168.83
650.411	54424.64
650.763	54482.95
651.115	54769.49
651.467	54693.56
651.819	54644.75
652.171	54536.5
652.523	54477.07
652.875	54444.75
653.227	54379.67
653.578	54567.69
653.93	54371.54
654.282	54290.41
654.633	54246.12
654.985	54308.26
655.337	54289.5
655.688	54285.44
656.039	54326.57
656.391	54110.53
656.742	54176.97
657.094	54077.98
657.445	54193.01
657.796	54146.68
658.147	54048.83
658.498	54059.68
658.849	54145.55
659.2	53991.89
659.551	53952.56
659.902	54077.08
660.253	53962.96
660.604	53983.52
660.955	53910.08
661.306	53954.15
661.656	53849.97
662.007	53955.95
662.358	53912.11
662.708	53857.65
663.059	53878.89
663.409	53644.32
663.76	53860.59
664.11	53831.44
664.461	53798.9
664.811	53813.81
665.161	53842.06
665.511	53655.17
665.862	53673.02
666.212	53830.08
666.562	53692.01
666.912	53723.87
667.262	53743.3
667.612	53628.28
667.962	53612.23
668.312	53485.46
668.662	53668.05
669.011	53603.87
669.361	53518.45
669.711	53523.42
670.06	53418.34
670.41	53383.99
670.76	53353.03
671.109	53434.39
671.459	53413.14
671.808	53283.66
672.157	53338.34
672.507	53136.99
672.856	53198.46
673.205	53317.55
673.554	53332.24
673.904	53210.21
674.253	53300.15
674.602	53204.79
674.951	52751.24
675.3	52598.02
675.649	53097.9
675.998	52990.1
676.346	52996.66
676.695	53184
677.044	52778.81
677.393	52923.89
677.741	52957.11
678.09	52989.65
678.438	52826.72
678.787	52867.17
679.135	52822.88
679.484	52700.85
679.832	52709.43
680.181	52605.26
680.529	52675.54
680.877	52575.43
681.225	52522.09
681.573	52822.2
681.922	52436.45
682.27	52298.37
682.618	52493.39
682.966	52302.21
683.314	52360.52
683.661	52211.82
684.009	52097.7
684.357	52061.77
684.705	51881.43
685.053	52002.33
685.4	51834.65
685.748	51837.14
686.095	51758.72
686.443	51645.28
686.79	51493.42
687.138	51588.56
687.485	51622.68
687.832	51416.81
688.18	51386.3
688.527	51229.25
688.874	51232.18
689.221	51172.3
689.568	50980.21
689.915	50924.4
690.262	50978.86
690.609	50876.04
690.956	50634.01
691.303	50741.35
691.65	50588.36
691.997	50532.99
692.344	50197.18
692.69	50329.16
693.037	50274.24
693.383	49977.53
693.73	50087.81
694.077	49854.14
694.423	49891.43
694.769	49739.12
695.116	49657.08
695.462	49662.73
695.808	49425.45
696.155	49492.79
696.501	49251.9
696.847	49175.06
697.193	49051
697.539	49173.93
697.885	48852.13
698.231	48655.75
698.577	48722.65
698.923	48596.55
699.269	48537.34
699.614	48273.84
699.96	48100.51
700.306	48272.49
700.651	48048.31
700.997	47876.79
701.342	47855.1
701.688	47791.6
702.033	47646.97
702.379	47721.54
702.724	47404.49
703.069	47566.74
703.415	47024.84
703.76	47219.41
704.105	47036.14
704.45	46976.02
704.795	46817.61
705.14	46593.44
705.485	46702.81
705.83	46415.36
706.175	46646.32
706.52	46325.42
706.865	46257.85
707.209	46063.96
707.554	45934.02
707.899	46116.84
708.243	45842.04
708.588	45794.59
708.932	45564.31
709.277	45604.76
709.621	45480.24
709.966	45227.14
710.31	45463.07
710.654	45021.5
710.998	45151.67
711.342	45087.03
711.687	44896.08
712.031	44725.24
712.375	44637.1
712.719	44627.84
713.063	44547.84
713.407	44592.81
713.75	44352.36
714.094	44195.98
714.438	44127.96
714.782	44198.92
715.125	43971.81
715.469	44082.09
715.812	43938.36
716.156	43648.88
716.499	43680.07
716.843	43668.54
717.186	43428.32
717.53	43658.6
717.873	43547.19
718.216	43523.46
718.559	43238.27
718.902	43001.44
719.246	43064.94
719.589	42969.58
719.932	42773.42
720.275	42794.67
720.617	42831.27
720.96	42639.42
721.303	42650.49
721.646	42600.77
721.989	42293.44
722.331	42546.54
722.674	42299.54
723.016	42360.33
723.359	42218.41
723.701	42289.37
724.044	41979.77
724.386	41834.01
724.729	42078.98
725.071	41995.14
725.413	41863.16
725.755	41779.1
726.097	41521.7
726.439	41363.29
726.782	41447.81
727.124	41598.76
727.465	41217.76
727.807	41128.49
728.149	41169.17
728.491	41123.75
728.833	41053.02
729.175	40980.25
729.516	40972.34
729.858	40773.7
730.199	40861.61
730.541	40850.99
730.882	40732.12
731.224	40725.57
731.565	40466.37
731.906	40625.23
732.248	40557.89
732.589	40224.11
732.93	40221.63
733.271	40207.62
733.612	40225.24
733.953	40285.13
734.294	39956.55
734.635	40006.49
734.976	40067.28
735.317	39721.3
735.658	39742.99
735.999	39851.69
736.339	39590.91
736.68	39591.36
737.021	39554.75
737.361	39234.76
737.702	39583
738.042	39465.94
738.383	39372.16
738.723	39255.55
739.063	39189.11
739.404	39221.43
739.744	39145.27
740.084	38903.02
740.424	38918.38
740.764	38798.16
741.104	38970.13
741.444	38661.44
741.784	38665.96
742.124	38638.16
742.464	38665.28
742.804	38590.03
743.143	38444.27
743.483	38498.96
743.823	38202.24
744.162	38181
744.502	38258.97
744.841	37972.87
745.181	38189.59
745.52	37971.29
745.86	38072.76
746.199	37930.16
746.538	37800.45
746.877	37904.4
747.216	37966.09
747.556	37666.89
747.895	37630.06
748.234	37598.64
748.573	37375.6
748.911	37428.48
749.25	37353.45
749.589	37182.61
749.928	37210.18
750.267	37249.73
750.605	37087.02
750.944	37021.03
751.283	36960.02
751.621	36944.42
751.96	36659.91
752.298	36689.06
752.636	36820.81
