Data from white_wall_FLMS001491_081.txt Node
Date: Tue Feb 07 11:06:01 GMT 2017
User: dcchb
Spectrometer: FLMS00149
Trigger mode: 0
Integration Time (sec): 2.000000E-2
Scans to average: 10
Electric dark correction enabled: true
Nonlinearity correction enabled: false
Boxcar width: 0
XAxis mode: Wavelengths
Number of Pixels in Spectrum: 2048
>>>>>Begin Spectral Data<<<<<
341.393	-12.01
341.776	-12.01
342.16	-12.01
342.543	-44.09
342.927	-71.89
343.31	-84.32
343.693	-63.08
344.077	-45
344.46	-65.34
344.843	-38.67
345.226	-49.97
345.61	-26.02
345.993	-10.2
346.376	-7.49
346.759	9.24
347.142	27.54
347.525	27.77
347.908	56.24
348.291	67.99
348.674	105.96
349.057	95.34
349.44	122.68
349.823	151.83
350.206	158.39
350.588	212.4
350.971	231.6
351.354	253.75
351.737	267.54
352.119	268.21
352.502	285.16
352.884	272.28
353.267	293.07
353.65	320.64
354.032	334.65
354.414	336.01
354.797	337.82
355.179	350.92
355.562	340.75
355.944	359.06
356.326	341.88
356.709	373.75
357.091	379.85
357.473	358.38
357.855	377.59
358.238	354.31
358.62	389.57
359.002	357.02
359.384	365.16
359.766	375.33
360.148	356.8
360.53	362.67
360.912	362
361.294	362.45
361.676	345.05
362.057	359.28
362.439	358.61
362.821	376.69
363.203	349.57
363.584	349.57
363.966	368.78
364.348	356.8
364.729	346.4
365.111	346.4
365.493	357.7
365.874	357.93
366.256	347.99
366.637	339.85
367.019	324.26
367.4	356.57
367.781	365.84
368.163	332.17
368.544	330.81
368.925	333.97
369.306	352.5
369.688	341.66
370.069	344.6
370.45	357.7
370.831	330.36
371.212	348.21
371.593	340.75
371.974	363.13
372.355	369.68
372.736	365.84
373.117	350.47
373.498	343.01
373.879	375.33
374.26	345.27
374.641	358.38
375.021	350.25
375.402	345.73
375.783	357.7
376.163	367.87
376.544	367.42
376.925	370.36
377.305	365.61
377.686	370.81
378.066	366.74
378.447	350.25
378.827	394.09
379.208	364.03
379.588	358.61
379.968	367.87
380.349	374.2
380.729	380.53
381.109	394.54
381.489	394.31
381.87	405.16
382.25	383.01
382.63	386.85
383.01	394.76
383.39	394.09
383.77	394.76
384.15	411.26
384.53	400.64
384.91	434.08
385.29	428.66
385.67	451.71
386.049	438.38
386.429	435.89
386.809	442.22
387.189	431.15
387.568	437.25
387.948	458.26
388.328	444.03
388.707	435.67
389.087	451.03
389.466	473.41
389.846	457.36
390.225	455.55
390.605	452.84
390.984	478.6
391.363	477.47
391.743	478.15
392.122	490.81
392.501	517.02
392.881	506.63
393.26	512.73
393.639	503.91
394.018	526.29
394.397	522.9
394.776	555.66
395.155	550.24
395.534	559.73
395.913	559.28
396.292	574.42
396.671	576.23
397.05	600.63
397.429	594.08
397.808	618.03
398.186	644.7
398.565	623.91
398.944	635.89
399.323	647.41
399.701	649.9
400.08	674.08
400.458	693.51
400.837	702.78
401.215	723.79
401.594	705.94
401.972	726.96
402.351	762.44
402.729	758.82
403.107	761.99
403.486	773.96
403.864	800.85
404.242	778.48
404.62	808.99
404.999	859.16
405.377	868.65
405.755	899.84
406.133	901.64
406.511	901.64
406.889	943.45
407.267	938.25
407.645	945.26
408.023	986.16
408.401	999.72
408.779	996.33
409.156	1019.38
409.534	1058.7
409.912	1057.57
410.29	1094.18
410.667	1100.51
411.045	1093.05
411.422	1142.54
411.8	1158.36
412.178	1177.57
412.555	1193.16
412.933	1205.36
413.31	1239.94
413.687	1252.37
414.065	1258.47
414.442	1298.24
414.819	1279.26
415.197	1338.69
415.574	1337.11
415.951	1360.84
416.328	1365.36
416.705	1396.77
417.082	1396.32
417.46	1417.34
417.837	1447.62
418.214	1458.01
418.591	1474.28
418.967	1485.58
419.344	1501.4
419.721	1526.49
420.098	1528.75
420.475	1549.99
420.852	1548.18
421.228	1582.98
421.605	1626.37
421.982	1623.66
422.358	1631.57
422.735	1667.5
423.111	1696.2
423.488	1691.23
423.864	1716.31
424.241	1734.16
424.617	1729.87
424.994	1756.99
425.37	1775.29
425.746	1823.88
426.123	1823.2
426.499	1834.5
426.875	1884.44
427.251	1896.65
427.627	1926.93
428.003	1983.65
428.379	1952.91
428.756	2006.7
429.132	2025.91
429.507	2072.01
429.883	2086.02
430.259	2101.84
430.635	2120.59
431.011	2194.04
431.387	2200.59
431.763	2245.11
432.138	2296.18
432.514	2303.87
432.89	2321.27
433.265	2344.99
433.641	2401.04
434.016	2434.48
434.392	2446.91
434.767	2497.76
435.143	2473.35
435.518	2519.23
435.894	2569.4
436.269	2596.97
436.644	2662.5
437.02	2689.62
437.395	2709.51
437.77	2685.55
438.145	2766.45
438.52	2739.11
438.895	2832.44
439.271	2849.84
439.646	2887.58
440.021	2897.52
440.395	2923.96
440.77	2896.17
441.145	2977.97
441.52	3031.98
441.895	3005.77
442.27	3053
442.645	3026.78
443.019	3116.5
443.394	3116.95
443.769	3139.1
444.143	3150.62
444.518	3245.08
444.892	3196.5
445.267	3249.38
445.641	3252.54
446.016	3301.35
446.39	3315.36
446.764	3355.82
447.139	3297.29
447.513	3369.37
447.887	3428.58
448.262	3427.45
448.636	3429.26
449.01	3522.37
449.384	3507
449.758	3589.71
450.132	3588.13
450.506	3660.21
450.88	3632.87
451.254	3677.39
451.628	3738.18
452.002	3736.37
452.376	3782.47
452.75	3865.18
453.123	3881.68
453.497	3965.97
453.871	3963.71
454.244	4043.48
454.618	4077.38
454.992	4156.25
455.365	4104.5
455.739	4308.11
456.112	4274.44
456.486	4338.61
456.859	4427.43
457.232	4501.1
457.606	4457.48
457.979	4599.4
458.352	4626.29
458.725	4666.74
459.099	4686.4
459.472	4860.41
459.845	4906.06
460.218	4934.76
460.591	5005.94
460.964	5042.78
461.337	5130.68
461.71	5219.95
462.083	5247.97
462.456	5278.25
462.829	5330.91
463.201	5469.43
463.574	5468.08
463.947	5547.85
464.32	5720.95
464.692	5699.48
465.065	5757.79
465.438	5793.72
465.81	5908.74
466.183	5993.49
466.555	6144.67
466.928	6155.52
467.3	6187.83
467.672	6283.42
468.045	6498.33
468.417	6487.94
468.789	6531.1
469.161	6601.83
469.534	6742.39
469.906	6872.56
470.278	6948.26
470.65	7064.64
471.022	7204.75
471.394	7309.38
471.766	7368.59
472.138	7531.3
472.51	7680.22
472.882	7825.08
473.253	7869.6
473.625	7992.76
473.997	8156.37
474.369	8256.03
474.74	8330.15
475.112	8496.7
475.484	8625.51
475.855	8775.56
476.227	8835.45
476.598	9109.11
476.97	9215.77
477.341	9450.34
477.713	9581.87
478.084	9593.84
478.455	9952.25
478.827	9997.67
479.198	10325.8
479.569	10339.36
479.94	10636.53
480.311	10669.52
480.682	10967.82
481.053	11253.69
481.424	11354.7
481.795	11501.59
482.166	11693.45
482.537	11802.83
482.908	12165.53
483.279	12257.05
483.65	12473.32
484.021	12735.91
484.391	12904.49
484.762	13052.51
485.133	13103.13
485.503	13364.14
485.874	13652.72
486.244	13839.16
486.615	14013.61
486.985	14267.85
487.356	14588.97
487.726	14621.06
488.097	14955.96
488.467	14981.27
488.837	15325.67
489.207	15602.73
489.578	15750.74
489.948	15908.93
490.318	16114.58
490.688	16188.02
491.058	16599.08
491.428	16784.84
491.798	16870.49
492.168	17351.15
492.538	17373.53
492.908	17546.63
493.278	17811.48
493.648	17776.91
494.017	18132.6
494.387	18240.4
494.757	18319.26
495.126	18563.78
495.496	18665.47
495.866	18847.61
496.235	19136.19
496.605	19286.02
496.974	19414.38
497.344	19657.08
497.713	19779.34
498.082	19903.63
498.452	20096.62
498.821	20153.57
499.19	20304.3
499.559	20418.19
499.928	20612.54
500.298	20781.12
500.667	21100.43
501.036	21091.17
501.405	21316.02
501.774	21330.48
502.143	21664.94
502.512	21716.69
502.88	21958.94
503.249	21995.55
503.618	22138.15
503.987	22369.33
504.356	22440.51
504.724	22649.09
505.093	22760.28
505.462	22903.32
505.83	22922.76
506.199	23268.06
506.567	23563.65
506.936	23501.05
507.304	23911.66
507.672	24005.22
508.041	24069.85
508.409	24282.5
508.777	24523.62
509.145	24710.51
509.514	24735.59
509.882	24991.63
510.25	25165.41
510.618	25420.32
510.986	25531.96
511.354	25814.89
511.722	25942.34
512.09	26311.37
512.458	26105.5
512.826	26418.71
513.193	26590.23
513.561	26710.46
513.929	27010.79
514.297	27262.53
514.664	27387.05
515.032	27565.8
515.4	27745
515.767	27904.1
516.135	28024.55
516.502	28067.93
516.869	28574.81
517.237	28690.29
517.604	28553.35
517.972	29015.25
518.339	29318.07
518.706	29281.69
519.073	29511.06
519.44	29690.72
519.808	29999.86
520.175	29944.95
520.542	30536.34
520.909	30549.9
521.276	30677.81
521.643	30990.34
522.009	31279.38
522.376	31552.14
522.743	31657.22
523.11	32012.46
523.477	32216.98
523.843	32388.05
524.21	32765.44
524.577	32927.02
524.943	33086.33
525.31	33275.26
525.676	33668.47
526.043	33673.66
526.409	33945.52
526.776	34285.62
527.142	34448.56
527.508	34597.48
527.874	35018.03
528.241	35227.75
528.607	35298.7
528.973	35594.29
529.339	35726.94
529.705	35874.28
530.071	36336.87
530.437	36415.74
530.803	36751.1
531.169	36833.13
531.535	36808.72
531.901	37108.83
532.267	37256.17
532.632	37551.75
532.998	37612.32
533.364	37935.02
533.73	37880.56
534.095	38249.81
534.461	38493.65
534.826	38569.35
535.192	38739.29
535.557	38943.13
535.923	38955.33
536.288	39114.65
536.653	39423.57
537.019	39175.66
537.384	39512.15
537.749	39818.59
538.114	39935.87
538.479	39808.42
538.845	40190.78
539.21	40178.12
539.575	40394.39
539.94	40481.62
540.305	40815.4
540.67	40746.25
541.034	40961.38
541.399	41191.88
541.764	41389.17
542.129	41473.68
542.494	41576.51
542.858	41768.59
543.223	41964.29
543.587	42188.69
543.952	42106.66
544.316	42310.27
544.681	42350.27
545.045	42531.28
545.41	42907.32
545.774	42926.07
546.138	43128.1
546.503	43186.18
546.867	43164.94
547.231	43549.79
547.595	43573.97
547.959	43907.97
548.324	43837.69
548.688	44035.42
549.052	44241.07
549.416	44305.47
549.779	44471.57
550.143	44621.17
550.507	44946.81
550.871	45044.21
551.235	45031.56
551.599	45336.18
551.962	45508.15
552.326	45576.17
552.689	45904.3
553.053	45699.11
553.417	45980.91
553.78	46371.41
554.143	46217.51
554.507	46490.73
554.87	46735.47
555.234	47160.09
555.597	46917.83
555.96	47269.46
556.323	47494.09
556.686	47545.61
557.05	47909.45
557.413	47915.77
557.776	48021.08
558.139	48380.85
558.502	48553.5
558.865	48576.1
559.228	48887.95
559.59	48880.04
559.953	49064.9
560.316	49536.52
560.679	49506.24
561.041	49645.67
561.404	49829.17
561.767	50114.36
562.129	50049.5
562.492	50468.93
562.854	50333.56
563.217	50466.89
563.579	50557.06
563.941	50929.25
564.304	50946.65
564.666	51153.65
565.028	51296.93
565.39	51360.2
565.753	51591.16
566.115	51628.67
566.477	51873.18
566.839	51933.75
567.201	52180.52
567.563	52178.03
567.925	52364.7
568.287	52428.65
568.648	52484.92
569.01	52738.7
569.372	52882.65
569.734	52865.02
570.095	53016.43
570.457	53210.78
570.819	53230.89
571.18	53251
571.542	53337.1
571.903	53393.14
572.265	53566.47
572.626	53673.36
572.987	53646.92
573.349	53848.27
573.71	53953.13
574.071	53999.68
574.432	54134.82
574.794	54351.31
575.155	54284.87
575.516	54190.64
575.877	54331.2
576.238	54350.41
576.599	54487.8
576.96	54422.95
577.32	54546.33
577.681	54556.96
578.042	54676.05
578.403	54643.73
578.763	54667.91
579.124	54711.08
579.485	54826.55
579.845	54944.74
580.206	54848.02
580.566	54826.78
580.927	54861.35
581.287	55011.86
581.648	54941.13
582.008	55054.34
582.368	55049.15
582.728	55098.86
583.089	55015.25
583.449	55037.62
583.809	55088.69
584.169	55177.96
584.529	55052.54
584.889	55307.22
585.249	55167.33
585.609	55038.3
585.969	55292.76
586.329	55118.52
586.688	55245.52
587.048	55224.28
587.408	55125.3
587.768	55176.83
588.127	55243.04
588.487	55132.53
588.846	55326.43
589.206	55179.54
589.565	55231.74
589.925	55316.71
590.284	55304.73
590.643	55262.47
591.003	55402.81
591.362	55397.39
591.721	55323.71
592.08	55310.38
592.44	55388.12
592.799	55358.52
593.158	55359.87
593.517	55311.06
593.876	55466.76
594.235	55356.48
594.593	55376.14
594.952	55423.6
595.311	55418.85
595.67	55422.47
596.029	55662.69
596.387	55626.76
596.746	55617.27
597.104	55440.77
597.463	55448.01
597.822	55646.42
598.18	55537.27
598.538	55506.99
598.897	55655.01
599.255	55456.37
599.613	55861.1
599.972	55673.99
600.33	55774.32
600.688	55716.25
601.046	55768.45
601.404	55800.54
601.762	55769.8
602.12	55856.13
602.478	55928.22
602.836	55898.61
603.194	55766.42
603.552	55852.97
603.91	55759.64
604.268	55921.89
604.625	55831.5
604.983	55986.52
605.341	55890.93
605.698	56078.5
606.056	56032.85
606.413	56023.36
606.771	56128.44
607.128	56101.77
607.485	56011.61
607.843	56094.99
608.2	56230.81
608.557	56329.79
608.914	56253.18
609.272	56310.58
609.629	56370.92
609.986	56438.49
610.343	56381.31
610.7	56537.02
611.057	56518.71
611.414	56469.45
611.771	56422.44
612.127	56636.45
612.484	56556.68
612.841	56684.36
613.198	56542.21
613.554	56599.61
613.911	56827.86
614.267	56740.4
614.624	56723
614.98	56732.49
615.337	56882.77
615.693	56816.78
616.05	56693.17
616.406	56881.87
616.762	56815.43
617.118	56898.81
617.475	56874.18
617.831	56951.02
618.187	56958.47
618.543	56965.71
618.899	57095.87
619.255	57043.22
619.611	57082.31
619.967	57133.38
620.323	57225.36
620.678	57091.8
621.034	57032.14
621.39	57107.4
621.746	57059.26
622.101	57284.79
622.457	57112.82
622.812	57148.07
623.168	57239.82
623.523	57225.13
623.879	57258.81
624.234	57185.59
624.589	57240.27
624.945	57233.04
625.3	57342.87
625.655	57100.17
626.01	57242.99
626.365	57214.29
626.72	57170.45
627.075	57235.98
627.43	57237.11
627.785	57195.08
628.14	57242.53
628.495	57258.35
628.85	57212.7
629.205	57069.43
629.559	57295.87
629.914	57107.85
630.269	57176.55
630.623	57081.86
630.978	57028.98
631.332	57101.3
631.687	57194.63
632.041	57042.77
632.396	57036.66
632.75	56951.02
633.104	56978.59
633.459	56856.56
633.813	56933.84
634.167	56852.26
634.521	56832.38
634.875	56924.58
635.229	56785.82
635.583	56733.4
635.937	56700.85
636.291	56671.25
636.645	56693.85
636.999	56669.89
637.352	56673.06
637.706	56572.27
638.06	56677.13
638.413	56558.48
638.767	56539.5
639.121	56511.48
639.474	56437.81
639.828	56410.24
640.181	56496.79
640.534	56441.2
640.888	56421.77
641.241	56302.67
641.594	56318.26
641.947	56398.49
642.301	56245.27
642.654	56281.43
643.007	56293.41
643.36	56272.16
643.713	56241.88
644.066	56309.9
644.419	56079.4
644.771	55952.85
645.124	55633.99
645.477	55630.83
645.83	55529.13
646.182	55353.54
646.535	55240.1
646.888	55295.69
647.24	55137.73
647.593	55294.11
647.945	55179.99
648.298	55057.06
648.65	55022.71
649.002	54923.73
649.355	55127.79
649.707	55035.36
650.059	55152.19
650.411	55462.47
650.763	55485.07
651.115	55685.29
651.467	55614.33
651.819	55622.46
652.171	55585.4
652.523	55415.01
652.875	55483.71
653.227	55400.55
653.578	55521.22
653.93	55442.13
654.282	55350.38
654.633	55293.89
654.985	55316.94
655.337	55321
655.688	55348.8
656.039	55416.82
656.391	55118.97
656.742	55270.61
657.094	55246.43
657.445	55361
657.796	55229.71
658.147	55133.44
658.498	55075.36
658.849	55210.27
659.2	55119.2
659.551	55041.46
659.902	55125.08
660.253	55168.46
660.604	55129.14
660.955	54984.06
661.306	55077.17
661.656	54927.57
662.007	54991.75
662.358	54949.26
662.708	54939.32
663.059	54942.48
663.409	54758.31
663.76	54982.25
664.11	54915.82
664.461	54988.58
664.811	54973.67
665.161	54919.66
665.511	54769.61
665.862	54865.2
666.212	55005.76
666.562	54875.59
666.912	54864.97
667.262	54775.25
667.612	54810.28
667.962	54798.76
668.312	54807.8
668.662	54914.46
669.011	54751.3
669.361	54708.36
669.711	54623.85
670.06	54677.18
670.41	54650.96
670.76	54555.6
671.109	54671.53
671.459	54630.63
671.808	54486.45
672.157	54614.58
672.507	54345.44
672.856	54393.57
673.205	54372.78
673.554	54434.02
673.904	54313.57
674.253	54460.91
674.602	54370.52
674.951	53958.55
675.3	53798.78
675.649	54246.68
675.998	54199.45
676.346	54241.26
676.695	54324.65
677.044	54090.53
677.393	54215.72
677.741	54220.69
678.09	54068.38
678.438	53985.22
678.787	54003.98
679.135	54067.02
679.484	53767.37
679.832	53974.37
680.181	53808.05
680.529	53880.59
680.877	53816.64
681.225	53854.6
681.573	53988.38
681.922	53658
682.27	53592.69
682.618	53545.23
682.966	53554.5
683.314	53605.12
683.661	53441.05
684.009	53300.04
684.357	53248.74
684.705	53173.94
685.053	53317.89
685.4	53195.64
685.748	53004.45
686.095	53110.21
686.443	52918.81
686.79	52852.59
687.138	52842.2
687.485	52815.31
687.832	52680.85
688.18	52704.57
688.527	52594.52
688.874	52472.04
689.221	52392.72
689.568	52392.49
689.915	52280.18
690.262	52331.25
690.609	52183.23
690.956	52091.26
691.303	51982.79
691.65	51874.99
691.997	51863.47
692.344	51588.45
692.69	51637.94
693.037	51682.23
693.383	51366.53
693.73	51477.94
694.077	51241.56
694.423	51215.12
694.769	51085.86
695.116	51062.81
695.462	51011.29
695.808	50899.88
696.155	51058.52
696.501	50640.67
696.847	50783.5
697.193	50534.01
697.539	50637.74
697.885	50340.12
698.231	50241.14
698.577	50196.39
698.923	50167.47
699.269	50026.9
699.614	49857.87
699.96	49703.98
700.306	49694.48
700.651	49474.15
700.997	49569.97
701.342	49456.52
701.688	49372.91
702.033	49277.55
702.379	49205.01
702.724	48952.36
703.069	49152.8
703.415	48732.25
703.76	48684.34
704.105	48786.71
704.45	48579.94
704.795	48327.29
705.14	48344.46
705.485	48337.01
705.83	48106.05
706.175	48315.09
706.52	48026.96
706.865	47945.15
707.209	47811.82
707.554	47698.15
707.899	47877.58
708.243	47697.02
708.588	47636.69
708.932	47310.82
709.277	47330.03
709.621	47364.83
709.966	47107.89
710.31	47079.86
710.654	46765.07
710.998	46947.21
711.342	46901.11
711.687	46781.34
712.031	46589.71
712.375	46517.39
712.719	46695.24
713.063	46506.77
713.407	46600.33
713.75	46389.03
714.094	46271.98
714.438	46081.7
714.782	46145.65
715.125	45870.4
715.469	45987.01
715.812	45726
716.156	45655.49
716.499	45630.64
716.843	45526.23
717.186	45369.63
717.53	45540.24
717.873	45466.8
718.216	45289.85
718.559	45096.19
718.902	44999.47
719.246	44924.67
719.589	44869.98
719.932	44718.57
720.275	44691.23
720.617	44529.42
720.96	44660.04
721.303	44605.35
721.646	44556.99
721.989	44397.45
722.331	44486.94
722.674	44349.99
723.016	44423.66
723.359	44254.63
723.701	44281.29
724.044	43997.46
724.386	43872.04
724.729	43974.86
725.071	43806.05
725.413	43807.63
725.755	43743.91
726.097	43479.05
726.439	43419.62
726.782	43469.79
727.124	43635.43
727.465	43391.37
727.807	43378.72
728.149	43157.26
728.491	43188.89
728.833	43194.09
729.175	42955.45
729.516	42949.12
729.858	42884.04
730.199	43045.39
730.541	42818.05
730.882	42639.98
731.224	42816.25
731.565	42567.67
731.906	42532.64
732.248	42487.67
732.589	42399.76
732.93	42218.97
733.271	42159.09
733.612	42296.26
733.953	42104.63
734.294	41988.02
734.635	42025.31
734.976	41941.47
735.317	41832.09
735.658	41837.74
735.999	41696.28
736.339	41800.91
736.68	41633.68
737.021	41522.04
737.361	41415.15
737.702	41668.71
738.042	41401.6
738.383	41373.12
738.723	41403.4
739.063	41232.11
739.404	41150.08
739.744	41136.74
740.084	41046.12
740.424	41145.78
740.764	41022.4
741.104	40998.44
741.444	40827.6
741.784	40710.31
742.124	40759.58
742.464	40767.04
742.804	40546.93
743.143	40575.85
743.483	40467.61
743.823	40318.69
744.162	40153.04
744.502	40271.46
744.841	40147.16
745.181	40260.16
745.52	40069.88
745.86	40236.88
746.199	40049.77
746.538	39940.39
746.877	40053.16
747.216	39947.17
747.556	39768.42
747.895	39830.34
748.234	39520.97
748.573	39592.6
748.911	39421.53
749.25	39513.06
749.589	39476.45
749.928	39291.82
750.267	39384.25
750.605	39363.91
750.944	39043.92
751.283	39020.19
751.621	39068.32
751.96	38875.11
752.298	38791.27
752.636	38844.83
752.975	38693.87
