Data from white_poster_card_FLMS001491_00009.txt Node
Date: Wed Feb 08 11:50:58 GMT 2017
User: dcchb
Spectrometer: FLMS00149
Trigger mode: 0
Integration Time (sec): 2.000000E-2
Scans to average: 10
Electric dark correction enabled: true
Nonlinearity correction enabled: false
Boxcar width: 0
XAxis mode: Wavelengths
Number of Pixels in Spectrum: 2048
>>>>>Begin Spectral Data<<<<<
341.393	-3.22
341.776	-3.22
342.16	-3.22
342.543	-59.49
342.927	-81.41
343.31	-73.5
343.693	-77.12
344.077	-62.65
344.46	-59.72
344.843	-50.68
345.226	-49.09
345.61	-38.02
345.993	1.75
346.376	-25.37
346.759	4.01
347.142	29.55
347.525	35.87
347.908	59.15
348.291	81.98
348.674	96.66
349.057	127.17
349.44	135.76
349.823	154.29
350.206	171.24
350.588	214.18
350.971	237.45
351.354	254.63
351.737	246.94
352.119	244
352.502	281.74
352.884	288.07
353.267	282.65
353.65	309.09
354.032	320.39
354.414	318.13
354.797	337.34
355.179	323.1
355.562	344.57
355.944	334.17
356.326	335.3
356.709	328.07
357.091	360.84
357.473	343.21
357.855	333.49
358.238	352.25
358.62	356.32
359.002	372.14
359.384	349.76
359.766	346.83
360.148	386.15
360.53	363.55
360.912	338.47
361.294	357
361.676	372.14
362.057	366.71
362.439	330.1
362.821	342.76
363.203	327.84
363.584	337.11
363.966	363.55
364.348	334.4
364.729	321.29
365.111	335.53
365.493	319.48
365.874	340.5
366.256	340.27
366.637	330.33
367.019	329.88
367.4	331.46
367.781	333.27
368.163	324.45
368.544	319.48
368.925	326.94
369.306	340.95
369.688	326.49
370.069	332.59
370.45	326.04
370.831	322.42
371.212	335.3
371.593	323.1
371.974	332.82
372.355	321.74
372.736	331.46
373.117	336.21
373.498	342.99
373.879	336.21
374.26	345.47
374.641	348.63
375.021	333.49
375.402	332.36
375.783	354.96
376.163	348.18
376.544	358.35
376.925	340.95
377.305	362.42
377.686	367.17
378.066	340.95
378.447	329.2
378.827	376.88
379.208	358.35
379.588	355.64
379.968	357.22
380.349	370.56
380.729	354.74
381.109	341.4
381.489	357.22
381.87	346.15
382.25	350.89
382.63	361.29
383.01	355.41
383.39	352.02
383.77	364.23
384.15	391.8
384.53	389.31
384.91	387.96
385.29	377.33
385.67	378.92
386.049	376.2
386.429	385.47
386.809	387.05
387.189	402.87
387.568	385.7
387.948	386.6
388.328	402.42
388.707	373.72
389.087	404.45
389.466	393.61
389.846	396.54
390.225	408.52
390.605	384.11
390.984	410.78
391.363	422.76
391.743	410.1
392.122	422.31
392.501	436.77
392.881	404.23
393.26	432.7
393.639	415.75
394.018	418.01
394.397	429.31
394.776	435.64
395.155	455.07
395.534	453.26
395.913	444.9
396.292	454.62
396.671	433.83
397.05	459.82
397.429	472.47
397.808	443.1
398.186	469.31
398.565	468.18
398.944	467.28
399.323	453.49
399.701	471.57
400.08	491
400.458	475.19
400.837	493.04
401.215	482.19
401.594	491.68
401.972	487.39
402.351	497.78
402.729	495.98
403.107	502.98
403.486	525.13
403.864	520.61
404.242	509.99
404.62	524.22
404.999	535.07
405.377	529.65
405.755	540.72
406.133	541.17
406.511	533.71
406.889	569.65
407.267	565.58
407.645	558.57
408.023	575.52
408.401	574.62
408.779	589.31
409.156	587.27
409.534	623.88
409.912	645.12
410.29	641.51
410.667	659.59
411.045	656.42
411.422	666.82
411.8	695.74
412.178	710.21
412.555	707.95
412.933	733.03
413.31	750.21
413.687	777.55
414.065	793.37
414.442	820.94
414.819	827.49
415.197	828.4
415.574	832.92
415.951	836.08
416.328	872.24
416.705	916.53
417.082	899.81
417.46	916.98
417.837	961.73
418.214	956.08
418.591	966.7
418.967	980.71
419.344	1002.4
419.721	1041.72
420.098	1008.28
420.475	1061.16
420.852	1080.59
421.228	1095.73
421.605	1090.76
421.982	1114.49
422.358	1135.05
422.735	1143.19
423.111	1141.83
423.488	1182.96
423.864	1206.01
424.241	1207.14
424.617	1223.41
424.994	1240.14
425.37	1270.42
425.746	1293.47
426.123	1317.87
426.499	1314.03
426.875	1309.29
427.251	1369.85
427.627	1358.33
428.003	1383.86
428.379	1401.94
428.756	1435.84
429.132	1435.84
429.507	1441.94
429.883	1473.13
430.259	1523.52
430.635	1524.42
431.011	1540.69
431.387	1604.65
431.763	1609.39
432.138	1652.33
432.514	1643.52
432.89	1667.02
433.265	1706.34
433.641	1739.56
434.016	1722.84
434.392	1772.55
434.767	1808.03
435.143	1809.16
435.518	1838.54
435.894	1834.47
436.269	1894.58
436.644	1923.96
437.02	1945.88
437.395	1929.84
437.77	1941.81
438.145	1997.41
438.52	1992.66
438.895	2013.22
439.271	2039.89
439.646	2049.38
440.021	2075.82
440.395	2083.05
440.77	2075.37
441.145	2074.69
441.52	2161.02
441.895	2151.07
442.27	2195.37
442.645	2129.38
443.019	2179.1
443.394	2179.32
443.769	2232.65
444.143	2220.68
444.518	2276.49
444.892	2244.86
445.267	2291.63
445.641	2314.01
446.016	2317.85
446.39	2314.46
446.764	2329.37
447.139	2311.75
447.513	2324.85
447.887	2370.28
448.262	2371.63
448.636	2402.82
449.01	2409.15
449.384	2446.21
449.758	2423.61
450.132	2497.28
450.506	2508.35
450.88	2492.53
451.254	2557.16
451.628	2536.6
452.002	2594.9
452.376	2655.24
452.75	2639.42
453.123	2638.97
453.497	2709.93
453.871	2724.39
454.244	2789.7
454.618	2799.64
454.992	2810.72
455.365	2794.22
455.739	2896.14
456.112	2907.21
456.486	2938.85
456.859	2965.97
457.232	3013.65
457.606	3009.13
457.979	3052.52
458.352	3093.2
458.725	3151.73
459.099	3189.69
459.472	3249.8
459.845	3231.72
460.218	3313.08
460.591	3327.31
460.964	3325.28
461.337	3430.59
461.71	3454.77
462.083	3474.2
462.456	3543.58
462.829	3553.97
463.201	3551.94
463.574	3641.88
463.947	3681.88
464.32	3727.08
464.692	3764.36
465.065	3812.95
465.438	3826.06
465.81	3892.95
466.183	3926.39
466.555	4028.76
466.928	4007.75
467.3	4026.73
467.672	4098.59
468.045	4202.32
468.417	4210.45
468.789	4267.63
469.161	4304.01
469.534	4357.34
469.906	4445.02
470.278	4485.93
470.65	4550.33
471.022	4612.93
471.394	4682.76
471.766	4706.03
472.138	4776.77
472.51	4887.72
472.882	4962.98
473.253	5006.37
473.625	5034.39
473.997	5183.76
474.369	5206.59
474.74	5255.62
475.112	5362.97
475.484	5426.24
475.855	5523.19
476.227	5600.47
476.598	5709.4
476.97	5762.05
477.341	5838.89
477.713	6011.08
478.084	6036.62
478.455	6163.62
478.827	6241.14
479.198	6415.37
479.569	6436.16
479.94	6597.96
480.311	6635.02
480.682	6781.01
481.053	6895.81
481.424	6985.07
481.795	7047.67
482.166	7201.34
482.537	7310.49
482.908	7441.78
483.279	7512.29
483.65	7616.01
484.021	7830.7
484.391	7873.86
484.762	8048.32
485.133	8014.42
485.503	8197.92
485.874	8356.11
486.244	8437.46
486.615	8592.49
486.985	8717.91
487.356	8785.25
487.726	8902.31
488.097	9172.81
488.467	9121.06
488.837	9296.42
489.207	9398.57
489.578	9562.4
489.948	9696.86
490.318	9780.93
490.688	9847.37
491.058	9980.7
491.428	10135.72
491.798	10208.94
492.168	10377.3
492.538	10395.15
492.908	10582.94
493.278	10673.34
493.648	10725.99
494.017	10880.56
494.387	11002.14
494.757	11116.49
495.126	11285.3
495.496	11242.81
495.866	11323.26
496.235	11452.52
496.605	11615.91
496.974	11591.5
497.344	11770.71
497.713	11818.62
498.082	11911.04
498.452	12060.64
498.821	12092.96
499.19	12233.75
499.559	12313.74
499.928	12366.17
500.298	12470.8
500.667	12576.79
501.036	12622.66
501.405	12721.42
501.774	12769.33
502.143	12901.53
502.512	12927.74
502.88	13146.72
503.249	13149.65
503.618	13137.45
503.987	13275.75
504.356	13377.22
504.724	13527.95
505.093	13456.99
505.462	13660.15
505.83	13743.99
506.199	13813.37
506.567	13979.01
506.936	13982.4
507.304	14105.79
507.672	14267.14
508.041	14380.36
508.409	14451.31
508.777	14539.67
509.145	14608.15
509.514	14702.61
509.882	14761.59
510.25	14818.08
510.618	15006.78
510.986	15037.74
511.354	15264.17
511.722	15420.55
512.09	15473.21
512.458	15555.47
512.826	15699.87
513.193	15755.46
513.561	15819.64
513.929	15983.25
514.297	16102.8
514.664	16238.84
515.032	16232.96
515.4	16472.73
515.767	16545.72
516.135	16754.08
516.502	16566.97
516.869	16944.13
517.237	16943.68
517.604	17038.59
517.972	17185.03
518.339	17271.13
518.706	17414.17
519.073	17417.79
519.44	17576.88
519.808	17818.01
520.175	17880.38
520.542	18098.68
520.909	18102.52
521.276	18261.38
521.643	18360.82
522.009	18601.49
522.376	18666.8
522.743	18806
523.11	19006.22
523.477	19231.75
523.843	19201.7
524.21	19558.3
524.577	19732.53
524.943	19800.78
525.31	19862.25
525.676	20012.3
526.043	20205.06
526.409	20249.13
526.776	20532.28
527.142	20592.85
527.508	20739.51
527.874	20899.96
528.241	20848.43
528.607	21115.09
528.973	21309.44
529.339	21322.32
529.705	21574.97
530.071	21710.56
530.437	21790.11
530.803	21874.62
531.169	22085.92
531.535	22108.74
531.901	22171.34
532.267	22458.79
532.632	22315.74
532.998	22578.11
533.364	22807.25
533.73	22830.08
534.095	23099.68
534.461	23015.84
534.826	23234.36
535.192	23338.99
535.557	23486.33
535.923	23430.06
536.288	23629.83
536.653	23648.14
537.019	23573.11
537.384	23727.91
537.749	23971.06
538.114	23906.43
538.479	24039.09
538.845	24211.74
539.21	24163.15
539.575	24236.59
539.94	24465.51
540.305	24519.52
540.67	24496.02
541.034	24775.79
541.399	24734.21
541.764	24860.31
542.129	25020.75
542.494	25020.98
542.858	25170.13
543.223	25149.79
543.587	25394.08
543.952	25380.97
544.316	25417.81
544.681	25353.4
545.045	25544.81
545.41	25758.36
545.774	25852.6
546.138	25790.68
546.503	25965.59
546.867	26042.87
547.231	26251.46
547.595	26309.76
547.959	26371.91
548.324	26334.39
548.688	26458.46
549.052	26648.06
549.416	26692.12
549.779	26603.09
550.143	26884.21
550.507	27093.69
550.871	27145.22
551.235	26986.13
551.599	27277.64
551.962	27374.36
552.326	27481.71
552.689	27659.78
553.053	27538.88
553.417	27642.83
553.78	27930.73
554.143	27877.18
554.507	28124.63
554.87	28197.62
555.234	28348.8
555.597	28256.6
555.96	28483.26
556.323	28653.43
556.686	28555.58
557.05	28945.62
557.413	28859.98
557.776	28931.61
558.139	29174.09
558.502	29303.35
558.865	29375.67
559.228	29633.74
559.59	29664.25
559.953	29718.48
560.316	30092.49
560.679	29990.79
561.041	30117.12
561.404	30321.63
561.767	30612.25
562.129	30534.96
562.492	30809.08
562.854	30916.42
563.217	30878
563.579	31021.5
563.941	31192.8
564.304	31350.98
564.666	31636.85
565.028	31578.32
565.39	31765.89
565.753	31839.56
566.115	32178.31
566.477	32156.39
566.839	32237.51
567.201	32606.09
567.563	32445.42
567.925	32763.6
568.287	32768.35
568.648	32881.11
569.01	33166.08
569.372	33226.19
569.734	33166.53
570.095	33432.51
570.457	33581.66
570.819	33636.12
571.18	33748.66
571.542	33902.78
571.903	33800.86
572.265	33974.42
572.626	34170.57
572.987	34305.03
573.349	34335.31
573.71	34363.11
574.071	34565.59
574.432	34646.26
574.794	34838.12
575.155	34816.88
575.516	34760.84
575.877	35017.78
576.238	35051.23
576.599	35146.59
576.96	35152.24
577.32	35317.43
577.681	35351.56
578.042	35420.71
578.403	35248.51
578.763	35571.89
579.124	35545.45
579.485	35642.62
579.845	35651.66
580.206	35694.15
580.566	35665.67
580.927	35789.51
581.287	35886.23
581.648	35797.42
582.008	35904.31
582.368	35970.52
582.728	35964.65
583.089	35986.79
583.449	35984.76
583.809	35932.78
584.169	36085.55
584.529	35783.64
584.889	36215.71
585.249	36028.37
585.609	36062.5
585.969	36180.69
586.329	36016.4
586.688	36061.14
587.048	36135.49
587.408	36027.47
587.768	36029.96
588.127	36069.96
588.487	36020.69
588.846	36227.24
589.206	35995.83
589.565	36015.95
589.925	36309.05
590.284	36215.26
590.643	36231.76
591.003	36361.25
591.362	36415.48
591.721	36307.01
592.08	36354.92
592.44	36462.71
592.799	36284.64
593.158	36209.39
593.517	36376.84
593.876	36326.9
594.235	36144.3
594.593	36202.83
594.952	36380
595.311	36309.27
595.67	36413.9
596.029	36463.17
596.387	36610.05
596.746	36559.21
597.104	36518.76
597.463	36494.13
597.822	36627.68
598.18	36502.71
598.538	36492.77
598.897	36724.18
599.255	36443.73
599.613	36829.03
599.972	36646.66
600.33	36820.44
600.688	36700.22
601.046	36833.78
601.404	36988.35
601.762	36911.29
602.12	37034.9
602.478	37087.33
602.836	37093.43
603.194	36975.24
603.552	37071.96
603.91	36968.91
604.268	37152.64
604.625	36907.67
604.983	37124.84
605.341	36992.64
605.698	37190.6
606.056	37318.51
606.413	37243.71
606.771	37314.89
607.128	37351.96
607.485	37244.61
607.843	37281.45
608.2	37467.21
608.557	37597.15
608.914	37560.99
609.272	37605.51
609.629	37664.04
609.986	37776.13
610.343	37541.1
610.7	37753.98
611.057	37838.04
611.414	37870.59
611.771	37777.26
612.127	37789.91
612.484	37928.66
612.841	38001.66
613.198	37940.19
613.554	37862.9
613.911	38142.44
614.267	38140.18
614.624	38075.33
614.98	38144.03
615.337	38167.08
615.693	38271.03
616.05	38188.77
616.406	38408.88
616.762	38288.43
617.118	38289.56
617.475	38299.5
617.831	38468.54
618.187	38540.63
618.543	38513.73
618.899	38661.07
619.255	38574.3
619.611	38574.97
619.967	38710.56
620.323	38772.03
620.678	38495.43
621.034	38534.75
621.39	38550.12
621.746	38428.54
622.101	38809.54
622.457	38716.21
622.812	38586.27
623.168	38780.62
623.523	38733.84
623.879	38819.26
624.234	38508.31
624.589	38696.55
624.945	38686.38
625.3	38812.93
625.655	38641.41
626.01	38844.8
626.365	38697.68
626.72	38759.6
627.075	38696.1
627.43	38687.51
627.785	38640.96
628.14	38657.68
628.495	38738.81
628.85	38609.1
629.205	38481.19
629.559	38579.27
629.914	38628.08
630.269	38593.51
630.623	38390.8
630.978	38391.25
631.332	38558.03
631.687	38521.19
632.041	38335.88
632.396	38361.19
632.75	38181.99
633.104	38260.63
633.459	38110.13
633.813	38105.83
634.167	38123.69
634.521	38069.68
634.875	38139.05
635.229	37984.71
635.583	37781.77
635.937	37805.96
636.291	37803.47
636.645	37760.08
636.999	37715.79
637.352	37802.34
637.706	37580.42
638.06	37672.85
638.413	37492.29
638.767	37412.75
639.121	37562.57
639.474	37327.1
639.828	37455
640.181	37263.82
640.534	37352.41
640.888	37295.91
641.241	37111.51
641.594	37122.81
641.947	37381.56
642.301	37145.86
642.654	37328.91
643.007	37151.74
643.36	37063.38
643.713	36986.09
644.066	37285.29
644.419	37078.74
644.771	36656.38
645.124	36312.44
645.477	36218.88
645.83	35967.36
646.182	35949.73
646.535	35804.65
646.888	35894.59
647.24	35627.71
647.593	35779.57
647.945	35688.04
648.298	35502.74
648.65	35269.52
649.002	35337.32
649.355	35489.63
649.707	35239.92
650.059	35522.17
650.411	35992.67
650.763	36038.54
651.115	36236.05
651.467	36050.3
651.819	36193.12
652.171	35832.22
652.523	35916.97
652.875	35948.6
653.227	35782.28
653.578	36009.62
653.93	35989.28
654.282	35740.25
654.633	35700.7
654.985	35676.52
655.337	35711.77
655.688	35791.09
656.039	35880.81
656.391	35568.95
656.742	35654.6
657.094	35452.12
657.445	35657.09
657.796	35560.59
658.147	35492.8
658.498	35434.49
658.849	35553.58
659.2	35374.15
659.551	35420.03
659.902	35441.5
660.253	35340.03
660.604	35415.51
660.955	35253.48
661.306	35343.19
661.656	35266.36
662.007	35220.71
662.358	35153.14
662.708	35117.66
663.059	35147.95
663.409	35003.77
663.76	35221.16
664.11	35123.09
664.461	35227.49
664.811	35273.82
665.161	35082.86
665.511	35079.7
665.862	35122.18
666.212	35091.68
666.562	35187.49
666.912	35022.53
667.262	35038.57
667.612	35147.49
667.962	34969.19
668.312	34925.13
668.662	35150.21
669.011	35001.96
669.361	34927.39
669.711	34961.06
670.06	34823.21
670.41	34739.37
670.76	34731.23
671.109	34820.95
671.459	34680.16
671.808	34702.31
672.157	34695.53
672.507	34520.39
672.856	34511.13
673.205	34492.6
673.554	34721.97
673.904	34567.4
674.253	34642.42
674.602	34430.45
674.951	34051.25
675.3	33950.46
675.649	34459.15
675.998	34312.26
676.346	34416.21
676.695	34483.78
677.044	34199.72
677.393	34255.09
677.741	34322.43
678.09	34183.45
678.438	34140.29
678.787	34074.98
679.135	34163.56
679.484	33985.49
679.832	34057.58
680.181	33912.05
680.529	34037.47
680.877	33824.14
681.225	33810.13
681.573	34080.18
681.922	33733.07
682.27	33713.41
682.618	33597.7
682.966	33563.81
683.314	33542.79
683.661	33569
684.009	33453.75
684.357	33336.24
684.705	33273.64
685.053	33317.26
685.4	33309.8
685.748	33061.67
686.095	33074.78
686.443	32984.16
686.79	32985.29
687.138	32972.86
687.485	32857.61
687.832	32735.13
688.18	32790.95
688.527	32682.7
688.874	32684.96
689.221	32613.55
689.568	32336.49
689.915	32300.56
690.262	32363.61
690.609	32247.46
690.956	32087.46
691.303	32032.77
691.65	31915.71
691.997	31971.08
692.344	31695.16
692.69	31534.03
693.037	31623.29
693.383	31413.81
693.73	31553.24
694.077	31343.98
694.423	31355.96
694.769	31153.7
695.116	31158.9
695.462	31169.52
695.808	30962.07
696.155	31051.78
696.501	30755.74
696.847	30779.47
697.193	30631
697.539	30848.17
697.885	30575.41
698.231	30445.24
698.577	30354.17
698.923	30287.06
699.269	30283.89
699.614	30041.41
699.96	29985.14
700.306	29984.47
700.651	29876.9
700.997	29756.68
701.342	29816.79
701.688	29673.74
702.033	29505.61
702.379	29432.84
702.724	29450.24
703.069	29459.28
703.415	29093.42
703.76	29191.04
704.105	29212.51
704.45	29139.52
704.795	28997.6
705.14	28822.01
705.485	28808.45
705.83	28652.3
706.175	28682.13
706.52	28590.83
706.865	28514.45
707.209	28423.15
707.554	28362.14
707.899	28532.3
708.243	28222.48
708.588	28069.49
708.932	27970.28
709.277	28048.25
709.621	28057.28
709.966	27881.92
710.31	27819.1
710.654	27589.05
710.998	27756.95
711.342	27759.44
711.687	27547.24
712.031	27446
712.375	27436.51
712.719	27354.25
713.063	27459.33
713.407	27311.77
713.75	27157.42
714.094	27353.12
714.438	27114.26
714.782	27181.6
715.125	26994.04
715.469	27037.2
715.812	26910.87
716.156	26738.9
716.499	26788.62
716.843	26804.44
717.186	26702.07
717.53	26716.3
717.873	26659.13
718.216	26678.56
718.559	26577.55
718.902	26396.99
719.246	26479.47
719.589	26382.07
719.932	26205.13
720.275	26189.09
720.617	26088.07
720.96	26110.44
721.303	26245.81
721.646	26090.1
721.989	26024.12
722.331	25954.29
722.674	25923.56
723.016	25868.42
723.359	25868.19
723.701	25911.35
724.044	25665.26
724.386	25510.91
724.729	25681.75
725.071	25485.83
725.413	25611.25
725.755	25553.62
726.097	25414.42
726.439	25276.12
726.782	25331.03
727.124	25352.27
727.465	25265.49
727.807	25247.87
728.149	25155.21
728.491	25165.61
728.833	25114.54
729.175	25023.69
729.516	25026.63
729.858	25059.62
730.199	24923.36
730.541	25006.97
730.882	24769.24
731.224	24876.13
731.565	24668.45
731.906	24715.45
732.248	24753.64
732.589	24577.83
732.93	24557.49
733.271	24489.47
733.612	24523.59
733.953	24581.67
734.294	24408.12
734.635	24383.71
734.976	24371.51
735.317	24286.76
735.658	24252.41
735.999	24176.93
736.339	24289.93
736.68	24243.83
737.021	24182.58
737.361	24085.41
737.702	24159.76
738.042	24062.81
738.383	23971.52
738.723	24045.19
739.063	23955.02
739.404	23977.62
739.744	23939.65
740.084	23765.87
740.424	23852.2
740.764	23721.13
741.104	23734.01
741.444	23600.9
741.784	23568.14
742.124	23659.66
742.464	23627.8
742.804	23454.47
743.143	23450.4
743.483	23335.6
743.823	23332.66
744.162	23367.92
744.502	23289.5
744.841	23215.83
745.181	23282.04
745.52	23183.51
745.86	23205.66
746.199	23166.11
746.538	23112.33
746.877	23113.69
747.216	23093.8
747.556	22977.64
747.895	22989.4
748.234	22870.08
748.573	22796.41
748.911	22838.21
749.25	22701.04
749.589	22677.54
749.928	22696.97
750.267	22559.12
750.605	22570.65
750.944	22546.02
751.283	22381.5
751.621	22489.07
751.96	22421.5
752.298	22293.82
752.636	22336.08
752.975	22245.46
753.313	22142.41
753.651	22273.93
753.989	22091.79
