Data from white_poster_card_FLMS001491_00030.txt Node
Date: Wed Feb 08 11:51:18 GMT 2017
User: dcchb
Spectrometer: FLMS00149
Trigger mode: 0
Integration Time (sec): 2.000000E-2
Scans to average: 10
Electric dark correction enabled: true
Nonlinearity correction enabled: false
Boxcar width: 0
XAxis mode: Wavelengths
Number of Pixels in Spectrum: 2048
>>>>>Begin Spectral Data<<<<<
341.393	-16.23
341.776	-16.23
342.16	-16.23
342.543	-59.62
342.927	-61.65
343.31	-68.43
343.693	-74.98
344.077	-71.14
344.46	-62.33
344.843	-67.3
345.226	-35.21
345.61	-37.7
345.993	-24.14
346.376	17.67
346.759	-2.44
347.142	23.09
347.525	58.12
347.908	57.44
348.291	83.43
348.674	81.4
349.057	122.53
349.44	121.4
349.823	134.95
350.206	161.62
350.588	202.07
350.971	216.31
351.354	239.36
351.737	238.45
352.119	245.69
352.502	266.48
352.884	273.48
353.267	289.53
353.65	278
354.032	309.64
354.414	306.47
354.797	315.74
355.179	323.88
355.562	319.58
355.944	330.43
356.326	321.39
356.709	330.43
357.091	347.15
357.473	318.9
357.855	327.94
358.238	365.23
358.62	339.92
359.002	326.81
359.384	344.67
359.766	342.86
360.148	348.06
360.53	334.72
360.912	323.42
361.294	331.79
361.676	346.02
362.057	349.41
362.439	329.75
362.821	349.86
363.203	320.94
363.584	320.03
363.966	332.01
364.348	307.83
364.729	331.79
365.111	312.12
365.493	332.01
365.874	322.29
366.256	325.46
366.637	332.46
367.019	333.14
367.4	318.23
367.781	333.59
368.163	306.47
368.544	326.59
368.925	322.52
369.306	327.49
369.688	302.63
370.069	313.03
370.45	315.06
370.831	302.41
371.212	320.94
371.593	313.48
371.974	322.29
372.355	312.35
372.736	317.1
373.117	306.7
373.498	315.74
373.879	320.03
374.26	312.58
374.641	327.72
375.021	318.45
375.402	311.67
375.783	308.06
376.163	323.65
376.544	338.34
376.925	325.91
377.305	339.92
377.686	341.28
378.066	347.38
378.447	336.53
378.827	331.79
379.208	330.88
379.588	334.95
379.968	321.39
380.349	331.56
380.729	336.98
381.109	316.19
381.489	353.93
381.87	352.12
382.25	333.14
382.63	333.37
383.01	352.58
383.39	353.48
383.77	335.63
384.15	354.38
384.53	349.86
384.91	355.06
385.29	359.81
385.67	364.1
386.049	377.43
386.429	381.05
386.809	353.03
387.189	369.07
387.568	370.2
387.948	366.59
388.328	364.55
388.707	369.3
389.087	385.57
389.466	362.52
389.846	368.39
390.225	369.75
390.605	372.46
390.984	384.67
391.363	394.83
391.743	388.05
392.122	396.19
392.501	383.08
392.881	399.81
393.26	385.34
393.639	404.33
394.018	402.29
394.397	405
394.776	419.24
395.155	414.04
395.534	422.18
395.913	411.56
396.292	413.82
396.671	410.2
397.05	418.34
397.429	420.14
397.808	413.14
398.186	432.35
398.565	427.38
398.944	445.45
399.323	417.43
399.701	436.64
400.08	437.09
400.458	428.96
400.837	449.52
401.215	454.49
401.594	461.27
401.972	439.13
402.351	462.86
402.729	449.3
403.107	464.44
403.486	465.34
403.864	474.38
404.242	473.93
404.62	478.67
404.999	491.33
405.377	496.98
405.755	492.46
406.133	485.45
406.511	484.78
406.889	507.83
407.267	512.12
407.645	530.42
408.023	519.8
408.401	528.84
408.779	528.84
409.156	522.51
409.534	524.77
409.912	556.41
410.29	569.29
410.667	569.07
411.045	575.39
411.422	609.52
411.8	596.64
412.178	623.3
412.555	624.88
412.933	634.6
413.31	652.23
413.687	669.18
414.065	684.32
414.442	700.36
414.819	710.76
415.197	728.84
415.574	746.01
415.951	750.08
416.328	765.67
416.705	774.94
417.082	763.41
417.46	797.08
417.837	821.04
418.214	830.98
418.591	860.13
418.967	844.99
419.344	873.01
419.721	885.67
420.098	878.44
420.475	895.61
420.852	914.59
421.228	929.51
421.605	929.51
421.982	957.08
422.358	979.23
422.735	972.67
423.111	992.78
423.488	1016.06
423.864	1028.94
424.241	1046.12
424.617	1056.29
424.994	1065.55
425.37	1067.58
425.746	1081.6
426.123	1116.17
426.499	1134.02
426.875	1130.86
427.251	1150.07
427.627	1181.25
428.003	1188.71
428.379	1219.67
428.756	1208.37
429.132	1221.93
429.507	1248.6
429.883	1268.48
430.259	1299.67
430.635	1303.74
431.011	1308.48
431.387	1333.11
431.763	1369.95
432.138	1369.05
432.514	1375.6
432.89	1401.81
433.265	1431.19
433.641	1449.5
434.016	1484.07
434.392	1512.09
434.767	1516.16
435.143	1530.62
435.518	1531.53
435.894	1558.87
436.269	1598.87
436.644	1598.87
437.02	1625.99
437.395	1623.95
437.77	1646.33
438.145	1692.88
438.52	1695.59
438.895	1699.66
439.271	1729.71
439.646	1738.53
440.021	1766.32
440.395	1771.07
440.77	1743.95
441.145	1788.02
441.52	1849.49
441.895	1792.09
442.27	1814.46
442.645	1835.7
443.019	1854
443.394	1856.04
443.769	1856.04
444.143	1868.47
444.518	1887.22
444.892	1941.01
445.267	1897.39
445.641	1960.22
446.016	1936.04
446.39	1949.14
446.764	1995.92
447.139	1951.4
447.513	2026.2
447.887	2002.02
448.262	1991.85
448.636	2019.88
449.01	2030.95
449.384	2072.53
449.758	2093.09
450.132	2085.86
450.506	2119.76
450.88	2074.11
451.254	2123.15
451.628	2158.86
452.002	2181.91
452.376	2183.71
452.75	2217.61
453.123	2228.01
453.497	2240.66
453.871	2280.66
454.244	2335.57
454.618	2358.4
454.992	2336.93
455.365	2380.77
455.739	2423.93
456.112	2418.51
456.486	2472.75
456.859	2467.1
457.232	2508.68
457.606	2500.32
457.979	2514.1
458.352	2615.57
458.725	2640.88
459.099	2624.83
459.472	2665.28
459.845	2740.76
460.218	2733.08
460.591	2768.11
460.964	2763.59
461.337	2821.89
461.71	2902.79
462.083	2911.6
462.456	2905.95
462.829	2933.3
463.201	2994.31
463.574	2978.27
463.947	2992.73
464.32	3109.57
464.692	3114.54
465.065	3132.16
465.438	3192.27
465.81	3234.08
466.183	3234.53
466.555	3315.21
466.928	3336.23
467.3	3357.47
467.672	3369.67
468.045	3484.02
468.417	3496.45
468.789	3491.02
469.161	3560.17
469.534	3581.87
469.906	3664.8
470.278	3672.71
470.65	3727.18
471.022	3795.65
471.394	3885.36
471.766	3923.78
472.138	3987.73
472.51	4022.76
472.882	4082.65
473.253	4102.99
473.625	4132.14
473.997	4281.06
474.369	4260.72
474.74	4321.51
475.112	4409.64
475.484	4466.59
475.855	4529.64
476.227	4569.64
476.598	4695.51
476.97	4709.52
477.341	4808.05
477.713	4881.04
478.084	4925.56
478.455	5073.58
478.827	5072.45
479.198	5264.99
479.569	5253.69
479.94	5373.23
480.311	5436.51
480.682	5558.54
481.053	5633.34
481.424	5778.65
481.795	5773.22
482.166	5824.3
482.537	5977.51
482.908	6107.68
483.279	6112.42
483.65	6217.28
484.021	6393.55
484.391	6432.64
484.762	6498.4
485.133	6576.37
485.503	6619.08
485.874	6806.64
486.244	6911.73
486.615	6994.21
486.985	7068.78
487.356	7197.82
487.726	7266.74
488.097	7382.9
488.467	7403.69
488.837	7567.75
489.207	7695.66
489.578	7803
489.948	7811.14
490.318	7959.61
490.688	7973.84
491.058	8094.97
491.428	8273.27
491.798	8309.43
492.168	8434.17
492.538	8478.92
492.908	8616.54
493.278	8699.02
493.648	8713.49
494.017	8880.49
494.387	8968.17
494.757	8927.94
495.126	9124.55
495.496	9133.14
495.866	9200.93
496.235	9284.54
496.605	9392.34
496.974	9499.23
497.344	9577.87
497.713	9630.52
498.082	9682.05
498.452	9819.67
498.821	9855.38
499.19	9908.26
499.559	9980.57
499.928	10108.7
500.298	10112.32
500.667	10232.77
501.036	10214.46
501.405	10397.28
501.774	10332.65
502.143	10504.4
502.512	10563.83
502.88	10599.54
503.249	10625.98
503.618	10706.88
503.987	10790.95
504.356	10881.79
504.724	10936.25
505.093	10985.29
505.462	11063.48
505.83	11113.2
506.199	11258.96
506.567	11346.86
506.936	11362.91
507.304	11531.04
507.672	11552.96
508.041	11545.05
508.409	11689.23
508.777	11821.43
509.145	11896
509.514	12001.53
509.882	12056
510.25	12052.61
510.618	12138.93
510.986	12218.48
511.354	12405.82
511.722	12514.06
512.09	12560.16
512.458	12604.68
512.826	12713.38
513.193	12764.23
513.561	12927.84
513.929	13061.85
514.297	13052.81
514.664	13180.94
515.032	13305
515.4	13388.84
515.767	13453.93
516.135	13528.05
516.502	13470.2
516.869	13716.07
517.237	13802.62
517.604	13721.04
517.972	14035.61
518.339	14103.17
518.706	14122.38
519.073	14196.73
519.44	14349.5
519.808	14491.64
520.175	14488.47
520.542	14620.45
520.909	14718.07
521.276	14800.56
521.643	14982.02
522.009	15049.82
522.376	15122.36
522.743	15249.58
523.11	15429.47
523.477	15559.86
523.843	15680.76
524.21	15894.31
524.577	15940.64
524.943	16007.08
525.31	16212.5
525.676	16336.11
526.043	16466.28
526.409	16485.26
526.776	16608.19
527.142	16689.32
527.508	16909.2
527.874	16944.91
528.241	17116.88
528.607	17170.66
528.973	17325.46
529.339	17353.71
529.705	17549.19
530.071	17685.68
530.437	17805.45
530.803	17885
531.169	17945.56
531.535	18005.22
531.901	18059
532.267	18147.81
532.632	18410.86
532.998	18388.03
533.364	18474.81
533.73	18517.3
534.095	18716.61
534.461	18827.57
534.826	18836.84
535.192	18970.84
535.557	19052.42
535.923	19086.32
536.288	19159.99
536.653	19282.25
537.019	19194.79
537.384	19399.98
537.749	19462.58
538.114	19611.96
538.479	19604.95
538.845	19638.62
539.21	19724.5
539.575	19743.48
539.94	19869.58
540.305	20006.75
540.67	20056.01
541.034	20154.31
541.399	20266.63
541.764	20216.91
542.129	20407.42
542.494	20376.91
542.858	20546.17
543.223	20642.66
543.587	20749.78
543.952	20618.48
544.316	20735.32
544.681	20758.82
545.045	20935.76
545.41	20998.59
545.774	21066.38
546.138	21113.39
546.503	21214.85
546.867	21296.66
547.231	21460.95
547.595	21523.09
547.959	21532.36
548.324	21577.78
548.688	21590.89
549.052	21802.63
549.416	21800.37
549.779	21782.29
550.143	21863.65
550.507	22039.01
550.871	22175.28
551.235	22147.26
551.599	22310.64
551.962	22441.26
552.326	22403.3
552.689	22635.61
553.053	22476.06
553.417	22578.43
553.78	22902.94
554.143	22840.8
554.507	22968.93
554.87	22988.36
555.234	23263.84
555.597	23154.46
555.96	23241.47
556.323	23375.7
556.686	23455.92
557.05	23592.42
557.413	23680.78
557.776	23816.37
558.139	23940.43
558.502	23927.32
558.865	24037.83
559.228	24269.69
559.59	24306.07
559.953	24439.17
560.316	24577.02
560.679	24573.63
561.041	24725.04
561.404	24741.09
561.767	24993.74
562.129	24933.85
562.492	25241.64
562.854	25192.83
563.217	25317.12
563.579	25411.8
563.941	25489.32
564.304	25727.73
564.666	25852.7
565.028	25931.56
565.39	26046.59
565.753	26057.21
566.115	26239.58
566.477	26353.25
566.839	26422.17
567.201	26519.12
567.563	26642.73
567.925	26875.04
568.287	26833.46
568.648	26909.39
569.01	27124.3
569.372	27298.53
569.734	27228.25
570.095	27465.76
570.457	27554.57
570.819	27605.64
571.18	27661.01
571.542	27725.87
571.903	27846.32
572.265	27920.21
572.626	27941.91
572.987	27982.58
573.349	28222.13
573.71	28305.29
574.071	28254.21
574.432	28438.16
574.794	28633.41
575.155	28531.72
575.516	28549.35
575.877	28621.89
576.238	28653.75
576.599	28863.24
576.96	28820.53
577.32	28806.74
577.681	29000.86
578.042	29089.45
578.403	28946.17
578.763	29127.64
579.124	29122.21
579.485	29245.6
579.845	29355.65
580.206	29281.53
580.566	29295.32
580.927	29403.11
581.287	29460.28
581.648	29307.52
582.008	29440.4
582.368	29517.23
582.728	29557.91
583.089	29467.97
583.449	29556.55
583.809	29627.29
584.169	29619.83
584.529	29596.55
584.889	29790.9
585.249	29551.36
585.609	29522.88
585.969	29696.66
586.329	29716.32
586.688	29741.63
587.048	29692.82
587.408	29540.96
587.768	29607.4
588.127	29691.47
588.487	29637
588.846	29895.53
589.206	29578.47
589.565	29566.5
589.925	29663.9
590.284	29628.87
590.643	29759.94
591.003	29840.39
591.362	29802.42
591.721	29760.16
592.08	29794.29
592.44	29836.55
592.799	29877
593.158	29776.89
593.517	29817.34
593.876	29967.16
594.235	29805.59
594.593	29910.89
594.952	30024.56
595.311	29810.56
595.67	30056.43
596.029	30121.51
596.387	30087.39
596.746	30126.26
597.104	30045.13
597.463	29901.4
597.822	30152.02
598.18	29890.33
598.538	30101.62
598.897	30162.41
599.255	29939.82
599.613	30330.54
599.972	30114.73
600.33	30278.57
600.688	30142.07
601.046	30227.95
601.404	30427.72
601.762	30328.28
602.12	30443.99
602.478	30448.73
602.836	30535.96
603.194	30394.5
603.552	30389.07
603.91	30269.53
604.268	30505
604.625	30290.32
604.983	30443.76
605.341	30361.28
605.698	30588.39
606.056	30660.03
606.413	30582.52
606.771	30721.72
607.128	30700.7
607.485	30675.85
607.843	30627.94
608.2	30866.58
608.557	30857.31
608.914	30667.71
609.272	30933.69
609.629	31086.91
609.986	31096.4
610.343	30827.71
610.7	31128.26
611.057	31007.14
611.414	31076.06
611.771	31121.48
612.127	31224.08
612.484	31215.04
612.841	31383.62
613.198	31147.92
613.554	31210.07
613.911	31403.06
614.267	31389.95
614.624	31406.45
614.98	31444.87
615.337	31602.83
615.693	31380.01
616.05	31524.41
616.406	31765.08
616.762	31518.99
617.118	31417.97
617.475	31580.45
617.831	31644.86
618.187	31700.9
618.543	31578.87
618.899	31892.09
619.255	31781.35
619.611	31680.79
619.967	31999.88
620.323	31900.22
620.678	31824.97
621.034	31812.54
621.39	31749.94
621.746	31763.05
622.101	32097.28
622.457	31790.84
622.812	31813.9
623.168	31915.36
623.523	31917.85
623.879	31874.68
624.234	31621.13
624.589	31867.68
624.945	31752.88
625.3	31853.67
625.655	31946.32
626.01	31938.86
626.365	31982.03
626.72	31810.51
627.075	31871.97
627.43	31899.32
627.785	31741.13
628.14	31841.24
628.495	31812.31
628.85	31765.99
629.205	31756.95
629.559	31888.24
629.914	31658.64
630.269	31792.65
630.623	31551.3
630.978	31549.04
631.332	31635.14
631.687	31807.12
632.041	31608.93
632.396	31569.16
632.75	31447.35
633.104	31539.55
633.459	31363.96
633.813	31356.51
634.167	31363.96
634.521	31307.69
634.875	31409.61
635.229	31315.6
635.583	31149.05
635.937	31147.92
636.291	31113.8
636.645	31084.2
636.999	31078.55
637.352	31070.64
637.706	30838.55
638.06	31010.98
638.413	30942.05
638.767	30731.89
639.121	30847.14
639.474	30708.16
639.828	30697.99
640.181	30843.75
640.534	30701.83
640.888	30613.93
641.241	30528.73
641.594	30565.79
641.947	30613.47
642.301	30503.65
642.654	30435.4
643.007	30436.08
643.36	30488.51
643.713	30355.63
644.066	30482.4
644.419	30355.85
644.771	30158.8
645.124	29701.41
645.477	29797.22
645.83	29622.77
646.182	29404.01
646.535	29378.93
646.888	29418.03
647.24	29380.51
647.593	29450.34
647.945	29220.07
648.298	29166.96
648.65	29159.28
649.002	29015.1
649.355	29138.03
649.707	29069.33
650.059	29190.69
650.411	29571.24
650.763	29514.29
651.115	29877.67
651.467	29818.92
651.819	29637.68
652.171	29540.51
652.523	29503.9
652.875	29581.41
653.227	29433.62
653.578	29615.31
653.93	29487.85
654.282	29392.26
654.633	29425.03
654.985	29536.21
655.337	29420.96
655.688	29368.54
656.039	29488.53
656.391	29208.09
656.742	29198.82
657.094	29300.74
657.445	29353.62
657.796	29287.86
658.147	29222.32
658.498	29169.9
658.849	29216.22
659.2	29146.17
659.551	29067.53
659.902	29179.16
660.253	29229.78
660.604	29138.71
660.955	28903.69
661.306	29135.1
661.656	29031.37
662.007	29114.76
662.358	28998.83
662.708	28956.8
663.059	28979.17
663.409	28714.09
663.76	28990.92
664.11	28884.03
664.461	29119.73
664.811	28940.75
665.161	28902.56
665.511	28781.88
665.862	28788.44
666.212	28914.08
666.562	28802.45
666.912	28792.05
667.262	28651.49
667.612	28755.67
667.962	28733.52
668.312	28736.46
668.662	28853.97
669.011	28587.77
669.361	28704.82
669.711	28765.16
670.06	28628.89
670.41	28561.33
670.76	28453.76
671.109	28557.71
671.459	28507.32
671.808	28501.89
672.157	28604.94
672.507	28410.37
672.856	28364.27
673.205	28510.93
673.554	28437.94
673.904	28450.82
674.253	28523.13
674.602	28447.88
674.951	27962.47
675.3	27984.39
675.649	28309.35
675.998	28330.82
676.346	28299.41
676.695	28422.35
677.044	28188.45
677.393	28304.38
677.741	28296.02
678.09	28135.35
678.438	28096.7
678.787	28144.39
679.135	28061.23
679.484	27923.83
679.832	28029.59
680.181	27875.92
680.529	27931.96
680.877	27860.78
681.225	27927.67
681.573	27957.27
681.922	27704.4
682.27	27625.76
682.618	27729.03
682.966	27642.48
683.314	27595.25
683.661	27600.45
684.009	27365.88
684.357	27403.39
684.705	27424.18
685.053	27398.87
685.4	27375.14
685.748	27202.94
686.095	27217.41
686.443	27133.79
686.79	26990.75
687.138	27103.51
687.485	26993.46
687.832	26944.19
688.18	26949.16
688.527	26835.95
688.874	26810.18
689.221	26695.61
689.568	26628.72
689.915	26665.33
690.262	26564.09
690.609	26512.11
690.956	26484.32
691.303	26346.47
691.65	26221.05
691.997	26233.02
692.344	26019.47
692.69	26047.95
693.037	25985.8
693.383	25852.47
693.73	25855.63
694.077	25730.67
694.423	25755.75
694.769	25711.23
695.116	25511.24
695.462	25715.3
695.808	25330.9
696.155	25446.6
696.501	25374.29
696.847	25337.91
697.193	25204.35
697.539	25229.21
697.885	24975.88
698.231	24936.56
698.577	24819.28
698.923	24947.63
699.269	24769.79
699.614	24609.34
699.96	24566.63
700.306	24653.18
700.651	24548.78
700.997	24308.1
701.342	24347.88
701.688	24322.11
702.033	24287.09
702.379	24242.12
702.724	24137.26
703.069	24150.37
703.415	23896.82
703.76	23973.88
704.105	24004.83
704.45	23917.61
704.795	23855.01
705.14	23669.7
705.485	23626.77
705.83	23526.2
706.175	23557.62
706.52	23444.4
706.865	23418.86
707.209	23471.06
707.554	23251.63
707.899	23265.19
708.243	23215.48
708.588	23207.34
708.932	23099.55
709.277	22974.81
709.621	23041.24
709.966	22881.02
710.31	22932.09
710.654	22774.58
710.998	22849.84
711.342	22720.8
711.687	22702.5
712.031	22489.17
712.375	22577.75
712.719	22579.34
713.063	22414.37
713.407	22609.62
713.75	22475.61
714.094	22369.62
714.438	22295.95
714.782	22366.91
715.125	22138.67
715.469	22243.3
715.812	22047.82
716.156	22069.29
716.499	22008.5
716.843	22029.29
717.186	21878.79
717.53	21937.09
717.873	21949.3
718.216	21869.98
718.559	21815.29
718.902	21608.51
719.246	21681.73
719.589	21578.91
719.932	21603.09
720.275	21617.55
720.617	21539.36
720.96	21462.98
721.303	21506.37
721.646	21434.73
721.989	21291.01
722.331	21381.63
722.674	21391.8
723.016	21341.4
723.359	21168.07
723.701	21311.57
724.044	21081.07
724.386	20983.22
724.729	21048.08
725.071	21037.46
725.413	20996.33
725.755	20946.84
726.097	20844.24
726.439	20818.7
726.782	20684.24
727.124	20796.56
727.465	20617.13
727.807	20769.89
728.149	20644.47
728.491	20669.56
728.833	20622.1
729.175	20587.98
729.516	20545.04
729.858	20563.8
730.199	20475.21
730.541	20427.08
730.882	20428.88
731.224	20470.01
731.565	20280.87
731.906	20404.7
732.248	20391.6
732.589	20133.3
732.93	20116.35
733.271	20160.19
733.612	20164.94
733.953	20245.61
734.294	20160.19
734.635	20053.75
734.976	20051.72
735.317	19980.08
735.658	19952.96
735.999	19978.95
736.339	19935.11
736.68	20027.76
737.021	19814.66
737.361	19821.67
737.702	19969.23
738.042	19767.88
738.383	19732.86
738.723	19745.96
739.063	19688.11
739.404	19685.4
739.744	19658.28
740.084	19538.96
740.424	19444.28
740.764	19562.24
741.104	19555.91
741.444	19341.23
741.784	19308.69
742.124	19478.17
742.464	19385.52
742.804	19285.86
743.143	19274.79
743.483	19261.23
743.823	19101.46
744.162	19192.76
744.502	19231.18
744.841	19095.36
745.181	19129.93
745.52	19014.23
745.86	19003.38
746.199	19054.68
746.538	19017.85
746.877	19080.44
747.216	18953.89
747.556	18985.08
747.895	18942.37
748.234	18856.5
748.573	18782.37
748.911	18778.53
749.25	18743.73
749.589	18608.14
749.928	18610.4
750.267	18624.64
750.605	18584.64
750.944	18502.83
751.283	18501.48
751.621	18593
751.96	18360.69
752.298	18372.44
752.636	18429.61
752.975	18298.09
753.313	18159.56
753.651	18282.05
753.989	18190.52
754.327	18091.77
754.666	18046.35
