Data from white_steel_sheet_FLMS001491_027.txt Node
Date: Tue Feb 07 10:57:37 GMT 2017
User: dcchb
Spectrometer: FLMS00149
Trigger mode: 0
Integration Time (sec): 2.000000E-2
Scans to average: 10
Electric dark correction enabled: true
Nonlinearity correction enabled: false
Boxcar width: 0
XAxis mode: Wavelengths
Number of Pixels in Spectrum: 2048
>>>>>Begin Spectral Data<<<<<
341.393	4.96
341.776	4.96
342.16	4.96
342.543	-54.93
342.927	-65.1
343.31	-67.81
343.693	-71.88
344.077	-42.72
344.46	-69.39
344.843	-68.26
345.226	-48.6
345.61	-20.8
345.993	-0.01
346.376	4.05
346.759	5.18
347.142	20.1
347.525	29.59
347.908	56.03
348.291	68.23
348.674	94.22
349.057	112.07
349.44	124.95
349.823	131.96
350.206	180.77
350.588	201.79
350.971	205.4
351.354	221.67
351.737	243.6
352.119	270.49
352.502	274.55
352.884	279.53
353.267	296.48
353.65	286.98
354.032	314.78
354.414	305.51
354.797	325.63
355.179	300.77
355.562	344.16
355.944	340.99
356.326	332.86
356.709	351.84
357.091	348
357.473	336.7
357.855	349.58
358.238	356.36
358.62	361.56
359.002	349.81
359.384	370.37
359.766	358.62
360.148	337.38
360.53	357.94
360.912	333.54
361.294	369.92
361.676	343.71
362.057	329.69
362.439	343.03
362.821	329.47
363.203	345.51
363.584	338.06
363.966	347.77
364.348	332.18
364.729	350.26
365.111	327.66
365.493	310.26
365.874	324.27
366.256	351.16
366.637	340.09
367.019	342.58
367.4	323.37
367.781	323.14
368.163	331.05
368.544	317.49
368.925	337.83
369.306	346.42
369.688	333.08
370.069	356.36
370.45	326.53
370.831	315.68
371.212	325.63
371.593	310.03
371.974	321.33
372.355	325.63
372.736	327.43
373.117	340.32
373.498	330.15
373.879	337.38
374.26	335.57
374.641	335.8
375.021	325.85
375.402	344.16
375.783	343.71
376.163	339.64
376.544	356.36
376.925	341.67
377.305	346.87
377.686	364.72
378.066	348.23
378.447	343.93
378.827	357.94
379.208	359.07
379.588	362.01
379.968	351.39
380.349	348.68
380.729	366.98
381.109	348.68
381.489	387.77
381.87	374.21
382.25	347.1
382.63	370.82
383.01	382.12
383.39	368.11
383.77	387.77
384.15	389.81
384.53	387.55
384.91	371.5
385.29	369.47
385.67	360.65
386.049	396.59
386.429	396.13
386.809	398.85
387.189	416.25
387.568	413.99
387.948	419.41
388.328	391.61
388.707	411.73
389.087	400.43
389.466	418.51
389.846	422.8
390.225	423.03
390.605	398.39
390.984	419.18
391.363	411.95
391.743	439.97
392.122	423.25
392.501	425.74
392.881	471.84
393.26	453.76
393.639	436.13
394.018	475.68
394.397	465.28
394.776	464.15
395.155	470.26
395.534	492.85
395.913	497.83
396.292	482.91
396.671	486.07
397.05	514.32
397.429	522.46
397.808	503.25
398.186	512.29
398.565	507.09
398.944	505.51
399.323	499.86
399.701	528.56
400.08	542.34
400.458	551.84
400.837	561.55
401.215	545.73
401.594	549.8
401.972	586.64
402.351	579.18
402.729	600.87
403.107	607.88
403.486	619.18
403.864	610.59
404.242	617.6
404.62	655.79
404.999	641.78
405.377	656.01
405.755	663.7
406.133	676.58
406.511	701.66
406.889	673.87
407.267	702.79
407.645	715.67
408.023	720.19
408.401	712.96
408.779	743.92
409.156	735.33
409.534	743.24
409.912	773.98
410.29	793.41
410.667	820.76
411.045	798.16
411.422	815.33
411.8	841.77
412.178	834.99
412.555	875.67
412.933	887.65
413.31	888.55
413.687	881.32
414.065	901.43
414.442	901.66
414.819	931.94
415.197	929.45
415.574	973.52
415.951	950.02
416.328	969.23
416.705	1004.48
417.082	980.98
417.46	970.58
417.837	1021.88
418.214	1042.44
418.591	1037.92
418.967	1041.54
419.344	1061.88
419.721	1071.37
420.098	1078.6
420.475	1091.26
420.852	1098.49
421.228	1098.94
421.605	1106.17
421.982	1093.52
422.358	1141.88
422.735	1143.01
423.111	1179.62
423.488	1159.73
423.864	1190.92
424.241	1203.12
424.617	1221.65
424.994	1240.41
425.37	1220.07
425.746	1270.91
426.123	1270.23
426.499	1268.65
426.875	1265.94
427.251	1317.24
427.627	1293.06
428.003	1345.94
428.379	1354.53
428.756	1353.17
429.132	1401.98
429.507	1395.66
429.883	1436.33
430.259	1441.76
430.635	1454.41
431.011	1466.39
431.387	1492.6
431.763	1521.53
432.138	1570.57
432.514	1555.2
432.89	1595.88
433.265	1578.48
433.641	1633.62
434.016	1646.5
434.392	1694.86
434.767	1717.23
435.143	1715.2
435.518	1738.25
435.894	1747.74
436.269	1757.68
436.644	1790
437.02	1806.49
437.395	1809.66
437.77	1851.69
438.145	1868.86
438.52	1857.11
438.895	1900.5
439.271	1912.03
439.646	1972.14
440.021	1942.31
440.395	1982.98
440.77	1959.03
441.145	1976.66
441.52	2016.43
441.895	2007.39
442.27	2027.05
442.645	2065.24
443.019	2071.8
443.394	2051.46
443.769	2114.73
444.143	2091.46
444.518	2124.68
444.892	2139.82
445.267	2161.74
445.641	2185.69
446.016	2196.76
446.39	2222.3
446.764	2218.23
447.139	2254.39
447.513	2288.06
447.887	2274.95
448.262	2263.2
448.636	2300.49
449.01	2364.22
449.384	2374.61
449.758	2384.1
450.132	2401.73
450.506	2451.67
450.88	2437.89
451.254	2480.15
451.628	2491.67
452.002	2523.99
452.376	2542.97
452.75	2541.39
453.123	2547.04
453.497	2611.67
453.871	2652.12
454.244	2696.86
454.618	2684.66
454.992	2752.46
455.365	2739.12
455.739	2820.02
456.112	2823.19
456.486	2864.77
456.859	2890.08
457.232	2924.88
457.606	2923.52
457.979	2967.14
458.352	3034.48
458.725	3061.83
459.099	3100.92
459.472	3173.91
459.845	3172.56
460.218	3201.94
460.591	3224.31
460.964	3236.51
461.337	3333.23
461.71	3370.29
462.083	3399.67
462.456	3387.24
462.829	3466.79
463.201	3495.04
463.574	3504.3
463.947	3549.95
464.32	3612.77
464.692	3688.93
465.065	3691.64
465.438	3758.08
465.81	3827.23
466.183	3843.73
466.555	3907.91
466.928	3950.62
467.3	3964.63
467.672	4035.36
468.045	4067.22
468.417	4137.05
468.789	4123.95
469.161	4238.74
469.534	4280.78
469.906	4360.55
470.278	4395.35
470.65	4460.66
471.022	4535.23
471.394	4608.23
471.766	4644.38
472.138	4701.78
472.51	4850.25
472.882	4929.8
473.253	4937.48
473.625	4950.59
473.997	5065.16
474.369	5122.79
474.74	5176.12
475.112	5290.24
475.484	5412.95
475.855	5468.32
476.227	5569.1
476.598	5667.86
476.97	5688.88
477.341	5830.12
477.713	5955.08
478.084	5969.77
478.455	6137.9
478.827	6180.61
479.198	6357.56
479.569	6343.32
479.94	6545.12
480.311	6588.06
480.682	6727.27
481.053	6865.57
481.424	6959.12
481.795	7064.21
482.166	7173.36
482.537	7225.11
482.908	7474.14
483.279	7451.99
483.65	7680.24
484.021	7772.66
484.391	7841.14
484.762	7954.58
485.133	8020.57
485.503	8176.27
485.874	8366.55
486.244	8426.2
486.615	8579.65
486.985	8684.5
487.356	8816.03
487.726	8889.47
488.097	9068.9
488.467	9068.67
488.837	9290.82
489.207	9390.93
489.578	9476.35
489.948	9670.47
490.318	9764.25
490.688	9790.24
491.058	10005.6
491.428	10073.17
491.798	10240.62
492.168	10404.46
492.538	10507.28
492.908	10585.02
493.278	10711.34
493.648	10722.19
494.017	10823.43
494.387	10951.79
494.757	11119.02
495.126	11163.76
495.496	11214.83
495.866	11336.41
496.235	11466.13
496.605	11528.72
496.974	11609.17
497.344	11758.09
497.713	11839.22
498.082	11979.78
498.452	12154.24
498.821	12142.72
499.19	12141.81
499.559	12305.43
499.928	12387.23
500.298	12550.84
500.667	12556.72
501.036	12693.44
501.405	12761.23
501.774	12751.06
502.143	12969.36
502.512	13031.51
502.88	13089.81
503.249	13077.16
503.618	13217.27
503.987	13305.85
504.356	13455.9
504.724	13504.04
505.093	13531.61
505.462	13707.65
505.83	13787.65
506.199	13964.36
506.567	14050.01
506.936	14118.71
507.304	14214.53
507.672	14349.67
508.041	14315.09
508.409	14553.73
508.777	14611.58
509.145	14787.17
509.514	14708.07
509.882	14916.2
510.25	14947.62
510.618	15065.35
510.986	15136.09
511.354	15325.01
511.722	15463.99
512.09	15581.5
512.458	15529.52
512.826	15789.63
513.193	15809.51
513.561	15900.58
513.929	16123.18
514.297	16214.47
514.664	16340.12
515.032	16373.11
515.4	16606.78
515.767	16658.53
516.135	16739.66
516.502	16703.05
516.869	16987.34
517.237	17082.7
517.604	17095.81
517.972	17383.03
518.339	17463.48
518.706	17588
519.073	17735.34
519.44	17833.19
519.808	18011.26
520.175	17964.49
520.542	18222.56
520.909	18357.24
521.276	18442.21
521.643	18508.88
522.009	18700.51
522.376	18869.55
522.743	19058.24
523.11	19296.65
523.477	19426.82
523.843	19433.37
524.21	19695.74
524.577	19947.03
524.943	19963.98
525.31	20096.18
525.676	20219.12
526.043	20453.91
526.409	20517.64
526.776	20787.24
527.142	20828.14
527.508	20832.43
527.874	21049.6
528.241	21292.53
528.607	21290.5
528.973	21575.69
529.339	21561
529.705	21866.76
530.071	22002.8
530.437	21981.55
530.803	22341.77
531.169	22414.76
531.535	22292.28
531.901	22448.21
532.267	22544.03
532.632	22770.01
532.998	22836
533.364	23021.3
533.73	23027.63
534.095	23317.79
534.461	23266.94
534.826	23435.3
535.192	23582.19
535.557	23764.56
535.923	23770.43
536.288	23906.02
536.653	23925.46
537.019	23899.02
537.384	24049.97
537.749	24153.48
538.114	24278.67
538.479	24395.5
538.845	24604.08
539.21	24391.89
539.575	24547.36
539.94	24699.68
540.305	24747.81
540.67	24842.27
541.034	24942.61
541.399	25127.91
541.764	25146.44
542.129	25318.64
542.494	25333.78
542.858	25400.9
543.223	25488.13
543.587	25703.72
543.952	25736.94
544.316	25766.77
544.681	25859.64
545.045	25886.54
545.41	26102.12
545.774	26229.13
546.138	26196.81
546.503	26286.53
546.867	26347.77
547.231	26594.31
547.595	26578.27
547.959	26653.97
548.324	26731.71
548.688	26829.34
549.052	26998.82
549.416	26994.08
549.779	27105.26
550.143	27118.82
550.507	27350
550.871	27493.5
551.235	27353.39
551.599	27554.29
551.962	27652.37
552.326	27787.05
552.689	27962.64
553.053	27865.92
553.417	27973.04
553.78	28219.58
554.143	28225.46
554.507	28283.54
554.87	28423.87
555.234	28741.6
555.597	28619.57
555.96	28799.45
556.323	28919
556.686	28930.07
557.05	29147.24
557.413	29202.16
557.776	29202.61
558.139	29488.25
558.502	29550.62
558.865	29670.62
559.228	29710.39
559.59	30014.11
559.953	30041.91
560.316	30232.19
560.679	30313.09
561.041	30497.04
561.404	30688.67
561.767	30866.29
562.129	30831.49
562.492	31096.57
562.854	31095.21
563.217	31137.7
563.579	31399.61
563.941	31398.48
564.304	31571.81
564.666	31825.59
565.028	31833.5
565.39	31980.39
565.753	32064.23
566.115	32209.08
566.477	32343.54
566.839	32540.83
567.201	32675.96
567.563	32623.08
567.925	32930.87
568.287	33012.23
568.648	32999.12
569.01	33119.12
569.372	33336.06
569.734	33306.68
570.095	33578.31
570.457	33649.5
570.819	33625.09
571.18	33781.02
571.542	33912.99
571.903	34009.49
572.265	34044.97
572.626	34200.89
572.987	34243.38
573.349	34349.82
573.71	34440.21
574.071	34526.54
574.432	34640.2
574.794	35042
575.155	34873.19
575.516	34799.75
575.877	34855.57
576.238	35004.26
576.599	35104.6
576.96	35137.37
577.32	35158.61
577.681	35270.24
578.042	35360.41
578.403	35380.98
578.763	35376
579.124	35551.82
579.485	35573.29
579.845	35577.13
580.206	35582.33
580.566	35551.14
580.927	35662.55
581.287	35764.7
581.648	35605.6
582.008	35717.69
582.368	35790.01
582.728	35802.21
583.089	35773.51
583.449	35843.11
583.809	35818.93
584.169	35776.22
584.529	35783.23
584.889	36031.35
585.249	35855.54
585.609	35702.78
585.969	35826.61
586.329	35770.8
586.688	35981.86
587.048	35850.12
587.408	35807.18
587.768	35897.8
588.127	35785.49
588.487	35712.95
588.846	35997.68
589.206	35839.27
589.565	35876.78
589.925	35905.48
590.284	35900.51
590.643	36011.24
591.003	36024.12
591.362	35966.27
591.721	36063.67
592.08	36051.92
592.44	36066.61
592.799	36055.08
593.158	35966.27
593.517	35904.58
593.876	36015.76
594.235	35940.06
594.593	35973.05
594.952	36101.64
595.311	35799.95
595.67	36021.64
596.029	36187.06
596.387	36094.18
596.746	36234.06
597.104	36135.98
597.463	36194.06
597.822	36201.07
598.18	36111.8
598.538	36126.72
598.897	36270.9
599.255	36012.82
599.613	36602.41
599.972	36271.35
600.33	36405.36
600.688	36156.32
601.046	36324.23
601.404	36345.92
601.762	36357
602.12	36507.05
602.478	36326.94
602.836	36471.34
603.194	36336.21
603.552	36377.11
603.91	36197
604.268	36343.89
604.625	36433.83
604.983	36467.28
605.341	36342.99
605.698	36342.99
606.056	36543.88
606.413	36518.8
606.771	36717.44
607.128	36651.23
607.485	36616.2
607.843	36600.15
608.2	36702.52
608.557	36715.86
608.914	36576.2
609.272	36795.63
609.629	36799.02
609.986	37063.19
610.343	36814.39
610.7	36961.73
611.057	37125.79
611.414	37068.39
611.771	36906.59
612.127	37115.39
612.484	37076.75
612.841	37190.87
613.198	37194.49
613.554	37150.65
613.911	37336.63
614.267	37271.77
614.624	37395.84
614.98	37319.46
615.337	37613.23
615.693	37563.07
616.05	37570.3
616.406	37763.74
616.762	37542.95
617.118	37542.5
617.475	37708.37
617.831	37631.76
618.187	37787.24
618.543	37698.88
618.899	37949.04
619.255	37886.9
619.611	37769.84
619.967	38019.33
620.323	37905.2
620.678	37951.98
621.034	37803.74
621.39	37829.73
621.746	37787.69
622.101	38366.43
622.457	37917.41
622.812	37989.5
623.168	38057.06
623.523	37946.56
623.879	38170.28
624.234	37918.54
624.589	38038.99
624.945	38091.87
625.3	38069.27
625.655	38175.03
626.01	38065.65
626.365	38174.8
626.72	38048.25
627.075	37988.37
627.43	37950.63
627.785	37876.73
628.14	37860.91
628.495	37918.99
628.85	37837.18
629.205	37901.81
629.559	38001.47
629.914	37666.34
630.269	37906.33
630.623	37754.7
630.978	37703.18
631.332	37738.88
631.687	37858.88
632.041	37620.47
632.396	37700.01
632.75	37522.39
633.104	37653.91
633.459	37502.28
633.813	37357.65
634.167	37537.76
634.521	37362.39
634.875	37449.4
635.229	37408.27
635.583	37236.75
635.937	37304.77
636.291	37213.02
636.645	37336.63
636.999	37119.69
637.352	37251.21
637.706	36852.35
638.06	37025.9
638.413	36967.6
638.767	36938.9
639.121	36904.55
639.474	36752.24
639.828	36728.51
640.181	36725.35
640.534	36876.98
640.888	36582.53
641.241	36378.01
641.594	36505.92
641.947	36674.28
642.301	36514.96
642.654	36468.63
643.007	36505.47
643.36	36404.9
643.713	36352.48
644.066	36493.94
644.419	36122.43
644.771	36003.33
645.124	35594.76
645.477	35537.81
645.83	35340.75
646.182	35202.45
646.535	35197.93
646.888	35314.09
647.24	35080.87
647.593	35212.39
647.945	35065.96
648.298	34910.71
648.65	34884.94
649.002	34886.53
649.355	34931.04
649.707	34773.76
650.059	34917.03
650.411	35485.83
650.763	35448.32
651.115	35646.73
651.467	35567.41
651.819	35677.01
652.171	35450.35
652.523	35475.44
652.875	35404.93
653.227	35298.27
653.578	35615.77
653.93	35408.77
654.282	35226.18
654.633	35192.28
654.985	35176.01
655.337	35252.84
655.688	35184.15
656.039	35393.63
656.391	35014.88
656.742	34971.72
657.094	35223.92
657.445	35236.57
657.796	35040.19
658.147	34999.07
658.498	34999.97
658.849	35031.16
659.2	34939.41
659.551	34747.55
659.902	34911.84
660.253	34750.94
660.604	34719.07
660.955	34573.31
661.306	34684.05
661.656	34623.48
662.007	34743.25
662.358	34634.1
662.708	34425.75
663.059	34389.14
663.409	34197.05
663.76	34397.05
664.11	34408.35
664.461	34416.26
664.811	34347.78
665.161	34333.32
665.511	34162.48
665.862	34025.08
666.212	34088.81
666.562	34121.12
666.912	34036.15
667.262	33842.03
667.612	33852.2
667.962	33735.14
668.312	33669.16
668.662	33535.83
669.011	33575.15
669.361	33492.66
669.711	33405.21
670.06	33351.65
670.41	33207.02
670.76	33216.97
671.109	33199.56
671.459	33080.92
671.808	32949.85
672.157	33021.94
672.507	32866.47
672.856	32739.01
673.205	32778.56
673.554	32795.51
673.904	32532.92
674.253	32802.51
674.602	32594.16
674.951	32039.82
675.3	31927.73
675.649	32465.57
675.998	32463.54
676.346	32382.86
676.695	32488.62
677.044	32121.85
677.393	32284.79
677.741	32265.13
678.09	32029.88
678.438	32204.56
678.787	32186.03
679.135	32200.27
679.484	32040.27
679.832	32063.78
680.181	31976.32
680.529	32087.96
680.877	31946.49
681.225	31977
681.573	32100.84
681.922	31904.68
682.27	31910.33
682.618	31969.77
682.966	31851.13
683.314	31980.84
683.661	32044.12
684.009	31723.9
684.357	31943.55
684.705	31865.81
685.053	31859.49
685.4	31807.29
685.748	31617.46
686.095	31701.98
686.443	31727.06
686.79	31727.51
687.138	31889.54
687.485	31773.39
687.832	31707.4
688.18	31874.63
688.527	31693.39
688.874	31763.9
689.221	31603.9
689.568	31539.27
689.915	31584.47
690.262	31583.34
690.609	31649.55
690.956	31563
691.303	31523
691.65	31475.54
691.997	31393.74
692.344	31334.98
692.69	31262.89
693.037	31253.18
693.383	31242.33
693.73	31269.45
694.077	31147.87
694.423	31055.21
694.769	31061.77
695.116	30994.2
695.462	30830.59
695.808	30818.16
696.155	30999.4
696.501	30839.85
696.847	30671.72
697.193	30600.31
697.539	30700.65
697.885	30515.12
698.231	30442.12
698.577	30352.41
698.923	30412.97
699.269	30312.41
699.614	30057.73
699.96	30107.67
700.306	30050.95
700.651	29919.65
700.997	29757.85
701.342	29864.74
701.688	29777.28
702.033	29654.8
702.379	29616.16
702.724	29629.94
703.069	29609.6
703.415	29245.32
703.76	29251.87
704.105	29189.95
704.45	29259.78
704.795	29108.83
705.14	29117.86
705.485	29043.97
705.83	28886.46
706.175	28884.42
706.52	28755.84
706.865	28692.11
707.209	28730.08
707.554	28576.64
707.899	28679.68
708.243	28520.59
708.588	28376.19
708.932	28275.85
709.277	28202.18
709.621	28236.98
709.966	28058.46
710.31	28188.62
710.654	28000.61
710.998	28102.07
711.342	27962.87
711.687	27844.9
712.031	27757.9
712.375	27736.43
712.719	27742.76
713.063	27599.03
713.407	27656.66
713.75	27547.96
714.094	27515.42
714.438	27462.77
714.782	27557.91
715.125	27313.84
715.469	27373.5
715.812	27239.27
716.156	26961.31
716.499	27031.37
716.843	27080.18
717.186	26882.89
717.53	27094.41
717.873	26978.71
718.216	26932.16
718.559	26823.91
718.902	26645.39
719.246	26705.95
719.589	26710.02
719.932	26497.82
720.275	26501.44
720.617	26460.08
720.96	26498.95
721.303	26464.83
721.646	26443.58
721.989	26279.52
722.331	26375.79
722.674	26279.52
723.016	26192.52
723.359	26218.96
723.701	26138.96
724.044	25961.34
724.386	25889.47
724.729	26003.6
725.071	25916.82
725.413	25883.83
725.755	25973.99
726.097	25750.95
726.439	25712.98
726.782	25672.76
727.124	25838.4
727.465	25662.36
727.807	25664.62
728.149	25543.72
728.491	25509.15
728.833	25556.38
729.175	25383.5
729.516	25352.77
729.858	25417.62
730.199	25310.51
730.541	25200.91
730.882	25169.95
731.224	25215.59
731.565	25042.72
731.906	25065.99
732.248	25113.22
732.589	24898.09
732.93	24902.16
733.271	24943.74
733.612	24979.22
733.953	24945.32
734.294	24808.15
734.635	24730.41
734.976	24756.4
735.317	24628.04
735.658	24725.21
735.999	24593.69
736.339	24545.1
736.68	24630.07
737.021	24466.69
737.361	24451.32
737.702	24519.79
738.042	24428.72
738.383	24323.41
738.723	24492.9
739.063	24317.09
739.404	24351.44
739.744	24323.64
740.084	24166.58
740.424	24178.11
740.764	24062.18
741.104	24293.81
741.444	24081.39
741.784	24009.75
742.124	24067.38
742.464	23975.85
742.804	23941.28
743.143	23871.22
743.483	23905.8
743.823	23816.53
744.162	23700.38
744.502	23789.64
744.841	23647.95
745.181	23732.7
745.52	23658.12
745.86	23647.27
746.199	23594.62
746.538	23480.05
746.877	23527.05
747.216	23500.61
747.556	23473.72
747.895	23386.26
748.234	23257
748.573	23312.14
748.911	23217.45
749.25	23240.96
749.589	23185.82
749.928	23183.33
750.267	23070.34
750.605	23146.5
750.944	23140.17
751.283	22997.8
751.621	23003.67
751.96	22852.27
752.298	22838.71
752.636	22816.79
752.975	22694.98
753.313	22581.31
753.651	22799.61
753.989	22529.11
