Data from whiteboard_FLMS001491_00009.txt Node
Date: Wed Feb 08 11:24:56 GMT 2017
User: dcchb
Spectrometer: FLMS00149
Trigger mode: 0
Integration Time (sec): 2.000000E-2
Scans to average: 10
Electric dark correction enabled: true
Nonlinearity correction enabled: false
Boxcar width: 0
XAxis mode: Wavelengths
Number of Pixels in Spectrum: 2048
>>>>>Begin Spectral Data<<<<<
341.393	2.84
341.776	2.84
342.16	2.84
342.543	-69.25
342.927	-65.63
343.31	-74.45
343.693	-57.72
344.077	-62.24
344.46	-67.89
344.843	-51.17
345.226	-29.7
345.61	-14.34
345.993	-24.51
346.376	-2.13
346.759	4.65
347.142	21.14
347.525	35.83
347.908	60.01
348.291	67.92
348.674	92.78
349.057	101.82
349.44	99.33
349.823	147.47
350.206	180.69
350.588	225.88
350.971	224.98
351.354	236.28
351.737	266.33
352.119	264.3
352.502	297.29
352.884	328.48
353.267	323.06
353.65	345.43
354.032	316.28
354.414	349.04
354.797	348.14
355.179	356.73
355.562	351.3
355.944	364.41
356.326	383.62
356.709	354.24
357.091	369.38
357.473	387.69
357.855	380.91
358.238	378.42
358.62	382.72
359.002	383.85
359.384	386.78
359.766	395.14
360.148	376.39
360.53	366.67
360.912	379.78
361.294	383.17
361.676	374.81
362.057	380
362.439	353.11
362.821	382.72
363.203	370.29
363.584	393.11
363.966	373.45
364.348	365.32
364.729	383.62
365.111	358.31
365.493	379.78
365.874	385.65
366.256	376.61
366.637	387.91
367.019	364.86
367.4	390.85
367.781	384.98
368.163	388.14
368.544	382.26
368.925	370.96
369.306	389.72
369.688	359.89
370.069	369.83
370.45	376.84
370.831	389.95
371.212	382.72
371.593	362.83
371.974	384.52
372.355	409.38
372.736	403.73
373.117	377.52
373.498	410.29
373.879	379.78
374.26	379.55
374.641	385.43
375.021	391.98
375.402	407.8
375.783	406.67
376.163	422.04
376.544	418.42
376.925	419.55
377.305	406.9
377.686	429.27
378.066	417.07
378.447	413
378.827	427.01
379.208	447.35
379.588	451.41
379.968	441.7
380.349	442.6
380.729	421.36
381.109	461.36
381.489	445.54
381.87	467.01
382.25	443.05
382.63	451.41
383.01	460.68
383.39	482.37
383.77	462.26
384.15	477.4
384.53	483.05
384.91	504.75
385.29	488.93
385.67	508.36
386.049	507.68
386.429	510.17
386.809	526.89
387.189	527.57
387.568	524.41
387.948	537.06
388.328	509.72
388.707	533.67
389.087	568.93
389.466	552.2
389.846	566.21
390.225	567.8
390.605	567.12
390.984	564.18
391.363	563.28
391.743	575.93
392.122	593.56
392.501	619.32
392.881	638.98
393.26	620.68
393.639	652.09
394.018	648.7
394.397	638.98
394.776	664.97
395.155	669.04
395.534	651.86
395.913	654.35
396.292	688.24
396.671	690.5
397.05	705.42
397.429	700
397.808	697.96
398.186	707
398.565	752.88
398.944	738.64
399.323	770.05
399.701	757.62
400.08	765.98
400.458	787
400.837	760.79
401.215	822.03
401.594	813.21
401.972	816.15
402.351	835.13
402.729	870.84
403.107	866.32
403.486	871.97
403.864	886.21
404.242	899.76
404.62	895.24
404.999	935.02
405.377	952.42
405.755	968.24
406.133	980.67
406.511	982.47
406.889	1004.39
407.267	1036.48
407.645	1043.04
408.023	1054.34
408.401	1082.81
408.779	1122.58
409.156	1111.96
409.534	1127.33
409.912	1168.01
410.29	1192.64
410.667	1233.99
411.045	1226.54
411.422	1259.76
411.8	1252.75
412.178	1299.53
412.555	1308.57
412.933	1332.3
413.31	1382.24
413.687	1367.55
414.065	1420.88
414.442	1417.04
414.819	1446.19
415.197	1478.05
415.574	1485.51
415.951	1502.91
416.328	1548.79
416.705	1557.37
417.082	1551.72
417.46	1605.73
417.837	1592.18
418.214	1612.51
418.591	1620.2
418.967	1650.25
419.344	1676.24
419.721	1694.77
420.098	1741.78
420.475	1744.04
420.852	1775.9
421.228	1760.08
421.605	1805.28
421.982	1831.72
422.358	1838.27
422.735	1874.43
423.111	1888.44
423.488	1909.46
423.864	1942
424.241	1977.25
424.617	1990.36
424.994	1993.3
425.37	1995.55
425.746	2019.51
426.123	2045.27
426.499	2090.69
426.875	2138.38
427.251	2157.58
427.627	2207.98
428.003	2211.59
428.379	2238.49
428.756	2283
429.132	2316.68
429.507	2342.89
429.883	2352.38
430.259	2417.46
430.635	2438.48
431.011	2457.46
431.387	2554.86
431.763	2537.24
432.138	2581.08
432.514	2650.23
432.89	2643.67
433.265	2691.36
433.641	2747.85
434.016	2798.92
434.392	2845.25
434.767	2863.1
435.143	2872.37
435.518	2916.43
435.894	2958.02
436.269	3008.41
436.644	3047.73
437.02	3096.54
437.395	3084.11
437.77	3170.67
438.145	3172.25
438.52	3252.02
438.895	3278.01
439.271	3301.06
439.646	3349.64
440.021	3401.39
440.395	3395.52
440.77	3385.35
441.145	3429.42
441.52	3527.72
441.895	3486.59
442.27	3557.77
442.645	3549.19
443.019	3610.43
443.394	3619.24
443.769	3681.16
444.143	3667.83
444.518	3719.8
444.892	3663.99
445.267	3761.61
445.641	3769.75
446.016	3820.59
446.39	3868.27
446.764	3918.89
447.139	3867.37
447.513	3935.39
447.887	3967.48
448.262	3961.6
448.636	3965.67
449.01	4021.26
449.384	4117.98
449.758	4089.29
450.132	4196.17
450.506	4209.73
450.88	4234.82
451.254	4230.07
451.628	4370.63
452.002	4362.95
452.376	4419.9
452.75	4444.08
453.123	4510.29
453.497	4552.55
453.871	4581.93
454.244	4625.77
454.618	4767.91
454.992	4815.37
455.365	4854.46
455.739	4907.79
456.112	5034.8
456.486	5040.22
456.859	5081.12
457.232	5219.88
457.606	5187.34
457.979	5300.1
458.352	5382.13
458.725	5427.33
459.099	5548.91
459.472	5634.33
459.845	5635.69
460.218	5727.21
460.591	5789.35
460.964	5851.05
461.337	5954.77
461.71	6027.31
462.083	6109.8
462.456	6151.6
462.829	6212.17
463.201	6362.22
463.574	6355.67
463.947	6420.98
464.32	6581.87
464.692	6665.71
465.065	6719.72
465.438	6820.06
465.81	6943.45
466.183	6993.62
466.555	7184.57
466.928	7184.57
467.3	7186.6
467.672	7293.49
468.045	7475.18
468.417	7492.13
468.789	7617.1
469.161	7725.8
469.534	7827.94
469.906	8016.87
470.278	8067.03
470.65	8170.08
471.022	8329.4
471.394	8547.92
471.766	8612.1
472.138	8728.94
472.51	8838.31
472.882	8970.74
473.253	9147.01
473.625	9279.43
473.997	9479.88
474.369	9535.7
474.74	9629.48
475.112	9812.07
475.484	9936.59
475.855	10185.17
476.227	10305.39
476.598	10561.66
476.97	10636.23
477.341	10887.75
477.713	11070.57
478.084	11186.95
478.455	11506.27
478.827	11597.11
479.198	11905.12
479.569	11913.94
479.94	12379.91
480.311	12424.21
480.682	12726.8
481.053	12950.52
481.424	13211.08
481.795	13250.85
482.166	13540.79
482.537	13733.1
482.908	14016.26
483.279	14113.65
483.65	14360.88
484.021	14713.19
484.391	14770.59
484.762	14987.3
485.133	15142.33
485.503	15324.7
485.874	15726.27
486.244	15764.91
486.615	16240.38
486.985	16354.5
487.356	16587.71
487.726	16801.49
488.097	17245.32
488.467	17253.68
488.837	17596.27
489.207	17821.81
489.578	18119.42
489.948	18316.71
490.318	18460.21
490.688	18698.84
491.058	18976.58
491.428	19208.89
491.798	19403.91
492.168	19788.99
492.538	19861.53
492.908	20070.56
493.278	20341.06
493.648	20453.37
494.017	20641.84
494.387	20853.14
494.757	21046.81
495.126	21348.72
495.496	21364.31
495.866	21552.33
496.235	21905.54
496.605	22024.63
496.974	22193.22
497.344	22412.87
497.713	22557.5
498.082	22748.91
498.452	23041.1
498.821	22965.85
499.19	23172.85
499.559	23394.54
499.928	23593.63
500.298	23705.94
500.667	23885.6
501.036	23861.65
501.405	24227.96
501.774	24168.76
502.143	24436.55
502.512	24511.57
502.88	24855.52
503.249	24865.01
503.618	24940.04
503.987	25190.2
504.356	25283.98
504.724	25514.48
505.093	25471.1
505.462	25677.42
505.83	26068.14
506.199	26108.14
506.567	26429.71
506.936	26450.28
507.304	26760.1
507.672	26980.21
508.041	27010.04
508.409	27336.13
508.777	27519.63
509.145	27722.79
509.514	27774.76
509.882	28175.43
510.25	28205.94
510.618	28371.13
510.986	28598.47
511.354	28935.41
511.722	29239.58
512.09	29540.82
512.458	29478.67
512.826	29805.45
513.193	29872.56
513.561	30000.47
513.929	30271.87
514.297	30616.95
514.664	30750.28
515.032	30959.54
515.4	31003.83
515.767	31321.34
516.135	31580.99
516.502	31457.61
516.869	32092.62
517.237	32157.93
517.604	32276.11
517.972	32612.6
518.339	32831.35
518.706	32875.87
519.073	33152.25
519.44	33262.08
519.808	33592.69
520.175	33675.63
520.542	34019.57
520.909	34187.25
521.276	34134.82
521.643	34715.37
522.009	34875.59
522.376	35050.05
522.743	35361.91
523.11	35619.76
523.477	35924.61
523.843	36167.99
524.21	36541.99
524.577	36767.52
524.943	36867.18
525.31	37147.4
525.676	37477.56
526.043	37602.53
526.409	37874.39
526.776	38163.19
527.142	38416.74
527.508	38611.54
527.874	38967.24
528.241	39125.43
528.607	39349.15
528.973	39712.3
529.339	39758.63
529.705	40052.63
530.071	40390.48
530.437	40416.69
530.803	40908.2
531.169	40990.01
531.535	41147.07
531.901	41242.66
532.267	41491.69
532.632	41782.08
532.998	42046.93
533.364	42211.22
533.73	42254.84
534.095	42627.71
534.461	42899.11
534.826	43024.53
535.192	43238.99
535.557	43514.92
535.923	43512.66
536.288	43654.12
536.653	43798.3
537.019	43797.17
537.384	43994.45
537.749	44279.41
538.114	44443.93
538.479	44380.88
538.845	44672.85
539.21	44719.63
539.575	44887.99
539.94	45097.7
540.305	45384.7
540.67	45309.22
541.034	45401.65
541.399	45773.39
541.764	45791.01
542.129	45802.31
542.494	46097.45
542.858	46115.52
543.223	46238.23
543.587	46482.75
543.952	46347.84
544.316	46569.07
544.681	46560.26
545.045	46790.54
545.41	46975.16
545.774	47011.55
546.138	46969.74
546.503	47148.27
546.867	47225.33
547.231	47595.26
547.595	47487.69
547.959	47741.24
548.324	47741.02
548.688	47963.16
549.052	47994.57
549.416	48120.44
549.779	48101.46
550.143	48275.24
550.507	48461.23
550.871	48637.49
551.235	48609.24
551.599	48946.86
551.962	48976.92
552.326	49081.32
552.689	49283.13
553.053	49128.55
553.417	49270.92
553.78	49857.57
554.143	49668.2
554.507	49962.66
554.87	50091.01
555.234	50411.91
555.597	50267.73
555.96	50308.18
556.323	50609.19
556.686	50646.03
557.05	50967.15
557.413	51002.85
557.776	51067.26
558.139	51371.43
558.502	51440.13
558.865	51498.43
559.228	51867.69
559.59	51964.18
559.953	52049.83
560.316	52413.89
560.679	52467
561.041	52704.5
561.404	52665.18
561.767	52968.68
562.129	52750.38
562.492	53142.01
562.854	53105.85
563.217	53278.05
563.579	53360.98
563.941	53561.88
564.304	53678.49
564.666	53852.72
565.028	53854.53
565.39	53909.67
565.753	54107.18
566.115	54190.11
566.477	54246.61
566.839	54320.96
567.201	54522.99
567.563	54482.99
567.925	54720.5
568.287	54770.89
568.648	54710.33
569.01	54954.84
569.372	55071.22
569.734	54950.55
570.095	55143.76
570.457	55256.98
570.819	55257.21
571.18	55215.17
571.542	55456.07
571.903	55455.39
572.265	55591.43
572.626	55698.1
572.987	55754.82
573.349	55739.9
573.71	55813.35
574.071	55954.14
574.432	56002.95
574.794	56186.22
575.155	56156.62
575.516	56093.12
575.877	56264.86
576.238	56353.22
576.599	56349.83
576.96	56458.53
577.32	56442.71
577.681	56519.54
578.042	56613.78
578.403	56667.11
578.763	56658.3
579.124	56742.14
579.485	56883.38
579.845	56906.88
580.206	56800.67
580.566	56870.27
580.927	56971.96
581.287	57053.32
581.648	56909.82
582.008	57119.53
582.368	57091.51
582.728	57188.23
583.089	57166.08
583.449	57207.89
583.809	57208.57
584.169	57298.51
584.529	57262.8
584.889	57475
585.249	57293.54
585.609	57266.19
585.969	57421.67
586.329	57321.33
586.688	57419.18
587.048	57380.31
587.408	57349.81
587.768	57373.53
588.127	57344.83
588.487	57318.85
588.846	57436.81
589.206	57272.75
589.565	57349.81
589.925	57489.91
590.284	57397.71
590.643	57372.63
591.003	57408.79
591.362	57503.93
591.721	57435.91
592.08	57389.8
592.44	57520.65
592.799	57523.36
593.158	57439.52
593.517	57441.1
593.876	57472.51
594.235	57470.48
594.593	57482.23
594.952	57423.02
595.311	57379.86
595.67	57440.42
596.029	57586.18
596.387	57531.5
596.746	57618.95
597.104	57478.16
597.463	57448.33
597.822	57533.76
598.18	57494.43
598.538	57484.49
598.897	57622.34
599.255	57400.65
599.613	57722
599.972	57598.16
600.33	57642.91
600.688	57555.9
601.046	57647.42
601.404	57683.13
601.762	57726.29
602.12	57856.91
602.478	57767.65
602.836	57845.16
603.194	57677.93
603.552	57794.54
603.91	57679.06
604.268	57817.14
604.625	57788.44
604.983	57844.93
605.341	57768.55
605.698	57852.39
606.056	57990.47
606.413	57839.96
606.771	58023.01
607.128	58039.05
607.485	57961.31
607.843	58027.3
608.2	58143.23
608.557	58155.21
608.914	58093.51
609.272	58250.35
609.629	58314.07
609.986	58318.82
610.343	58219.16
610.7	58469.1
611.057	58365.6
611.414	58306.62
611.771	58447.63
612.127	58455.09
612.484	58402.89
612.841	58466.84
613.198	58435.88
613.554	58417.8
613.911	58526.95
614.267	58615.08
614.624	58553.39
614.98	58588.64
615.337	58710.22
615.693	58613.5
616.05	58572.82
616.406	58712.26
616.762	58628.87
617.118	58666.16
617.475	58690.79
617.831	58774.85
618.187	58716.78
618.543	58709.54
618.899	58839.03
619.255	58812.82
619.611	58781.63
619.967	58851.91
620.323	58823.44
620.678	58775.3
621.034	58726.04
621.39	58887.62
621.746	58844.23
622.101	59066.82
622.457	58856.43
622.812	58917.67
623.168	58956.54
623.523	58928.75
623.879	59014.17
624.234	58886.04
624.589	58946.83
624.945	58956.09
625.3	58957.9
625.655	58949.99
626.01	58959.48
626.365	58982.31
626.72	58880.39
627.075	58953.38
627.43	58879.26
627.785	58833.61
628.14	58889.2
628.495	58928.75
628.85	58853.04
629.205	58803.1
629.559	58961.51
629.914	58784.57
630.269	58889.88
630.623	58778.02
630.978	58673.84
631.332	58755.19
631.687	58745.93
632.041	58652.14
632.396	58773.72
632.75	58640.17
633.104	58675.19
633.459	58527.85
633.813	58485.14
634.167	58422.55
634.521	58458.25
634.875	58453.05
635.229	58413.51
635.583	58275.43
635.937	58244.92
636.291	58212.61
636.645	58258.93
636.999	58133.06
637.352	58167.86
637.706	58044.02
638.06	58136.9
638.413	58003.57
638.767	57993.18
639.121	57973.74
639.474	57863.46
639.828	57852.62
640.181	57920.41
640.534	57834.99
640.888	57731.94
641.241	57702.56
641.594	57697.59
641.947	57676.8
642.301	57644.71
642.654	57632.96
643.007	57629.35
643.36	57621.89
643.713	57576.24
644.066	57738.5
644.419	57446.07
644.771	57348.9
645.124	57061.68
645.477	57150.49
645.83	56989.59
646.182	56879.76
646.535	56718.41
646.888	56757.05
647.24	56648.58
647.593	56762.93
647.945	56746.21
648.298	56616.94
648.65	56567.23
649.002	56497.62
649.355	56690.61
649.707	56644.97
650.059	56715.47
650.411	57077.5
650.763	57142.13
651.115	57347.09
651.467	57201.11
651.819	57257.15
652.171	57161.11
652.523	57112.3
652.875	57142.35
653.227	57096.93
653.578	57337.83
653.93	57161.34
654.282	57047.21
654.633	57088.12
654.985	57069.59
655.337	57096.25
655.688	57072.98
656.039	57139.87
656.391	56899.42
656.742	56987.56
657.094	56987.1
657.445	57015.58
657.796	56909.82
658.147	56860.1
658.498	56982.58
658.849	56871.17
659.2	56771.29
659.551	56763.61
659.902	56783.94
660.253	56664.63
660.604	56754.79
660.955	56612.42
661.306	56691.97
661.656	56492.2
662.007	56595.25
662.358	56467.12
662.708	56498.08
663.059	56478.87
663.409	56269.61
663.76	56458.98
664.11	56399.32
664.461	56352.54
664.811	56335.82
665.161	56324.52
665.511	56219.21
665.862	56327.69
666.212	56312.77
666.562	56172.44
666.912	56236.16
667.262	56157.97
667.612	56088.14
667.962	56160.91
668.312	56038.2
668.662	56144.41
669.011	56065.32
669.361	55957.53
669.711	55976.06
670.06	55964.53
670.41	55934.48
670.76	55865.55
671.109	55985.1
671.459	55906.68
671.808	55878.88
672.157	55886.79
672.507	55725.44
672.856	55698.32
673.205	55885.66
673.554	55862.61
673.904	55828.26
674.253	55908.94
674.602	55798.66
674.951	55394.6
675.3	55195.29
675.649	55746.23
675.998	55617.65
676.346	55631.43
676.695	55795.04
677.044	55548.72
677.393	55703.75
677.741	55737.42
678.09	55610.42
678.438	55597.99
678.787	55613.35
679.135	55566.8
679.484	55386.92
679.832	55669.85
680.181	55385.34
680.529	55521.15
680.877	55358.9
681.225	55307.83
681.573	55544.66
681.922	55296.98
682.27	55209.75
682.618	55219.69
682.966	55193.25
683.314	55164.33
683.661	55092.24
684.009	54936.08
684.357	54900.38
684.705	54904.67
685.053	54865.13
685.4	54788.07
685.748	54618.58
686.095	54634.17
686.443	54625.81
686.79	54532.7
687.138	54586.26
687.485	54541.07
687.832	54383.56
688.18	54402.76
688.527	54180.85
688.874	54229.44
689.221	54095.43
689.568	54108.08
689.915	53994.19
690.262	53995.54
690.609	53883.68
690.956	53675.33
691.303	53670.13
691.65	53585.16
691.997	53537.7
692.344	53293.64
692.69	53302.68
693.037	53300.19
693.383	53007.55
693.73	53245.73
694.077	52935.68
694.423	53007.55
694.769	52794.22
695.116	52699.53
695.462	52760.32
695.808	52648.23
696.155	52669.02
696.501	52447.56
696.847	52377.06
697.193	52145.65
697.539	52252.99
697.885	52083.73
698.231	51965.54
698.577	51915.82
698.923	51895.26
699.269	51693.46
699.614	51471.99
699.96	51471.77
700.306	51550.86
700.651	51297.54
700.997	51257.08
701.342	51096.64
701.688	51100.93
702.033	50964.66
702.379	50995.85
702.724	50856.42
703.069	50969.18
703.415	50690.32
703.76	50649.42
704.105	50740.94
704.45	50547.95
704.795	50364.9
705.14	50245.81
705.485	50229.77
705.83	50008.53
706.175	50070.67
706.52	49910.23
706.865	49807.18
707.209	49806.73
707.554	49806.73
707.899	49780.29
708.243	49594.76
708.588	49531.48
708.932	49338.94
709.277	49231.83
709.621	49326.29
709.966	49037.48
710.31	49182.11
710.654	48816.02
710.998	48782.12
711.342	48822.35
711.687	48778.96
712.031	48647.89
712.375	48443.83
712.719	48477.27
713.063	48344.62
713.407	48487.67
713.75	48244.51
714.094	48287.22
714.438	47977.4
714.782	48017.85
715.125	47838.42
715.469	47832.77
715.812	47733.11
716.156	47437.07
716.499	47598.2
716.843	47479.1
717.186	47030.75
717.53	47213.8
717.873	47162.28
718.216	47042.96
718.559	46905.11
718.902	46668.73
719.246	46680.03
719.589	46493.37
719.932	46433.03
720.275	46410.88
720.617	46385.35
720.96	46215.86
721.303	46235.3
721.646	46273.26
721.989	46048.18
722.331	46096.77
722.674	45925.7
723.016	46023.32
723.359	45843.44
723.701	45773.39
724.044	45626.05
724.386	45284.36
724.729	45673.05
725.071	45405.26
725.413	45334.08
725.755	45228.77
726.097	45123.01
726.439	44982.9
726.782	45011.82
727.124	45095.44
727.465	44880.53
727.807	44793.75
728.149	44723.47
728.491	44797.37
728.833	44720.99
729.175	44521.44
729.516	44482.12
729.858	44280.77
730.199	44307.21
730.541	44233.54
730.882	44266.76
731.224	44306.31
731.565	44036.94
731.906	44074.45
732.248	44067.22
732.589	43988.35
732.93	43624.74
733.271	43740.9
733.612	43708.13
733.953	43822.25
734.294	43486.89
734.635	43302.94
734.976	43560.34
735.317	43323.51
735.658	43340.91
735.999	43403.28
736.339	43246.9
736.68	43372.55
737.021	43229.95
737.361	43172.33
737.702	43241.93
738.042	43100.01
738.383	42909.28
738.723	42987.47
739.063	42841.03
739.404	43010.75
739.744	42892.11
740.084	42673.13
740.424	42754.71
740.764	42599.68
741.104	42854.59
741.444	42470.42
741.784	42397.2
742.124	42311.1
742.464	42250.99
742.804	42298.9
743.143	42248.96
743.483	42227.04
743.823	41949.53
744.162	41977.78
744.502	42105.91
744.841	41806.49
745.181	41980.94
745.52	41852.81
745.86	41745.47
746.199	41841.29
746.538	41714.28
746.877	41737.11
747.216	41496.44
747.556	41264.8
747.895	41528.3
748.234	41096.9
748.573	41004.02
748.911	41107.75
749.25	41084.24
749.589	40741.43
749.928	40853.97
750.267	40918.15
750.605	40619.4
750.944	40649.45
751.283	40415.34
751.621	40564.48
751.96	40176.25
752.298	40194.55
752.636	40183.03
