Data from White_reflection_standard_FLMS001491_068.txt Node
Date: Tue Feb 07 10:32:08 GMT 2017
User: dcchb
Spectrometer: FLMS00149
Trigger mode: 0
Integration Time (sec): 2.000000E-2
Scans to average: 10
Electric dark correction enabled: true
Nonlinearity correction enabled: false
Boxcar width: 0
XAxis mode: Wavelengths
Number of Pixels in Spectrum: 2048
>>>>>Begin Spectral Data<<<<<
341.393	-11.26
341.776	-11.26
342.16	-11.26
342.543	-62.78
342.927	-64.14
343.31	-78.6
343.693	-69.56
344.077	-68.43
344.46	-53.06
344.843	-46.51
345.226	-46.28
345.61	-25.72
345.993	-16.23
346.376	-5.16
346.759	6.14
347.142	17.44
347.525	51.11
347.908	47.05
348.291	68.97
348.674	98.34
349.057	120.49
349.44	152.58
349.823	142.41
350.206	187.16
350.588	246.36
350.971	252.47
351.354	269.64
351.737	296.53
352.119	298.11
352.502	318.68
352.884	336.3
353.267	331.11
353.65	345.57
354.032	334.5
354.414	362.29
354.797	361.39
355.179	374.27
355.562	374.27
355.944	400.48
356.326	393.25
356.709	391.22
357.091	406.81
357.473	401.84
357.855	404.78
358.238	404.55
358.62	405.46
359.002	399.58
359.384	424.44
359.766	412.69
360.148	411.11
360.53	418.79
360.912	399.58
361.294	399.81
361.676	429.64
362.057	411.33
362.439	413.36
362.821	409.75
363.203	418.34
363.584	428.28
363.966	404.1
364.348	402.74
364.729	397.55
365.111	403.65
365.493	408.39
365.874	427.38
366.256	403.42
366.637	412.01
367.019	446.36
367.4	414.49
367.781	404.78
368.163	421.95
368.544	426.25
368.925	419.47
369.306	422.86
369.688	458.56
370.069	427.83
370.45	428.73
370.831	429.18
371.212	436.87
371.593	438
371.974	448.62
372.355	467.37
372.736	460.6
373.117	450.88
373.498	464.89
373.879	458.34
374.26	445.45
374.641	436.19
375.021	450.88
375.402	468.5
375.783	473.7
376.163	512.8
376.544	526.36
376.925	497.88
377.305	461.05
377.686	502.85
378.066	495.4
378.447	505.34
378.827	512.8
379.208	515.51
379.588	521.84
379.968	540.14
380.349	528.62
380.729	543.76
381.109	543.98
381.489	525
381.87	547.82
382.25	552.57
382.63	586.47
383.01	555.96
383.39	556.41
383.77	573.36
384.15	570.2
384.53	580.59
384.91	572.46
385.29	591.67
385.67	591.21
386.049	604.55
386.429	606.58
386.809	635.28
387.189	607.26
387.568	634.15
387.948	626.47
388.328	655.84
388.707	674.15
389.087	646.35
389.466	645.9
389.846	703.53
390.225	675.96
390.605	698.1
390.984	699.91
391.363	722.51
391.743	704.66
392.122	728.38
392.501	733.13
392.881	764.32
393.26	744.66
393.639	750.76
394.018	746.24
394.397	786.24
394.776	803.41
395.155	778.33
395.534	803.86
395.913	810.64
396.292	820.81
396.671	839.34
397.05	824.88
397.429	841.38
397.808	830.53
398.186	859.91
398.565	843.41
398.944	859.23
399.323	858.1
399.701	862.62
400.08	887.7
400.458	920.47
400.837	920.24
401.215	925.89
401.594	939.9
401.972	955.72
402.351	977.42
402.729	961.15
403.107	963.18
403.486	972.45
403.864	995.04
404.242	981.03
404.62	1034.82
404.999	1053.57
405.377	1044.99
405.755	1057.64
406.133	1073.01
406.511	1063.52
406.889	1068.49
407.267	1115.49
407.645	1124.31
408.023	1136.74
408.401	1171.31
408.779	1212.44
409.156	1174.25
409.534	1192.78
409.912	1228.26
410.29	1263.29
410.667	1250.86
411.045	1283.85
411.422	1303.06
411.8	1329.05
412.178	1316.39
412.555	1353.68
412.933	1370.18
413.31	1383.51
413.687	1386.67
414.065	1416.95
414.442	1423.51
414.819	1447.46
415.197	1484.07
415.574	1493.11
415.951	1516.84
416.328	1508.48
416.705	1533.56
417.082	1510.74
417.46	1520.68
417.837	1576.5
418.214	1579.89
418.591	1584.86
418.967	1629.38
419.344	1654.46
419.721	1674.35
420.098	1678.42
420.475	1683.39
420.852	1726.32
421.228	1734.01
421.605	1759.09
421.982	1768.36
422.358	1795.7
422.735	1784.85
423.111	1854.46
423.488	1874.34
423.864	1870.95
424.241	1871.63
424.617	1905.3
424.994	1951.18
425.37	1948.47
425.746	1939.65
426.123	1977.62
426.499	2020.55
426.875	2014.23
427.251	2085.64
427.627	2101.91
428.003	2152.53
428.379	2136.03
428.756	2163.83
429.132	2212.64
429.507	2255.12
429.883	2244.5
430.259	2308
430.635	2310.94
431.011	2334.22
431.387	2416.25
431.763	2450.83
432.138	2459.19
432.514	2515.46
432.89	2551.39
433.265	2581.67
433.641	2593.19
434.016	2613.98
434.392	2650.82
434.767	2716.81
435.143	2689.92
435.518	2782.57
435.894	2830.02
436.269	2824.6
436.644	2842
437.02	2913.19
437.395	2888.33
437.77	3009.68
438.145	3024.14
438.52	3027.08
438.895	3100.98
439.271	3071.15
439.646	3160.64
440.021	3176.46
440.395	3213.52
440.77	3180.98
441.145	3230.24
441.52	3253.52
441.895	3280.18
442.27	3295.77
442.645	3299.62
443.019	3383.91
443.394	3363.8
443.769	3430.91
444.143	3398.82
444.518	3463.23
444.892	3480.18
445.267	3509.33
445.641	3521.98
446.016	3541.42
446.39	3574.64
446.764	3604.69
447.139	3614.18
447.513	3686.5
447.887	3700.74
448.262	3718.14
448.636	3693.28
449.01	3792.26
449.384	3836.55
449.758	3832.71
450.132	3934.85
450.506	3946.83
450.88	3984.8
451.254	3985.47
451.628	4022.99
452.002	4095.75
452.376	4121.29
452.75	4192.25
453.123	4158.8
453.497	4303.21
453.871	4275.41
454.244	4398.12
454.618	4407.16
454.992	4451.68
455.365	4479.25
455.739	4612.35
456.112	4626.81
456.486	4663.2
456.859	4734.16
457.232	4819.35
457.606	4815.96
457.979	4848.73
458.352	5012.79
458.725	4994.04
459.099	5047.59
459.472	5174.82
459.845	5226.12
460.218	5288.94
460.591	5326.46
460.964	5380.69
461.337	5483.29
461.71	5577.75
462.083	5651.65
462.456	5690.74
462.829	5685.09
463.201	5810.29
463.574	5813.67
463.947	5917.4
464.32	6077.17
464.692	6060.22
465.065	6166.66
465.438	6274.45
465.81	6302.93
466.183	6365.52
466.555	6512.19
466.928	6525.75
467.3	6568.68
467.672	6679.19
468.045	6862.23
468.417	6862.01
468.789	6912.4
469.161	7073.53
469.534	7198.27
469.906	7339.28
470.278	7399.17
470.65	7527.3
471.022	7619.28
471.394	7746.05
471.766	7812.49
472.138	7901.53
472.51	8079.83
472.882	8199.15
473.253	8288.64
473.625	8467.62
473.997	8616.99
474.369	8710.55
474.74	8731.34
475.112	8995.74
475.484	9116.64
475.855	9270.31
476.227	9362.96
476.598	9628.04
476.97	9723.85
477.341	9908.48
477.713	10026.67
478.084	10140.34
478.455	10439.54
478.827	10517.96
479.198	10820.1
479.569	10819.19
479.94	11097.83
480.311	11306.86
480.682	11555.44
481.053	11707.31
481.424	11976.68
481.795	12069.1
482.166	12268.65
482.537	12361.3
482.908	12712.93
483.279	12823.89
483.65	13011.68
484.021	13270.65
484.391	13518.78
484.762	13521.04
485.133	13746.57
485.503	13890.98
485.874	14245.32
486.244	14328.71
486.615	14672.88
486.985	14827.9
487.356	15085.97
487.726	15217.5
488.097	15467.43
488.467	15560.54
488.837	15875.11
489.207	16123.91
489.578	16276
489.948	16469.67
490.318	16696.78
490.688	16799.83
491.058	17012.02
491.428	17247.5
491.798	17394.61
492.168	17734.04
492.538	17849.97
492.908	17984.43
493.278	18357.3
493.648	18339.9
494.017	18654.02
494.387	18700.34
494.757	19024.85
495.126	19171.29
495.496	19204.96
495.866	19421.23
496.235	19517.95
496.605	19806.75
496.974	19850.59
497.344	20116.12
497.713	20226.63
498.082	20505.27
498.452	20529.67
498.821	20691.25
499.19	20778.93
499.559	21027.29
499.928	21037.46
500.298	21362.19
500.667	21551.79
501.036	21454.17
501.405	21695.07
501.774	21783.65
502.143	22079.46
502.512	22109.97
502.88	22243.53
503.249	22423.41
503.618	22578.88
503.987	22704.3
504.356	22817.75
504.724	23047.12
505.093	23083.05
505.462	23223.39
505.83	23434.68
506.199	23683.94
506.567	23866.76
506.936	23924.61
507.304	24112.4
507.672	24287.99
508.041	24399.17
508.409	24744.25
508.777	24723.01
509.145	25018.82
509.514	25067.86
509.882	25187.4
510.25	25424.46
510.618	25512.37
510.986	25639.14
511.354	25989.19
511.722	26106.02
512.09	26416.07
512.458	26426.47
512.826	26763.86
513.193	26815.38
513.561	26939.45
513.929	27160.91
514.297	27343.5
514.664	27588.02
515.032	27708.01
515.4	27924.51
515.767	28173.99
516.135	28304.61
516.502	28154.1
516.869	28638.84
517.237	28883.12
517.604	28787.76
517.972	29133.29
518.339	29409.89
518.706	29480.85
519.073	29625.48
519.44	29783.21
519.808	30302.07
520.175	30200.6
520.542	30681.72
520.909	30834.03
521.276	30872.9
521.643	31175.04
522.009	31502.94
522.376	31554.92
522.743	31945.19
523.11	32256.37
523.477	32547.44
523.843	32660.88
524.21	33161.88
524.577	33127.08
524.943	33464.93
525.31	33638.25
525.676	33815.42
526.043	34097.45
526.409	34262.19
526.776	34638.68
527.142	34770.43
527.508	35040.25
527.874	35243.64
528.241	35474.82
528.607	35476.85
528.973	35852.88
529.339	35941.7
529.705	36390.5
530.071	36556.6
530.437	36781.22
530.803	36922.69
531.169	37242.68
531.535	37185.28
531.901	37308.44
532.267	37728.77
532.632	37905.94
532.998	37862.32
533.364	38198.13
533.73	38354.51
534.095	38585.24
534.461	38814.39
534.826	38852.81
535.192	39110.2
535.557	39250.54
535.923	39336.86
536.288	39710.64
536.653	39678.32
537.019	39666.12
537.384	39898.88
537.749	40108.82
538.114	40302.49
538.479	40270.62
538.845	40447.79
539.21	40536.15
539.575	40628.35
539.94	40948.57
540.305	41058.85
540.67	41113.54
541.034	41249.13
541.399	41356.7
541.764	41641.43
542.129	41920.3
542.494	41851.6
542.858	42104.25
543.223	41951.03
543.587	42424.01
543.952	42221.08
544.316	42579.71
544.681	42636.21
545.045	42741.52
545.41	42903.77
545.774	43042.98
546.138	43092.02
546.503	43275.74
546.867	43357.32
547.231	43728.84
547.595	43766.12
547.959	43834.6
548.324	43954.59
548.688	44225.32
549.052	44258.54
549.416	44489.04
549.779	44480.91
550.143	44598.87
550.507	44869.15
550.871	45087.44
551.235	45049.48
551.599	45347.1
551.962	45246.31
552.326	45460.77
552.689	45741.21
553.053	45606.53
553.417	45802.91
553.78	46391.82
554.143	46165.61
554.507	46355.21
554.87	46381.2
555.234	46895.76
555.597	46706.38
555.96	46979.82
556.323	47110.22
556.686	47165.58
557.05	47390.21
557.413	47507.95
557.776	47635.85
558.139	47991.77
558.502	47988.16
558.865	48112
559.228	48478.54
559.59	48471.54
559.953	48601.7
560.316	49051.63
560.679	48993.78
561.041	49289.82
561.404	49377.05
561.767	49549.47
562.129	49575.46
562.492	50044.15
562.854	50014.55
563.217	50007.32
563.579	50176.12
563.941	50308.78
564.304	50541.99
564.666	50776.79
565.028	50823.34
565.39	51082.32
565.753	51082.09
566.115	51225.59
566.477	51397.11
566.839	51538.57
567.201	51656.31
567.563	51683.66
567.925	51992.8
568.287	51944.67
568.648	52081.84
569.01	52277.99
569.372	52351.89
569.734	52313.7
570.095	52583.74
570.457	52714.81
570.819	52744.64
571.18	52863.29
571.542	52965.66
571.903	53097.18
572.265	53189.38
572.626	53261.69
572.987	53287.23
573.349	53430.05
573.71	53454
574.071	53570.84
574.432	53753.21
574.794	53854.22
575.155	53837.95
575.516	53835.69
575.877	53887.21
576.238	53999.3
576.599	54089.69
576.96	54037.72
577.32	54139.86
577.681	54258.73
578.042	54332.63
578.403	54285.39
578.763	54380.99
579.124	54444.26
579.485	54541.66
579.845	54494.65
580.206	54559.96
580.566	54497.37
580.927	54580.3
581.287	54668.89
581.648	54583.47
582.008	54729
582.368	54705.27
582.728	54710.92
583.089	54699.4
583.449	54666.63
583.809	54740.98
584.169	54836.34
584.529	54712.5
584.889	54932.61
585.249	54745.95
585.609	54731.48
585.969	54879.05
586.329	54775.78
586.688	54894.42
587.048	54786.62
587.408	54793.86
587.768	54804.03
588.127	54822.78
588.487	54727.42
588.846	54978.94
589.206	54690.81
589.565	54820.75
589.925	54986.39
590.284	54751.6
590.643	54858.49
591.003	54908.43
591.362	55063.45
591.721	54967.64
592.08	54930.8
592.44	55020.52
592.799	54997.24
593.158	54915.43
593.517	54935.77
593.876	54987.07
594.235	54919.5
594.593	54947.3
594.952	55104.13
595.311	54998.14
595.67	55054.64
596.029	55217.8
596.387	55215.99
596.746	55242.21
597.104	55138.71
597.463	55105.03
597.822	55217.57
598.18	55179.16
598.538	55124.02
598.897	55244.24
599.255	55027.97
599.613	55429.09
599.972	55223.9
600.33	55356.55
600.688	55213.96
601.046	55338.02
601.404	55422.77
601.762	55358.13
602.12	55433.39
602.478	55551.12
602.836	55434.29
603.194	55381.41
603.552	55504.57
603.91	55274.97
604.268	55571.24
604.625	55447.4
604.983	55641.29
605.341	55426.83
605.698	55567.39
606.056	55657.79
606.413	55604.23
606.771	55730.33
607.128	55792.02
607.485	55577.11
607.843	55717.67
608.2	55794.06
608.557	55905.24
608.914	55789.31
609.272	55916.31
609.629	55952.24
609.986	56056.65
610.343	55934.16
610.7	56107.95
611.057	55988.4
611.414	56054.39
611.771	56180.71
612.127	56202.63
612.484	56182.97
612.841	56266.59
613.198	56163.54
613.554	56177.55
613.911	56285.57
614.267	56276.98
614.624	56229.98
614.98	56283.99
615.337	56468.39
615.693	56372.57
616.05	56362.85
616.406	56476.07
616.762	56381.38
617.118	56372.8
617.475	56297.55
617.831	56514.71
618.187	56470.42
618.543	56501.61
618.899	56693.01
619.255	56583.64
619.611	56485.56
619.967	56607.59
620.323	56658.89
620.678	56536.18
621.034	56519.69
621.39	56541.61
621.746	56440.82
622.101	56769.4
622.457	56542.06
622.812	56634.49
623.168	56663.41
623.523	56650.76
623.879	56722.17
624.234	56542.96
624.589	56629.51
624.945	56641.49
625.3	56675.84
625.655	56628.84
626.01	56669.06
626.365	56706.8
626.72	56672
627.075	56577.09
627.43	56549.97
627.785	56554.71
628.14	56603.3
628.495	56587.71
628.85	56579.35
629.205	56446.47
629.559	56608.05
629.914	56455.96
630.269	56539.35
630.623	56379.58
630.978	56356.07
631.332	56454.15
631.687	56511.78
632.041	56340.26
632.396	56440.37
632.75	56296.42
633.104	56317.43
633.459	56157.66
633.813	56206.25
634.167	56186.14
634.521	56195.17
634.875	56231.33
635.229	56105.46
635.583	55950.66
635.937	55941.4
636.291	55953.83
636.645	55952.47
636.999	55905.69
637.352	55968.06
637.706	55727.62
638.06	55960.15
638.413	55800.61
638.767	55743.44
639.121	55806.94
639.474	55660.05
639.828	55610.56
640.181	55674.51
640.534	55673.61
640.888	55601.29
641.241	55417.34
641.594	55528.98
641.947	55528.98
642.301	55431.13
642.654	55495.08
643.007	55377.57
643.36	55356.55
643.713	55274.52
644.066	55419.6
644.419	55229.55
644.771	55005.83
645.124	54765.61
645.477	54740.3
645.83	54531.49
646.182	54419.85
646.535	54258.73
646.888	54340.53
647.24	54176.47
647.593	54355.45
647.945	54231.16
648.298	54148.9
648.65	54101.22
649.002	53957.72
649.355	54125.85
649.707	54080.65
650.059	54110.26
650.411	54504.6
650.763	54449.91
651.115	54752.28
651.467	54603.13
651.819	54678.15
652.171	54563.81
652.523	54479.97
652.875	54542.56
653.227	54328.11
653.578	54490.36
653.93	54458.95
654.282	54330.37
654.633	54284.72
654.985	54273.87
655.337	54230.25
655.688	54308.9
656.039	54321.55
656.391	54182.57
656.742	54064.84
657.094	54193.65
657.445	54214.21
657.796	54137.83
658.147	54044.05
658.498	54105.51
658.849	54052.86
659.2	54080.65
659.551	53954.56
659.902	54093.31
660.253	53933.54
660.604	54122.24
660.955	53874.33
661.306	53997.94
661.656	53917.49
662.007	53867.33
662.358	53838.85
662.708	53883.37
663.059	53819.19
663.409	53668.69
663.76	53850.38
664.11	53878.4
664.461	53907.55
664.811	53773.32
665.161	53809.47
665.511	53651.06
665.862	53719.99
666.212	53761.34
666.562	53766.09
666.912	53697.39
667.262	53608.35
667.612	53660.55
667.962	53621.68
668.312	53537.84
668.662	53614.9
669.011	53585.98
669.361	53512.99
669.711	53498.3
670.06	53473.21
670.41	53372.2
670.76	53340.56
671.109	53449.94
671.459	53352.99
671.808	53261.69
672.157	53404.74
672.507	53226.21
672.856	53246.55
673.205	53270.96
673.554	53316.38
673.904	53142.6
674.253	53299.88
674.602	53219.66
674.951	52731.31
675.3	52619.68
675.649	53077.06
675.998	53000.46
676.346	53083.62
676.695	53192.54
677.044	52957.07
677.393	53023.51
677.741	53021.47
678.09	52940.12
678.438	52705.32
678.787	52986.22
679.135	52873.23
679.484	52621.48
679.832	52760.46
680.181	52593.46
680.529	52662.16
680.877	52528.15
681.225	52544.65
681.573	52752.33
681.922	52464.43
682.27	52382.62
682.618	52483.86
682.966	52318.44
683.314	52404.99
683.661	52216.97
684.009	52093.14
684.357	51997.77
684.705	51985.79
685.053	51994.38
685.4	51937.21
685.748	51873.93
686.095	51762.52
686.443	51664.9
686.79	51596.65
687.138	51585.58
687.485	51640.72
687.832	51454.28
688.18	51511.68
688.527	51346.26
688.874	51301.52
689.221	51201.86
689.568	51041.64
689.915	50874.64
690.262	50955.76
690.609	50839.16
690.956	50712.83
691.303	50804.13
691.65	50510.8
691.997	50648.88
692.344	50248.66
692.69	50212.51
693.037	50287.31
693.383	49970.71
693.73	50102
694.077	49883.02
694.423	49940.88
694.769	49818.85
695.116	49603.26
695.462	49627.44
695.808	49463.6
696.155	49504.73
696.501	49038.53
696.847	49234.91
697.193	48961.69
697.539	49089.83
697.885	48843.96
698.231	48678.31
698.577	48788.59
698.923	48581.82
699.269	48406.45
699.614	48268.15
699.96	48271.54
700.306	48174.82
700.651	47965.56
700.997	47878.78
701.342	47887.14
701.688	47806.69
702.033	47732.35
702.379	47661.61
702.724	47538
703.069	47548.62
703.415	47240.61
703.76	47166.94
704.105	47146.15
704.45	47015.53
704.795	46778.47
705.14	46781.19
705.485	46583.45
705.83	46410.8
706.175	46537.58
706.52	46319.05
706.865	46165.16
707.209	46226.17
707.554	45924.71
707.899	46138.49
708.243	45998.83
708.588	45733.3
708.932	45442.01
709.277	45586.19
709.621	45584.15
709.966	45413.76
710.31	45341.68
710.654	45092.19
710.998	45042.47
711.342	45129.03
711.687	44802.03
712.031	44682.03
712.375	44580.11
712.719	44655.14
713.063	44514.35
713.407	44603.62
713.75	44370.18
714.094	44388.71
714.438	44094.7
714.782	44215.6
715.125	43946.01
715.469	44118.43
715.812	43858.55
716.156	43754.82
716.499	43619.91
716.843	43641.61
717.186	43377.21
717.53	43654.04
717.873	43523.64
718.216	43358.9
718.559	43139.7
718.902	42949.42
719.246	43030.1
719.589	42863.55
719.932	42851.8
720.275	42880.04
720.617	42777.45
720.96	42669.88
721.303	42779.03
721.646	42698.35
721.989	42287.07
722.331	42447.97
722.674	42403.45
723.016	42332.04
723.359	42247.75
723.701	42249.55
724.044	41963.01
724.386	41843.24
724.729	42025.15
725.071	41782.9
725.413	41844.14
725.755	41752.62
726.097	41528.67
726.439	41451.61
726.782	41436.24
727.124	41539.52
727.465	41427.88
727.807	41338.39
728.149	41147.44
728.491	41034.9
728.833	41180.43
729.175	40998.51
729.516	40953.32
729.858	40849.14
730.199	40872.64
730.541	40812.53
730.882	40731.4
731.224	40851.85
731.565	40515.14
731.906	40681.23
732.248	40531.86
732.589	40303.62
732.93	40264.52
733.271	40284.86
733.612	40331.64
733.953	40312.65
734.294	40121.25
734.635	39927.81
734.976	39981.36
735.317	39742.73
735.658	39803.29
735.999	39682.61
736.339	39614.82
736.68	39738.21
737.021	39452.56
737.361	39448.27
737.702	39470.64
738.042	39402.85
738.383	39188.62
738.723	39342.96
739.063	39175.28
739.404	39305
739.744	39074.95
740.084	38892.81
740.424	39034.72
740.764	38950.43
741.104	39013.48
741.444	38708.63
741.784	38622.98
742.124	38728.52
742.464	38561.06
742.804	38473.16
743.143	38470.9
743.483	38436.77
743.823	38215.31
744.162	38254.18
744.502	38225.7
744.841	38051.92
745.181	38139.83
745.52	38044.01
745.86	38093.96
746.199	37982.32
746.538	37835.88
746.877	37966.05
747.216	37817.13
747.556	37697.36
747.895	37719.95
748.234	37593.18
748.573	37523.35
748.911	37377.59
749.25	37477.48
749.589	37130.37
749.928	37323.81
750.267	37303.47
750.605	37224.6
750.944	37099.41
751.283	36885.85
751.621	36940.54
751.96	36613.99
752.298	36799.98
