Data from white_poster_card_FLMS001491_00046.txt Node
Date: Wed Feb 08 11:51:34 GMT 2017
User: dcchb
Spectrometer: FLMS00149
Trigger mode: 0
Integration Time (sec): 2.000000E-2
Scans to average: 10
Electric dark correction enabled: true
Nonlinearity correction enabled: false
Boxcar width: 0
XAxis mode: Wavelengths
Number of Pixels in Spectrum: 2048
>>>>>Begin Spectral Data<<<<<
341.393	-3.46
341.776	-3.46
342.16	-3.46
342.543	-55.44
342.927	-53.85
343.31	-77.36
343.693	-58.83
344.077	-53.18
344.46	-74.42
344.843	-59.73
345.226	-45.72
345.61	-7.75
345.993	-16.79
346.376	-9.56
346.759	22.75
347.142	25.47
347.525	43.77
347.908	63.2
348.291	77.89
348.674	71.11
349.057	99.14
349.44	119.02
349.823	156.31
350.206	153.15
350.588	179.36
350.971	211.9
351.354	232.47
351.737	237.21
352.119	246.02
352.502	266.36
352.884	260.04
353.267	281.5
353.65	311.11
354.032	295.29
354.414	312.69
354.797	321.73
355.179	329.19
355.562	323.31
355.944	340.26
356.326	363.99
356.709	364.21
357.091	339.13
357.473	351.78
357.855	347.49
358.238	368.06
358.62	347.72
359.002	326.47
359.384	345.23
359.766	360.82
360.148	345.68
360.53	333.71
360.912	341.16
361.294	340.03
361.676	331.9
362.057	353.37
362.439	359.24
362.821	333.48
363.203	321.5
363.584	327.15
363.966	341.84
364.348	312.69
364.729	345.68
365.111	334.61
365.493	326.47
365.874	308.17
366.256	317.66
366.637	328.96
367.019	300.49
367.4	328.28
367.781	337.32
368.163	321.73
368.544	341.84
368.925	314.72
369.306	330.99
369.688	330.99
370.069	329.86
370.45	325.34
370.831	327.83
371.212	324.67
371.593	322.86
371.974	326.25
372.355	310.66
372.736	328.28
373.117	324.44
373.498	310.88
373.879	346.36
374.26	342.97
374.641	320.6
375.021	327.38
375.402	328.96
375.783	347.72
376.163	325.12
376.544	326.25
376.925	310.43
377.305	345.23
377.686	336.87
378.066	341.16
378.447	333.25
378.827	339.13
379.208	341.16
379.588	335.51
379.968	344.1
380.349	350.43
380.729	348.39
381.109	339.36
381.489	349.3
381.87	353.14
382.25	351.56
382.63	354.27
383.01	363.08
383.39	330.77
383.77	355.63
384.15	345.23
384.53	362.41
384.91	365.57
385.29	360.82
385.67	364.89
386.049	387.04
386.429	370.09
386.809	371.67
387.189	363.76
387.568	365.57
387.948	382.29
388.328	378.22
388.707	378
389.087	378.9
389.466	380.71
389.846	377.09
390.225	380.26
390.605	407.15
390.984	399.92
391.363	404.89
391.743	393.14
392.122	400.82
392.501	420.94
392.881	406.7
393.26	428.84
393.639	406.02
394.018	401.5
394.397	414.16
394.776	412.8
395.155	417.09
395.534	409.64
395.913	428.84
396.292	418.22
396.671	430.2
397.05	443.08
397.429	447.15
397.808	424.1
398.186	441.95
398.565	439.69
398.944	447.15
399.323	453.02
399.701	439.01
400.08	479.46
400.458	457.32
400.837	455.28
401.215	453.7
401.594	455.96
401.972	470.88
402.351	467.49
402.729	454.83
403.107	480.82
403.486	475.17
403.864	483.98
404.242	492.8
404.62	490.09
404.999	496.87
405.377	505.45
405.755	494.38
406.133	500.48
406.511	513.59
406.889	530.76
407.267	525.57
407.645	533.02
408.023	543.42
408.401	540.71
408.779	565.11
409.156	571.21
409.534	582.51
409.912	570.76
410.29	610.76
410.667	613.92
411.045	623.87
411.422	640.36
411.8	653.02
412.178	646.47
412.555	671.78
412.933	659.8
413.31	682.17
413.687	712.23
414.065	688.05
414.442	699.57
414.819	739.34
415.197	747.25
415.574	763.07
415.951	767.37
416.328	791.77
416.705	808.72
417.082	813.02
417.46	819.12
417.837	842.17
418.214	838.55
418.591	861.6
418.967	875.61
419.344	929.4
419.721	895.95
420.098	934.37
420.475	935.05
420.852	961.94
421.228	960.81
421.605	969.4
421.982	989.06
422.358	1003.97
422.735	1027.92
423.111	1043.07
423.488	1055.72
423.864	1070.86
424.241	1078.77
424.617	1114.25
424.994	1126.23
425.37	1121.26
425.746	1133.68
426.123	1154.25
426.499	1158.54
426.875	1168.71
427.251	1170.97
427.627	1223.4
428.003	1234.25
428.379	1236.06
428.756	1258.88
429.132	1303.85
429.507	1288.26
429.883	1322.83
430.259	1323.28
430.635	1336.17
431.011	1367.35
431.387	1403.96
431.763	1450.06
432.138	1436.73
432.514	1460.23
432.89	1485.31
433.265	1474.01
433.641	1531.64
434.016	1541.58
434.392	1563.73
434.767	1608.7
435.143	1600.57
435.518	1632.43
435.894	1629.94
436.269	1663.61
436.644	1689.83
437.02	1689.6
437.395	1716.49
437.77	1751.07
438.145	1747
438.52	1795.59
438.895	1796.49
439.271	1773.22
439.646	1810.73
440.021	1845.3
440.395	1881.24
440.77	1858.64
441.145	1855.25
441.52	1912.42
441.895	1897.73
442.27	1914.23
442.645	1890.73
443.019	1951.74
443.394	1943.16
443.769	1983.61
444.143	1950.16
444.518	2003.27
444.892	1982.7
445.267	1994.45
445.641	2013.89
446.016	2060.21
446.39	2055.02
446.764	2052.76
447.139	2066.09
447.513	2072.19
447.887	2108.57
448.262	2091.17
448.636	2108.8
449.01	2167.1
449.384	2161.68
449.758	2176.6
450.132	2232.41
450.506	2231.06
450.88	2185.63
451.254	2231.06
451.628	2252.07
452.002	2285.29
452.376	2319.64
452.75	2325.29
453.123	2320.32
453.497	2372.75
453.871	2394.67
454.244	2423.14
454.618	2424.27
454.992	2444.16
455.365	2487.1
455.739	2559.41
456.112	2544.72
456.486	2591.73
456.859	2602.35
457.232	2611.61
457.606	2679.18
457.979	2679.18
458.352	2739.52
458.725	2730.03
459.099	2795.79
459.472	2880.76
459.845	2857.93
460.218	2892.28
460.591	2923.24
460.964	2891.15
461.337	3009.34
461.71	3019.29
462.083	3059.96
462.456	3051.37
462.829	3114.42
463.201	3079.4
463.574	3125.95
463.947	3193.97
464.32	3275.1
464.692	3297.7
465.065	3359.84
465.438	3331.37
465.81	3379.05
466.183	3447.52
466.555	3503.11
466.928	3538.59
467.3	3524.36
467.672	3600.06
468.045	3657.69
468.417	3687.29
468.789	3688.87
469.161	3747.85
469.534	3809.55
469.906	3891.58
470.278	3887.96
470.65	3956.44
471.022	3997.79
471.394	4084.34
471.766	4152.59
472.138	4208.18
472.51	4229.87
472.882	4338.35
473.253	4359.14
473.625	4434.39
473.997	4485.24
474.369	4572.46
474.74	4528.62
475.112	4673.7
475.484	4718
475.855	4802.29
476.227	4876.86
476.598	4983.08
476.97	5053.58
477.341	5130.42
477.713	5192.79
478.084	5194.6
478.455	5378.32
478.827	5374.7
479.198	5536.06
479.569	5569.27
479.94	5706.45
480.311	5776.27
480.682	5894.01
481.053	5962.26
481.424	6087
481.795	6173.1
482.166	6210.84
482.537	6319.31
482.908	6416.26
483.279	6537.61
483.65	6633.43
484.021	6788.68
484.391	6854.66
484.762	6925.17
485.133	6957.94
485.503	7037.48
485.874	7204.26
486.244	7252.62
486.615	7426.85
486.985	7519.51
487.356	7616.68
487.726	7696.22
488.097	7894.86
488.467	7904.13
488.837	8041.53
489.207	8116.78
489.578	8210.11
489.948	8362.42
490.318	8468.41
490.688	8477.9
491.058	8702.53
491.428	8737.33
491.798	8871.11
492.168	9008.51
492.538	9095.96
492.908	9129.41
493.278	9203.53
493.648	9270.87
494.017	9372.56
494.387	9479.91
494.757	9551.99
495.126	9657.75
495.496	9718.77
495.866	9805.77
496.235	9879.22
496.605	10023.17
496.974	10112.66
497.344	10084.64
497.713	10221.13
498.082	10317.85
498.452	10487.79
498.821	10490.73
499.19	10498.41
499.559	10674
499.928	10779.31
500.298	10778.4
500.667	10899.76
501.036	10872.19
501.405	11068.79
501.774	11037.38
502.143	11177.94
502.512	11192.18
502.88	11311.72
503.249	11387.65
503.618	11438.5
503.987	11515.33
504.356	11482.11
504.724	11637.36
505.093	11774.99
505.462	11712.39
505.83	11812.05
506.199	11904.7
506.567	12125.71
506.936	12135.43
507.304	12238.03
507.672	12333.62
508.041	12390.34
508.409	12462.65
508.777	12634.4
509.145	12736.09
509.514	12695.41
509.882	12840.5
510.25	12938.57
510.618	12971.34
510.986	13065.35
511.354	13116.42
511.722	13259.24
512.09	13400.03
512.458	13457.65
512.826	13550.31
513.193	13668.95
513.561	13648.16
513.929	13850.64
514.297	13926.79
514.664	14028.71
515.032	14113.68
515.4	14258.31
515.767	14242.27
516.135	14329.5
516.502	14318.65
516.869	14579.66
517.237	14642.26
517.604	14707.79
517.972	14835.7
518.339	14995.69
518.706	14922.25
519.073	15059.65
519.44	15133.77
519.808	15399.75
520.175	15421.22
520.542	15638.84
520.909	15658.73
521.276	15755
521.643	15955.44
522.009	16009.68
522.376	16130.35
522.743	16234.08
523.11	16394.53
523.477	16646.95
523.843	16705.25
524.21	16804.23
524.577	16990.9
524.943	17098.01
525.31	17171.46
525.676	17403.31
526.043	17395.86
526.409	17627.49
526.776	17752.46
527.142	17772.8
527.508	17886.24
527.874	18098.21
528.241	18121.03
528.607	18225.66
528.973	18394.47
529.339	18395.15
529.705	18643.28
530.071	18844.86
530.437	18805.54
530.803	18919.88
531.169	19080.33
531.535	19093.66
531.901	19221.8
532.267	19308.57
532.632	19380.21
532.998	19495.01
533.364	19686.42
533.73	19681.45
534.095	19843.02
534.461	19965.96
534.826	20090.47
535.192	20181.55
535.557	20241.88
535.923	20219.51
536.288	20417.7
536.653	20445.95
537.019	20413.63
537.384	20584.47
537.749	20798.48
538.114	20702.44
538.479	20801.19
538.845	20905.14
539.21	20947.63
539.575	21021.52
539.94	21204.34
540.305	21328.18
540.67	21178.13
541.034	21392.59
541.399	21411.8
541.764	21427.84
542.129	21573.6
542.494	21703.09
542.858	21713.71
543.223	21855.63
543.587	21988.28
543.952	21935.4
544.316	22070.54
544.681	22009.52
545.045	22120.25
545.41	22328.83
545.774	22295.84
546.138	22384.43
546.503	22461.49
546.867	22498.77
547.231	22778.31
547.595	22854.24
547.959	22816.96
548.324	22719.33
548.688	22901.25
549.052	22978.08
549.416	23034.8
549.779	23254.23
550.143	23134.01
550.507	23339.65
550.871	23489.71
551.235	23482.25
551.599	23752.53
551.962	23713.88
552.326	23797.95
552.689	23842.92
553.053	23941.9
553.417	23941.67
553.78	24226.86
554.143	24120.65
554.507	24376.46
554.87	24463.01
555.234	24568.55
555.597	24508.66
555.96	24752.27
556.323	24710.01
556.686	24773.52
557.05	25014.64
557.413	25117.01
557.776	25263.45
558.139	25349.32
558.502	25402.88
558.865	25474.97
559.228	25673.15
559.59	25730.1
559.953	25819.82
560.316	26147.72
560.679	26142.97
561.041	26317.66
561.404	26330.08
561.767	26505.22
562.129	26496.63
562.492	26795.16
562.854	26769.62
563.217	26826.34
563.579	26954.02
563.941	27049.61
564.304	27277.4
564.666	27499.77
565.028	27493.22
565.39	27557.85
565.753	27634.91
566.115	27841.23
566.477	27928.01
566.839	28136.59
567.201	28324.83
567.563	28103.6
567.925	28397.83
568.287	28463.81
568.648	28468.11
569.01	28620.87
569.372	28831.49
569.734	28789.45
570.095	28950.58
570.457	29086.17
570.819	29282.32
571.18	29262.21
571.542	29343.56
571.903	29324.13
572.265	29562.99
572.626	29621.98
572.987	29699.71
573.349	29730.9
573.71	29869.88
574.071	29972.02
574.432	30108.97
574.794	30224.22
575.155	30265.35
575.516	30117.78
575.877	30255.86
576.238	30309.41
576.599	30520.48
576.96	30510.09
577.32	30595.96
577.681	30632.34
578.042	30751.89
578.403	30881.6
578.763	30849.51
579.124	30849.97
579.485	31021.26
579.845	30965.22
580.206	30986.46
580.566	30870.98
580.927	31090.64
581.287	31187.13
581.648	31038.44
582.008	31149.17
582.368	31116.63
582.728	31206.79
583.089	31176.96
583.449	31171.77
583.809	31348.71
584.169	31427.58
584.529	31362.72
584.889	31525.65
585.249	31324.76
585.609	31317.75
585.969	31358.2
586.329	31346.9
586.688	31328.15
587.048	31433.68
587.408	31338.77
587.768	31381.25
588.127	31281.82
588.487	31228.71
588.846	31520.68
589.206	31228.03
589.565	31278.88
589.925	31492.21
590.284	31315.26
590.643	31492.21
591.003	31494.92
591.362	31560.23
591.721	31485.2
592.08	31598.87
592.44	31613.79
592.799	31527.91
593.158	31506.67
593.517	31569.04
593.876	31583.96
594.235	31576.5
594.593	31555.26
594.952	31724.29
595.311	31672.32
595.67	31551.87
596.029	31788.47
596.387	31860.56
596.746	31837.96
597.104	31689.49
597.463	31708.47
597.822	31864.4
598.18	31707.12
598.538	31719.77
598.897	31834.57
599.255	31607.23
599.613	32040.89
599.972	31827.34
600.33	31852.88
600.688	31911.18
601.046	31929.49
601.404	32156.82
601.762	32061.91
602.12	32219.87
602.478	32334.22
602.836	32286.31
603.194	32070.95
603.552	32225.75
603.91	32005.87
604.268	32256.93
604.625	32101.68
604.983	32282.92
605.341	32118.18
605.698	32308.91
606.056	32387.78
606.413	32403.6
606.771	32344.84
607.128	32381.9
607.485	32332.86
607.843	32487.66
608.2	32517.27
608.557	32612.41
608.914	32633.65
609.272	32739.18
609.629	32828.67
609.986	32921.32
610.343	32662.35
610.7	32872.06
611.057	32859.4
611.414	32921.1
611.771	32942.11
612.127	33013.07
612.484	32881.1
612.841	33018.27
613.198	32875.45
613.554	33049.68
613.911	33124.93
614.267	33234.99
614.624	33167.64
614.98	33186.85
615.337	33366.96
615.693	33311.14
616.05	33245.83
616.406	33437.02
616.762	33229.79
617.118	33342.78
617.475	33415.77
617.831	33399.5
618.187	33326.51
618.543	33613.51
618.899	33550.23
619.255	33581.19
619.611	33579.61
619.967	33693.51
620.323	33669.78
620.678	33538.26
621.034	33517.01
621.39	33604.02
621.746	33459.39
622.101	33814.86
622.457	33599.05
622.812	33688.08
623.168	33804.69
623.523	33626.39
623.879	33746.16
624.234	33564.7
624.589	33593.17
624.945	33800.4
625.3	33743.67
625.655	33695.09
626.01	33703.9
626.365	33854.63
626.72	33699.16
627.075	33711.81
627.43	33640.63
627.785	33535.32
628.14	33604.47
628.495	33759.72
628.85	33598.82
629.205	33488.54
629.559	33767.86
629.914	33437.24
630.269	33403.34
630.623	33344.14
630.978	33362.44
631.332	33594.75
631.687	33448.77
632.041	33254.65
632.396	33443.8
632.75	33264.59
633.104	33470.69
633.459	33191.15
633.813	33032.96
634.167	33170.36
634.521	33110.02
634.875	33210.13
635.229	33167.19
635.583	32966.97
635.937	33083.13
636.291	32971.04
636.645	32938.5
636.999	32915
637.352	32962.68
637.706	32726.07
638.06	32762.23
638.413	32731.95
638.767	32678.17
639.121	32650.14
639.474	32341.45
639.828	32389.36
640.181	32640.43
640.534	32487.44
640.888	32279.76
641.241	32228.69
641.594	32260.1
641.947	32251.06
642.301	32203.15
642.654	32295.58
643.007	32262.58
643.36	32236.14
643.713	32095.36
644.066	32298.74
644.419	32032.53
644.771	31823.27
645.124	31535.15
645.477	31483.85
645.83	31264.19
646.182	31095.38
646.535	31093.35
646.888	31093.35
647.24	30917.99
647.593	31031.43
647.945	30882.06
648.298	30736.75
648.65	30808.84
649.002	30756.63
649.355	30910.3
649.707	30814.26
650.059	31014.48
650.411	31345.32
650.763	31341.25
651.115	31554.81
651.467	31426
651.819	31529.5
652.171	31391.42
652.523	31371.31
652.875	31179.9
653.227	31274.59
653.578	31303.51
653.93	31289.95
654.282	31154.36
654.633	30987.59
654.985	31128.38
655.337	31020.13
655.688	31131.99
656.039	31153.46
656.391	30865.78
656.742	30948.95
657.094	30972.22
657.445	31096.06
657.796	31000.47
658.147	30904.65
658.498	30807.71
658.849	30872.11
659.2	30901.49
659.551	30772.23
659.902	30894.26
660.253	30757.09
660.604	30779.01
660.955	30774.49
661.306	30841.6
661.656	30800.25
662.007	30690.65
662.358	30655.85
662.708	30657.43
663.059	30550.09
663.409	30324.78
663.76	30633.02
664.11	30556.64
664.461	30602.97
664.811	30603.87
665.161	30537.21
665.511	30579.92
665.862	30505.12
666.212	30565.91
666.562	30560.93
666.912	30531.56
667.262	30470.77
667.612	30510.77
667.962	30426.47
668.312	30345.35
668.662	30511.67
669.011	30297.44
669.361	30363.42
669.711	30386.7
670.06	30219.7
670.41	30195.75
670.76	30291.11
671.109	30413.37
671.459	30259.02
671.808	30213.6
672.157	30277.78
672.507	29983.55
672.856	30089.99
673.205	30059.7
673.554	30144.45
673.904	30054.05
674.253	30202.98
674.602	30015.19
674.951	29552.37
675.3	29553.95
675.649	29960.95
675.998	29833.5
676.346	29900.61
676.695	30032.36
677.044	29737
677.393	29830.78
677.741	29884.34
678.09	29753.27
678.438	29748.53
678.787	29695.65
679.135	29700.84
679.484	29567.74
679.832	29649.32
680.181	29410.46
680.529	29582.65
680.877	29481.41
681.225	29309.89
681.573	29567.74
681.922	29418.82
682.27	29231.7
682.618	29200.52
682.966	29199.16
683.314	29335.2
683.661	29249.33
684.009	29065.38
684.357	29104.7
684.705	28959.85
685.053	29015.44
685.4	28892.95
685.748	28755.78
686.095	28700.19
686.443	28596.01
686.79	28595.34
687.138	28679.85
687.485	28630.36
687.832	28453.19
688.18	28460.65
688.527	28388.11
688.874	28318.51
689.221	28257.27
689.568	28269.69
689.915	28142.47
690.262	28143.14
690.609	27986.09
690.956	27944.05
691.303	28052.07
691.65	27771.85
691.997	27905.64
692.344	27654.12
692.69	27659.99
693.037	27537.96
693.383	27381.13
693.73	27575.48
694.077	27268.36
694.423	27313.11
694.769	27149.5
695.116	27087.13
695.462	27163.28
695.808	26955.6
696.155	27116.96
696.501	26718.77
696.847	26823.18
697.193	26525.79
697.539	26665.22
697.885	26620.92
698.231	26531.44
698.577	26361.72
698.923	26486.69
699.269	26299.35
699.614	26098.68
699.96	26072.24
700.306	26015.74
700.651	26003.09
700.997	25832.92
701.342	25860.94
701.688	25862.98
702.033	25630.22
702.379	25746.37
702.724	25652.14
703.069	25675.86
703.415	25419.37
703.76	25437.9
704.105	25446.27
704.45	25278.36
704.795	25240.4
705.14	25133.96
705.485	25173.28
705.83	25051.25
706.175	25095.99
706.52	24999.95
706.865	24700.97
707.209	24801.99
707.554	24813.29
707.899	24811.25
708.243	24515.22
708.588	24625.95
708.932	24305.05
709.277	24397.03
709.621	24380.53
709.966	24244.04
710.31	24275.68
710.654	24048.56
710.998	24209.69
711.342	24148.9
711.687	24103.7
712.031	23902.13
712.375	23791.39
712.719	23931.96
713.063	23846.76
713.407	23882.92
713.75	23765.18
714.094	23586.43
714.438	23682.02
714.782	23591.4
715.125	23447.9
715.469	23602.92
715.812	23421.91
716.156	23315.25
716.499	23397.73
716.843	23330.16
717.186	23243.61
717.53	23350.28
717.873	23222.14
718.216	23211.75
718.559	23052.43
718.902	22898.08
719.246	22977.4
719.589	22927.91
719.932	22812.44
720.275	22782.16
720.617	22784.64
720.96	22741.7
721.303	22809.27
721.646	22769.5
721.989	22546.91
722.331	22687.47
722.674	22619.22
723.016	22613.57
723.359	22559.79
723.701	22548.72
724.044	22351.88
724.386	22143.98
724.729	22409.96
725.071	22419.68
725.413	22330.64
725.755	22294.26
726.097	22066.69
726.439	21971.33
726.782	22023.98
727.124	22056.98
727.465	22036.64
727.807	21857.89
728.149	21873.7
728.491	21786.25
728.833	21856.08
729.175	21703.09
729.516	21731.34
729.858	21652.92
730.199	21787.15
730.541	21575.18
730.882	21580.15
731.224	21645.91
731.565	21491.34
731.906	21491.79
732.248	21493.15
732.589	21426.71
732.93	21268.97
733.271	21360.27
733.612	21441.63
733.953	21356.66
734.294	21248.18
734.635	21217.22
734.976	21271.46
735.317	21127.28
735.658	21171.12
735.999	21152.82
736.339	21107.62
736.68	21103.33
737.021	21078.02
737.361	20912.15
737.702	21039.83
738.042	20985.82
738.383	20791.25
738.723	20941.53
739.063	20815.43
739.404	20838.93
739.744	20793.05
740.084	20709.44
740.424	20687.3
740.764	20647.97
741.104	20749.21
741.444	20618.6
741.784	20525.49
742.124	20612.04
742.464	20481.88
742.804	20477.81
743.143	20407.53
743.483	20383.8
743.823	20334.54
744.162	20290.47
744.502	20316.91
744.841	20218.38
745.181	20164.14
745.52	20103.81
745.86	20204.82
746.199	20142
746.538	20091.15
746.877	20167.31
747.216	20170.47
747.556	20002.34
747.895	19992.4
748.234	19938.39
748.573	19866.98
748.911	19855.68
749.25	19779.75
749.589	19814.78
749.928	19738.39
750.267	19787.66
750.605	19733.42
750.944	19591.73
751.283	19573.2
751.621	19642.8
751.96	19587.66
752.298	19574.56
752.636	19406.2
752.975	19290.5
753.313	19245.53
753.651	19413.2
753.989	19271.74
754.327	19321.91
