Data from whiteboard_FLMS001491_00087.txt Node
Date: Wed Feb 08 11:28:29 GMT 2017
User: dcchb
Spectrometer: FLMS00149
Trigger mode: 0
Integration Time (sec): 2.000000E-2
Scans to average: 10
Electric dark correction enabled: true
Nonlinearity correction enabled: false
Boxcar width: 0
XAxis mode: Wavelengths
Number of Pixels in Spectrum: 2048
>>>>>Begin Spectral Data<<<<<
341.393	-11.29
341.776	-11.29
342.16	-11.29
342.543	-58.52
342.927	-76.59
343.31	-76.82
343.693	-76.14
344.077	-60.1
344.46	-58.06
344.843	-61.68
345.226	-45.63
345.61	-26.88
345.993	15.15
346.376	-22.81
346.759	4.99
347.142	24.42
347.525	19.22
347.908	62.61
348.291	89.73
348.674	109.84
349.057	102.16
349.44	134.25
349.823	150.52
350.206	153.23
350.588	209.95
350.971	225.77
351.354	266
351.737	266.22
352.119	277.97
352.502	285.43
352.884	292.21
353.267	308.71
353.65	314.58
354.032	318.65
354.414	330.85
354.797	323.4
355.179	324.75
355.562	352.32
355.944	354.81
356.326	353.23
356.709	369.5
357.091	348.25
357.473	359.55
357.855	372.21
358.238	369.27
358.62	376.95
359.002	368.14
359.384	375.82
359.766	348.25
360.148	349.16
360.53	377.18
360.912	382.38
361.294	374.47
361.676	376.05
362.057	349.16
362.439	362.26
362.821	380.12
363.203	367.24
363.584	348.25
363.966	375.37
364.348	364.98
364.729	351.64
365.111	337.63
365.493	378.08
365.874	348.93
366.256	364.75
366.637	365.88
367.019	347.35
367.4	339.44
367.781	341.47
368.163	370.4
368.544	356.61
368.925	367.46
369.306	364.52
369.688	353.45
370.069	353.68
370.45	360
370.831	363.39
371.212	360.68
371.593	340.8
371.974	353.9
372.355	356.84
372.736	352.55
373.117	342.83
373.498	363.17
373.879	371.08
374.26	353.45
374.641	362.94
375.021	356.61
375.402	364.52
375.783	363.39
376.163	405.43
376.544	373.79
376.925	384.64
377.305	377.18
377.686	379.67
378.066	389.61
378.447	364.52
378.827	397.74
379.208	397.29
379.588	402.94
379.968	391.19
380.349	390.96
380.729	393.45
381.109	414.92
381.489	404.75
381.87	414.92
382.25	417.18
382.63	431.42
383.01	411.53
383.39	423.05
383.77	415.6
384.15	435.71
384.53	442.04
384.91	415.6
385.29	433.45
385.67	416.95
386.049	461.92
386.429	470.96
386.809	450.62
387.189	470.51
387.568	476.84
387.948	465.54
388.328	458.53
388.707	454.24
389.087	480
389.466	490.62
389.846	467.12
390.225	479.32
390.605	502.15
390.984	516.61
391.363	495.59
391.743	523.84
392.122	504.86
392.501	531.75
392.881	547.8
393.26	517.06
393.639	543.73
394.018	555.25
394.397	563.39
394.776	578.08
395.155	562.03
395.534	579.43
395.913	599.77
396.292	572.2
396.671	614.46
397.05	632.31
397.429	629.6
397.808	651.3
398.186	648.36
398.565	625.76
398.944	639.77
399.323	666.89
399.701	681.13
400.08	681.58
400.458	665.31
400.837	721.8
401.215	732.65
401.594	721.8
401.972	757.73
402.351	740.56
402.729	762.25
403.107	790.05
403.486	792.31
403.864	819.65
404.242	823.5
404.62	858.52
404.999	838.64
405.377	875.02
405.755	892.19
406.133	897.84
406.511	911.4
406.889	934
407.267	966.54
407.645	960.89
408.023	985.98
408.401	977.84
408.779	1018.07
409.156	1021.91
409.534	1076.14
409.912	1070.72
410.29	1104.39
410.667	1156.37
411.045	1149.59
411.422	1182.13
411.8	1200.66
412.178	1232.98
412.555	1256.48
412.933	1271.62
413.31	1315.69
413.687	1303.03
414.065	1319.08
414.442	1370.37
414.819	1346.65
415.197	1377.38
415.574	1409.24
415.951	1444.72
416.328	1454.44
416.705	1486.53
417.082	1515.23
417.46	1523.82
417.837	1541.44
418.214	1569.46
418.591	1565.85
418.967	1531.05
419.344	1615.11
419.721	1627.09
420.098	1647.88
420.475	1694.66
420.852	1722.23
421.228	1693.53
421.605	1712.96
421.982	1775.33
422.358	1751.83
422.735	1788.89
423.111	1795.9
423.488	1854.88
423.864	1857.14
424.241	1889.68
424.617	1907.08
424.994	1907.31
425.37	1953.41
425.746	1973.52
426.123	2004.71
426.499	2016.68
426.875	2057.36
427.251	2083.58
427.627	2123.35
428.003	2158.83
428.379	2171.03
428.756	2192.95
429.132	2247.86
429.507	2246.28
429.883	2261.42
430.259	2364.92
430.635	2322.21
431.011	2384.13
431.387	2420.52
431.763	2498.03
432.138	2515.2
432.514	2516.33
432.89	2503.23
433.265	2566.73
433.641	2626.84
434.016	2680.17
434.392	2724.69
434.767	2731.24
435.143	2745.48
435.518	2801.07
435.894	2797.68
436.269	2889.2
436.644	2885.14
437.02	2934.17
437.395	2929.65
437.77	3020.27
438.145	3003.55
438.52	3068.86
438.895	3098.24
439.271	3130.1
439.646	3227.95
440.021	3236.09
440.395	3229.76
440.77	3216.65
441.145	3238.57
441.52	3326.48
441.895	3316.76
442.27	3348.85
442.645	3358.34
443.019	3396.53
443.394	3403.09
443.769	3473.82
444.143	3404.22
444.518	3519.92
444.892	3504.55
445.267	3595.4
445.641	3611.9
446.016	3534.84
446.39	3588.39
446.764	3638.79
447.139	3653.93
447.513	3722.4
447.887	3716.07
448.262	3742.29
448.636	3766.02
449.01	3816.41
449.384	3853.7
449.758	3868.84
450.132	3986.12
450.506	3948.84
450.88	3999.68
451.254	4002.39
451.628	4046.01
452.002	4110.87
452.376	4125.56
452.75	4196.74
453.123	4224.08
453.497	4276.51
453.871	4330.97
454.244	4395.38
454.618	4433.12
454.992	4485.55
455.365	4546.11
455.739	4645.99
456.112	4674.69
456.486	4720.12
456.859	4763.96
457.232	4850.06
457.606	4877.4
457.979	4968.7
458.352	5049.6
458.725	5113.33
459.099	5131.86
459.472	5215.7
459.845	5291.17
460.218	5325.07
460.591	5375.01
460.964	5426.54
461.337	5559.87
461.71	5630.6
462.083	5728.68
462.456	5705.17
462.829	5722.12
463.201	5846.19
463.574	5877.6
463.947	5940.65
464.32	6072.4
464.692	6123.69
465.065	6163.92
465.438	6286.4
465.81	6362.33
466.183	6397.13
466.555	6618.82
466.928	6622.66
467.3	6652.95
467.672	6713.28
468.045	6921.19
468.417	6890.91
468.789	6975.88
469.161	7072.14
469.534	7226.72
469.906	7362.76
470.278	7391.23
470.65	7490.21
471.022	7658.8
471.394	7823.54
471.766	7859.92
472.138	8033.02
472.51	8181.27
472.882	8306.01
473.253	8338.33
473.625	8433.46
473.997	8663.29
474.369	8744.19
474.74	8781.93
475.112	9003.62
475.484	9092.2
475.855	9304.18
476.227	9346.44
476.598	9614.45
476.97	9648.12
477.341	9918.4
477.713	10091.5
478.084	10073.87
478.455	10417.82
478.827	10507.31
479.198	10860.75
479.569	10819.39
479.94	11171.7
480.311	11201.98
480.682	11512.71
481.053	11778.24
481.424	11979.59
481.795	12026.82
482.166	12312.68
482.537	12425.9
482.908	12672.68
483.279	12759.45
483.65	13053.23
484.021	13291.64
484.391	13481.92
484.762	13596.72
485.133	13665.64
485.503	13969.14
485.874	14141.34
486.244	14293.42
486.615	14518.95
486.985	14705.16
487.356	15033.74
487.726	15126.62
488.097	15473.51
488.467	15521.87
488.837	15771.35
489.207	15936.77
489.578	16266.03
489.948	16445.91
490.318	16651.1
490.688	16731.1
491.058	17034.59
491.428	17313.68
491.798	17273.68
492.168	17727.68
492.538	17812.2
492.908	17992.54
493.278	18210.38
493.648	18224.62
494.017	18530.15
494.387	18709.58
494.757	18811.04
495.126	18962
495.496	19078.38
495.866	19163.13
496.235	19464.81
496.605	19734.18
496.974	19781.87
497.344	19853.05
497.713	20078.81
498.082	20170.11
498.452	20352.7
498.821	20518.8
499.19	20614.39
499.559	20815.74
499.928	20958.33
500.298	21019.8
500.667	21320.13
501.036	21171.21
501.405	21444.87
501.774	21582.95
502.143	21890.74
502.512	21807.58
502.88	22052.09
503.249	22138.87
503.618	22219.99
503.987	22439.65
504.356	22623.83
504.724	22746.99
505.093	22829.24
505.462	22990.6
505.83	23103.81
506.199	23376.57
506.567	23573.86
506.936	23586.51
507.304	23895.43
507.672	23909.22
508.041	24212.48
508.409	24234.41
508.777	24368.19
509.145	24600.95
509.514	24742.19
509.882	24941.05
510.25	24856.31
510.618	25094.27
510.986	25325.45
511.354	25428.95
511.722	25612.22
512.09	25887.92
512.458	26037.75
512.826	26081.59
513.193	26319.32
513.561	26409.04
513.929	26663.04
514.297	26834.56
514.664	27082.92
515.032	27180.77
515.4	27411.27
515.767	27524.26
516.135	27656.24
516.502	27652.17
516.869	28203.79
517.237	28272.94
517.604	28230.91
517.972	28668.41
518.339	28762.65
518.706	28876.09
519.073	29082.87
519.44	29212.35
519.808	29535.06
520.175	29652.34
520.542	30028.15
520.909	30163.51
521.276	30174.81
521.643	30473.56
522.009	30708.59
522.376	30861.58
522.743	31144.51
523.11	31535.23
523.477	31693.19
523.843	31839.85
524.21	32159.62
524.577	32486.84
524.943	32504.7
525.31	32747.85
525.676	33073.72
526.043	33299.93
526.409	33421.73
526.776	33857.88
527.142	33812.46
527.508	34005.45
527.874	34168.61
528.241	34338.09
528.607	34456.96
528.973	34832.77
529.339	34771.08
529.705	35268.47
530.071	35563.82
530.437	35582.58
530.803	35803.14
531.169	36183.02
531.535	36110.25
531.901	36322.45
532.267	36507.3
532.632	36825.71
532.998	36943.68
533.364	37168.98
533.73	37318.13
534.095	37549.99
534.461	37761.28
534.826	37792.47
535.192	37953.82
535.557	38251.44
535.923	38260.03
536.288	38394.94
536.653	38731.65
537.019	38624.31
537.384	38847.35
537.749	38850.29
538.114	39038.76
538.479	39070.85
538.845	39384.29
539.21	39339.54
539.575	39502.93
539.94	39678.97
540.305	39970.71
540.67	39862.47
541.034	40227.43
541.399	40239.41
541.764	40257.26
542.129	40342.23
542.494	40489.12
542.858	40649.57
543.223	40698.83
543.587	40935.66
543.952	41057.24
544.316	41139.72
544.681	41236.22
545.045	41419.04
545.41	41531.13
545.774	41688.64
546.138	41787.39
546.503	41958.91
546.867	42072.81
547.231	42371.1
547.595	42441.38
547.959	42661.49
548.324	42665.33
548.688	42764.77
549.052	42966.34
549.416	42957.3
549.779	43104.19
550.143	43353
550.507	43560.22
550.871	43695.14
551.235	43771.97
551.599	43978.52
551.962	44028.69
552.326	44167.21
552.689	44531.72
553.053	44326.31
553.417	44439.07
553.78	45015.33
554.143	44740.98
554.507	44933.3
554.87	45306.39
555.234	45596.33
555.597	45393.85
555.96	45660.51
556.323	45820.73
556.686	45875.64
557.05	46088.07
557.413	46161.51
557.776	46285.35
558.139	46484.89
558.502	46591.33
558.865	46784.09
559.228	46973.24
559.59	47087.82
559.953	47135.05
560.316	47475.15
560.679	47561.7
561.041	47784.75
561.404	47948.81
561.767	48227.45
562.129	48117.84
562.492	48547.21
562.854	48582.69
563.217	48544.05
563.579	48675.8
563.941	48977.03
564.304	49159.17
564.666	49426.96
565.028	49539.05
565.39	49613.17
565.753	49704.7
566.115	49932.71
566.477	49952.15
566.839	50130.9
567.201	50322.08
567.563	50432.81
567.925	50665.12
568.287	50713.48
568.648	50759.13
569.01	50943.53
569.372	51102.85
569.734	51081.61
570.095	51326.57
570.457	51417.42
570.819	51397.98
571.18	51473.91
571.542	51776.05
571.903	51765.21
572.265	51967.91
572.626	51998.65
572.987	51946.9
573.349	52069.38
573.71	52223.95
574.071	52311.86
574.432	52407.68
574.794	52638.18
575.155	52661
575.516	52454.45
575.877	52789.59
576.238	52766.99
576.599	52891.73
576.96	52892.63
577.32	52980.99
577.681	53064.16
578.042	53218.73
578.403	53182.8
578.763	53194.55
579.124	53252.4
579.485	53354.32
579.845	53551.83
580.206	53338.27
580.566	53359.74
580.927	53430.93
581.287	53467.31
581.648	53447.87
582.008	53571.26
582.368	53507.99
582.728	53573.07
583.089	53503.92
583.449	53581.2
583.809	53592.28
584.169	53656.23
584.529	53562.67
584.889	53839.5
585.249	53639.96
585.609	53622.78
585.969	53823.01
586.329	53714.53
586.688	53742.1
587.048	53701.43
587.408	53686.51
587.768	53670.69
588.127	53661.88
588.487	53595.89
588.846	53800.41
589.206	53580.3
589.565	53673.63
589.925	53788.66
590.284	53753.63
590.643	53783.01
591.003	53888.31
591.362	53904.13
591.721	53903.46
592.08	53883.34
592.44	53984.58
592.799	53990.46
593.158	53887.41
593.517	53876.11
593.876	53921.53
594.235	53862.1
594.593	53893.74
594.952	53969.22
595.311	53858.94
595.67	53905.94
596.029	54041.76
596.387	53987.52
596.746	54025.71
597.104	53926.51
597.463	54021.64
597.822	54059.61
598.18	54047.63
598.538	53983.68
598.897	54187.29
599.255	53957.01
599.613	54461.18
599.972	54230.9
600.33	54434.74
600.688	54154.75
601.046	54378.7
601.404	54421.63
601.762	54303.9
602.12	54482.65
602.478	54434.74
602.836	54442.2
603.194	54307.29
603.552	54398.58
603.91	54236.1
604.268	54410.11
604.625	54296.89
604.983	54410.33
605.341	54245.59
605.698	54458.24
606.056	54404.01
606.413	54314.52
606.771	54540.73
607.128	54501.41
607.485	54381.18
607.843	54381.64
608.2	54553.61
608.557	54570.33
608.914	54524.23
609.272	54659.82
609.629	54755.18
609.986	54758.35
610.343	54635.41
610.7	54853.26
611.057	54752.02
611.414	54792.25
611.771	54819.82
612.127	54872.02
612.484	54897.1
612.841	55003.99
613.198	54826.6
613.554	54823.43
613.911	55018.68
614.267	55035.63
614.624	55045.57
614.98	55066.36
615.337	55165.34
615.693	55154.72
616.05	55163.99
616.406	55318.11
616.762	55134.61
617.118	55147.94
617.475	55190.43
617.831	55305.68
618.187	55252.8
618.543	55354.49
618.899	55452.57
619.255	55439.46
619.611	55343.19
619.967	55387.71
620.323	55441.72
620.678	55375.06
621.034	55361.5
621.39	55288.5
621.746	55268.39
622.101	55585.22
622.457	55319.01
622.812	55336.64
623.168	55433.13
623.523	55347.94
623.879	55481.49
624.234	55247.83
624.589	55332.57
624.945	55346.58
625.3	55375.96
625.655	55341.61
626.01	55376.19
626.365	55375.28
626.72	55318.33
627.075	55289.86
627.43	55201.73
627.785	55241.27
628.14	55284.89
628.495	55312.68
628.85	55163.31
629.205	55170.99
629.559	55310.65
629.914	55069.3
630.269	55070.43
630.623	54945.91
630.978	54889.64
631.332	55012.8
631.687	55213.25
632.041	54975.29
632.396	54944.11
632.75	54873.37
633.104	54975.52
633.459	54850.55
633.813	54852.58
634.167	54804.22
634.521	54768.97
634.875	54838.35
635.229	54712.7
635.583	54613.49
635.937	54658.01
636.291	54615.3
636.645	54652.81
636.999	54571.23
637.352	54552.48
637.706	54541.4
638.06	54549.31
638.413	54578.92
638.767	54340.96
639.121	54410.11
639.474	54318.81
639.828	54346.38
640.181	54323.56
640.534	54358.81
640.888	54228.42
641.241	54082.21
641.594	54129.21
641.947	54286.95
642.301	54132.6
642.654	54049.89
643.007	54151.13
643.36	53994.53
643.713	54011.7
644.066	54106.39
644.419	53829.56
644.771	53638.38
645.124	53390.7
645.477	53282.45
645.83	53076.81
646.182	52968.79
646.535	53013.08
646.888	53031.84
647.24	52866.65
647.593	53000.65
647.945	52959.75
648.298	52837.72
648.65	52731.28
649.002	52563.15
649.355	52649.93
649.707	52601.34
650.059	52713.43
650.411	52971.95
650.763	53109.35
651.115	53413.07
651.467	53258.05
651.819	53229.8
652.171	53147.09
652.523	53134.89
652.875	53096.7
653.227	52956.14
653.578	53159.97
653.93	53027.09
654.282	52808.12
654.633	52877.04
654.985	52883.6
655.337	52857.16
655.688	52785.29
656.039	52940.54
656.391	52656.71
656.742	52699.42
657.094	52714.79
657.445	52850.38
657.796	52698.97
658.147	52623.49
658.498	52671.62
658.849	52701
659.2	52504.4
659.551	52484.74
659.902	52572.87
660.253	52491.06
660.604	52571.06
660.955	52391.18
661.306	52531.74
661.656	52414.46
662.007	52341.91
662.358	52467.34
662.708	52392.99
663.059	52411.97
663.409	52159.55
663.76	52321.35
664.11	52400.22
664.461	52369.26
664.811	52288.13
665.161	52301.69
665.511	52254.46
665.862	52272.54
666.212	52327.9
666.562	52331.52
666.912	52196.38
667.262	52163.39
667.612	52132.2
667.962	52202.71
668.312	52037.06
668.662	52354.34
669.011	52199.32
669.361	52156.61
669.711	52021.7
670.06	51925.65
670.41	51896.28
670.76	51818.31
671.109	51929.95
671.459	51969.5
671.808	51720.24
672.157	51909.16
672.507	51637.75
672.856	51621.26
673.205	51724.76
673.554	51811.76
673.904	51625.32
674.253	51715.94
674.602	51635.04
674.951	51130.87
675.3	50886.36
675.649	51494.71
675.998	51404.09
676.346	51343.52
676.695	51456.51
677.044	51166.35
677.393	51256.97
677.741	51261.27
678.09	51192.34
678.438	51105.11
678.787	51162.28
679.135	51237.54
679.484	50905.34
679.832	51024.21
680.181	50816.76
680.529	50924.32
680.877	50836.64
681.225	50711.9
681.573	50931.1
681.922	50701.73
682.27	50567.27
682.618	50669.87
682.966	50424.23
683.314	50495.18
683.661	50407.05
684.009	50290.9
684.357	50159.83
684.705	50126.15
685.053	50095.65
685.4	50028.53
685.748	49898.59
686.095	49857.23
686.443	49729.78
686.79	49592.83
687.138	49789.44
687.485	49668.54
687.832	49541.31
688.18	49518.26
688.527	49440.07
688.874	49297.7
689.221	49200.08
689.568	49241.88
689.915	48994.43
690.262	49083.02
690.609	48907.2
690.956	48833.76
691.303	48790.37
691.65	48596.25
691.997	48594.44
692.344	48393.09
692.69	48377.95
693.037	48340.21
693.383	47845.76
693.73	48130.95
694.077	47757.85
694.423	47730.96
694.769	47667.91
695.116	47648.25
695.462	47536.39
695.808	47535.94
696.155	47580.91
696.501	47284.65
696.847	47265.66
697.193	46927.37
697.539	47136.4
697.885	46705.68
698.231	46695.06
698.577	46614.61
698.923	46570.77
699.269	46564.67
699.614	46171.23
699.96	46111.34
700.306	46062.08
700.651	45849.88
700.997	45711.81
701.342	45587.29
701.688	45591.36
702.033	45390.46
702.379	45326.05
702.724	45210.35
703.069	45297.13
703.415	44676.35
703.76	44924.48
704.105	44840.42
704.45	44688.1
704.795	44416.93
705.14	44386.64
705.485	44312.97
705.83	44153.88
706.175	44274.78
706.52	44105.75
706.865	43988.69
707.209	43906.2
707.554	43730.16
707.899	43742.14
708.243	43566.78
708.588	43473.22
708.932	43095.6
709.277	43152.78
709.621	43181.7
709.966	42932.67
710.31	43023.06
710.654	42696.97
710.998	42664.43
711.342	42642.28
711.687	42519.35
712.031	42378.11
712.375	42207.72
712.719	42433.25
713.063	42256.08
713.407	42464.89
713.75	42002.75
714.094	41901.96
714.438	41887.95
714.782	41755.53
715.125	41699.26
715.469	41715.3
715.812	41517.11
716.156	41306.72
716.499	41399.83
716.843	41295.65
717.186	40973.85
717.53	41234.41
717.873	41027.18
718.216	41046.39
718.559	40951.93
718.902	40596.23
719.246	40609.12
719.589	40530.7
719.932	40405.05
720.275	40439.4
720.617	40337.94
720.96	40207.77
721.303	40335
721.646	40259.07
721.989	40056.59
722.331	40072.18
722.674	39905.63
723.016	39811.4
723.359	39779.53
723.701	39812.53
724.044	39547
724.386	39417.73
724.729	39571.63
725.071	39364.4
725.413	39436.72
725.755	39441.01
726.097	39109.04
726.439	38918.99
726.782	38952.44
727.124	39192.66
727.465	38941.36
727.807	38776.62
728.149	38755.83
728.491	38631.99
728.833	38629.96
729.175	38531.66
729.516	38369.4
729.858	38334.6
730.199	38399.46
730.541	38196.3
730.882	38178.22
731.224	38172.12
731.565	37901.84
731.906	37935.51
732.248	38042.4
732.589	37726.03
732.93	37608.97
733.271	37655.52
733.612	37729.19
733.953	37751.56
734.294	37579.14
734.635	37669.53
734.976	37593.83
735.317	37357.22
735.658	37460.05
735.999	37439.26
736.339	37197.91
736.68	37342.76
737.021	37045.82
737.361	36938.03
737.702	37130.11
738.042	36968.53
738.383	36984.8
738.723	36908.87
739.063	36797.01
739.404	36821.64
739.744	36630.46
740.084	36600.63
740.424	36532.61
740.764	36593.85
741.104	36564.48
741.444	36344.6
741.784	36103.02
742.124	36234.54
742.464	36247.2
742.804	36228.21
743.143	35943.7
743.483	36086.3
743.823	35807.66
744.162	35863.7
744.502	35762.01
744.841	35692.18
745.181	35657.16
745.52	35421.46
745.86	35603.82
746.199	35499.42
746.538	35387.33
746.877	35404.28
747.216	35401.12
747.556	35225.53
747.895	35268.01
748.234	35033.22
748.573	35000.22
748.911	34926.1
749.25	35025.99
749.589	34688.37
749.928	34787.57
750.267	34675.26
750.605	34571.53
750.944	34496.28
751.283	34400.69
751.621	34346.68
751.96	34227.59
752.298	34144.43
752.636	34089.97
752.975	33927.03
