Data from white_wall_FLMS001491_004.txt Node
Date: Tue Feb 07 11:03:11 GMT 2017
User: dcchb
Spectrometer: FLMS00149
Trigger mode: 0
Integration Time (sec): 2.000000E-2
Scans to average: 10
Electric dark correction enabled: true
Nonlinearity correction enabled: false
Boxcar width: 0
XAxis mode: Wavelengths
Number of Pixels in Spectrum: 2048
>>>>>Begin Spectral Data<<<<<
341.393	-12.08
341.776	-12.08
342.16	-12.08
342.543	-58.4
342.927	-85.75
343.31	-75.13
343.693	-70.61
344.077	-61.57
344.46	-59.08
344.843	-54.79
345.226	-29.25
345.61	-29.93
345.993	-28.35
346.376	-12.3
346.759	8.49
347.142	29.05
347.525	38.09
347.908	80.8
348.291	88.94
348.674	79.22
349.057	96.4
349.44	122.61
349.823	125.32
350.206	162.61
350.588	209.84
350.971	220.01
351.354	249.39
351.737	237.41
352.119	278.99
352.502	295.49
352.884	293.68
353.267	310.63
353.65	299.55
354.032	304.98
354.414	322.15
354.797	320.8
355.179	338.2
355.562	334.13
355.944	353.34
356.326	369.38
356.709	351.98
357.091	354.02
357.473	376.84
357.855	363.28
358.238	373.9
358.62	368.7
359.002	376.61
359.384	372.77
359.766	357.63
360.148	363.06
360.53	367.8
360.912	343.62
361.294	365.54
361.676	353.56
362.057	366.67
362.439	336.39
362.821	344.3
363.203	340.01
363.584	354.24
363.966	346.56
364.348	343.62
364.729	357.63
365.111	336.16
365.493	337.52
365.874	342.49
366.256	351.3
366.637	334.58
367.019	333.68
367.4	358.76
367.781	328.03
368.163	347.46
368.544	351.3
368.925	327.8
369.306	351.3
369.688	335.26
370.069	327.12
370.45	349.95
370.831	356.05
371.212	348.82
371.593	341.36
371.974	341.59
372.355	361.7
372.736	343.62
373.117	339.33
373.498	339.1
373.879	358.31
374.26	351.98
374.641	357.41
375.021	351.08
375.402	342.94
375.783	357.41
376.163	356.95
376.544	374.58
376.925	360.12
377.305	370.51
377.686	373.22
378.066	362.38
378.447	371.87
378.827	364.41
379.208	371.19
379.588	382.94
379.968	377.07
380.349	377.52
380.729	380
381.109	373.45
381.489	380.23
381.87	396.95
382.25	387.24
382.63	387.01
383.01	402.6
383.39	397.4
383.77	389.72
384.15	397.86
384.53	400.57
384.91	382.94
385.29	399.21
385.67	415.94
386.049	409.16
386.429	398.31
386.809	419.1
387.189	428.36
387.568	417.97
387.948	450.96
388.328	438.53
388.707	464.3
389.087	440.57
389.466	456.16
389.846	463.39
390.225	460.91
390.605	448.25
390.984	485.09
391.363	474.92
391.743	471.75
392.122	482.83
392.501	480.34
392.881	510.4
393.26	515.82
393.639	511.75
394.018	518.53
394.397	556.95
394.776	528.93
395.155	516.27
395.534	549.49
395.913	550.85
396.292	557.17
396.671	572.09
397.05	570.28
397.429	571.86
397.808	588.59
398.186	623.39
398.565	631.07
398.944	628.59
399.323	634.23
399.701	638.75
400.08	644.63
400.458	648.7
400.837	690.28
401.215	688.24
401.594	685.31
401.972	724.4
402.351	737.73
402.729	724.18
403.107	750.84
403.486	763.04
403.864	789.03
404.242	776.83
404.62	789.94
404.999	805.53
405.377	848.92
405.755	855.02
406.133	874
406.511	863.16
406.889	908.13
407.267	921.46
407.645	927.56
408.023	944.74
408.401	929.14
408.779	975.92
409.156	1012.98
409.534	987.9
409.912	1063.6
410.29	1054.34
410.667	1075.58
411.045	1079.42
411.422	1099.08
411.8	1132.75
412.178	1133.43
412.555	1144.28
412.933	1193.09
413.31	1186.76
413.687	1211.17
414.065	1211.39
414.442	1259.98
414.819	1267.66
415.197	1236.93
415.574	1291.39
415.951	1283.03
416.328	1331.62
416.705	1332.52
417.082	1349.24
417.46	1364.61
417.837	1390.37
418.214	1401.22
418.591	1393.76
418.967	1419.75
419.344	1429.24
419.721	1461.78
420.098	1467.89
420.475	1486.87
420.852	1494.78
421.228	1549.24
421.605	1552.63
421.982	1548.56
422.358	1563.7
422.735	1572.52
423.111	1606.41
423.488	1647.77
423.864	1623.81
424.241	1689.12
424.617	1679.4
424.994	1703.13
425.37	1717.37
425.746	1763.7
426.123	1778.61
426.499	1763.24
426.875	1815.9
427.251	1825.16
427.627	1874.43
428.003	1861.55
428.379	1886.41
428.756	1925.73
429.132	1958.04
429.507	1986.97
429.883	2018.83
430.259	2033.07
430.635	2033.97
431.011	2073.29
431.387	2134.31
431.763	2144.7
432.138	2176.12
432.514	2236.9
432.89	2206.62
433.265	2261.08
433.641	2294.98
434.016	2339.27
434.392	2367.07
434.767	2405.71
435.143	2417.01
435.518	2443.9
435.894	2454.75
436.269	2493.62
436.644	2520.96
437.02	2552.15
437.395	2538.14
437.77	2644.35
438.145	2672.15
438.52	2687.51
438.895	2680.28
439.271	2688.64
439.646	2770.68
440.021	2800.05
440.395	2797.12
440.77	2825.82
441.145	2823.56
441.52	2890.45
441.895	2892.48
442.27	2909.66
442.645	2925.02
443.019	2963.21
443.394	2984
443.769	3019.71
444.143	3014.96
444.518	3080.95
444.892	3035.3
445.267	3108.52
445.641	3132.02
446.016	3148.97
446.39	3143.77
446.764	3213.83
447.139	3196.2
447.513	3261.74
447.887	3260.15
448.262	3304.45
448.636	3287.72
449.01	3380.83
449.384	3358.68
449.758	3377.44
450.132	3400.49
450.506	3491.79
450.88	3504.44
451.254	3499.02
451.628	3560.49
452.002	3581.73
452.376	3648.62
452.75	3682.52
453.123	3710.09
453.497	3759.12
453.871	3750.54
454.244	3826.24
454.618	3924.09
454.992	3948.5
455.365	3981.72
455.739	4090.42
456.112	4105.56
456.486	4171.09
456.859	4199.56
457.232	4279.34
457.606	4254.03
457.979	4352.33
458.352	4490.63
458.725	4489.73
459.099	4530.18
459.472	4607.46
459.845	4670.29
460.218	4721.36
460.591	4757.52
460.964	4710.51
461.337	4896.72
461.71	4965.19
462.083	5005.87
462.456	5053.1
462.829	5039.09
463.201	5172.42
463.574	5158.86
463.947	5281.34
464.32	5366.09
464.692	5484.28
465.065	5479.53
465.438	5568.12
465.81	5667.1
466.183	5674.1
466.555	5852.4
466.928	5908.45
467.3	5868.22
467.672	6002.46
468.045	6152.51
468.417	6133.75
468.789	6264.37
469.161	6321.32
469.534	6455.55
469.906	6584.13
470.278	6598.15
470.65	6707.3
471.022	6829.55
471.394	6952.94
471.766	7039.04
472.138	7092.82
472.51	7277.9
472.882	7387.96
473.253	7535.07
473.625	7624.33
473.997	7821.62
474.369	7843.76
474.74	7974.15
475.112	8118.78
475.484	8254.15
475.855	8358.78
476.227	8444.65
476.598	8676.74
476.97	8711.54
477.341	8890.51
477.713	9036.27
478.084	9200.56
478.455	9392.2
478.827	9520.33
479.198	9764.39
479.569	9817.27
479.94	10126.41
480.311	10193.53
480.682	10473.98
481.053	10642.56
481.424	10923
481.795	10996.22
482.166	11102.43
482.537	11285.25
482.908	11510.78
483.279	11680.05
483.65	11922.98
484.021	12079.36
484.391	12162.07
484.762	12336.07
485.133	12561.83
485.503	12703.75
485.874	12958.2
486.244	13078.65
486.615	13325.88
486.985	13532.88
487.356	13794.34
487.726	13861.23
488.097	14170.6
488.467	14253.54
488.837	14666.41
489.207	14811.04
489.578	14949.79
489.948	15090.58
490.318	15375.77
490.688	15442.66
491.058	15645.14
491.428	15851.46
491.798	16147.95
492.168	16398.79
492.538	16479.02
492.908	16649.18
493.278	16885.33
493.648	17019.11
494.017	17149.73
494.387	17453.45
494.757	17533
495.126	17665.43
495.496	17788.36
495.866	17874.69
496.235	18202.59
496.605	18316.48
496.974	18420.66
497.344	18639.64
497.713	18737.49
498.082	18941.78
498.452	19049.8
498.821	19142.45
499.19	19266.06
499.559	19510.8
499.928	19715.09
500.298	19719.16
500.667	20017
501.036	19941.75
501.405	20285.92
501.774	20330.89
502.143	20470.78
502.512	20565.01
502.88	20841.16
503.249	20784.67
503.618	21019.24
503.987	21186.46
504.356	21409.06
504.724	21564.53
505.093	21580.12
505.462	21656.96
505.83	21972.2
506.199	22051.52
506.567	22420.1
506.936	22420.33
507.304	22685.41
507.672	22816.25
508.041	22962.24
508.409	23090.82
508.777	23273.64
509.145	23426.18
509.514	23502.33
509.882	23752.95
510.25	23784.13
510.618	23981.64
510.986	24184.35
511.354	24421.41
511.722	24520.61
512.09	24829.3
512.458	24782.07
512.826	24973.71
513.193	25294.83
513.561	25321.27
513.929	25654.14
514.297	25807.36
514.664	26103.17
515.032	26296.16
515.4	26450.28
515.767	26491.41
516.135	26640.78
516.502	26616.38
516.869	27142.92
517.237	27318.5
517.604	27140.88
517.972	27539.97
518.339	27808.66
518.706	27845.04
519.073	28057.47
519.44	28417.46
519.808	28576.32
520.175	28588.3
520.542	28916.43
520.909	29062.19
521.276	29172.69
521.643	29517.54
522.009	29652.45
522.376	29925.67
522.743	30069.39
523.11	30447.91
523.477	30602.49
523.843	30898.3
524.21	31173.77
524.577	31404.73
524.943	31490.6
525.31	31704.38
525.676	32011.71
526.043	32140.52
526.409	32385.49
526.776	32678.59
527.142	32793.84
527.508	33140.5
527.874	33342.08
528.241	33462.52
528.607	33524.22
528.973	33882.63
529.339	33912.46
529.705	34260.02
530.071	34584.08
530.437	34643.28
530.803	34927.12
531.169	35066.78
531.535	35073.78
531.901	35398.07
532.267	35469.03
532.632	35761.9
532.998	35946.07
533.364	36127.54
533.73	36136.58
534.095	36538.38
534.461	36539.28
534.826	36812.94
535.192	36936.33
535.557	37093.62
535.923	37112.82
536.288	37270.79
536.653	37435.53
537.019	37450.44
537.384	37593.49
537.749	37929.07
538.114	37920.94
538.479	37987.83
538.845	38174.49
539.21	38308.27
539.575	38457.65
539.94	38600.24
540.305	39008.37
540.67	38747.36
541.034	39131.98
541.399	39288.13
541.764	39291.3
542.129	39429.82
542.494	39656.94
542.858	39786.88
543.223	39898.97
543.587	40086.53
543.952	40093.31
544.316	40403.13
544.681	40242.46
545.045	40602
545.41	40734.42
545.774	40913.4
546.138	41037.24
546.503	41061.87
546.867	41159.27
547.231	41559.71
547.595	41707.28
547.959	41743.21
548.324	41848.52
548.688	42015.29
549.052	42320.14
549.416	42235.4
549.779	42412.35
550.143	42488.05
550.507	42830.19
550.871	42861.15
551.235	43037.64
551.599	43313.56
551.962	43475.59
552.326	43592.43
552.689	43722.37
553.053	43731.63
553.417	43975.02
553.78	44405.51
554.143	44327.55
554.507	44540.2
554.87	44678.27
555.234	45106.29
555.597	45015.44
555.96	45234.19
556.323	45368.43
556.686	45570.23
557.05	45834.18
557.413	46021.97
557.776	46030.33
558.139	46395.07
558.502	46431.45
558.865	46612.23
559.228	46939.91
559.59	47015.16
559.953	47144.88
560.316	47329.28
560.679	47631.64
561.041	47778.08
561.404	47882.48
561.767	48262.13
562.129	48126.55
562.492	48679.3
562.854	48637.72
563.217	48698.96
563.579	48731.28
563.941	49103.47
564.304	49269.34
564.666	49481.99
565.028	49467.53
565.39	49716.79
565.753	49861.87
566.115	50004.69
566.477	50053.95
566.839	50163.55
567.201	50462.3
567.563	50498.01
567.925	50720.38
568.287	50691.9
568.648	50784.78
569.01	50994.49
569.372	51252.56
569.734	51174.37
570.095	51355.16
570.457	51414.82
570.819	51566.68
571.18	51576.4
571.542	51867.69
571.903	51813.23
572.265	51926.9
572.626	51956.73
572.987	52062.71
573.349	52189.04
573.71	52261.13
574.071	52344.29
574.432	52523.49
574.794	52709.93
575.155	52643.94
575.516	52607.33
575.877	52729.59
576.238	52833.54
576.599	52982.46
576.96	52929.13
577.32	52953.54
577.681	53096.58
578.042	53202.34
578.403	53206.41
578.763	53188.33
579.124	53371.61
579.485	53408.89
579.845	53500.42
580.206	53400.08
580.566	53480.3
580.927	53445.5
581.287	53489.34
581.648	53432.62
582.008	53638.94
582.368	53572.96
582.728	53642.56
583.089	53571.6
583.449	53588.1
583.809	53662.67
584.169	53601.66
584.529	53652.05
584.889	53849.33
585.249	53657.7
585.609	53601.66
585.969	53831.71
586.329	53722.78
586.688	53823.34
587.048	53724.59
587.408	53712.61
587.768	53791.93
588.127	53769.11
588.487	53766.4
588.846	53918.94
589.206	53760.75
589.565	53809.56
589.925	53956.67
590.284	53900.63
590.643	53882.78
591.003	53920.52
591.362	53968.65
591.721	53950.12
592.08	53913.51
592.44	53984.92
592.799	53972.04
593.158	53902.89
593.517	53918.48
593.876	54050.68
594.235	53831.03
594.593	53881.87
594.952	54031.25
595.311	53922.55
595.67	53952.38
596.029	54189.66
596.387	54141.98
596.746	54247.74
597.104	54124.58
597.463	54052.27
597.822	54239.38
598.18	54076.22
598.538	54050.23
598.897	54321.86
599.255	53953.74
599.613	54356.66
599.972	54167.97
600.33	54323.22
600.688	54181.08
601.046	54397.11
601.404	54399.15
601.762	54446.15
602.12	54475.08
602.478	54403.67
602.836	54521.18
603.194	54381.3
603.552	54459.71
603.91	54353.27
604.268	54521.86
604.625	54402.54
604.983	54519.82
605.341	54412.93
605.698	54593.27
606.056	54621.97
606.413	54623.55
606.771	54740.16
607.128	54669.88
607.485	54640.05
607.843	54672.36
608.2	54805.24
608.557	54877.1
608.914	54822.64
609.272	54980.38
609.629	54960.72
609.986	55056.98
610.343	54880.49
610.7	55063.54
611.057	55115.29
611.414	55030.09
611.771	55087.27
612.127	55173.82
612.484	55165.91
612.841	55308.28
613.198	55219.47
613.554	55188.28
613.911	55404.77
614.267	55287.26
614.624	55386.24
614.98	55425.11
615.337	55565.9
615.693	55463.53
616.05	55454.71
616.406	55665.33
616.762	55527.48
617.118	55536.07
617.475	55495.62
617.831	55676.63
618.187	55624.88
618.543	55706.01
618.899	55842.73
619.255	55779.9
619.611	55707.36
619.967	55876.4
620.323	55932.89
620.678	55840.92
621.034	55773.58
621.39	55797.3
621.746	55710.07
622.101	55992.33
622.457	55815.16
622.812	55850.86
623.168	55916.17
623.523	55892.89
623.879	56057.64
624.234	55805.67
624.589	55948.26
624.945	55930.86
625.3	55970.86
625.655	55853.57
626.01	55943.29
626.365	55988.03
626.72	55897.64
627.075	55932.67
627.43	55905.55
627.785	55762.05
628.14	55873.69
628.495	55861.48
628.85	55826.23
629.205	55767.7
629.559	55960.46
629.914	55871.65
630.269	55865.55
630.623	55696.06
630.978	55659.45
631.332	55755.05
631.687	55819
632.041	55688.83
632.396	55784.2
632.75	55569.06
633.104	55723.63
633.459	55513.47
633.813	55696.52
634.167	55546.69
634.521	55521.61
634.875	55523.86
635.229	55481.83
635.583	55397.09
635.937	55370.65
636.291	55372.46
636.645	55392.57
636.999	55182.63
637.352	55361.84
637.706	55259.01
638.06	55269.41
638.413	55184.66
638.767	55086.36
639.121	55136.53
639.474	55026.93
639.828	55128.62
640.181	55179.47
640.534	55012.92
640.888	54913.94
641.241	54770.21
641.594	54895.41
641.947	54952.58
642.301	54851.57
642.654	54935.18
643.007	54782.64
643.36	54812.02
643.713	54844.33
644.066	54854.73
644.419	54671.68
644.771	54475.08
645.124	54228.08
645.477	54148.08
645.83	53955.32
646.182	53866.28
646.535	53742.89
646.888	53811.59
647.24	53723.91
647.593	53811.37
647.945	53720.3
648.298	53620.41
648.65	53491.6
649.002	53470.13
649.355	53656.57
649.707	53542
650.059	53614.08
650.411	53993.28
650.763	53999.61
651.115	54285.03
651.467	54225.14
651.819	54151.25
652.171	54048.2
652.523	54075.54
652.875	54081.19
653.227	53895.89
653.578	54154.64
653.93	54050.01
654.282	53893.63
654.633	53875.32
654.985	53915.55
655.337	53908.09
655.688	53872.61
656.039	53932.72
656.391	53665.83
656.742	53804.14
657.094	53770.01
657.445	53893.17
657.796	53797.81
658.147	53698.6
658.498	53645.95
658.849	53737.25
659.2	53728.88
659.551	53640.52
659.902	53672.84
660.253	53709.45
660.604	53717.58
660.955	53556.23
661.306	53680.52
661.656	53558.04
662.007	53567.08
662.358	53596.46
662.708	53474.2
663.059	53524.6
663.409	53294.55
663.76	53431.04
664.11	53520.08
664.461	53554.2
664.811	53457.25
665.161	53464.03
665.511	53354.2
665.862	53391.27
666.212	53441.43
666.562	53383.58
666.912	53357.82
667.262	53275.11
667.612	53276.69
667.962	53346.07
668.312	53281.66
668.662	53419.74
669.011	53260.2
669.361	53191.5
669.711	53234.89
670.06	53136.36
670.41	53088.22
670.76	53090.71
671.109	53160.76
671.459	53141.1
671.808	53139.52
672.157	53197.15
672.507	52968.68
672.856	52956.47
673.205	52982.01
673.554	53069.92
673.904	52928.45
674.253	53086.64
674.602	52853.43
674.951	52453.89
675.3	52254.35
675.649	52791.06
675.998	52643.49
676.346	52742.92
676.695	52833.99
677.044	52582.93
677.393	52650.49
677.741	52606.65
678.09	52558.07
678.438	52406.88
678.787	52561.46
679.135	52577.28
679.484	52268.13
679.832	52502.48
680.181	52240.79
680.529	52439.88
680.877	52228.81
681.225	52249.6
681.573	52390.16
681.922	52136.38
682.27	52027.69
682.618	51979.33
682.966	51967.8
683.314	52076.95
683.661	51900.01
684.009	51719.45
684.357	51749.27
684.705	51633.57
685.053	51693.91
685.4	51629.96
685.748	51414.37
686.095	51481.26
686.443	51231.77
686.79	51286.69
687.138	51314.03
687.485	51235.62
687.832	51108.61
688.18	51165.34
688.527	50963.98
688.874	50956.3
689.221	50779.36
689.568	50734.39
689.915	50611.23
690.262	50656.42
690.609	50488.29
690.956	50475.64
691.303	50300.5
691.65	50165.36
691.997	50164.23
692.344	49947.97
692.69	49894.18
693.037	49858.25
693.383	49594.76
693.73	49756.33
694.077	49518.37
694.423	49564.7
694.769	49363.35
695.116	49338.26
695.462	49268.89
695.808	49124.71
696.155	49143.69
696.501	48954.77
696.847	48932.63
697.193	48613.54
697.539	48707.32
697.885	48472.98
698.231	48341.23
698.577	48364.51
698.923	48305.52
699.269	48154.12
699.614	47823.05
699.96	47854.24
700.306	47920.68
700.651	47795.03
700.997	47530.4
701.342	47468.71
701.688	47446.56
702.033	47298.54
702.379	47270.07
702.724	47162.5
703.069	47328.37
703.415	46925.45
703.76	46862.85
704.105	46774.04
704.45	46767.26
704.795	46548.51
705.14	46329.53
705.485	46434.61
705.83	46146.48
706.175	46080.05
706.52	46040.72
706.865	46045.47
707.209	45801.86
707.554	45715.76
707.899	45919.15
708.243	45645.03
708.588	45626.72
708.932	45337.69
709.277	45333.17
709.621	45405.03
709.966	45052.73
710.31	45254.76
710.654	44789.46
710.998	44888.66
711.342	44983.35
711.687	44752.17
712.031	44600.54
712.375	44537.94
712.719	44647.77
713.063	44483.48
713.407	44615.68
713.75	44377.72
714.094	44218.85
714.438	44032.64
714.782	44143.37
715.125	43994.45
715.469	44111.74
715.812	43654.12
716.156	43650.5
716.499	43593.33
716.843	43702.48
717.186	43340.23
717.53	43637.17
717.873	43485.76
718.216	43292.1
718.559	43182.27
718.902	42950.64
719.246	43051.42
719.589	43002.61
719.932	42836.29
720.275	42883.07
720.617	42817.08
720.96	42600.59
721.303	42772.11
721.646	42713.35
721.989	42399.92
722.331	42642.85
722.674	42465.23
723.016	42477.65
723.359	42337.77
723.701	42327.15
724.044	42153.6
724.386	41932.13
724.729	42100.49
725.071	41966.48
725.413	41985.69
725.755	41757
726.097	41708.18
726.439	41443.56
726.782	41571.69
727.124	41684.23
727.465	41448.98
727.807	41325.37
728.149	41342.99
728.491	41258.93
728.833	41272.49
729.175	41158.14
729.516	40997.47
729.858	41125.83
730.199	41003.79
730.541	40953.17
730.882	40850.13
731.224	40986.85
731.565	40690.13
731.906	40745.5
732.248	40719.28
732.589	40598.38
732.93	40441.78
733.271	40440.65
733.612	40465.73
733.953	40527.2
734.294	40261.22
734.635	40152.74
734.976	40242.23
735.317	40024.84
735.658	40171.73
735.999	39997.04
736.339	40049.7
736.68	40146.87
737.021	39941.9
737.361	39658.97
737.702	40007.89
738.042	39686.77
738.383	39624.4
738.723	39743.04
739.063	39427.79
739.404	39579.43
739.744	39316.16
740.084	39221.69
740.424	39185.99
740.764	39215.14
741.104	39382.82
741.444	38960.46
741.784	38888.14
742.124	39036.16
742.464	38881.14
742.804	39034.13
743.143	38786.45
743.483	38820.58
743.823	38634.14
744.162	38543.29
744.502	38745.78
744.841	38465.78
745.181	38536.29
745.52	38395.28
745.86	38356.41
746.199	38318.22
746.538	38259.01
746.877	38276.86
747.216	38271.89
747.556	38056.98
747.895	38095.62
748.234	37950.99
748.573	37878.68
748.911	37723.43
749.25	37655.86
749.589	37562.98
749.928	37452.93
750.267	37642.98
750.605	37369.77
750.944	37421.06
751.283	37384
751.621	37404.79
751.96	37120.28
752.298	37055.65
752.636	37010.91
752.975	36888.42
