Data from White_paper_FLMS001491_080.txt Node
Date: Tue Feb 07 10:35:33 GMT 2017
User: dcchb
Spectrometer: FLMS00149
Trigger mode: 0
Integration Time (sec): 2.000000E-2
Scans to average: 10
Electric dark correction enabled: true
Nonlinearity correction enabled: false
Boxcar width: 0
XAxis mode: Wavelengths
Number of Pixels in Spectrum: 2048
>>>>>Begin Spectral Data<<<<<
341.393	-13.95
341.776	-13.95
342.16	-13.95
342.543	-50.34
342.927	-49.21
343.31	-67.74
343.693	-59.38
344.077	-69.55
344.46	-58.02
344.843	-64.57
345.226	-35.65
345.61	-21.41
345.993	-13.73
346.376	-20.06
346.759	29.21
347.142	10.9
347.525	49.09
347.908	64.01
348.291	69.89
348.674	97.68
349.057	89.32
349.44	134.74
349.823	115.31
350.206	163.44
350.588	231.46
350.971	226.94
351.354	249.54
351.737	266.49
352.119	266.04
352.502	272.82
352.884	299.26
353.267	305.13
353.65	295.87
354.032	312.14
354.414	338.13
354.797	336.77
355.179	353.72
355.562	367.05
355.944	357.79
356.326	357.34
356.709	381.52
357.091	374.28
357.473	384
357.855	357.56
358.238	380.84
358.62	355.53
359.002	368.63
359.384	361.4
359.766	389.2
360.148	376.54
360.53	362.08
360.912	362.53
361.294	361.18
361.676	364.34
362.057	352.82
362.439	375.64
362.821	369.54
363.203	366.6
363.584	356.88
363.966	363.21
364.348	356.21
364.729	344.68
365.111	362.31
365.493	372.93
365.874	353.72
366.256	357.79
366.637	347.17
367.019	338.35
367.4	362.98
367.781	363.21
368.163	358.47
368.544	383.32
368.925	359.82
369.306	375.87
369.688	348.75
370.069	363.21
370.45	371.57
370.831	362.76
371.212	355.75
371.593	377.9
371.974	390.1
372.355	372.25
372.736	376.77
373.117	361.85
373.498	374.06
373.879	370.44
374.26	382.65
374.641	369.99
375.021	368.63
375.402	365.47
375.783	381.97
376.163	376.09
376.544	391.46
376.925	394.85
377.305	367.05
377.686	372.02
378.066	382.87
378.447	402.76
378.827	389.2
379.208	414.73
379.588	391.01
379.968	414.73
380.349	427.62
380.729	428.97
381.109	408.18
381.489	412.25
381.87	414.73
382.25	430.1
382.63	424.23
383.01	430.55
383.39	442.3
383.77	431.46
384.15	457.9
384.53	432.14
384.91	456.54
385.29	441.17
385.67	457.22
386.049	449.99
386.429	472.36
386.809	448.18
387.189	450.44
387.568	458.35
387.948	463.1
388.328	454.73
388.707	492.7
389.087	475.75
389.466	499.48
389.846	494.73
390.225	502.19
390.605	501.74
390.984	519.82
391.363	532.7
391.743	534.51
392.122	536.31
392.501	534.73
392.881	519.36
393.26	551.45
393.639	526.37
394.018	519.82
394.397	558.23
394.776	559.82
395.155	561.62
395.534	566.14
395.913	538.12
396.292	581.96
396.671	580.38
397.05	579.25
397.429	584.67
397.808	591.91
398.186	588.52
398.565	611.11
398.944	623.09
399.323	627.38
399.701	622.86
400.08	640.04
400.458	637.33
400.837	661.28
401.215	665.8
401.594	662.64
401.972	661.73
402.351	686.37
402.729	690.89
403.107	725.24
403.486	713.71
403.864	726.37
404.242	725.69
404.62	748.74
404.999	742.64
405.377	788.96
405.755	768.17
406.133	800.04
406.511	854.27
406.889	819.02
407.267	860.82
407.645	892.46
408.023	877.1
408.401	898.56
408.779	923.2
409.156	977.88
409.534	963.42
409.912	996.87
410.29	1043.87
410.667	1072.12
411.045	1058.11
411.422	1120.48
411.8	1145.79
412.178	1147.6
412.555	1210.65
412.933	1199.57
413.31	1255.84
413.687	1285.22
414.065	1292.9
414.442	1302.85
414.819	1355.95
415.197	1373.58
415.574	1408.83
415.951	1458.1
416.328	1462.16
416.705	1496.51
417.082	1473.24
417.46	1532.45
417.837	1567.92
418.214	1596.17
418.591	1598.88
418.967	1624.42
419.344	1670.07
419.721	1703.06
420.098	1669.39
420.475	1745.32
420.852	1754.59
421.228	1805.88
421.605	1836.84
421.982	1866
422.358	1877.52
422.735	1868.26
423.111	1916.84
423.488	1943.96
423.864	1928.59
424.241	2013.34
424.617	2034.58
424.994	2021.02
425.37	2090.85
425.746	2096.27
426.123	2119.55
426.499	2139.89
426.875	2180.56
427.251	2191.41
427.627	2262.6
428.003	2304.63
428.379	2349.37
428.756	2363.84
429.132	2387.56
429.507	2450.84
429.883	2457.39
430.259	2468.24
430.635	2595.69
431.011	2578.97
431.387	2623.26
431.763	2668.23
432.138	2710.04
432.514	2761.57
432.89	2737.16
433.265	2806.76
433.641	2885.86
434.016	2877.27
434.392	2929.92
434.767	3023.71
435.143	3008.34
435.518	3060.99
435.894	3100.99
436.269	3097.83
436.644	3178.73
437.02	3190.26
437.395	3205.85
437.77	3275.45
438.145	3328.56
438.52	3344.15
438.895	3387.54
439.271	3441.55
439.646	3488.1
440.021	3485.61
440.395	3509.79
440.77	3488.55
441.145	3570.13
441.52	3590.24
441.895	3601.54
442.27	3625.05
442.645	3646.97
443.019	3719.51
443.394	3710.47
443.769	3744.82
444.143	3742.56
444.518	3793.18
444.892	3804.25
445.267	3819.62
445.641	3827.98
446.016	3870.92
446.39	3892.61
446.764	3958.14
447.139	3944.13
447.513	3961.76
447.887	4028.43
448.262	4019.16
448.636	4060.74
449.01	4077.92
449.384	4155.2
449.758	4150.23
450.132	4218.02
450.506	4237.23
450.88	4266.61
451.254	4281.3
451.628	4327.85
452.002	4375.99
452.376	4394.29
452.75	4470.22
453.123	4472.71
453.497	4539.6
453.871	4558.81
454.244	4654.4
454.618	4741.17
454.992	4764.45
455.365	4767.61
455.739	4866.6
456.112	4903.43
456.486	4960.6
456.859	4983.65
457.232	5133.03
457.606	5080.37
457.979	5141.84
458.352	5268.39
458.725	5333.7
459.099	5381.16
459.472	5486.24
459.845	5539.35
460.218	5592.45
460.591	5645.78
460.964	5656.63
461.337	5766.01
461.71	5869.28
462.083	5956.28
462.456	6033.57
462.829	6001.03
463.201	6125.77
463.574	6134.13
463.947	6225.88
464.32	6365.99
464.692	6451.64
465.065	6491.86
465.438	6566.44
465.81	6649.15
466.183	6739.54
466.555	6918.74
466.928	6857.73
467.3	6882.14
467.672	7042.36
468.045	7189.7
468.417	7266.76
468.789	7306.31
469.161	7385.17
469.534	7536.81
469.906	7660.87
470.278	7786.29
470.65	7839.62
471.022	8001.65
471.394	8165.04
471.766	8171.59
472.138	8319.39
472.51	8513.73
472.882	8648.42
473.253	8629.43
473.625	8784.91
473.997	8995.3
474.369	9112.81
474.74	9140.16
475.112	9309.64
475.484	9443.42
475.855	9608.39
476.227	9794.15
476.598	10052.45
476.97	10073.69
477.341	10333.34
477.713	10415.6
478.084	10510.97
478.455	10824.18
478.827	10886.78
479.198	11151.18
479.569	11225.3
479.94	11605.63
480.311	11725.17
480.682	11918.39
481.053	12185.72
481.424	12358.83
481.795	12398.6
482.166	12583.23
482.537	12883.33
482.908	13061.63
483.279	13198.81
483.65	13377.78
484.021	13758.56
484.391	13870.65
484.762	13926.92
485.133	14078.78
485.503	14319.91
485.874	14563.74
486.244	14711.08
486.615	14986.1
486.985	15190.17
487.356	15436.49
487.726	15615.01
488.097	15845.97
488.467	15899.53
488.837	16190.37
489.207	16436.23
489.578	16571.15
489.948	16882.78
490.318	17029.67
490.688	17099.72
491.058	17387.4
491.428	17544.68
491.798	17725.92
492.168	18148.51
492.538	18232.8
492.908	18333.81
493.278	18559.57
493.648	18598.66
494.017	18993.68
494.387	19060.57
494.757	19171.76
495.126	19378.3
495.496	19455.59
495.866	19596.38
496.235	19828.46
496.605	19952.07
496.974	20057.16
497.344	20329.69
497.713	20454.89
498.082	20445.39
498.452	20739.62
498.821	20852.84
499.19	20920.64
499.559	21161.53
499.928	21345.03
500.298	21360.17
500.667	21512.26
501.036	21565.82
501.405	21916.77
501.774	21865.7
502.143	22077.44
502.512	22192.02
502.88	22416.42
503.249	22413.7
503.618	22524.44
503.987	22637.2
504.356	22791.55
504.724	22928.72
505.093	23083.74
505.462	23265.66
505.83	23314.25
506.199	23566.67
506.567	23830.62
506.936	23815.48
507.304	24100.21
507.672	24276.03
508.041	24314.67
508.409	24468.11
508.777	24688.45
509.145	24957.59
509.514	24944.94
509.882	25091.6
510.25	25158.49
510.618	25345.15
510.986	25443.46
511.354	25642.55
511.722	25834.86
512.09	26032.82
512.458	26193.49
512.826	26333.83
513.193	26585.8
513.561	26528.85
513.929	26769.75
514.297	27077.31
514.664	27197.31
515.032	27307.59
515.4	27614.7
515.767	27750.74
516.135	27838.42
516.502	27696.28
516.869	28162.93
517.237	28229.82
517.604	28172.2
517.972	28680.66
518.339	28792.07
518.706	28884.27
519.073	28956.13
519.44	29242.9
519.808	29550.01
520.175	29559.28
520.542	29863
520.909	30019.83
521.276	30060.74
521.643	30511.57
522.009	30595.41
522.376	30827.72
522.743	30936.87
523.11	31263.64
523.477	31583.18
523.843	31754.7
524.21	32035.82
524.577	32317.85
524.943	32205.09
525.31	32619.54
525.676	32847.33
526.043	33012.97
526.409	33091.39
526.776	33481.66
527.142	33577.03
527.508	33769.11
527.874	34144.47
528.241	34275.77
528.607	34433.28
528.973	34727.28
529.339	34722.76
529.705	35127.95
530.071	35320.26
530.437	35416.3
530.803	35677.54
531.169	35998.21
531.535	35927.7
531.901	36131.54
532.267	36250.4
532.632	36494.01
532.998	36635.93
533.364	36967.22
533.73	36894.91
534.095	37219.42
534.461	37444.27
534.826	37377.15
535.192	37608.33
535.557	37896.46
535.923	37939.4
536.288	38122.22
536.653	38282.89
537.019	38293.74
537.384	38405.6
537.749	38662.32
538.114	38664.12
538.479	38837
538.845	38997.22
539.21	39040.16
539.575	39204.45
539.94	39333.26
540.305	39577.55
540.67	39623.65
541.034	39598.79
541.399	39932.34
541.764	39919.68
542.129	40067.93
542.494	40271.54
542.858	40352.22
543.223	40582.49
543.587	40837.85
543.952	40860.23
544.316	40970.5
544.681	40925.31
545.045	41298.18
545.41	41510.15
545.774	41537.5
546.138	41619.75
546.503	41626.08
546.867	41820.65
547.231	42097.25
547.595	42156.46
547.959	42416.12
548.324	42371.6
548.688	42485.27
549.052	42564.81
549.416	42628.77
549.779	42706.05
550.143	42790.12
550.507	43274.85
550.871	43218.58
551.235	43339.03
551.599	43632.58
551.962	43648.85
552.326	43767.04
552.689	44047.71
553.053	43934.04
553.417	43959.8
553.78	44524.08
554.143	44340.59
554.507	44498.77
554.87	44761.37
555.234	45149.6
555.597	44932.66
555.96	45112.99
556.323	45197.29
556.686	45369.26
557.05	45550.72
557.413	45649.7
557.776	45752.98
558.139	46124.49
558.502	46222.12
558.865	46350.25
559.228	46590.02
559.59	46721.54
559.953	46779.17
560.316	47162.88
560.679	47028.42
561.041	47400.62
561.404	47497.56
561.767	47768.07
562.129	47628.18
562.492	47994.73
562.854	48026.14
563.217	48105.23
563.579	48232.69
563.941	48553.58
564.304	48611.66
564.666	48907.02
565.028	49015.26
565.39	48996.96
565.753	49312.43
566.115	49321.25
566.477	49706.77
566.839	49693.21
567.201	49882.36
567.563	49892.76
567.925	50170.71
568.287	50165.52
568.648	50237.15
569.01	50544.04
569.372	50664.49
569.734	50609.8
570.095	50846.18
570.457	51097.24
570.819	51039.84
571.18	51111.93
571.542	51328.42
571.903	51430.34
572.265	51487.52
572.626	51599.83
572.987	51729.77
573.349	51812.93
573.71	51831.69
574.071	52044.56
574.432	52088.63
574.794	52300.6
575.155	52336.76
575.516	52231
575.877	52401.84
576.238	52415.85
576.599	52668.73
576.96	52637.99
577.32	52707.15
577.681	52814.04
578.042	52922.51
578.403	52876.86
578.763	52941.04
579.124	52957.08
579.485	53204.53
579.845	53267.13
580.206	53229.62
580.566	53216.74
580.927	53221.71
581.287	53398.65
581.648	53281.14
582.008	53445.43
582.368	53408.6
582.728	53444.07
583.089	53487.92
583.449	53510.29
583.809	53601.13
584.169	53626.9
584.529	53628.48
584.889	53847.23
585.249	53752.32
585.609	53604.52
585.969	53783.95
586.329	53682.71
586.688	53740.34
587.048	53694.92
587.408	53715.48
587.768	53787.57
588.127	53724.52
588.487	53710.51
588.846	53998.64
589.206	53802.71
589.565	53828.25
589.925	54013.33
590.284	53943.72
590.643	53996.83
591.003	54066.21
591.362	54125.41
591.721	54145.98
592.08	54045.64
592.44	54131.51
592.799	54204.28
593.158	54091.29
593.517	54157.05
593.876	54210.83
594.235	54192.3
594.593	54193.89
594.952	54265.52
595.311	54155.92
595.67	54197.05
596.029	54368.34
596.387	54459.87
596.746	54457.61
597.104	54368.12
597.463	54259.87
597.822	54445.18
598.18	54381.23
598.538	54330.15
598.897	54583.25
599.255	54237.5
599.613	54728.33
599.972	54530.15
600.33	54667.09
600.688	54511.39
601.046	54689.92
601.404	54818.5
601.762	54594.33
602.12	54775.11
602.478	54679.3
602.836	54838.61
603.194	54599.75
603.552	54726.53
603.91	54686.53
604.268	54753.87
604.625	54708.67
604.983	54852.4
605.341	54757.94
605.698	54816.69
606.056	54986.86
606.413	54923.36
606.771	54964.04
607.128	55057.37
607.485	54870.7
607.843	54952.28
608.2	55098.27
608.557	55103.01
608.914	55115.44
609.272	55302.78
609.629	55246.97
609.986	55372.16
610.343	55224.59
610.7	55430.01
611.057	55289.22
611.414	55341.43
611.771	55325.61
612.127	55434.31
612.484	55434.08
612.841	55514.3
613.198	55323.57
613.554	55348.43
613.911	55587.3
614.267	55537.35
614.624	55464.59
614.98	55579.39
615.337	55748.2
615.693	55611.48
616.05	55590.01
616.406	55751.13
616.762	55712.72
617.118	55637.92
617.475	55659.61
617.831	55799.95
618.187	55789.1
618.543	55707.74
618.899	55896.89
619.255	55893.73
619.611	55851.02
619.967	55932.37
620.323	55928.76
620.678	55944.8
621.034	55810.79
621.39	55887.4
621.746	55779.83
622.101	56114.51
622.457	55905.25
622.812	55967.4
623.168	56040.62
623.523	55969.43
623.879	56072.71
624.234	55938.92
624.589	55973.5
624.945	56069.32
625.3	56009.88
625.655	55974.4
626.01	56056.44
626.365	56118.81
626.72	55994.97
627.075	55978.25
627.43	56020.96
627.785	55925.37
628.14	56051.46
628.495	56056.44
628.85	56081.52
629.205	55868.87
629.559	56117.23
629.914	55989.77
630.269	56003.1
630.623	55930.56
630.978	55884.24
631.332	55950.45
631.687	56072.93
632.041	55903.9
632.396	55999.71
632.75	55854.86
633.104	55905.25
633.459	55804.46
633.813	55783.45
634.167	55822.54
634.521	55796.1
634.875	55891.69
635.229	55785.26
635.583	55615.54
635.937	55671.14
636.291	55728.31
636.645	55717.01
636.999	55680.17
637.352	55725.6
637.706	55528.31
638.06	55653.06
638.413	55567.63
638.767	55567.41
639.121	55658.71
639.474	55454.64
639.828	55507.3
640.181	55482.21
640.534	55524.92
640.888	55430.24
641.241	55332.61
641.594	55352.05
641.947	55494.42
642.301	55363.57
642.654	55391.59
643.007	55354.53
643.36	55314.31
643.713	55327.19
644.066	55452.84
644.419	55285.83
644.771	54988.22
645.124	54775.34
645.477	54752.52
645.83	54607.66
646.182	54501.67
646.535	54429.81
646.888	54478.17
647.24	54335.12
647.593	54540.32
647.945	54365.18
648.298	54356.14
648.65	54219.2
649.002	54189.59
649.355	54324.05
649.707	54283.6
650.059	54436.14
650.411	54693.76
650.763	54798.62
651.115	55105.27
651.467	54872.29
651.819	54948.67
652.171	54901.89
652.523	54853.98
652.875	54946.18
653.227	54719.3
653.578	54910.03
653.93	54894.43
654.282	54805.62
654.633	54727.66
654.985	54745.28
655.337	54733.53
655.688	54743.7
656.039	54884.94
656.391	54520.2
656.742	54605.17
657.094	54661.44
657.445	54803.59
657.796	54610.6
658.147	54511.84
658.498	54599.75
658.849	54648.11
659.2	54593.2
659.551	54432.75
659.902	54596.36
660.253	54502.13
660.604	54624.61
660.955	54384.84
661.306	54482.47
661.656	54513.43
662.007	54555.68
662.358	54489.47
662.708	54407.44
663.059	54445.18
663.409	54256.26
663.76	54524.95
664.11	54394.33
664.461	54482.24
664.811	54500.32
665.161	54458.06
665.511	54289.93
665.862	54388
666.212	54452.64
666.562	54398.4
666.912	54371.28
667.262	54277.05
667.612	54258.06
667.962	54302.36
668.312	54234.11
668.662	54418.29
669.011	54294.22
669.361	54282.25
669.711	54063.04
670.06	54202.47
670.41	54070.05
670.76	54084.96
671.109	54167.9
671.459	54127.67
671.808	53978.75
672.157	54136.26
672.507	53921.8
672.856	53963.16
673.205	54009.48
673.554	53943.5
673.904	53951.41
674.253	54054.45
674.602	54036.38
674.951	53565.65
675.3	53414.7
675.649	53832.31
675.998	53791.41
676.346	53848.13
676.695	53898.98
677.044	53691.3
677.393	53736.72
677.741	53708.25
678.09	53674.58
678.438	53561.59
678.787	53536.28
679.135	53653.34
679.484	53384.64
679.832	53456.5
680.181	53314.81
680.529	53365.88
680.877	53249.28
681.225	53225.1
681.573	53383.29
681.922	53151.65
682.27	53083.86
682.618	53126.34
682.966	53000.7
683.314	53091.54
683.661	52960.02
684.009	52865.79
684.357	52732.23
684.705	52741.27
685.053	52690.65
685.4	52600.03
685.748	52574.72
686.095	52494.04
686.443	52286.59
686.79	52296.31
687.138	52362.07
687.485	52318.23
687.832	52200.94
688.18	52132.92
688.527	51967.05
688.874	51986.03
689.221	51949.43
689.568	51809.54
689.915	51807.51
690.262	51628.53
690.609	51550.11
690.956	51506.27
691.303	51437.57
691.65	51400.29
691.997	51324.13
692.344	51049.79
692.69	51085.27
693.037	51069.9
693.383	50852.05
693.73	50938.15
694.077	50669.46
694.423	50705.39
694.769	50545.39
695.116	50516.02
695.462	50450.93
695.808	50282.35
696.155	50400.77
696.501	50130.72
696.847	50174.78
697.193	49918.29
697.539	49976.37
697.885	49708.81
698.231	49669.48
698.577	49564.4
698.923	49575.25
699.269	49412.09
699.614	49230.17
699.96	49135.26
700.306	49147.01
700.651	48929.39
700.997	48880.58
701.342	48781.15
701.688	48828.83
702.033	48640.13
702.379	48587.03
702.724	48493.7
703.069	48577.99
703.415	48188.39
703.76	48105.68
704.105	48001.05
704.45	48046.48
704.795	47778.24
705.14	47715.86
705.485	47809.19
705.83	47590.67
706.175	47440.62
706.52	47334.86
706.865	47211.92
707.209	47191.13
707.554	47209.66
707.899	47196.1
708.243	46903.68
708.588	46940.29
708.932	46643.8
709.277	46716.57
709.621	46690.13
709.966	46466.63
710.31	46522.68
710.654	46107.77
710.998	46270.7
711.342	46294.88
711.687	46080.2
712.031	45933.09
712.375	45786.88
712.719	45794.33
713.063	45803.82
713.407	45839.08
713.75	45550.27
714.094	45639.99
714.438	45501.01
714.782	45558.86
715.125	45205.42
715.469	45458.52
715.812	45195.48
716.156	44868.26
716.499	45007.46
716.843	45051.75
717.186	44679.11
717.53	44933.79
717.873	44819.89
718.216	44808.37
718.559	44583.74
718.902	44300.59
719.246	44413.13
719.589	44117.99
719.932	44167.26
720.275	44046.36
720.617	44154.6
720.96	44031.44
721.303	43926.36
721.646	44051.78
721.989	43572.92
722.331	43839.13
722.674	43723.65
723.016	43805.23
723.359	43624.45
723.701	43558.91
724.044	43445.92
724.386	43195.53
724.729	43411.34
725.071	43182.42
725.413	43229.88
725.755	43088.87
726.097	42992.37
726.439	42924.35
726.782	42902.88
727.124	43110.79
727.465	42722.77
727.807	42706.73
728.149	42541.54
728.491	42530.01
728.833	42629.9
729.175	42549.45
729.516	42465.83
729.858	42273.07
730.199	42249.57
730.541	42199.4
730.882	42168.67
731.224	42335.67
731.565	41985.17
731.906	42181.32
732.248	42134.09
732.589	41812.06
732.93	41759.18
733.271	41748.11
733.612	41670.83
733.953	41826.53
734.294	41502.69
734.635	41522.35
734.976	41540.89
735.317	41276.94
735.658	41400.1
735.999	41330.04
736.339	41211.85
736.68	41188.58
737.021	41125.53
737.361	40848.7
737.702	41271.74
738.042	41033.55
738.383	40810.06
738.723	40919.66
739.063	40805.09
739.404	40860.23
739.744	40811.41
740.084	40683.51
740.424	40683.05
740.764	40589.05
741.104	40693.68
741.444	40414.59
741.784	40187.7
742.124	40385.44
742.464	40336.4
742.804	40337.53
743.143	40153.58
743.483	40203.29
743.823	40125.78
744.162	39977.54
744.502	39933.02
744.841	39905
745.181	39965.79
745.52	39745.9
745.86	39929.4
746.199	39598.79
746.538	39671.33
746.877	39635.4
747.216	39755.85
747.556	39549.98
747.895	39526.93
748.234	39389.53
748.573	39255.52
748.911	39329.42
749.25	39229.08
749.589	39136.43
749.928	39078.13
750.267	39158.35
750.605	38959.71
750.944	38752.03
751.283	38760.62
751.621	38771.92
751.96	38538.03
752.298	38560.4
752.636	38568.76
752.975	38451.7
