Data from white_wall_FLMS001491_078.txt Node
Date: Tue Feb 07 11:05:46 GMT 2017
User: dcchb
Spectrometer: FLMS00149
Trigger mode: 0
Integration Time (sec): 2.000000E-2
Scans to average: 10
Electric dark correction enabled: true
Nonlinearity correction enabled: false
Boxcar width: 0
XAxis mode: Wavelengths
Number of Pixels in Spectrum: 2048
>>>>>Begin Spectral Data<<<<<
341.393	-0.35
341.776	-0.35
342.16	-0.35
342.543	-64.08
342.927	-69.5
343.31	-70.86
343.693	-73.12
344.077	-72.89
344.46	-69.05
344.843	-33.35
345.226	-43.74
345.61	-21.14
345.993	-4.19
346.376	-19.34
346.759	26.76
347.142	21.57
347.525	42.58
347.908	36.93
348.291	77.84
348.674	97.72
349.057	104.28
349.44	115.8
349.823	133.43
350.206	148.8
350.588	203.71
350.971	233.99
351.354	258.62
351.737	237.38
352.119	270.6
352.502	257.27
352.884	297.72
353.267	304.5
353.65	298.4
354.032	304.95
354.414	301.56
354.797	312.63
355.179	327.55
355.562	327.55
355.944	347.43
356.326	348.56
356.709	347.66
357.091	338.4
357.473	349.24
357.855	351.05
358.238	357.38
358.62	350.37
359.002	343.14
359.384	350.37
359.766	350.15
360.148	358.06
360.53	353.76
360.912	334.78
361.294	332.29
361.676	346.98
362.057	347.43
362.439	331.62
362.821	356.7
363.203	324.61
363.584	341.56
363.966	344.04
364.348	341.56
364.729	327.32
365.111	316.47
365.493	318.06
365.874	347.21
366.256	319.19
366.637	330.71
367.019	331.39
367.4	332.29
367.781	340.88
368.163	344.5
368.544	325.29
368.925	326.87
369.306	321.22
369.688	322.58
370.069	309.02
370.45	323.03
370.831	332.29
371.212	337.72
371.593	334.55
371.974	323.03
372.355	341.56
372.736	337.72
373.117	349.02
373.498	345.17
373.879	338.85
374.26	347.89
374.641	321.67
375.021	337.49
375.402	333.88
375.783	340.2
376.163	324.16
376.544	335.23
376.925	358.51
377.305	360.54
377.686	358.06
378.066	360.99
378.447	359.41
378.827	355.57
379.208	351.28
379.588	375.68
379.968	356.7
380.349	349.47
380.729	359.41
381.109	365.96
381.489	358.96
381.87	388.56
382.25	370.26
382.63	380.65
383.01	365.06
383.39	372.74
383.77	377.26
384.15	359.64
384.53	395.12
384.91	378.17
385.29	364.38
385.67	387.89
386.049	399.64
386.429	391.05
386.809	419.07
387.189	393.76
387.568	381.56
387.948	417.04
388.328	403.7
388.707	418.39
389.087	425.62
389.466	423.14
389.846	436.02
390.225	435.79
390.605	435.34
390.984	418.84
391.363	433.76
391.743	460.65
392.122	473.76
392.501	475.34
392.881	460.2
393.26	459.97
393.639	464.72
394.018	498.84
394.397	511.72
394.776	497.49
395.155	507.43
395.534	491.16
395.913	507.88
396.292	533.87
396.671	533.64
397.05	519.86
397.429	553.98
397.808	566.64
398.186	581.1
398.565	564.6
398.944	565.73
399.323	563.02
399.701	569.58
400.08	615
400.458	616.13
400.837	627.65
401.215	641.66
401.594	637.37
401.972	678.95
402.351	661.32
402.729	693.87
403.107	661.32
403.486	715.33
403.864	730.02
404.242	727.09
404.62	739.97
404.999	747.88
405.377	756.69
405.755	769.8
406.133	786.74
406.511	807.31
406.889	809.12
407.267	834.2
407.645	813.86
408.023	845.05
408.401	878.49
408.779	881.88
409.156	906.74
409.534	915.56
409.912	925.5
410.29	951.94
410.667	957.36
411.045	1000.98
411.422	984.71
411.8	1034.65
412.178	1028.55
412.555	1043.24
412.933	1058.6
413.31	1084.82
413.687	1076.68
414.065	1103.57
414.442	1129.33
414.819	1137.47
415.197	1138.83
415.574	1154.19
415.951	1206.39
416.328	1188.32
416.705	1217.92
417.082	1214.08
417.46	1233.06
417.837	1234.64
418.214	1246.62
418.591	1276.22
418.967	1290.91
419.344	1282.55
419.721	1315.77
420.098	1328.2
420.475	1330.91
420.852	1332.49
421.228	1346.28
421.605	1369.55
421.982	1395.54
422.358	1424.69
422.735	1431.02
423.111	1443.22
423.488	1474.64
423.864	1464.69
424.241	1517.8
424.617	1492.49
424.994	1524.35
425.37	1531.13
425.746	1555.09
426.123	1519.83
426.499	1577.23
426.875	1612.26
427.251	1651.58
427.627	1655.2
428.003	1659.72
428.379	1681.86
428.756	1726.38
429.132	1704.69
429.507	1749.88
429.883	1814.29
430.259	1823.33
430.635	1824.68
431.011	1880.95
431.387	1895.19
431.763	1926.83
432.138	1922.31
432.514	1987.17
432.89	1983.32
433.265	2021.06
433.641	2049.76
434.016	2056.09
434.392	2082.08
434.767	2099.25
435.143	2115.3
435.518	2192.13
435.894	2160.04
436.269	2201.85
436.644	2244.33
437.02	2276.65
437.395	2288.85
437.77	2337.21
438.145	2337.66
438.52	2383.31
438.895	2394.16
439.271	2408.62
439.646	2447.72
440.021	2467.15
440.395	2481.39
440.77	2455.18
441.145	2561.16
441.52	2580.37
441.895	2554.61
442.27	2578.34
442.645	2576.53
443.019	2607.04
443.394	2649.75
443.769	2677.99
444.143	2660.82
444.518	2737.65
444.892	2715.06
445.267	2737.88
445.641	2753.02
446.016	2773.81
446.39	2827.82
446.764	2846.35
447.139	2797.99
447.513	2856.75
447.887	2909.4
448.262	2889.97
448.636	2953.02
449.01	2968.16
449.384	3016.74
449.758	3022.17
450.132	3065.1
450.506	3108.49
450.88	3123.63
451.254	3097.19
451.628	3130.19
452.002	3192.78
452.376	3198.43
452.75	3286.79
453.123	3274.36
453.497	3354.13
453.871	3399.56
454.244	3422.61
454.618	3418.09
454.992	3490.18
455.365	3525.43
455.739	3626.9
456.112	3640.23
456.486	3626.22
456.859	3677.52
457.232	3812.65
457.606	3758.64
457.979	3849.72
458.352	3941.69
458.725	3967.68
459.099	3979.66
459.472	4051.29
459.845	4093.78
460.218	4144.85
460.591	4181.91
460.964	4174.9
461.337	4308.23
461.71	4336.26
462.083	4405.86
462.456	4425.97
462.829	4454.67
463.201	4550.94
463.574	4542.35
463.947	4664.16
464.32	4717.49
464.692	4773.53
465.065	4834.55
465.438	4909.35
465.81	4966.07
466.183	5011.27
466.555	5194.09
466.928	5151.15
467.3	5185.05
467.672	5290.36
468.045	5409
468.417	5402.44
468.789	5444.7
469.161	5548.88
469.534	5670.01
469.906	5694.86
470.278	5741.64
470.65	5854.41
471.022	5992.03
471.394	6101.86
471.766	6177.56
472.138	6230.44
472.51	6352.02
472.882	6466.82
473.253	6556.08
473.625	6613.71
473.997	6792.46
474.369	6846.7
474.74	6949.75
475.112	7100.48
475.484	7166.46
475.855	7344.76
476.227	7337.76
476.598	7560.35
476.97	7672.67
477.341	7820.01
477.713	7987.46
478.084	8027.01
478.455	8275.59
478.827	8331.86
479.198	8507.9
479.569	8532.53
479.94	8834.44
480.311	8897.94
480.682	9066.08
481.053	9310.81
481.424	9472.39
481.795	9553.52
482.166	9701.09
482.537	9792.16
482.908	10067.18
483.279	10278.25
483.65	10412.03
484.021	10569.99
484.391	10739.03
484.762	10846.82
485.133	10880.72
485.503	10988.51
485.874	11331.1
486.244	11416.97
486.615	11638.44
486.985	11839.56
487.356	12003.17
487.726	12157.07
488.097	12392.32
488.467	12432.54
488.837	12704.4
489.207	12857.39
489.578	13077.04
489.948	13186.64
490.318	13329.01
490.688	13440.2
491.058	13549.12
491.428	13854.42
491.798	14025.04
492.168	14227.52
492.538	14316.11
492.908	14537.34
493.278	14776.21
493.648	14775.53
494.017	14975.07
494.387	15115.63
494.757	15263.65
495.126	15571.44
495.496	15512.23
495.866	15629.07
496.235	15824.54
496.605	15948.83
496.974	16001.71
497.344	16210.52
497.713	16310.4
498.082	16474.92
498.452	16628.36
498.821	16678.53
499.19	16820.22
499.559	17042.36
499.928	17092.76
500.298	17242.36
500.667	17412.07
501.036	17424.73
501.405	17634.21
501.774	17670.14
502.143	17845.05
502.512	17907.65
502.88	18192.39
503.249	18161.43
503.618	18427.18
503.987	18477.81
504.356	18640.74
504.724	18783.11
505.093	18858.36
505.462	18904.69
505.83	19042.08
506.199	19223.77
506.567	19549.87
506.936	19444.11
507.304	19760.71
507.672	19856.98
508.041	19903.3
508.409	20054.94
508.777	20387.59
509.145	20418.55
509.514	20536.73
509.882	20677.75
510.25	20745.09
510.618	20902.83
510.986	21090.62
511.354	21305.53
511.722	21448.57
512.09	21638.85
512.458	21671.39
512.826	21915.45
513.193	22068.45
513.561	22170.14
513.929	22392.05
514.297	22537.36
514.664	22764.7
515.032	22821.65
515.4	23032.49
515.767	23193.16
516.135	23233.61
516.502	23215.53
516.869	23629.53
517.237	23658.01
517.604	23773.71
517.972	24130.31
518.339	24282.85
518.706	24311.55
519.073	24523.3
519.44	24580.02
519.808	25012.32
520.175	24882.38
520.542	25331.41
520.909	25348.81
521.276	25482.37
521.643	25742.7
522.009	25975.46
522.376	26083.03
522.743	26343.36
523.11	26530.47
523.477	26828.32
523.843	26945.15
524.21	27202.55
524.577	27467.17
524.943	27575.87
525.31	27707.62
525.676	27967.05
526.043	28080.04
526.409	28188.74
526.776	28624.66
527.142	28654.71
527.508	28761.83
527.874	29136.51
528.241	29198.88
528.607	29353.45
528.973	29734.46
529.339	29636.38
529.705	30043.38
530.071	30108.23
530.437	30149.59
530.803	30576.24
531.169	30699.63
531.535	30571.72
531.901	30827.76
532.267	30956.35
532.632	31194.31
532.998	31374.19
533.364	31377.35
533.73	31651.47
534.095	31831.58
534.461	31997.9
534.826	32135.98
535.192	32253.26
535.557	32524.67
535.923	32427.27
536.288	32522.86
536.653	32800.37
537.019	32721.72
537.384	32992.9
537.749	33197.87
538.114	33295.72
538.479	33323.52
538.845	33399.22
539.21	33354.25
539.575	33688.03
539.94	33766.89
540.305	33838.98
540.67	34068.36
541.034	34101.58
541.399	34171.4
541.764	34466.54
542.129	34465.86
542.494	34547.21
542.858	34795.79
543.223	34812.52
543.587	35128.67
543.952	35142.23
544.316	35240.75
544.681	35258.15
545.045	35510.13
545.41	35741.76
545.774	35826.5
546.138	35908.99
546.503	35819.27
546.867	36076.89
547.231	36398.69
547.595	36387.39
547.959	36578.57
548.324	36644.56
548.688	36824.44
549.052	37012.46
549.416	37023.76
549.779	37196.18
550.143	37182.62
550.507	37667.81
550.871	37596.4
551.235	37753.46
551.599	38100.79
551.962	38194.8
552.326	38186.21
552.689	38555.47
553.053	38343.72
553.417	38593.43
553.78	39204.49
554.143	38964.05
554.507	39329.23
554.87	39452.85
555.234	39782.1
555.597	39540.53
555.96	39883.57
556.323	39934.64
556.686	40080.63
557.05	40390.68
557.413	40439.04
557.776	40557.68
558.139	40929.19
558.502	41037.44
558.865	41053.03
559.228	41513.36
559.59	41483.98
559.953	41640.36
560.316	41994.93
560.679	42104.98
561.041	42373.22
561.404	42479.21
561.767	42852.53
562.129	42623.61
562.492	43063.15
562.854	43177.27
563.217	43168
563.579	43391.5
563.941	43627.2
564.304	43779.74
564.666	44004.14
565.028	44125.72
565.39	44267.18
565.753	44568.42
566.115	44653.39
566.477	44762.09
566.839	44896.32
567.201	45246.37
567.563	45218.12
567.925	45411.79
568.287	45628.28
568.648	45639.8
569.01	45871.44
569.372	46010.19
569.734	46135.61
570.095	46393.68
570.457	46418.99
570.819	46625.77
571.18	46674.58
571.542	46862.6
571.903	46888.81
572.265	47090.39
572.626	47173.55
572.987	47313.43
573.349	47339.42
573.71	47502.58
574.071	47594.78
574.432	47807.88
574.794	47977.14
575.155	48001.77
575.516	47832.74
575.877	48106.4
576.238	48081.77
576.599	48325.38
576.96	48192.5
577.32	48258.94
577.681	48398.15
578.042	48522.21
578.403	48574.19
578.763	48613.06
579.124	48677.24
579.485	48707.52
579.845	48871.81
580.206	48800.4
580.566	48777.35
580.927	48802.43
581.287	49060.28
581.648	48850.11
582.008	49049.66
582.368	49006.72
582.728	49099.15
583.089	49016.21
583.449	49045.81
583.809	49119.49
584.169	49138.02
584.529	49112.25
584.889	49385.47
585.249	49274.06
585.609	49152.03
585.969	49349.31
586.329	49259.37
586.688	49303.21
587.048	49226.6
587.408	49166.49
587.768	49178.92
588.127	49201.07
588.487	49201.07
588.846	49432.92
589.206	49334.62
589.565	49168.3
589.925	49455.75
590.284	49276.54
590.643	49380.27
591.003	49561.51
591.362	49554.5
591.721	49417.33
592.08	49408.07
592.44	49582.3
592.799	49562.19
593.158	49503.2
593.517	49413.26
593.876	49467.5
594.235	49399.48
594.593	49432.02
594.952	49461.4
595.311	49470.44
595.67	49528.51
596.029	49733.48
596.387	49759.24
596.746	49811.9
597.104	49688.28
597.463	49612.35
597.822	49747.94
598.18	49558.57
598.538	49665.01
598.897	49769.41
599.255	49564.67
599.613	50055.96
599.972	49843.76
600.33	49841.5
600.688	49776.42
601.046	49961.72
601.404	50136.41
601.762	50032.23
602.12	50046.69
602.478	50209.85
602.836	50181.83
603.194	49971.89
603.552	50053.92
603.91	49943.42
604.268	50217.76
604.625	50026.13
604.983	50246.24
605.341	50088.95
605.698	50310.64
606.056	50359.68
606.413	50328.72
606.771	50489.17
607.128	50481.94
607.485	50295.5
607.843	50461.6
608.2	50650.07
608.557	50666.34
608.914	50601.48
609.272	50708.37
609.629	50754.7
609.986	50867.24
610.343	50701.14
610.7	50950.85
611.057	50933
611.414	50845.09
611.771	50768.48
612.127	51046.21
612.484	51045.99
612.841	51068.81
613.198	50994.24
613.554	51028.81
613.911	51231.97
614.267	51092.09
614.624	51240.11
614.98	51238.07
615.337	51381.8
615.693	51344.51
616.05	51206.21
616.406	51578.86
616.762	51354.23
617.118	51445.3
617.475	51390.84
617.831	51435.36
618.187	51506.32
618.543	51565.97
618.899	51754.22
619.255	51709.02
619.611	51635.35
619.967	51767.33
620.323	51789.02
620.678	51691.4
621.034	51523.49
621.39	51663.15
621.746	51666.31
622.101	51958.96
622.457	51800.32
622.812	51828.34
623.168	51852.07
623.523	51811.84
623.879	51891.62
624.234	51726.87
624.589	51856.81
624.945	51874.22
625.3	51885.97
625.655	51832.41
626.01	51839.41
626.365	51960.31
626.72	51843.71
627.075	51775.01
627.43	51864.5
627.785	51716.03
628.14	51777.04
628.495	51832.18
628.85	51760.09
629.205	51628.12
629.559	51862.69
629.914	51561.68
630.269	51772.75
630.623	51712.19
630.978	51547.22
631.332	51679.19
631.687	51797.38
632.041	51635.58
632.396	51624.5
632.75	51525.07
633.104	51496.82
633.459	51376.15
633.813	51357.17
634.167	51472.19
634.521	51291.18
634.875	51422.93
635.229	51398.75
635.583	51102.03
635.937	51152.65
636.291	51102.94
636.645	51194.23
636.999	51097.96
637.352	51165.76
637.706	50968.48
638.06	51152.43
638.413	50952.21
638.767	50905.65
639.121	50969.83
639.474	50751.31
639.828	50823.62
640.181	50772.32
640.534	50801.02
640.888	50645.77
641.241	50437.64
641.594	50694.36
641.947	50701.14
642.301	50570.75
642.654	50489.62
643.007	50590.86
643.36	50445.33
643.713	50425.21
644.066	50558.32
644.419	50291.88
644.771	50220.02
645.124	49847.6
645.477	49685.57
645.83	49444.22
646.182	49306.83
646.535	49249.65
646.888	49278.58
647.24	49083.1
647.593	49286.94
647.945	49119.49
648.298	49091.01
648.65	48966.95
649.002	48881.98
649.355	48902.54
649.707	48893.28
650.059	49114.29
650.411	49562.41
650.763	49462.08
651.115	49776.42
651.467	49705.91
651.819	49798.79
652.171	49686.48
652.523	49575.97
652.875	49558.12
653.227	49479.93
653.578	49683.76
653.93	49651.67
654.282	49489.42
654.633	49224.57
654.985	49415.07
655.337	49436.09
655.688	49307.05
656.039	49482.19
656.391	49140.73
656.742	49211.46
657.094	49201.74
657.445	49301.18
657.796	49185.02
658.147	48970.34
658.498	49160.39
658.849	49088.75
659.2	49190.22
659.551	49171.91
659.902	49230.67
660.253	49031.13
660.604	49010.79
660.955	48825.71
661.306	49065.02
661.656	48966.72
662.007	48919.72
662.358	48884.46
662.708	48794.3
663.059	48841.98
663.409	48508.65
663.76	48915.42
664.11	48765.82
664.461	48745.94
664.811	48837.68
665.161	48718.14
665.511	48738.7
665.862	48683.79
666.212	48804.69
666.562	48748.42
666.912	48616.67
667.262	48568.77
667.612	48683.79
667.962	48660.29
668.312	48481.99
668.662	48753.85
669.011	48659.38
669.361	48415.55
669.711	48495.77
670.06	48450.35
670.41	48439.05
670.76	48387.3
671.109	48585.04
671.459	48370.13
671.808	48287.64
672.157	48335.33
672.507	48066.86
672.856	48055.33
673.205	48145.95
673.554	48349.11
673.904	48153.41
674.253	48298.94
674.602	48046.75
674.951	47520.88
675.3	47367.21
675.649	48094.2
675.998	47885.62
676.346	47888.78
676.695	48059.17
677.044	47623.03
677.393	47858.95
677.741	47809.46
678.09	47672.29
678.438	47562.01
678.787	47721.1
679.135	47680.65
679.484	47409.02
679.832	47618.28
680.181	47439.98
680.529	47495.12
680.877	47399.3
681.225	47273.88
681.573	47576.02
681.922	47256.26
682.27	47077.05
682.618	47238.63
682.966	47051.52
683.314	47003.38
683.661	46881.8
684.009	46645.88
684.357	46705.31
684.705	46553.23
685.053	46521.59
685.4	46510.97
685.748	46309.16
686.095	46375.6
686.443	46197.75
686.79	46042.28
687.138	46117.76
687.485	46077.08
687.832	45922.06
688.18	45959.12
688.527	45742.62
688.874	45674.83
689.221	45541.73
689.568	45468.28
689.915	45292.92
690.262	45367.95
690.609	45200.49
690.956	45186.03
691.303	45074.62
691.65	44886.15
691.997	44934.06
692.344	44691.13
692.69	44577.68
693.037	44647.29
693.383	44264.02
693.73	44458.36
694.077	44370.68
694.423	44254.3
694.769	44162.1
695.116	43927.31
695.462	43744.26
695.808	43816.57
696.155	43766.41
696.501	43491.16
696.847	43592.17
697.193	43204.61
697.539	43423.36
697.885	43045.29
698.231	42891.63
698.577	42992.41
698.923	42793.78
699.269	42587
699.614	42643.05
699.96	42392.2
700.306	42433.79
700.651	42251.19
700.997	42017.75
701.342	41980.24
701.688	42024.98
702.033	41813.24
702.379	41765.78
702.724	41780.92
703.069	41794.71
703.415	41406.92
703.76	41437.88
704.105	41196.53
704.45	41342.29
704.795	41083.54
705.14	40947.5
705.485	40905.46
705.83	40707.73
706.175	40756.99
706.52	40544.57
706.865	40462.09
707.209	40446.72
707.554	40451.46
707.899	40345.03
708.243	40196.78
708.588	40236.33
708.932	39977.35
709.277	39992.27
709.621	39883.34
709.966	39584.59
710.31	39841.99
710.654	39486.74
710.998	39563.58
711.342	39498.95
711.687	39311.61
712.031	39195.68
712.375	39175.79
712.719	39253.08
713.063	39062.57
713.407	39114.1
713.75	38908.91
714.094	38892.64
714.438	38785.07
714.782	38833.88
715.125	38602.7
715.469	38703.04
715.812	38300.79
716.156	38162.49
716.499	38336.27
716.843	38249.94
717.186	38087.46
717.53	38232.99
717.873	38190.73
718.216	38049.27
718.559	37930.85
718.902	37567.7
719.246	37747.35
719.589	37664.42
719.932	37385.56
720.275	37566.12
720.617	37417.87
720.96	37299.91
721.303	37211.32
721.646	37320.47
721.989	37065.11
722.331	37141.04
722.674	37097.43
723.016	37101.95
723.359	37055.4
723.701	37170.87
724.044	36803.2
724.386	36653.6
724.729	36822.41
725.071	36687.5
725.413	36659.25
725.755	36653.15
726.097	36389.65
726.439	36417.67
726.782	36226.72
727.124	36502.19
727.465	36380.84
727.807	36233.95
728.149	36232.82
728.491	36027.17
728.833	36078.47
729.175	35960.28
729.516	35937.23
729.858	35912.83
730.199	35863.11
730.541	35794.41
730.882	35735.2
731.224	35880.74
731.565	35574.98
731.906	35596.68
732.248	35565.49
732.589	35359.4
732.93	35269.68
733.271	35219.51
733.612	35395.1
733.953	35311.26
734.294	35091.61
734.635	35128.44
734.976	35067.2
735.317	34896.58
735.658	34927.77
735.999	35015.68
736.339	34864.04
736.68	35026.75
737.021	34824.27
737.361	34685.74
737.702	34760.99
738.042	34584.73
738.383	34424.73
738.723	34676.93
739.063	34424.05
739.404	34589.02
739.744	34396.03
740.084	34393.54
740.424	34250.5
740.764	34321
741.104	34287.33
741.444	33980.9
741.784	34020.67
742.124	34196.49
742.464	34181.12
742.804	34063.84
743.143	33817.74
743.483	33921.24
743.823	33876.04
744.162	33640.12
744.502	33678.31
744.841	33642.15
745.181	33762.15
745.52	33561.48
745.86	33574.36
746.199	33422.72
746.538	33361.03
746.877	33379.11
747.216	33451.87
747.556	33179.79
747.895	33338.21
748.234	33021.83
748.573	33047.14
748.911	33046.91
749.25	33078.1
749.589	32774.6
749.928	32837.88
750.267	32923.08
750.605	32813.93
750.944	32646.7
751.283	32671.33
751.621	32627.72
751.96	32373.03
752.298	32356.31
752.636	32354.28
752.975	32257.33
