Data from whiteboard_FLMS001491_00076.txt Node
Date: Wed Feb 08 11:28:03 GMT 2017
User: dcchb
Spectrometer: FLMS00149
Trigger mode: 0
Integration Time (sec): 2.000000E-2
Scans to average: 10
Electric dark correction enabled: true
Nonlinearity correction enabled: false
Boxcar width: 0
XAxis mode: Wavelengths
Number of Pixels in Spectrum: 2048
>>>>>Begin Spectral Data<<<<<
341.393	-10.31
341.776	-10.31
342.16	-10.31
342.543	-62.74
342.927	-50.99
343.31	-78.78
343.693	-68.39
344.077	-52.57
344.46	-73.13
344.843	-61.83
345.226	-34.94
345.61	-37.2
345.993	-8.28
346.376	6.41
346.759	10.03
347.142	26.98
347.525	43.25
347.908	63.81
348.291	68.11
348.674	96.81
349.057	99.74
349.44	131.15
349.823	140.19
350.206	156.24
350.588	215.67
350.971	218.16
351.354	240.53
351.737	273.52
352.119	303.81
352.502	290.7
352.884	292.51
353.267	308.78
353.65	307.2
354.032	329.12
354.414	345.84
354.797	329.12
355.179	372.05
355.562	360.53
355.944	363.01
356.326	378.15
356.709	380.41
357.091	349
357.473	379.74
357.855	365.27
358.238	368.21
358.62	377.25
359.002	352.39
359.384	389.68
359.766	372.05
360.148	374.54
360.53	372.05
360.912	383.13
361.294	363.69
361.676	365.5
362.057	374.76
362.439	352.84
362.821	352.39
363.203	354.43
363.584	361.88
363.966	367.08
364.348	364.14
364.729	370.7
365.111	344.26
365.493	359.17
365.874	354.43
366.256	367.53
366.637	371.6
367.019	349
367.4	372.05
367.781	363.92
368.163	347.65
368.544	355.1
368.925	337.93
369.306	385.16
369.688	367.76
370.069	362.11
370.45	369.34
370.831	371.83
371.212	378.15
371.593	363.69
371.974	371.37
372.355	366.18
372.736	377.93
373.117	354.43
373.498	359.4
373.879	344.26
374.26	367.31
374.641	368.44
375.021	353.97
375.402	376.35
375.783	400.75
376.163	380.41
376.544	394.88
376.925	392.39
377.305	375.22
377.686	389.91
378.066	389.91
378.447	396.91
378.827	365.95
379.208	394.42
379.588	392.84
379.968	409.11
380.349	417.47
380.729	409.11
381.109	400.98
381.489	408.21
381.87	430.58
382.25	440.75
382.63	414.54
383.01	395.78
383.39	419.06
383.77	427.87
384.15	418.15
384.53	424.48
384.91	440.53
385.29	422.22
385.67	451.15
386.049	462.67
386.429	416.34
386.809	456.8
387.189	450.47
387.568	447.3
387.948	489.79
388.328	481.88
388.707	461.77
389.087	488.89
389.466	467.64
389.846	492.28
390.225	513.07
390.605	505.16
390.984	500.18
391.363	522.78
391.743	515.1
392.122	504.93
392.501	523.91
392.881	534.53
393.26	570.69
393.639	538.6
394.018	552.61
394.397	540.41
394.776	579.28
395.155	579.05
395.534	563.01
395.913	588.09
396.292	591.93
396.671	614.31
397.05	613.63
397.429	614.08
397.808	604.81
398.186	617.47
398.565	649.56
398.944	661.99
399.323	660.86
399.701	672.61
400.08	668.77
400.458	676.68
400.837	715.55
401.215	718.48
401.594	715.55
401.972	727.75
402.351	767.75
402.729	769.1
403.107	769.1
403.486	780.18
403.864	811.14
404.242	828.99
404.62	850.68
404.999	860.18
405.377	853.4
405.755	877.58
406.133	921.42
406.511	924.81
406.889	935.65
407.267	940.62
407.645	947.18
408.023	984.24
408.401	1011.36
408.779	1021.3
409.156	1036.22
409.534	1094.97
409.912	1084.58
410.29	1108.98
410.667	1119.83
411.045	1134.97
411.422	1151.69
411.8	1165.7
412.178	1211.58
412.555	1252.93
412.933	1257.23
413.31	1282.76
413.687	1297
414.065	1326.15
414.442	1366.38
414.819	1351.24
415.197	1398.01
415.574	1449.09
415.951	1443.66
416.328	1466.71
416.705	1472.59
417.082	1490.44
417.46	1527.05
417.837	1524.79
418.214	1552.36
418.591	1536.99
418.967	1590.33
419.344	1604.11
419.721	1615.86
420.098	1642.08
420.475	1647.5
420.852	1687.5
421.228	1700.83
421.605	1713.94
421.982	1753.26
422.358	1773.6
422.735	1788.74
423.111	1812.24
423.488	1830.77
423.864	1846.59
424.241	1881.17
424.617	1903.09
424.994	1883.2
425.37	1905.57
425.746	1969.3
426.123	1995.06
426.499	1995.74
426.875	2027.83
427.251	2076.19
427.627	2099.92
428.003	2127.94
428.379	2132.01
428.756	2183.3
429.132	2220.14
429.507	2254.71
429.883	2280.48
430.259	2279.35
430.635	2319.8
431.011	2357.99
431.387	2430.76
431.763	2451.55
432.138	2455.84
432.514	2525.22
432.89	2538.55
433.265	2575.16
433.641	2619.45
434.016	2649.05
434.392	2662.16
434.767	2742.16
435.143	2759.33
435.518	2786.9
435.894	2768.83
436.269	2819.45
436.644	2839.78
437.02	2939.67
437.395	2876.62
437.77	2962.72
438.145	3002.27
438.52	3023.51
438.895	3072.32
439.271	3091.98
439.646	3163.17
440.021	3178.31
440.395	3179.21
440.77	3149.61
441.145	3179.21
441.52	3327.68
441.895	3284.52
442.27	3345.53
442.645	3286.33
443.019	3387.11
443.394	3394.57
443.769	3404.97
444.143	3376.49
444.518	3486.77
444.892	3469.6
445.267	3523.83
445.641	3497.85
446.016	3562.7
446.39	3584.62
446.764	3579.88
447.139	3609.03
447.513	3656.49
447.887	3669.37
448.262	3679.99
448.636	3720.44
449.01	3766.54
449.384	3781.91
449.758	3828.23
450.132	3882.47
450.506	3845.18
450.88	3938.06
451.254	3932.86
451.628	4020.77
452.002	4066.87
452.376	4104.84
452.75	4143.03
453.123	4146.64
453.497	4219.41
453.871	4236.36
454.244	4317.49
454.618	4383.25
454.992	4423.92
455.365	4446.97
455.739	4561.55
456.112	4641.09
456.486	4695.78
456.859	4723.12
457.232	4752.73
457.606	4783.24
457.979	4867.3
458.352	4964.47
458.725	5029.78
459.099	5074.08
459.472	5152.04
459.845	5187.29
460.218	5249.89
460.591	5258.25
460.964	5362.66
461.337	5509.09
461.71	5504.57
462.083	5596.32
462.456	5639.94
462.829	5669.09
463.201	5829.76
463.574	5778.01
463.947	5876.99
464.32	6030.66
464.692	6016.2
465.065	6077.21
465.438	6153.37
465.81	6248.06
466.183	6362.18
466.555	6498.9
466.928	6523.3
467.3	6631.32
467.672	6622.51
468.045	6823.86
468.417	6796.52
468.789	6881.03
469.161	6978.21
469.534	7110.41
469.906	7223.62
470.278	7284.19
470.65	7415.93
471.022	7524.18
471.394	7665.87
471.766	7770.73
472.138	7883.49
472.51	8033.77
472.882	8094.11
473.253	8241.45
473.625	8346.08
473.997	8528
474.369	8586.07
474.74	8707.2
475.112	8854.32
475.484	8975.67
475.855	9121.2
476.227	9206.4
476.598	9498.59
476.97	9641.19
477.341	9766.16
477.713	9915.76
478.084	9989.2
478.455	10287.95
478.827	10287.5
479.198	10677.54
479.569	10648.84
479.94	10967.25
480.311	11034.6
480.682	11336.06
481.053	11527.01
481.424	11698.53
481.795	11855.37
482.166	12047.45
482.537	12188.69
482.908	12466.42
483.279	12623.26
483.65	12844.27
484.021	13058.5
484.391	13251.94
484.762	13287.19
485.133	13494.42
485.503	13691.02
485.874	13944.35
486.244	14141.41
486.615	14353.15
486.985	14511.79
487.356	14787.72
487.726	14970.54
488.097	15282.62
488.467	15187.71
488.837	15609.17
489.207	15746.56
489.578	16045.54
489.948	16142.26
490.318	16366.21
490.688	16490.5
491.058	16743.37
491.428	16888.45
491.798	17144.04
492.168	17404.6
492.538	17414.54
492.908	17697.47
493.278	17919.61
493.648	17935.88
494.017	18173.84
494.387	18352.6
494.757	18482.99
495.126	18670.78
495.496	18720.72
495.866	18901.06
496.235	19168.39
496.605	19317.32
496.974	19436.18
497.344	19583.75
497.713	19626.91
498.082	19830.52
498.452	20016.96
498.821	20128.82
499.19	20129.05
499.559	20416.72
499.928	20480.22
500.298	20663.27
500.667	20895.13
501.036	20838.41
501.405	21017.39
501.774	21135.35
502.143	21337.15
502.512	21518.84
502.88	21658.27
503.249	21751.38
503.618	21934.42
503.987	21966.29
504.356	22213.06
504.724	22295.77
505.093	22459.38
505.462	22483.34
505.83	22663.67
506.199	22982.08
506.567	23169.19
506.936	23066.14
507.304	23499.13
507.672	23476.98
508.041	23660.03
508.409	23826.12
508.777	24053.69
509.145	24231.31
509.514	24245.32
509.882	24411.65
510.25	24519.67
510.618	24644.41
510.986	24767.57
511.354	25075.58
511.722	25199.42
512.09	25426.31
512.458	25495.91
512.826	25591.73
513.193	25829.69
513.561	25992.4
513.929	26081.88
514.297	26356.91
514.664	26702.66
515.032	26619.5
515.4	26741.3
515.767	27072.14
516.135	27163.89
516.502	27132.48
516.869	27612.24
517.237	27761.84
517.604	27698.34
517.972	28047.03
518.339	28146.92
518.706	28314.14
519.073	28449.51
519.44	28790.06
519.808	28869.61
520.175	28865.77
520.542	29291.74
520.909	29577.84
521.276	29481.34
521.643	29879.98
522.009	30055.34
522.376	30205.84
522.743	30437.7
523.11	30892.38
523.477	31116.55
523.843	31274.74
524.21	31502.99
524.577	31803.09
524.943	31931.22
525.31	32064.1
525.676	32308.16
526.043	32709.96
526.409	32696.4
526.776	33124.19
527.142	33130.51
527.508	33339.55
527.874	33651.86
528.241	33824.96
528.607	33982.69
528.973	34238.96
529.339	34305.4
529.705	34630.59
530.071	35025.6
530.437	35232.38
530.803	35322.32
531.169	35336.33
531.535	35445.71
531.901	35611.13
532.267	35863.32
532.632	35975.41
532.998	36240.94
533.364	36400.48
533.73	36572.23
534.095	36753.24
534.461	36895.16
534.826	37169.28
535.192	37287.69
535.557	37555.93
535.923	37408.82
536.288	37633.45
536.653	37971.29
537.019	37684.29
537.384	37873.21
537.749	38197.95
538.114	38282.47
538.479	38277.27
538.845	38663.02
539.21	38462.8
539.575	38687.2
539.94	38890.14
540.305	39154.08
540.67	39114.31
541.034	39438.6
541.399	39494.19
541.764	39519.5
542.129	39675.43
542.494	39877
542.858	39961.75
543.223	39933.5
543.587	40245.13
543.952	40153.38
544.316	40486.03
544.681	40411.45
545.045	40573.93
545.41	40998.33
545.774	40961.72
546.138	41020.48
546.503	41200.13
546.867	41124.2
547.231	41516.96
547.595	41688.71
547.959	41662.72
548.324	41860.68
548.688	41909.72
549.052	42175.7
549.416	42196.04
549.779	42322.59
550.143	42454.34
550.507	42679.41
550.871	42747.44
551.235	42929.35
551.599	43238.72
551.962	43232.17
552.326	43329.57
552.689	43735.66
553.053	43457.02
553.417	43616.57
553.78	44130
554.143	43901.53
554.507	44232.14
554.87	44252.03
555.234	44707.16
555.597	44613.83
555.96	44769.53
556.323	44962.07
556.686	44988.05
557.05	45259.23
557.413	45442.28
557.776	45399.57
558.139	45778.77
558.502	45653.57
558.865	45829.16
559.228	46164.52
559.59	46380.79
559.953	46545.3
560.316	46900.55
560.679	46736.03
561.041	47040.66
561.404	47314.32
561.767	47491.27
562.129	47317.71
562.492	47876.11
562.854	47718.38
563.217	47809
563.579	47885.83
563.941	48323.11
564.304	48393.61
564.666	48640.84
565.028	48676.32
565.39	48872.92
565.753	49003.54
566.115	49102.52
566.477	49115.63
566.839	49322.63
567.201	49569.85
567.563	49617.54
567.925	49928.26
568.287	49977.98
568.648	49854.82
569.01	50154.02
569.372	50370.29
569.734	50210.52
570.095	50624.97
570.457	50721.24
570.819	50872.87
571.18	50702.71
571.542	51017.05
571.903	50986.09
572.265	51135.46
572.626	51208.68
572.987	51277.83
573.349	51435.12
573.71	51572.97
574.071	51632.4
574.432	51753.98
574.794	52011.6
575.155	51845.28
575.516	51846.86
575.877	52003.92
576.238	52054.08
576.599	52129.56
576.96	52265.83
577.32	52224.47
577.681	52462.66
578.042	52543.56
578.403	52467.86
578.763	52523.45
579.124	52589.66
579.485	52725.93
579.845	52703.78
580.206	52706.95
580.566	52736.55
580.927	52649.55
581.287	52903.33
581.648	52738.36
582.008	52965.47
582.368	52925.25
582.728	52921.18
583.089	52886.6
583.449	52921.18
583.809	52993.27
584.169	53072.36
584.529	53021.52
584.889	53243.43
585.249	53165.92
585.609	53024
585.969	53205.01
586.329	53127.28
586.688	53158.01
587.048	53159.59
587.408	53105.36
587.768	53089.08
588.127	53139.03
588.487	53055.86
588.846	53353.03
589.206	52966.38
589.565	53122.08
589.925	53249.08
590.284	53156.2
590.643	53195.97
591.003	53256.54
591.362	53354.84
591.721	53309.42
592.08	53331.34
592.44	53354.39
592.799	53442.75
593.158	53389.19
593.517	53332.47
593.876	53337.21
594.235	53281.85
594.593	53320.26
594.952	53416.99
595.311	53230.78
595.67	53303.54
596.029	53492.92
596.387	53407.49
596.746	53468.28
597.104	53360.72
597.463	53298.57
597.822	53403.65
598.18	53329.53
598.538	53359.59
598.897	53449.53
599.255	53279.14
599.613	53736.75
599.972	53586.47
600.33	53655.85
600.688	53549.64
601.046	53565.91
601.404	53745.56
601.762	53647.49
602.12	53771.33
602.478	53725.9
602.836	53736.07
603.194	53566.81
603.552	53666.24
603.91	53562.74
604.268	53744.43
604.625	53710.31
604.983	53789.4
605.341	53634.15
605.698	53790.08
606.056	53830.31
606.413	53748.05
606.771	53878.89
607.128	53971.55
607.485	53796.64
607.843	53758.9
608.2	54061.49
608.557	54115.5
608.914	54004.99
609.272	54140.13
609.629	54091.77
609.986	54286.11
610.343	53997.31
610.7	54321.14
611.057	54299.22
611.414	54212.22
611.771	54255.83
612.127	54432.78
612.484	54360.24
612.841	54413.57
613.198	54215.38
613.554	54373.8
613.911	54528.37
614.267	54465.77
614.624	54390.52
614.98	54459.67
615.337	54586.22
615.693	54513.91
616.05	54548.93
616.406	54724.52
616.762	54603.85
617.118	54610.85
617.475	54501.25
617.831	54611.3
618.187	54671.42
618.543	54653.11
618.899	54817.85
619.255	54770.17
619.611	54716.84
619.967	54828.93
620.323	54812.2
620.678	54770.85
621.034	54671.42
621.39	54679.55
621.746	54623.06
622.101	54865.31
622.457	54677.29
622.812	54706.67
623.168	54782.37
623.523	54741.47
623.879	54788.7
624.234	54594.58
624.589	54719.32
624.945	54753.22
625.3	54719.32
625.655	54788.25
626.01	54764.52
626.365	54723.39
626.72	54721.58
627.075	54745.31
627.43	54713
627.785	54650.85
628.14	54710.74
628.495	54686.56
628.85	54622.38
629.205	54579.44
629.559	54663.28
629.914	54468.03
630.269	54529.5
630.623	54372.67
630.978	54324.98
631.332	54449.5
631.687	54440.69
632.041	54364.31
632.396	54392.55
632.75	54197.98
633.104	54344.64
633.459	54145.55
633.813	54149.85
634.167	54143.07
634.521	54206.12
634.875	54188.04
635.229	54127.7
635.583	53960.7
635.937	53910.08
636.291	53980.13
636.645	53971.32
636.999	53889.74
637.352	53942.62
637.706	53751.44
638.06	53789.4
638.413	53792.79
638.767	53681.84
639.121	53725.9
639.474	53604.1
639.828	53641.39
640.181	53591.22
640.534	53623.76
640.888	53537.21
641.241	53414.27
641.594	53438.23
641.947	53474.61
642.301	53348.06
642.654	53336.08
643.007	53317.78
643.36	53346.7
643.713	53316.87
644.066	53396.19
644.419	53136.31
644.771	52982.42
645.124	52622.2
645.477	52532.94
645.83	52377.24
646.182	52216.56
646.535	52174.31
646.888	52229.67
647.24	52023.58
647.593	52276.68
647.945	52159.84
648.298	52048.43
648.65	51904.26
649.002	51792.62
649.355	51990.13
649.707	51867.2
650.059	52067.42
650.411	52305.38
650.763	52365.04
651.115	52776.78
651.467	52558.7
651.819	52595.76
652.171	52446.62
652.523	52405.26
652.875	52471.47
653.227	52375.88
653.578	52574.75
653.93	52492.72
654.282	52239.62
654.633	52265.83
654.985	52267.41
655.337	52217.47
655.688	52171.37
656.039	52393.51
656.391	51947.87
656.742	52068.77
657.094	52095.66
657.445	52133.18
657.796	51996.23
658.147	51890.25
658.498	51923.69
658.849	51953.97
659.2	51929.11
659.551	51812.96
659.902	52013.63
660.253	51696.35
660.604	51918.49
660.955	51684.6
661.306	51736.35
661.656	51655.9
662.007	51661.55
662.358	51629.46
662.708	51722.11
663.059	51578.62
663.409	51411.39
663.76	51650.93
664.11	51672.4
664.461	51767.09
664.811	51555.11
665.161	51544.72
665.511	51443.25
665.862	51476.25
666.212	51564.38
666.562	51523.25
666.912	51502.69
667.262	51427.66
667.612	51358.51
667.962	51415.46
668.312	51201.9
668.662	51400.99
669.011	51312.63
669.361	51323.26
669.711	51263.14
670.06	51135.92
670.41	51091.62
670.76	51061.79
671.109	51250.71
671.459	51149.93
671.808	51008.01
672.157	51098.63
672.507	50865.87
672.856	50935.24
673.205	51049.59
673.554	51052.3
673.904	50960.55
674.253	51063.83
674.602	50949.25
674.951	50499.1
675.3	50138.43
675.649	50808.01
675.998	50706.1
676.346	50768.69
676.695	50821.8
677.044	50557.4
677.393	50634.01
677.741	50667.45
678.09	50498.19
678.438	50531.19
678.787	50606.44
679.135	50347.91
679.484	50177.97
679.832	50351.76
680.181	50114.93
680.529	50199.22
680.877	50038.54
681.225	50073.8
681.573	50181.59
681.922	49935.04
682.27	49858.89
682.618	49849.85
682.966	49851.88
683.314	49731.21
683.661	49591.78
684.009	49469.52
684.357	49386.81
684.705	49393.36
685.053	49386.13
685.4	49255.74
685.748	49175.06
686.095	49096.19
686.443	48935.97
686.79	48903.21
687.138	48935.3
687.485	48999.93
687.832	48759.03
688.18	48909.76
688.527	48542.76
688.874	48491.69
689.221	48473.61
689.568	48328.08
689.915	48203.11
690.262	48079.95
690.609	48163.56
690.956	47954.53
691.303	47817.81
691.65	47559.29
691.997	47685.84
692.344	47501.43
692.69	47415.34
693.037	47423.24
693.383	47078.39
693.73	47186.64
694.077	46936.7
694.423	46921.79
694.769	46843.37
695.116	46600.44
695.462	46723.6
695.808	46482.93
696.155	46637.05
696.501	46205.42
696.847	46197.97
697.193	45810.18
697.539	46079.33
697.885	45843.17
698.231	45684.08
698.577	45673.23
698.923	45437.76
699.269	45341.49
699.614	45293.36
699.96	45166.13
700.306	45011.78
700.651	44842.07
700.997	44610.66
701.342	44714.62
701.688	44696.76
702.033	44469.42
702.379	44344.68
702.724	44303.78
703.069	44376.32
703.415	43838.93
703.76	43789.44
704.105	43838.48
704.45	43748.54
704.795	43537.92
705.14	43352.84
705.485	43430.58
705.83	43174.32
706.175	43211.6
706.52	43277.82
706.865	42979.52
707.209	42985.62
707.554	42781.56
707.899	42775.91
708.243	42549.93
708.588	42460.21
708.932	42322.14
709.277	42318.07
709.621	42483.94
709.966	42177.51
710.31	42331.18
710.654	41808.93
710.998	41896.16
711.342	41931.41
711.687	41584.75
712.031	41357.42
712.375	41336.85
712.719	41548.82
713.063	41370.3
713.407	41478.77
713.75	41258.66
714.094	41196.97
714.438	41010.31
714.782	41176.63
715.125	40964.21
715.469	40962.62
715.812	40682.18
716.156	40437.21
716.499	40523.09
716.843	40633.82
717.186	40264.34
717.53	40452.58
717.873	40345.92
718.216	40262.98
718.559	40112.93
718.902	39992.25
719.246	39907.96
719.589	39744.35
719.932	39684.92
720.275	39736.44
720.617	39665.93
720.96	39451.02
721.303	39382.33
721.646	39414.19
721.989	39177.36
722.331	39322.44
722.674	39209.22
723.016	39067.53
723.359	38911.83
723.701	39080.87
724.044	38793.64
724.386	38690.82
724.729	38756.58
725.071	38662.8
725.413	38682.23
725.755	38567.43
726.097	38325.4
726.439	38262.13
726.782	38030.27
727.124	38264.39
727.465	37999.76
727.807	37918.18
728.149	37792.54
728.491	37674.57
728.833	37858.52
729.175	37645.42
729.516	37657.85
729.858	37439.55
730.199	37529.04
730.541	37427.12
730.882	37371.31
731.224	37483.17
731.565	37046.12
731.906	37069.62
732.248	37096.96
732.589	36955.05
732.93	36822.85
733.271	36748.05
733.612	36817.2
733.953	36904.88
734.294	36634.15
734.635	36606.81
734.976	36631.89
735.317	36440.48
735.658	36449.52
735.999	36368.85
736.339	36397.55
736.68	36384.21
737.021	36152.58
737.361	35980.38
737.702	36286.59
738.042	36075.52
738.383	36004.79
738.723	35892.93
739.063	35895.86
739.404	35858.12
739.744	35689.99
740.084	35542.2
740.424	35593.5
740.764	35518.02
741.104	35717.79
741.444	35332.04
741.784	35347.63
742.124	35287.74
742.464	35423.11
742.804	35158.48
743.143	35064.25
743.483	35065.15
743.823	34857.7
744.162	34833.07
744.502	34895.89
744.841	34827.87
745.181	34868.09
745.52	34664.94
745.86	34803.01
746.199	34636.24
746.538	34659.96
746.877	34512.62
747.216	34549.46
747.556	34480.99
747.895	34309.24
748.234	34246.42
748.573	34210.26
748.911	34259.07
749.25	34216.36
749.589	33994.22
749.928	34048
750.267	33885.3
750.605	33886.65
750.944	33804.17
751.283	33670.61
751.621	33538.64
751.96	33594.68
752.298	33542.48
752.636	33518.75
752.975	33371.18
