Data from whiteboard_FLMS001491_00057.txt Node
Date: Wed Feb 08 11:27:06 GMT 2017
User: dcchb
Spectrometer: FLMS00149
Trigger mode: 0
Integration Time (sec): 2.000000E-2
Scans to average: 10
Electric dark correction enabled: true
Nonlinearity correction enabled: false
Boxcar width: 0
XAxis mode: Wavelengths
Number of Pixels in Spectrum: 2048
>>>>>Begin Spectral Data<<<<<
341.393	-23.57
341.776	-23.57
342.16	-23.57
342.543	-66.96
342.927	-83.23
343.31	-70.8
343.693	-77.58
344.077	-72.39
344.46	-54.76
344.843	-48.2
345.226	-45.27
345.61	-25.61
345.993	-6.4
346.376	0.38
346.759	-0.07
347.142	33.6
347.525	33.37
347.908	58.46
348.291	72.02
348.674	100.72
349.057	102.53
349.44	128.29
349.823	154.5
350.206	178.91
350.588	210.32
350.971	225.46
351.354	251.45
351.737	267.04
352.119	280.83
352.502	290.09
352.884	279.47
353.267	300.03
353.65	329.41
354.032	321.5
354.414	327.38
354.797	334.38
355.179	345.46
355.562	347.26
355.944	361.5
356.326	358.11
356.709	366.47
357.091	354.72
357.473	365.8
357.855	368.06
358.238	363.31
358.62	363.76
359.002	366.7
359.384	364.67
359.766	353.14
360.148	379.81
360.53	386.59
360.912	363.08
361.294	359.02
361.676	378.9
362.057	387.26
362.439	366.47
362.821	370.32
363.203	375.06
363.584	360.15
363.966	378.22
364.348	356.53
364.729	360.15
365.111	372.12
365.493	342.07
365.874	353.37
366.256	337.77
366.637	335.74
367.019	363.54
367.4	355.63
367.781	372.35
368.163	362.18
368.544	339.36
368.925	348.17
369.306	388.62
369.688	373.25
370.069	388.62
370.45	353.59
370.831	368.96
371.212	352.91
371.593	343.88
371.974	356.53
372.355	349.52
372.736	368.73
373.117	362.41
373.498	384.78
373.879	362.86
374.26	368.73
374.641	356.53
375.021	359.69
375.402	394.72
375.783	377.09
376.163	378.22
376.544	403.53
376.925	394.04
377.305	382.97
377.686	369.41
378.066	397.66
378.447	393.82
378.827	380.26
379.208	388.39
379.588	395.85
379.968	410.54
380.349	425
380.729	413.25
381.109	413.93
381.489	435.17
381.87	413.48
382.25	426.58
382.63	412.57
383.01	426.36
383.39	450.99
383.77	442.63
384.15	430.43
384.53	451.44
384.91	444.89
385.29	436.75
385.67	466.58
386.049	463.42
386.429	452.35
386.809	468.62
387.189	468.17
387.568	476.08
387.948	498.67
388.328	476.75
388.707	496.64
389.087	505.9
389.466	496.41
389.846	510.88
390.225	509.07
390.605	520.14
390.984	530.08
391.363	515.4
391.743	536.41
392.122	528.5
392.501	527.37
392.881	546.36
393.26	556.75
393.639	568.5
394.018	579.58
394.397	578.45
394.776	566.47
395.155	603.08
395.534	598.56
395.913	617.54
396.292	622.51
396.671	614.15
397.05	654.6
397.429	653.47
397.808	654.6
398.186	674.49
398.565	657.54
398.944	671.32
399.323	669.06
399.701	683.75
400.08	711.78
400.458	726.01
400.837	732.79
401.215	721.27
401.594	750.42
401.972	770.53
402.351	790.64
402.729	784.09
403.107	806.46
403.486	836.97
403.864	820.47
404.242	833.81
404.62	860.02
404.999	864.31
405.377	878.55
405.755	918.55
406.133	919.91
406.511	949.51
406.889	957.19
407.267	975.72
407.645	992.9
408.023	996.06
408.401	1046.46
408.779	1036.29
409.156	1082.16
409.534	1084.65
409.912	1118.09
410.29	1134.59
410.667	1147.7
411.045	1170.75
411.422	1204.64
411.8	1224.53
412.178	1255.26
412.555	1284.64
412.933	1260.46
413.31	1322.83
413.687	1316.5
414.065	1347.01
414.442	1400.12
414.819	1381.14
415.197	1392.66
415.574	1445.09
415.951	1477.4
416.328	1486.9
416.705	1496.61
417.082	1505.43
417.46	1532.32
417.837	1558.53
418.214	1566.89
418.591	1596.27
418.967	1605.08
419.344	1635.37
419.721	1647.34
420.098	1663.61
420.475	1660
420.852	1699.77
421.228	1720.34
421.605	1765.08
421.982	1776.83
422.358	1796.27
422.735	1825.87
423.111	1819.99
423.488	1904.51
423.864	1870.84
424.241	1883.27
424.617	1901.12
424.994	1919.88
425.37	1954.68
425.746	1982.48
426.123	2016.15
426.499	2035.58
426.875	2066.99
427.251	2110.61
427.627	2151.06
428.003	2163.94
428.379	2191.28
428.756	2196.26
429.132	2263.37
429.507	2311.51
429.883	2332.75
430.259	2400.54
430.635	2408
431.011	2396.02
431.387	2490.03
431.763	2513.54
432.138	2497.72
432.514	2541.78
432.89	2578.62
433.265	2637.83
433.641	2650.71
434.016	2712.17
434.392	2742
434.767	2737.94
435.143	2820.65
435.518	2850.02
435.894	2870.59
436.269	2909.01
436.644	2986.74
437.02	3000.98
437.395	2998.27
437.77	3013.64
438.145	3099.51
438.52	3104.71
438.895	3198.72
439.271	3188.09
439.646	3254.08
440.021	3247.53
440.395	3273.06
440.77	3274.65
441.145	3306.96
441.52	3427.64
441.895	3406.39
442.27	3456.34
442.645	3426.05
443.019	3453.4
443.394	3488.65
443.769	3526.62
444.143	3507.86
444.518	3619.5
444.892	3578.37
445.267	3598.25
445.641	3693.17
446.016	3685.93
446.39	3687.52
446.764	3771.81
447.139	3725.26
447.513	3794.63
447.887	3868.08
448.262	3803.67
448.636	3855.65
449.01	3924.12
449.384	3980.16
449.758	3993.5
450.132	4061.52
450.506	4093.16
450.88	4117.11
451.254	4117.34
451.628	4172.7
452.002	4255.86
452.376	4265.81
452.75	4336.31
453.123	4343.09
453.497	4419.7
453.871	4479.36
454.244	4583.31
454.618	4580.37
454.992	4673.25
455.365	4657.43
455.739	4749.64
456.112	4833.7
456.486	4885
456.859	4940.82
457.232	5024.88
457.606	5030.08
457.979	5087.71
458.352	5195.27
458.725	5287.02
459.099	5287.25
459.472	5440.46
459.845	5442.05
460.218	5528.37
460.591	5600.91
460.964	5612.44
461.337	5736.73
461.71	5830.06
462.083	5905.54
462.456	5941.24
462.829	5939.43
463.201	6096.94
463.574	6084.74
463.947	6168.58
464.32	6278.63
464.692	6372.42
465.065	6457.61
465.438	6555.69
465.81	6691.73
466.183	6703.48
466.555	6868.9
466.928	6897.6
467.3	6869.13
467.672	7041.33
468.045	7244.94
468.417	7217.14
468.789	7296.46
469.161	7430.24
469.534	7507.08
469.906	7708.2
470.278	7767.63
470.65	7891.02
471.022	8008.31
471.394	8153.16
471.766	8242.65
472.138	8339.15
472.51	8499.59
472.882	8670.66
473.253	8725.8
473.625	8881.96
473.997	9105.9
474.369	9132.34
474.74	9265.67
475.112	9435.84
475.484	9599.45
475.855	9728.26
476.227	9814.13
476.598	10117.18
476.97	10213.22
477.341	10417.73
477.713	10588.35
478.084	10685.75
478.455	10929.59
478.827	11118.51
479.198	11407.99
479.569	11380.87
479.94	11718.49
480.311	11838.71
480.682	12126.84
481.053	12338.14
481.424	12540.39
481.795	12701.06
482.166	12908.52
482.537	13020.38
482.908	13345.12
483.279	13470.31
483.65	13720.92
484.021	13979.9
484.391	14179.9
484.762	14209.5
485.133	14436.16
485.503	14632.99
485.874	14927.22
486.244	15131.51
486.615	15495.79
486.985	15524.04
487.356	15907.31
487.726	16053.52
488.097	16336.9
488.467	16340.74
488.837	16786.61
489.207	16951.35
489.578	17158.57
489.948	17364.22
490.318	17621.61
490.688	17702.06
491.058	18019.34
491.428	18298.66
491.798	18459.56
492.168	18857.96
492.538	18889.83
492.908	19107.22
493.278	19344.73
493.648	19418.4
494.017	19636.48
494.387	19840.99
494.757	20086.63
495.126	20288.89
495.496	20328.21
495.866	20429.67
496.235	20772.49
496.605	20913.73
496.974	21083.67
497.344	21206.83
497.713	21327.96
498.082	21573.6
498.452	21797.77
498.821	21703.54
499.19	21925
499.559	22138.56
499.928	22264.2
500.298	22489.06
500.667	22751.42
501.036	22678.66
501.405	22968.37
501.774	22928.82
502.143	23168.13
502.512	23215.14
502.88	23573.77
503.249	23491.52
503.618	23650.38
503.987	23810.38
504.356	24117.71
504.724	24137.83
505.093	24257.82
505.462	24356.35
505.83	24560.87
506.199	24885.15
506.567	25206.27
506.936	25075.88
507.304	25464.8
507.672	25568.07
508.041	25635.64
508.409	25892.58
508.777	26062.07
509.145	26313.81
509.514	26403.08
509.882	26591.09
510.25	26599.46
510.618	26830.86
510.986	27013.91
511.354	27291.19
511.722	27519.21
512.09	27843.94
512.458	27851.63
512.826	28001.68
513.193	28277.6
513.561	28362.12
513.929	28664.49
514.297	28918.94
514.664	29055.66
515.032	29314.64
515.4	29434.41
515.767	29597.12
516.135	29833.5
516.502	29647.74
516.869	30329.98
517.237	30306.25
517.604	30268.74
517.972	30730.19
518.339	30990.75
518.706	31066.01
519.073	31296.51
519.44	31575.37
519.808	31944.85
520.175	31923.84
520.542	32396.37
520.909	32490.15
521.276	32484.72
521.643	32805.62
522.009	33066.86
522.376	33282.67
522.743	33486.28
523.11	33868.19
523.477	34163.78
523.843	34215.53
524.21	34629.08
524.577	34944.55
524.943	35020.25
525.31	35274.48
525.676	35527.13
526.043	35713.57
526.409	35861.81
526.776	36422.47
527.142	36392.64
527.508	36654.11
527.874	36918.51
528.241	37023.59
528.607	37200.08
528.973	37639.39
529.339	37638.71
529.705	38018.59
530.071	38242.54
530.437	38380.16
530.803	38605.92
531.169	38887.49
531.535	38877.33
531.901	39066.25
532.267	39166.58
532.632	39522.73
532.998	39584.65
533.364	39870.52
533.73	39872.78
534.095	40283.62
534.461	40438.41
534.826	40446.32
535.192	40665.3
535.557	41092.63
535.923	40983.48
536.288	41244.04
536.653	41371.04
537.019	41351.16
537.384	41531.94
537.749	41913.86
538.114	41961.99
538.479	42090.8
538.845	42309.1
539.21	42335.09
539.575	42503.22
539.94	42559.04
540.305	42981.17
540.67	43003.09
541.034	43229.98
541.399	43276.31
541.764	43559.69
542.129	43718.78
542.494	43680.36
542.858	44005.1
543.223	44100.69
543.587	44407.12
543.952	44268.37
544.316	44561.7
544.681	44515.82
545.045	44836.94
545.41	44999.88
545.774	45043.26
546.138	45289.81
546.503	45473.76
546.867	45383.82
547.231	45813.64
547.595	45738.61
547.959	45898.38
548.324	45890.93
548.688	46031.26
549.052	46223.12
549.416	46200.3
549.779	46322.55
550.143	46492.04
550.507	46681.19
550.871	46756.89
551.235	46768.42
551.599	47032.37
551.962	46949.43
552.326	47164.34
552.689	47488.62
553.053	47257.9
553.417	47366.14
553.78	47877.99
554.143	47708.05
554.507	47990.31
554.87	47980.36
555.234	48397.3
555.597	48190.3
555.96	48440.92
556.323	48590.74
556.686	48623.96
557.05	48817.85
557.413	48883.39
557.776	49024.86
558.139	49259.2
558.502	49311.18
558.865	49404.73
559.228	49617.38
559.59	49675.46
559.953	49800.2
560.316	50208.78
560.679	50297.14
561.041	50455.78
561.404	50590.01
561.767	50892.83
562.129	50746.17
562.492	51132.14
562.854	51094.86
563.217	51162.88
563.579	51380.05
563.941	51541.63
564.304	51659.59
564.666	51935.06
565.028	51980.03
565.39	52115.4
565.753	52325.79
566.115	52325.11
566.477	52485.55
566.839	52670.86
567.201	52893.23
567.563	52849.16
567.925	53062.49
568.287	53061.81
568.648	53186.1
569.01	53356.94
569.372	53515.58
569.734	53435.36
570.095	53637.62
570.457	53801.68
570.819	53810.94
571.18	53881.45
571.542	54140.2
571.903	54160.54
572.265	54306.75
572.626	54340.65
572.987	54396.69
573.349	54476.46
573.71	54634.2
574.071	54613.41
574.432	54789
574.794	54935.66
575.155	54876.23
575.516	54945.15
575.877	55058.59
576.238	55088.65
576.599	55223.56
576.96	55136.33
577.32	55291.58
577.681	55289.1
578.042	55298.81
578.403	55336.33
578.763	55407.29
579.124	55418.36
579.485	55466.95
579.845	55605.92
580.206	55497.23
580.566	55562.54
580.927	55598.69
581.287	55660.16
581.648	55566.6
582.008	55702.19
582.368	55660.61
582.728	55723.66
583.089	55623.1
583.449	55620.39
583.809	55688.86
584.169	55766.6
584.529	55680.73
584.889	55791.46
585.249	55698.8
585.609	55621.52
585.969	55862.64
586.329	55744
586.688	55732.48
587.048	55600.5
587.408	55705.13
587.768	55619.94
588.127	55616.77
588.487	55583.33
588.846	55771.57
589.206	55593.72
589.565	55529.32
589.925	55709.2
590.284	55695.64
590.643	55675.08
591.003	55803.66
591.362	55749.88
591.721	55770.21
592.08	55674.17
592.44	55812.47
592.799	55730.89
593.158	55702.87
593.517	55756.66
593.876	55814.73
594.235	55768.86
594.593	55779.03
594.952	55842.98
595.311	55754.4
595.67	55848.4
596.029	56004.33
596.387	55995.07
596.746	56023.09
597.104	55933.37
597.463	55960.72
597.822	56161.16
598.18	55979.7
598.538	56063.31
598.897	56200.49
599.255	55991.68
599.613	56441.61
599.972	56232.35
600.33	56372.46
600.688	56192.35
601.046	56311.9
601.404	56450.65
601.762	56378.79
602.12	56598.67
602.478	56473.25
602.836	56442.51
603.194	56383.98
603.552	56496.3
603.91	56423.3
604.268	56486.81
604.625	56492.23
604.983	56594.6
605.341	56453.59
605.698	56598.89
606.056	56676.63
606.413	56625.79
606.771	56669.17
607.128	56713.69
607.485	56700.36
607.843	56690.64
608.2	56831.66
608.557	56871.88
608.914	56842.73
609.272	56887.93
609.629	56899
609.986	57074.81
610.343	56912.78
610.7	57046.57
611.057	56965.66
611.414	56901.48
611.771	57007.02
612.127	57046.34
612.484	57045.21
612.841	57085.89
613.198	56976.28
613.554	57041.14
613.911	57152.1
614.267	57107.58
614.624	57073.46
614.98	57164.53
615.337	57119.78
615.693	57111.87
616.05	57088.15
616.406	57264.19
616.762	57128.6
617.118	57096.96
617.475	57042.05
617.831	57152.55
618.187	57145.55
618.543	57147.13
618.899	57364.07
619.255	57298.76
619.611	57237.52
619.967	57268.71
620.323	57370.17
620.678	57228.48
621.034	57171.31
621.39	57147.81
621.746	57090.63
622.101	57357.29
622.457	57158.43
622.812	57186
623.168	57205.2
623.523	57155.04
623.879	57288.37
624.234	57104.19
624.589	57219.22
624.945	57181.02
625.3	57187.8
625.655	57225.54
626.01	57130.86
626.365	57203.62
626.72	57186.67
627.075	57157.3
627.43	57075.04
627.785	57068.26
628.14	57112.55
628.495	57178.54
628.85	57029.16
629.205	56917.3
629.559	57186.22
629.914	57059.45
630.269	57030.07
630.623	56976.96
630.978	56908.04
631.332	57031.42
631.687	57005.66
632.041	56899.9
632.396	56993.23
632.75	56935.16
633.104	56906
633.459	56889.28
633.813	56846.34
634.167	56907.36
634.521	56882.05
634.875	56881.37
635.229	56891.31
635.583	56782.17
635.937	56809.28
636.291	56758.66
636.645	56791.43
636.999	56764.99
637.352	56901.94
637.706	56728.38
638.06	56860.58
638.413	56705.78
638.767	56697.65
639.121	56733.8
639.474	56497.65
639.828	56543.98
640.181	56571.32
640.534	56574.71
640.888	56509.4
641.241	56497.88
641.594	56496.3
641.947	56555.28
642.301	56408.84
642.654	56431.21
643.007	56486.35
643.36	56438.22
643.713	56390.99
644.066	56474.15
644.419	56226.93
644.771	56100.15
645.124	55816.31
645.477	55779.48
645.83	55524.12
646.182	55459.26
646.535	55303.33
646.888	55351.92
647.24	55246.61
647.593	55374.74
647.945	55276.44
648.298	55198.7
648.65	55065.37
649.002	54987.64
649.355	55095.2
649.707	55068.99
650.059	55177.69
650.411	55461.97
650.763	55474.85
651.115	55684.79
651.467	55585.36
651.819	55544.68
652.171	55480.73
652.523	55444.12
652.875	55394.41
653.227	55279.38
653.578	55464.91
653.93	55380.17
654.282	55243
654.633	55153.73
654.985	55237.57
655.337	55171.81
655.688	55075.09
656.039	55165.03
656.391	54952.38
656.742	55026.28
657.094	55005.49
657.445	55098.14
657.796	55019.73
658.147	54935.66
658.498	54926.39
658.849	54986.51
659.2	54949.45
659.551	54744.03
659.902	54941.54
660.253	54835.78
660.604	54817.25
660.955	54664.03
661.306	54806.62
661.656	54694.31
662.007	54690.69
662.358	54678.04
662.708	54665.38
663.059	54657.7
663.409	54474.88
663.76	54692.5
664.11	54639.62
664.461	54556.24
664.811	54555.78
665.161	54589
665.511	54551.49
665.862	54539.74
666.212	54468.1
666.562	54478.72
666.912	54466.97
667.262	54475.11
667.612	54382
667.962	54429.01
668.312	54328.44
668.662	54458.16
669.011	54437.59
669.361	54363.25
669.711	54266.98
670.06	54276.69
670.41	54237.6
670.76	54081.22
671.109	54191.27
671.459	54131.39
671.808	54155.34
672.157	54105.17
672.507	53946.76
672.856	53939.3
673.205	53977.95
673.554	54015.91
673.904	54008.68
674.253	54110.6
674.602	54033.31
674.951	53564.85
675.3	53467.45
675.649	53833.99
675.998	53755.13
676.346	53841.9
676.695	53872.41
677.044	53633.32
677.393	53801.9
677.741	53833.54
678.09	53683.94
678.438	53656.37
678.787	53752.64
679.135	53643.26
679.484	53509.48
679.832	53684.17
680.181	53443.72
680.529	53525.3
680.877	53462.7
681.225	53442.14
681.573	53581.12
681.922	53213.22
682.27	53288.25
682.618	53285.76
682.966	53193.56
683.314	53243.28
683.661	53225.2
684.009	53078.08
684.357	52973.9
684.705	52995.37
685.053	53119.66
685.4	53050.74
685.748	52818.88
686.095	52949.95
686.443	52859.56
686.79	52753.34
687.138	52787.24
687.485	52822.27
687.832	52697.53
688.18	52698.66
688.527	52502.96
688.874	52481.04
689.221	52429.96
689.568	52444.65
689.915	52352.68
690.262	52222.06
690.609	52252.34
690.956	52093.25
691.303	52032.46
691.65	51842.86
691.997	51784.78
692.344	51600.61
692.69	51712.02
693.037	51655.52
693.383	51270.22
693.73	51387.28
694.077	51146.16
694.423	51164.69
694.769	51057.12
695.116	50955.2
695.462	50887.86
695.808	50767.86
696.155	50806.5
696.501	50497.58
696.847	50562.44
697.193	50195.22
697.539	50446.96
697.885	50123.36
698.231	49926.98
698.577	49867.09
698.923	49814.44
699.269	49670.94
699.614	49349.37
699.96	49294.68
700.306	49324.51
700.651	49040
700.997	48868.25
701.342	48873.9
701.688	48586.22
702.033	48530.86
702.379	48508.26
702.724	48335.61
703.069	48420.13
703.415	47935.84
703.76	47875.73
704.105	47793.25
704.45	47736.75
704.795	47485.91
705.14	47374.05
705.485	47311.91
705.83	47185.81
706.175	47218.12
706.52	47045.7
706.865	46881.18
707.209	46766.84
707.554	46738.59
707.899	46772.71
708.243	46567.07
708.588	46450.91
708.932	46202.56
709.277	46254.08
709.621	46202.33
709.966	45914.2
710.31	45919.4
710.654	45742.46
710.998	45786.52
711.342	45661.33
711.687	45543.59
712.031	45385.63
712.375	45186.31
712.719	45372.97
713.063	45308.12
713.407	45180.66
713.75	45005.3
714.094	44904.51
714.438	44782.48
714.782	44937.73
715.125	44629.04
715.469	44850.73
715.812	44555.14
716.156	44455.94
716.499	44431.98
716.843	44385.88
717.186	44166.9
717.53	44283.96
717.873	44233.12
718.216	44128.26
718.559	44031.54
718.902	43712.68
719.246	43847.36
719.589	43796.29
719.932	43638.56
720.275	43628.39
720.617	43642.4
720.96	43605.34
721.303	43452.57
721.646	43561.27
721.989	43342.97
722.331	43349.52
722.674	43313.37
723.016	43239.02
723.359	43241.05
723.701	43156.76
724.044	43024.56
724.386	42848.29
724.729	42997.44
725.071	42739.82
725.413	42700.28
725.755	42646.27
726.097	42637.23
726.439	42450.11
726.782	42530.11
727.124	42775.98
727.465	42302.55
727.807	42259.38
728.149	42235.88
728.491	42065.94
728.833	42125.38
729.175	41971.03
729.516	41947.08
729.858	41963.12
730.199	42004.02
730.541	41879.96
730.882	41796.34
731.224	41714.31
731.565	41515.9
731.906	41624.15
732.248	41483.36
732.589	41326.75
732.93	41388.45
733.271	41300.54
733.612	41378.28
733.953	41297.6
734.294	41077.72
734.635	41076.82
734.976	41206.3
735.317	40915.01
735.658	40866.65
735.999	40883.15
736.339	40653.55
736.68	40886.09
737.021	40619.43
737.361	40439.54
737.702	40641.12
738.042	40597.05
738.383	40449.94
738.723	40507.79
739.063	40222.83
739.404	40276.38
739.744	40132.66
740.084	40056.96
740.424	40080.01
740.764	40011.76
741.104	39972.21
741.444	39786.91
741.784	39676.63
742.124	39797.3
742.464	39640.02
742.804	39552.79
743.143	39477.76
743.483	39662.62
743.823	39322.96
744.162	39270.76
744.502	39189.63
744.841	39215.4
745.181	39054.72
745.52	38886.82
745.86	39028.96
746.199	39081.84
746.538	38818.8
746.877	38966.59
747.216	38792.13
747.556	38685.47
747.895	38559.59
748.234	38399.15
748.573	38325.48
748.911	38194.86
749.25	38296.55
749.589	38153.95
749.928	38084.8
750.267	38050.45
750.605	37978.14
750.944	37889.1
751.283	37705.38
751.621	37756.22
751.96	37534.54
752.298	37359.85
752.636	37337.7
752.975	37135.68
753.313	36905.85
