Data from white_wall_FLMS001491_028.txt Node
Date: Tue Feb 07 11:04:01 GMT 2017
User: dcchb
Spectrometer: FLMS00149
Trigger mode: 0
Integration Time (sec): 2.000000E-2
Scans to average: 10
Electric dark correction enabled: true
Nonlinearity correction enabled: false
Boxcar width: 0
XAxis mode: Wavelengths
Number of Pixels in Spectrum: 2048
>>>>>Begin Spectral Data<<<<<
341.393	-29.52
341.776	-29.52
342.16	-29.52
342.543	-51.21
342.927	-81.95
343.31	-70.65
343.693	-94.6
344.077	-50.08
344.46	-69.97
344.843	-55.96
345.226	-48.95
345.61	-28.39
345.993	-14.6
346.376	10.03
346.759	3.02
347.142	22.46
347.525	43.25
347.908	61.33
348.291	83.7
348.674	101.33
349.057	108.1
349.44	122.12
349.823	141.55
350.206	180.87
350.588	200.76
350.971	219.06
351.354	230.59
351.737	268.78
352.119	254.77
352.502	249.57
352.884	281.66
353.267	283.47
353.65	297.93
354.032	307.2
354.414	324.6
354.797	335.44
355.179	338.15
355.562	347.87
355.944	334.09
356.326	344.71
356.709	342.22
357.091	345.84
357.473	360.3
357.855	386.29
358.238	338.83
358.62	372.28
359.002	349.23
359.384	348.1
359.766	336.12
360.148	339.96
360.53	346.97
360.912	342
361.294	331.83
361.676	350.36
362.057	362.79
362.439	361.21
362.821	339.74
363.203	363.69
363.584	363.92
363.966	334.99
364.348	340.19
364.729	349.91
365.111	344.93
365.493	335.67
365.874	309.68
366.256	328.66
366.637	337.25
367.019	315.1
367.4	337.48
367.781	333.18
368.163	340.64
368.544	326.86
368.925	343.13
369.306	325.73
369.688	327.99
370.069	331.38
370.45	332.51
370.831	339.74
371.212	341.77
371.593	337.03
371.974	302.68
372.355	330.02
372.736	362.34
373.117	333.41
373.498	317.14
373.879	339.28
374.26	315.33
374.641	332.96
375.021	339.96
375.402	324.82
375.783	339.96
376.163	361.88
376.544	364.37
376.925	353.52
377.305	348.32
377.686	339.28
378.066	347.65
378.447	366.85
378.827	351.49
379.208	351.94
379.588	338.38
379.968	353.3
380.349	350.13
380.729	351.04
381.109	364.14
381.489	342.45
381.87	367.08
382.25	358.72
382.63	374.54
383.01	367.31
383.39	391.49
383.77	379.96
384.15	364.82
384.53	364.82
384.91	385.61
385.29	398.04
385.67	398.04
386.049	388.32
386.429	384.93
386.809	405.72
387.189	412.5
387.568	405.5
387.948	404.37
388.328	402.11
388.707	428.77
389.087	421.09
389.466	418.83
389.846	412.96
390.225	431.26
390.605	431.49
390.984	414.76
391.363	433.52
391.743	424.48
392.122	436.46
392.501	437.59
392.881	460.86
393.26	446.63
393.639	464.71
394.018	484.59
394.397	497.92
394.776	485.72
395.155	499.28
395.534	507.19
395.913	499.05
396.292	508.77
396.671	510.13
397.05	533.86
397.429	536.34
397.808	539.05
398.186	539.05
398.565	556.91
398.944	525.95
399.323	577.02
399.701	587.41
400.08	585.38
400.458	608.66
400.837	628.54
401.215	606.62
401.594	606.62
401.972	638.49
402.351	626.51
402.729	676.23
403.107	675.32
403.486	685.26
403.864	671.71
404.242	688.43
404.62	711.25
404.999	724.13
405.377	732.04
405.755	736.11
406.133	732.95
406.511	784.7
406.889	778.82
407.267	803.45
407.645	808.43
408.023	798.71
408.401	855.66
408.779	843.68
409.156	843.68
409.534	874.86
409.912	902.21
410.29	922.77
410.667	926.39
411.045	942.66
411.422	967.29
411.8	970.68
412.178	982.43
412.555	1004.58
412.933	1011.58
413.31	1036.67
413.687	1035.09
414.065	1076.89
414.442	1053.62
414.819	1085.71
415.197	1111.02
415.574	1154.18
415.951	1135.87
416.328	1165.93
416.705	1157.57
417.082	1132.48
417.46	1177.91
417.837	1206.38
418.214	1140.39
418.591	1218.36
418.967	1231.92
419.344	1240.73
419.721	1233.95
420.098	1253.61
420.475	1292.48
420.852	1283.21
421.228	1335.64
421.605	1297
421.982	1336.55
422.358	1371.35
422.735	1381.74
423.111	1378.35
423.488	1390.33
423.864	1406.6
424.241	1438.01
424.617	1435.53
424.994	1432.36
425.37	1455.41
425.746	1468.97
426.123	1510.78
426.499	1557.11
426.875	1542.19
427.251	1534.96
427.627	1600.27
428.003	1605.47
428.379	1616.09
428.756	1640.27
429.132	1662.19
429.507	1674.62
429.883	1696.09
430.259	1716.42
430.635	1734.05
431.011	1736.99
431.387	1789.87
431.763	1800.04
432.138	1827.16
432.514	1884.55
432.89	1862.86
433.265	1911.22
433.641	1939.02
434.016	1939.69
434.392	1995.51
434.767	1998.9
435.143	2049.07
435.518	2064.66
435.894	2046.58
436.269	2081.16
436.644	2134.72
437.02	2156.86
437.395	2169.52
437.77	2199.8
438.145	2225.56
438.52	2233.47
438.895	2246.81
439.271	2285.22
439.646	2334.03
440.021	2315.73
440.395	2361.15
440.77	2348.95
441.145	2390.3
441.52	2400.7
441.895	2419.91
442.27	2453.13
442.645	2475.05
443.019	2498.55
443.394	2485.22
443.769	2535.39
444.143	2525.22
444.518	2575.61
444.892	2576.06
445.267	2591.88
445.641	2591.2
446.016	2640.24
446.39	2657.42
446.764	2688.83
447.139	2717.53
447.513	2718.88
447.887	2727.7
448.262	2723.18
448.636	2755.04
449.01	2802.04
449.384	2834.13
449.758	2829.84
450.132	2860.35
450.506	2906.9
450.88	2912.55
451.254	2971.08
451.628	2988.25
452.002	3041.36
452.376	3053.34
452.75	3074.58
453.123	3105.77
453.497	3200
453.871	3192.77
454.244	3225.08
454.618	3264.86
454.992	3316.83
455.365	3268.47
455.739	3395.48
456.112	3376.49
456.486	3440.9
456.859	3521.57
457.232	3586.43
457.606	3584.62
457.979	3605.87
458.352	3713.21
458.725	3739.87
459.099	3727.67
459.472	3827.55
459.845	3899.87
460.218	3915.69
460.591	3940.09
460.964	3910.26
461.337	4086.76
461.71	4124.27
462.083	4166.3
462.456	4190.48
462.829	4230.48
463.201	4281.1
463.574	4350.03
463.947	4425.05
464.32	4487.88
464.692	4509.8
465.065	4590.02
465.438	4613.3
465.81	4670.02
466.183	4776.46
466.555	4862.78
466.928	4865.49
467.3	4879.5
467.672	4969.22
468.045	5119.72
468.417	5109.78
468.789	5127.86
469.161	5226.39
469.534	5340.51
469.906	5444.01
470.278	5486.95
470.65	5540.73
471.022	5602.42
471.394	5728.97
471.766	5797.22
472.138	5815.53
472.51	5941.17
472.882	6072.24
473.253	6189.07
473.625	6285.12
473.997	6366.92
474.369	6407.15
474.74	6476.52
475.112	6587.93
475.484	6783.41
475.855	6894.37
476.227	6903.41
476.598	7104.53
476.97	7202.83
477.341	7378.2
477.713	7439.44
478.084	7596.27
478.455	7755.81
478.827	7799.88
479.198	8046.88
479.569	8083.49
479.94	8262.92
480.311	8415.23
480.682	8583.81
481.053	8719.4
481.424	8940.41
481.795	9005.27
482.166	9155.78
482.537	9250.91
482.908	9441.19
483.279	9518.7
483.65	9704.24
484.021	9845.25
484.391	10019.93
484.762	10164.79
485.133	10261.06
485.503	10304.45
485.874	10568.62
486.244	10756.86
486.615	10971.1
486.985	11115.27
487.356	11284.99
487.726	11402.04
488.097	11720
488.467	11684.52
488.837	11894.69
489.207	12035.25
489.578	12254.9
489.948	12392.08
490.318	12567.89
490.688	12621.45
491.058	12791.61
491.428	13043.58
491.798	13090.59
492.168	13487.87
492.538	13541.65
492.908	13580.97
493.278	13768.54
493.648	13846.95
494.017	14007.85
494.387	14120.62
494.757	14280.61
495.126	14456.2
495.496	14529.87
495.866	14671.34
496.235	14854.16
496.605	14970.31
496.974	14988.84
497.344	15294.15
497.713	15326.01
498.082	15394.03
498.452	15658.88
498.821	15678.09
499.19	15779.33
499.559	15974.81
499.928	16086.22
500.298	16086.89
500.667	16363.27
501.036	16363.27
501.405	16519.2
501.774	16579.99
502.143	16752.64
502.512	16864.5
502.88	17047.32
503.249	17078.73
503.618	17183.81
503.987	17313.98
504.356	17419.74
504.724	17536.8
505.093	17666.96
505.462	17811.14
505.83	17960.97
506.199	17960.29
506.567	18181.53
506.936	18350.11
507.304	18538.35
507.672	18715.75
508.041	18684.57
508.409	18984.9
508.777	18974.95
509.145	19163.2
509.514	19275.96
509.882	19336.98
510.25	19471.66
510.618	19800.92
510.986	19773.8
511.354	20016.73
511.722	20186.67
512.09	20346.44
512.458	20296.95
512.826	20616.72
513.193	20589.6
513.561	20738.3
513.929	20882.25
514.297	21192.52
514.664	21409.69
515.032	21499.86
515.4	21644.94
515.767	21706.41
516.135	21917.02
516.502	21707.76
516.869	22271.59
517.237	22333.73
517.604	22251.48
517.972	22586.38
518.339	22726.72
518.706	22703.22
519.073	23001.51
519.44	23172.58
519.808	23330.54
520.175	23492.12
520.542	23707.71
520.909	23796.07
521.276	23937.76
521.643	24175.72
522.009	24343.4
522.376	24489.16
522.743	24744.29
523.11	25082.82
523.477	25171.17
523.843	25245.97
524.21	25620.88
524.577	25789.46
524.943	25798.73
525.31	26132.05
525.676	26292.5
526.043	26335.66
526.409	26661.53
526.776	26811.58
527.142	26875.31
527.508	27081.41
527.874	27450.89
528.241	27462.41
528.607	27478.46
528.973	27796.19
529.339	27747.83
529.705	28106.92
530.071	28400.47
530.437	28499
530.803	28657.64
531.169	28711.87
531.535	28763.85
531.901	28915.71
532.267	29157.28
532.632	29302.59
532.998	29301.24
533.364	29606.76
533.73	29549.82
534.095	29901.45
534.461	30044.94
534.826	30167.88
535.192	30220.99
535.557	30470.02
535.923	30429.12
536.288	30678.37
536.653	30748.2
537.019	30770.58
537.384	31051.02
537.749	31274.74
538.114	31308.41
538.479	31299.83
538.845	31479.03
539.21	31514.96
539.575	31661.4
539.94	31836.76
540.305	32030.88
540.67	32002.63
541.034	32098.9
541.399	32334.15
541.764	32409.4
542.129	32550.87
542.494	32566.46
542.858	32825.44
543.223	32767.81
543.587	33107.46
543.952	33106.78
544.316	33265.42
544.681	33235.37
545.045	33489.37
545.41	33638.07
545.774	33660.89
546.138	33742.7
546.503	33886.2
546.867	33966.88
547.231	34252.52
547.595	34426.07
547.959	34425.39
548.324	34505.39
548.688	34623.58
549.052	34856.34
549.416	34840.07
549.779	35042.55
550.143	35127.52
550.507	35471.92
550.871	35503.33
551.235	35501.3
551.599	35830.78
551.962	36014.51
552.326	36112.36
552.689	36273.26
553.053	36247.27
553.417	36452.01
553.78	36759.8
554.143	36707.82
554.507	36948.94
554.87	37082.27
555.234	37481.36
555.597	37355.03
555.96	37346.9
556.323	37524.97
556.686	37696.04
557.05	38010.84
557.413	38125.18
557.776	38213.09
558.139	38481.56
558.502	38624.38
558.865	38719.07
559.228	39047.42
559.59	39213.29
559.953	39397.24
560.316	39641.3
560.679	39719.04
561.041	39919.71
561.404	40018.02
561.767	40277.9
562.129	40297.1
562.492	40671.11
562.854	40822.97
563.217	40860.48
563.579	40989.74
563.941	41307.93
564.304	41420.01
564.666	41646.9
565.028	41670.63
565.39	41935.03
565.753	42023.16
566.115	42176.15
566.477	42430.61
566.839	42562.58
567.201	42753.54
567.563	42775.68
567.925	43096.35
568.287	43054.55
568.648	43138.61
569.01	43532.73
569.372	43786.05
569.734	43533.4
570.095	43883.9
570.457	43989.21
570.819	44132.94
571.18	44162.99
571.542	44314.17
571.903	44455.19
572.265	44593.49
572.626	44668.06
572.987	44793.94
573.349	44957.09
573.71	45188.5
574.071	45277.99
574.432	45357.54
574.794	45604.31
575.155	45689.73
575.516	45512.56
575.877	45642.05
576.238	46028.48
576.599	45858.09
576.96	45976.28
577.32	45978.54
577.681	46099.21
578.042	46225.99
578.403	46332.88
578.763	46263.28
579.124	46237.51
579.485	46569.03
579.845	46615.58
580.206	46505.98
580.566	46632.76
580.927	46542.59
581.287	46688.12
581.648	46707.11
582.008	46877.27
582.368	46709.59
582.728	46847.89
583.089	46790.04
583.449	46801.79
583.809	46896.48
584.169	46960.21
584.529	46793.43
584.889	47169.01
585.249	46929.47
585.609	46778.97
585.969	46985.52
586.329	46804.05
586.688	47035.46
587.048	47042.46
587.408	46835.01
587.768	46826.88
588.127	46845.18
588.487	46820.32
588.846	47211.95
589.206	46834.79
589.565	46892.41
589.925	47137.83
590.284	46888.8
590.643	46983.26
591.003	47103.7
591.362	47219.86
591.721	47086.76
592.08	47199.75
592.44	47241.33
592.799	47191.84
593.158	47044.5
593.517	47098.28
593.876	47226.19
594.235	47093.54
594.593	47193.42
594.952	47309.35
595.311	47145.51
595.67	47350.7
596.029	47555.9
596.387	47486.75
596.746	47512.28
597.104	47402.91
597.463	47334.89
597.822	47467.99
598.18	47271.61
598.538	47423.7
598.897	47511.15
599.255	47272.06
599.613	47765.83
599.972	47507.08
600.33	47721.77
600.688	47552.73
601.046	47632.73
601.404	47851.03
601.762	47774.42
602.12	47945.49
602.478	47830.24
602.836	47802.44
603.194	47760.41
603.552	47890.12
603.91	47739.85
604.268	47885.61
604.625	47895.77
604.983	48092.83
605.341	47972.38
605.698	47969.22
606.056	48082.44
606.413	48159.72
606.771	48143.9
607.128	48197.01
607.485	48038.37
607.843	48058.71
608.2	48369.66
608.557	48376.21
608.914	48343.9
609.272	48523.33
609.629	48483.78
609.986	48528.75
610.343	48472.71
610.7	48712.25
611.057	48644.23
611.414	48604.46
611.771	48605.81
612.127	48873.15
612.484	48929.87
612.841	48784.11
613.198	48724
613.554	48899.59
613.911	49123.09
614.267	49041.06
614.624	48980.04
614.98	49045.12
615.337	49281.5
615.693	49197.44
616.05	49193.59
616.406	49450.99
616.762	49242.41
617.118	49257.77
617.475	49293.03
617.831	49313.82
618.187	49489.63
618.543	49369.18
618.899	49576.63
619.255	49476.3
619.611	49617.76
619.967	49615.96
620.323	49755.84
620.678	49512.46
621.034	49480.59
621.39	49451.67
621.746	49455.28
622.101	49962.16
622.457	49525.79
622.812	49633.13
623.168	49719.68
623.523	49774.37
623.879	49755.61
624.234	49495.51
624.589	49731.66
624.945	49748.61
625.3	49743.86
625.655	49684.88
626.01	49668.16
626.365	49701.83
626.72	49658.44
627.075	49682.85
627.43	49559.23
627.785	49528.95
628.14	49589.74
628.495	49707.48
628.85	49620.93
629.205	49547.03
629.559	49789.06
629.914	49544.09
630.269	49603.53
630.623	49414.83
630.978	49436.98
631.332	49523.08
631.687	49598.1
632.041	49532.57
632.396	49418.45
632.75	49281.5
633.104	49466.35
633.459	49190.66
633.813	49257.32
634.167	49150.2
634.521	49188.85
634.875	49137.32
635.229	49243.08
635.583	48983.2
635.937	49009.19
636.291	49007.84
636.645	49008.97
636.999	48861.62
637.352	48966.48
637.706	48657.56
638.06	48952.7
638.413	48795.86
638.767	48690.1
639.121	48832.02
639.474	48554.29
639.828	48605.36
640.181	48693.04
640.534	48613.04
640.888	48455.76
641.241	48354.75
641.594	48499.6
641.947	48598.13
642.301	48386.38
642.654	48518.13
643.007	48284.92
643.36	48336.21
643.713	48331.02
644.066	48414.18
644.419	48199.27
644.771	47934.19
645.124	47579.85
645.477	47427.54
645.83	47161.33
646.182	47086.76
646.535	46917.04
646.888	47031.84
647.24	46815.58
647.593	47088.56
647.945	46906.42
648.298	46738.06
648.65	46654
649.002	46522.7
649.355	46663.04
649.707	46574.91
650.059	46832.07
650.411	47172.4
650.763	47161.56
651.115	47597.25
651.467	47410.59
651.819	47506.86
652.171	47262.8
652.523	47317.94
652.875	47230.71
653.227	47027.55
653.578	47402
653.93	47263.7
654.282	47032.97
654.633	47065.97
654.985	47149.81
655.337	46983.71
655.688	47173.53
656.039	47203.82
656.391	46756.82
656.742	47013.31
657.094	46930.6
657.445	47039.07
657.796	46877.95
658.147	46900.32
658.498	46735.81
658.849	46877.72
659.2	46862.36
659.551	46818.06
659.902	46742.58
660.253	46738.97
660.604	46756.6
660.955	46501.01
661.306	46837.95
661.656	46691.06
662.007	46597.5
662.358	46441.8
662.708	46626.43
663.059	46489.03
663.409	46197.97
663.76	46415.14
664.11	46359.32
664.461	46449.94
664.811	46418.3
665.161	46461.69
665.511	46335.59
665.862	46311.41
666.212	46433.89
666.562	46370.84
666.912	46334.46
667.262	46166.78
667.612	46212.43
667.962	46249.49
668.312	46246.78
668.662	46483.38
669.011	46301.92
669.361	46100.34
669.711	46105.99
670.06	46076.61
670.41	46023.06
670.76	45924.07
671.109	45948.26
671.459	45925.66
671.808	45855.83
672.157	46022.38
672.507	45752.33
672.856	45757.98
673.205	45778.09
673.554	45966.79
673.904	45806.34
674.253	45959.33
674.602	45831.42
674.951	45143.08
675.3	45011.78
675.649	45528.15
675.998	45520.92
676.346	45531.99
676.695	45637.08
677.044	45304.88
677.393	45468.95
677.741	45472.79
678.09	45318.44
678.438	45238.67
678.787	45289.97
679.135	45352.11
679.484	45012.01
679.832	45154.83
680.181	45111.67
680.529	45064.21
680.877	44986.47
681.225	44762.75
681.573	45013.82
681.922	44729.53
682.27	44592.36
682.618	44711.68
682.966	44412.02
683.314	44591.68
683.661	44624.22
684.009	44202.54
684.357	44224.68
684.705	44125.7
685.053	44299.94
685.4	44105.59
685.748	43867.18
686.095	43971.36
686.443	43777.92
686.79	43692.5
687.138	43636.9
687.485	43749.67
687.832	43628.99
688.18	43593.51
688.527	43325.95
688.874	43296.8
689.221	43179.06
689.568	43068.33
689.915	42993.98
690.262	42991.95
690.609	42840.09
690.956	42620.43
691.303	42773.65
691.65	42648.91
691.997	42486.43
692.344	42214.34
692.69	42314.9
693.037	42176.15
693.383	41928.25
693.73	42071.07
694.077	41671.98
694.423	41646.9
694.769	41507.47
695.116	41463.4
695.462	41396.51
695.808	41266.12
696.155	41181.37
696.501	40959.69
696.847	41127.36
697.193	40759.01
697.539	40997.2
697.885	40594.95
698.231	40396.54
698.577	40581.62
698.923	40411.9
699.269	40213.04
699.614	40018.47
699.96	40034.29
700.306	40015.53
700.651	39853.05
700.997	39732.15
701.342	39589.1
701.688	39510.01
702.033	39384.81
702.379	39526.5
702.724	39325.15
703.069	39409.44
703.415	38879.29
703.76	38922.23
704.105	39004.71
704.45	38773.53
704.795	38634.1
705.14	38581.9
705.485	38510.48
705.83	38490.6
706.175	38409.92
706.52	38305.29
706.865	38156.14
707.209	38203.6
707.554	38033.89
707.899	38075.69
708.243	37771.97
708.588	37749.15
708.932	37572.43
709.277	37562.71
709.621	37626.21
709.966	37340.57
710.31	37448.37
710.654	37127.7
710.998	37253.57
711.342	37308.03
711.687	37044.08
712.031	36912.33
712.375	36954.59
712.719	36846.12
713.063	36869.4
713.407	36747.59
713.75	36669.4
714.094	36651.55
714.438	36507.83
714.782	36562.74
715.125	36320.94
715.469	36419.69
715.812	36135.86
716.156	36115.52
716.499	35954.39
716.843	36101.51
717.186	35685.7
717.53	35997.56
717.873	35816.32
718.216	35867.39
718.559	35797.11
718.902	35478.93
719.246	35564.12
719.589	35352.15
719.932	35187.63
720.275	35263.11
720.617	35194.41
720.96	35055.21
721.303	35123.91
721.646	35102.66
721.989	34948.77
722.331	34973.85
722.674	34857.93
723.016	34905.16
723.359	34853.41
723.701	34766.18
724.044	34714.65
724.386	34403.47
724.729	34607.31
725.071	34549.23
725.413	34507.88
725.755	34462.23
726.097	34293.42
726.439	34084.16
726.782	34250.26
727.124	34294.32
727.465	34164.61
727.807	34114.67
728.149	34139.53
728.491	33964.62
728.833	34074.9
729.175	33795.13
729.516	33913.32
729.858	33834.45
730.199	33750.61
730.541	33632.19
730.882	33707.67
731.224	33805.52
731.565	33519.2
731.906	33343.39
732.248	33566.66
732.589	33312.43
732.93	33243.28
733.271	33363.05
733.612	33311.07
733.953	33260.68
734.294	33126.22
734.635	33009.16
734.976	33110.4
735.317	32989.73
735.658	32862.05
735.999	32762.16
736.339	32827.92
736.68	32815.72
737.021	32627.02
737.361	32539.12
737.702	32744.53
738.042	32642.62
738.383	32512.22
738.723	32622.5
739.063	32434.26
739.404	32577.53
739.744	32414.6
740.084	32151.1
740.424	32431.32
740.764	32180.93
741.104	32267.94
741.444	32039.47
741.784	32061.39
742.124	32180.26
742.464	32074.27
742.804	31908.17
743.143	31773.26
743.483	31860.49
743.823	31644.68
744.162	31684.68
744.502	31664.11
744.841	31557.45
745.181	31694.62
745.52	31491.69
745.86	31465.02
746.199	31363.55
746.538	31392.48
746.877	31422.54
747.216	31312.93
747.556	31372.37
747.895	31306.83
748.234	31140.28
748.573	31050.57
748.911	31047.63
749.25	31090.34
749.589	30929.67
749.928	30924.7
750.267	31016.9
750.605	30748.65
750.944	30734.42
751.283	30631.82
751.621	30622.78
751.96	30461.66
752.298	30373.3
752.636	30401.32
752.975	30286.29
753.313	30235.22
