Data from whiteboard_FLMS001491_00023.txt Node
Date: Wed Feb 08 11:25:49 GMT 2017
User: dcchb
Spectrometer: FLMS00149
Trigger mode: 0
Integration Time (sec): 2.000000E-2
Scans to average: 10
Electric dark correction enabled: true
Nonlinearity correction enabled: false
Boxcar width: 0
XAxis mode: Wavelengths
Number of Pixels in Spectrum: 2048
>>>>>Begin Spectral Data<<<<<
341.393	-8.53
341.776	-8.53
342.16	-8.53
342.543	-61.86
342.927	-43.33
343.31	-86.95
343.693	-56.67
344.077	-51.92
344.46	-61.41
344.843	-48.08
345.226	-30.9
345.61	-26.16
345.993	-25.93
346.376	-6.95
346.759	20.17
347.142	15.42
347.525	37.34
347.908	45.03
348.291	74.4
348.674	94.07
349.057	108.53
349.44	141.3
349.823	133.16
350.206	170.67
350.588	240.28
350.971	235.08
351.354	274.17
351.737	262.42
352.119	285.92
352.502	302.42
352.884	319.37
353.267	311.46
353.65	328.86
354.032	341.74
354.414	355.3
354.797	365.24
355.179	364.57
355.562	347.39
355.944	367.96
356.326	372.02
356.709	386.26
357.091	384
357.473	385.36
357.855	383.78
358.238	393.94
358.62	384
359.002	404.57
359.384	386.71
359.766	398.24
360.148	369.76
360.53	373.61
360.912	382.19
361.294	393.27
361.676	377.22
362.057	377.67
362.439	369.54
362.821	389.2
363.203	392.14
363.584	372.7
363.966	375.87
364.348	390.1
364.729	375.87
365.111	382.42
365.493	388.07
365.874	389.42
366.256	377.22
366.637	391.01
367.019	384.23
367.4	375.19
367.781	375.19
368.163	372.7
368.544	387.39
368.925	405.92
369.306	399.82
369.688	387.39
370.069	381.97
370.45	381.97
370.831	390.78
371.212	391.68
371.593	380.61
371.974	403.21
372.355	388.97
372.736	387.16
373.117	399.14
373.498	379.48
373.879	381.74
374.26	400.5
374.641	384
375.021	407.96
375.402	410.22
375.783	401.63
376.163	420.38
376.544	437.79
376.925	421.29
377.305	415.86
377.686	433.94
378.066	422.64
378.447	430.78
378.827	424.23
379.208	437.33
379.588	439.14
379.968	433.04
380.349	457.22
380.729	458.8
381.109	449.08
381.489	449.76
381.87	437.56
382.25	447.95
382.63	449.76
383.01	472.81
383.39	475.52
383.77	473.04
384.15	469.2
384.53	484.79
384.91	491.79
385.29	501.96
385.67	478.69
386.049	513.72
386.429	499.93
386.809	500.83
387.189	503.77
387.568	516.43
387.948	506.48
388.328	534.05
388.707	522.08
389.087	526.82
389.466	544
389.846	546.26
390.225	562.3
390.605	565.69
390.984	572.24
391.363	580.38
391.743	560.49
392.122	579.7
392.501	606.14
392.881	607.72
393.26	630.77
393.639	634.39
394.018	619.93
394.397	630.32
394.776	647.95
395.155	639.59
395.534	644.11
395.913	657.89
396.292	679.59
396.671	696.08
397.05	692.24
397.429	679.36
397.808	683.88
398.186	709.87
398.565	746.93
398.944	710.09
399.323	745.12
399.701	759.81
400.08	758.23
400.458	765.91
400.837	806.81
401.215	794.84
401.594	818.11
401.972	798
402.351	843.42
402.729	846.14
403.107	836.19
403.486	881.62
403.864	901.95
404.242	888.62
404.62	915.96
404.999	932.01
405.377	922.07
405.755	967.04
406.133	974.04
406.511	1005.68
406.889	1001.39
407.267	1031.44
407.645	1049.97
408.023	1066.02
408.401	1080.48
408.779	1091.1
409.156	1123.64
409.534	1129.52
409.912	1148.27
410.29	1186.69
410.667	1189.86
411.045	1211.32
411.422	1233.7
411.8	1255.84
412.178	1263.07
412.555	1313.92
412.933	1332.45
413.31	1377.42
413.687	1390.3
414.065	1403.86
414.442	1431.88
414.819	1407.48
415.197	1451.32
415.574	1516.4
415.951	1496.51
416.328	1545.78
416.705	1536.97
417.082	1560.24
417.46	1583.07
417.837	1620.58
418.214	1609.28
418.591	1623.74
418.967	1642.73
419.344	1668.04
419.721	1688.15
420.098	1708.49
420.475	1743.97
420.852	1749.84
421.228	1771.99
421.605	1835.94
421.982	1821.48
422.358	1847.69
422.735	1849.73
423.111	1877.52
423.488	1943.06
423.864	1932.66
424.241	1967.91
424.617	1995.48
424.994	1994.35
425.37	2011.76
425.746	2040
426.123	2088.59
426.499	2066.22
426.875	2107.12
427.251	2161.81
427.627	2231.86
428.003	2232.09
428.379	2282.71
428.756	2288.81
429.132	2324.74
429.507	2361.8
429.883	2397.96
430.259	2393.89
430.635	2437.73
431.011	2485.64
431.387	2522.93
431.763	2557.28
432.138	2578.75
432.514	2592.98
432.89	2656.26
433.265	2699.42
433.641	2750.72
434.016	2744.17
434.392	2846.31
434.767	2877.49
435.143	2883.37
435.518	2889.92
435.894	2972.41
436.269	2977.38
436.644	3020.32
437.02	3030.94
437.395	3071.61
437.77	3135.79
438.145	3193.42
438.52	3190.93
438.895	3275.9
439.271	3256.92
439.646	3337.6
440.021	3342.57
440.395	3350.02
440.77	3343.7
441.145	3428.67
441.52	3472.51
441.895	3482.45
442.27	3529.23
442.645	3497.37
443.019	3590.24
443.394	3591.37
443.769	3652.16
444.143	3578.27
444.518	3665.04
444.892	3653.52
445.267	3738.49
445.641	3756.57
446.016	3777.36
446.39	3850.58
446.764	3839.96
447.139	3851.71
447.513	3915.21
447.887	3944.13
448.262	3991.59
448.636	3979.61
449.01	4033.17
449.384	4102.32
449.758	4123.79
450.132	4164.92
450.506	4199.95
450.88	4219.15
451.254	4236.1
451.628	4302.54
452.002	4358.13
452.376	4403.33
452.75	4444.23
453.123	4471.35
453.497	4549.77
453.871	4596.32
454.244	4663.89
454.618	4683.78
454.992	4782.53
455.365	4782.53
455.739	4909.76
456.112	4989.08
456.486	4961.06
456.859	5058.23
457.232	5185
457.606	5125.35
457.979	5261.39
458.352	5340.71
458.725	5402.4
459.099	5513.58
459.472	5578.89
459.845	5662.28
460.218	5705.44
460.591	5765.78
460.964	5803.52
461.337	5899.34
461.71	6008.94
462.083	6144.75
462.456	6145.43
462.829	6127.58
463.201	6270.63
463.574	6318.31
463.947	6367.8
464.32	6516.5
464.692	6564.86
465.065	6630.16
465.438	6742.7
465.81	6838.07
466.183	6885.98
466.555	7050.94
466.928	7076.48
467.3	7133.88
467.672	7216.59
468.045	7426.3
468.417	7437.83
468.789	7473.08
469.161	7600.99
469.534	7736.8
469.906	7869.23
470.278	7989
470.65	8013.18
471.022	8204.36
471.394	8409.1
471.766	8452.49
472.138	8549.21
472.51	8694.97
472.882	8908.97
473.253	9005.24
473.625	9218.12
473.997	9402.52
474.369	9454.27
474.74	9564.1
475.112	9718.45
475.484	9869.4
475.855	10034.82
476.227	10166.12
476.598	10468.71
476.97	10575.82
477.341	10780.56
477.713	10881.8
478.084	11021.46
478.455	11291.74
478.827	11363.15
479.198	11708.9
479.569	11750.03
479.94	12142.11
480.311	12240.19
480.682	12493.51
481.053	12736.9
481.424	12992.71
481.795	13064.35
482.166	13289.2
482.537	13399.7
482.908	13818.22
483.279	13820.71
483.65	14206.01
484.021	14384.99
484.391	14600.58
484.762	14746.79
485.133	14911.3
485.503	15138.87
485.874	15450.95
486.244	15663.37
486.615	15927.32
486.985	16123.02
487.356	16423.13
487.726	16574.08
488.097	16978.82
488.467	17027.18
488.837	17365.02
489.207	17591.46
489.578	17830.1
489.948	18034.84
490.318	18267.6
490.688	18341.04
491.058	18662.16
491.428	18860.13
491.798	19135.37
492.168	19429.6
492.538	19536.49
492.908	19823.94
493.278	19992.53
493.648	20048.34
494.017	20380.54
494.387	20564.49
494.757	20691.26
495.126	20838.38
495.496	20933.29
495.866	21056.23
496.235	21421.19
496.605	21563.56
496.974	21621.18
497.344	21844.68
497.713	22044.9
498.082	22193.37
498.452	22422.97
498.821	22514.49
499.19	22592
499.559	22833.35
499.928	23031.54
500.298	23245.1
500.667	23507.91
501.036	23426.11
501.405	23753.33
501.774	23743.84
502.143	23881.24
502.512	24048.46
502.88	24364.84
503.249	24496.59
503.618	24680.09
503.987	24754.89
504.356	24916.24
504.724	25117.36
505.093	25284.36
505.462	25429.9
505.83	25606.16
506.199	25876.89
506.567	26243.21
506.936	26138.58
507.304	26595.97
507.672	26625.8
508.041	26727.04
508.409	26971.1
508.777	27166.12
509.145	27322.73
509.514	27422.39
509.882	27641.36
510.25	27668.03
510.618	27907.57
510.986	27980.79
511.354	28442.47
511.722	28538.29
512.09	28764.5
512.458	28641.79
512.826	28988.9
513.193	29144.83
513.561	29260.08
513.929	29494.65
514.297	29722.21
514.664	29969.66
515.032	30095.99
515.4	30379.37
515.767	30573.49
516.135	30619.82
516.502	30605.81
516.869	31151.1
517.237	31386.35
517.604	31356.29
517.972	31703.86
518.339	31918.77
518.706	32035.15
519.073	32314.69
519.44	32490.28
519.808	32952.18
520.175	32946.08
520.542	33400.31
520.909	33628.1
521.276	33576.8
521.643	33955.32
522.009	34356.22
522.376	34456.78
522.743	34623.33
523.11	35175.85
523.477	35354.61
523.843	35730.19
524.21	35963.86
524.577	36264.41
524.943	36480
525.31	36586.67
525.676	36954.34
526.043	37219.42
526.409	37356.81
526.776	37707.99
527.142	37855.11
527.508	38077.02
527.874	38430.68
528.241	38550
528.607	38654.63
528.973	38945.7
529.339	39054.62
529.705	39400.6
530.071	39677.21
530.437	39851.21
530.803	40030.19
531.169	40260.47
531.535	40183.18
531.901	40336.62
532.267	40624.3
532.632	40917.85
532.998	41027.68
533.364	41243.72
533.73	41380.89
534.095	41735.46
534.461	41853.87
534.826	42111.27
535.192	42099.06
535.557	42497.24
535.923	42540.41
536.288	42781.08
536.653	42962.99
537.019	42901.3
537.384	43221.74
537.749	43352.81
538.114	43595.52
538.479	43544.45
538.845	43969.07
539.21	43813.82
539.575	44254.03
539.94	44148.05
540.305	44506
540.67	44486.8
541.034	44607.7
541.399	44904.41
541.764	45011.53
542.129	45251.75
542.494	45233.67
542.858	45536.49
543.223	45485.19
543.587	45599.08
543.952	45694.45
544.316	45810.38
544.681	45764.5
545.045	45930.83
545.41	46259.18
545.774	46246.75
546.138	46426.41
546.503	46591.37
546.867	46693.74
547.231	46927.18
547.595	46899.61
547.959	47152.71
548.324	47150.68
548.688	47413.05
549.052	47393.16
549.416	47499.15
549.779	47667.5
550.143	47620.05
550.507	47964.22
550.871	48090.77
551.235	48227.26
551.599	48398.11
551.962	48450.53
552.326	48549.97
552.689	48893.69
553.053	48661.38
553.417	48935.27
553.78	49352.43
554.143	49284.86
554.507	49458.19
554.87	49593.78
555.234	49910.16
555.597	49700.44
555.96	49953.32
556.323	50110.6
556.686	50149.7
557.05	50384.27
557.413	50541.55
557.776	50592.62
558.139	50857.02
558.502	50949.23
558.865	50873.07
559.228	51297.46
559.59	51299.95
559.953	51306.73
560.316	51624.91
560.679	51620.17
561.041	51820.84
561.404	52019.71
561.767	52168.63
562.129	52043.66
562.492	52400.94
562.854	52391
563.217	52498.79
563.579	52649.07
563.941	52753.25
564.304	52946.23
564.666	53092.45
565.028	53203.86
565.39	53264.87
565.753	53454.92
566.115	53540.34
566.477	53624.41
566.839	53786.89
567.201	53983.95
567.563	53970.61
567.925	54135.81
568.287	54206.77
568.648	54284.05
569.01	54508.23
569.372	54619.41
569.734	54553.88
570.095	54742.12
570.457	54872.96
570.819	54890.82
571.18	54975.33
571.542	55124.48
571.903	55167.65
572.265	55293.52
572.626	55430.01
572.987	55376.68
573.349	55500.07
573.71	55646.5
574.071	55702.32
574.432	55756.1
574.794	55926.5
575.155	55950.9
575.516	55887.85
575.877	56032.93
576.238	56045.14
576.599	56081.52
576.96	56205.13
577.32	56237.67
577.681	56329.87
578.042	56345.02
578.403	56348.86
578.763	56381.62
579.124	56465.92
579.485	56523.99
579.845	56555.63
580.206	56599.25
580.566	56533.71
580.927	56610.77
581.287	56658
581.648	56532.81
582.008	56756.76
582.368	56650.54
582.728	56765.8
583.089	56705.46
583.449	56720.15
583.809	56755.4
584.169	56837.21
584.529	56666.36
584.889	56906.13
585.249	56739.81
585.609	56757.21
585.969	56841.27
586.329	56797.66
586.688	56829.07
587.048	56873.36
587.408	56843.53
587.768	56822.52
588.127	56766.02
588.487	56769.41
588.846	56946.36
589.206	56759.69
589.565	56803.99
589.925	56952.23
590.284	56805.12
590.643	56951.1
591.003	56973.25
591.362	57070.19
591.721	56978.9
592.08	57014.38
592.44	57086.92
592.799	57090.31
593.158	57064.54
593.517	57083.3
593.876	57137.31
594.235	57059.8
594.593	57098.67
594.952	57150.19
595.311	57118.33
595.67	57140.93
596.029	57287.82
596.387	57266.8
596.746	57375.27
597.104	57254.6
597.463	57224.54
597.822	57401.94
598.18	57222.73
598.538	57215.95
598.897	57346.12
599.255	57112.91
599.613	57515.15
599.972	57335.95
600.33	57447.13
600.688	57291.88
601.046	57377.08
601.404	57462.95
601.762	57408.26
602.12	57522.84
602.478	57444.42
602.836	57428.38
603.194	57375.5
603.552	57356.06
603.91	57289.62
604.268	57380.47
604.625	57358.32
604.983	57417.08
605.341	57338.89
605.698	57469.28
606.056	57466.34
606.413	57432.67
606.771	57557.64
607.128	57563.74
607.485	57513.57
607.843	57515.15
608.2	57653
608.557	57740.01
608.914	57580.92
609.272	57760.8
609.629	57792.66
609.986	57883.51
610.343	57741.82
610.7	57966.67
611.057	57982.71
611.414	57837.41
611.771	57937.06
612.127	58072.65
612.484	58099.77
612.841	58153.1
613.198	58067.68
613.554	58064.74
613.911	58198.3
614.267	58207.11
614.624	58129.83
614.98	58217.06
615.337	58339.31
615.693	58257.96
616.05	58247.79
616.406	58451.4
616.762	58346.32
617.118	58356.71
617.475	58356.26
617.831	58471.06
618.187	58493.43
618.543	58522.36
618.899	58665.86
619.255	58512.19
619.611	58546.09
619.967	58639.42
620.323	58663.6
620.678	58624.05
621.034	58485.75
621.39	58533.43
621.746	58531.85
622.101	58704.73
622.457	58547.22
622.812	58631.96
623.168	58675.35
623.523	58626.99
623.879	58690.49
624.234	58535.01
624.589	58574.11
624.945	58580.66
625.3	58631.96
625.655	58528.69
626.01	58542.02
626.365	58575.92
626.72	58518.74
627.075	58504.96
627.43	58435.81
627.785	58406.88
628.14	58413.89
628.495	58382.48
628.85	58369.6
629.205	58265.64
629.559	58361.91
629.914	58227.9
630.269	58260.9
630.623	58139.77
630.978	58138.64
631.332	58217.06
631.687	58221.58
632.041	58108.13
632.396	58179.32
632.75	58096.16
633.104	58090.05
633.459	58020.45
633.813	57980.68
634.167	57951.08
634.521	57989.49
634.875	57991.75
635.229	57911.3
635.583	57850.96
635.937	57872.21
636.291	57956.05
636.645	57900.68
636.999	57789.72
637.352	57915.6
637.706	57695.94
638.06	57812.55
638.413	57757.86
638.767	57758.31
639.121	57755.37
639.474	57605.32
639.828	57686
640.181	57700.46
640.534	57684.64
640.888	57632.44
641.241	57482.61
641.594	57576.17
641.947	57655.26
642.301	57559
642.654	57630.86
643.007	57620.69
643.36	57548.6
643.713	57508.83
644.066	57633.34
644.419	57426.34
644.771	57321.71
645.124	56998.56
645.477	57021.38
645.83	56781.16
646.182	56640.83
646.535	56642.63
646.888	56665.91
647.24	56458.46
647.593	56622.3
647.945	56566.48
648.298	56360.83
648.65	56299.37
649.002	56276.54
649.355	56388.63
649.707	56376.65
650.059	56436.99
650.411	56742.52
650.763	56776.64
651.115	57027.26
651.467	56887.15
651.819	56802.18
652.171	56725.12
652.523	56701.84
652.875	56693.03
653.227	56586.59
653.578	56775.06
653.93	56653.26
654.282	56540.49
654.633	56443.32
654.985	56451.68
655.337	56441.06
655.688	56460.04
656.039	56535.52
656.391	56218.92
656.742	56347.73
657.094	56265.92
657.445	56420.27
657.796	56320.84
658.147	56258.01
658.498	56264.34
658.849	56263.44
659.2	56174.85
659.551	56127.17
659.902	56152.48
660.253	56126.49
660.604	56149.31
660.955	56014.63
661.306	56078.58
661.656	56065.02
662.007	56007.62
662.358	56084.01
662.708	55986.38
663.059	56019.37
663.409	55775.31
663.76	56021.86
664.11	56013.72
664.461	56002.43
664.811	55950.45
665.161	56015.53
665.511	55917.91
665.862	55979.38
666.212	56050.56
666.562	55995.87
666.912	56021.63
667.262	55969.43
667.612	56004.23
667.962	56034.74
668.312	55920.39
668.662	56139.15
669.011	55924.91
669.361	55922.43
669.711	55863.67
670.06	55839.49
670.41	55857.12
670.76	55773.96
671.109	55893.73
671.459	55806.27
671.808	55780.96
672.157	55804.46
672.507	55557.47
672.856	55672.72
673.205	55665.03
673.554	55758.59
673.904	55693.73
674.253	55766.5
674.602	55588.43
674.951	55148.21
675.3	55075.44
675.649	55480.63
675.998	55498.48
676.346	55398.15
676.695	55528.09
677.044	55344.36
677.393	55395.89
677.741	55433.63
678.09	55389.56
678.438	55161.77
678.787	55288.55
679.135	55267.98
679.484	55080.42
679.832	55122.9
680.181	54966.97
680.529	55014.43
680.877	54940.76
681.225	54851.95
681.573	54973.3
681.922	54779.86
682.27	54708.45
682.618	54712.29
682.966	54631.39
683.314	54606.3
683.661	54589.81
684.009	54439.3
684.357	54414.9
684.705	54329.48
685.053	54355.24
685.4	54232.75
685.748	54167.22
686.095	54149.59
686.443	54027.11
686.79	53931.29
687.138	54038.86
687.485	53939.2
687.832	53879.77
688.18	53856.72
688.527	53712.54
688.874	53650.4
689.221	53563.85
689.568	53597.29
689.915	53386
690.262	53492.66
690.609	53317.75
690.956	53219.45
691.303	53147.59
691.65	53081.6
691.997	52905.11
692.344	52872.34
692.69	52845.67
693.037	52821.72
693.383	52522.07
693.73	52743.98
694.077	52591.22
694.423	52540.6
694.769	52456.53
695.116	52365.46
695.462	52269.87
695.808	52251.34
696.155	52238
696.501	51979.93
696.847	51981.06
697.193	51849.99
697.539	51818.36
697.885	51603.9
698.231	51616.1
698.577	51632.37
698.923	51563.67
699.269	51463.34
699.614	51324.58
699.96	51130.46
700.306	51303.57
700.651	51053.4
700.997	51047.75
701.342	50950.58
701.688	50895.44
702.033	50851.6
702.379	50705.16
702.724	50584.26
703.069	50654.09
703.415	50276.25
703.76	50363.03
704.105	50307.66
704.45	50172.75
704.795	49982.7
705.14	49811.85
705.485	49800.1
705.83	49668.13
706.175	49684.4
706.52	49622.71
706.865	49498.87
707.209	49532.31
707.554	49253.22
707.899	49462.03
708.243	48970.07
708.588	49044.64
708.932	48636.07
709.277	48672
709.621	48764.88
709.966	48498.67
710.31	48483.08
710.654	48199.02
710.998	48316.98
711.342	48208.28
711.687	48084.44
712.031	47982.52
712.375	47743.21
712.719	47858.23
713.063	47670.89
713.407	47782.75
713.75	47568.07
714.094	47620.27
714.438	47316.55
714.782	47307.97
715.125	47137.57
715.469	47345.93
715.812	46923.57
716.156	46782.33
716.499	46804.02
716.843	46776.45
717.186	46526.74
717.53	46680.41
717.873	46796.57
718.216	46488.78
718.559	46227.09
718.902	46110.03
719.246	46113.42
719.589	45959.07
719.932	45796.82
720.275	45826.42
720.617	45667.78
720.96	45642.92
721.303	45570.84
721.646	45640.89
721.989	45287.23
722.331	45425.98
722.674	45474.57
723.016	45273.44
723.359	45247
723.701	45247.68
724.044	45059.66
724.386	44956.39
724.729	45092.43
725.071	44841.14
725.413	44782.38
725.755	44810.18
726.097	44474.37
726.439	44387.14
726.782	44455.16
727.124	44655.15
727.465	44416.97
727.807	44268.72
728.149	44231.89
728.491	44317.76
728.833	44270.76
729.175	44022.63
729.516	43892.69
729.858	44009.07
730.199	44070.76
730.541	43873.93
730.882	43826.7
731.224	43900.82
731.565	43561.4
731.906	43680.72
732.248	43699.02
732.589	43511
732.93	43455.19
733.271	43466.71
733.612	43472.13
733.953	43531.79
734.294	43210.45
734.635	43279.37
734.976	43413.6
735.317	43045.03
735.658	42983.11
735.999	43021.07
736.339	42783.79
736.68	43003.22
737.021	42687.07
737.361	42641.2
737.702	42798.25
738.042	42668.99
738.383	42467.41
738.723	42540.41
739.063	42402.33
739.404	42532.27
739.744	42199.85
740.084	42192.17
740.424	42218.61
740.764	41996.24
741.104	42123.24
741.444	42146.52
741.784	41800.54
742.124	41808.9
742.464	41663.82
742.804	41729.13
743.143	41565.74
743.483	41472.19
743.823	41362.58
744.162	41205.53
744.502	41297.05
744.841	40933.44
745.181	41201.46
745.52	41037.62
745.86	41015.25
746.199	40896.38
746.538	40831.07
746.877	40869.26
747.216	40626.56
747.556	40640.34
747.895	40529.61
748.234	40246.46
748.573	40265.89
748.911	40221.6
749.25	40251.65
749.589	39954.49
749.928	40156.74
750.267	40125.1
750.605	39857.99
750.944	39794.72
751.283	39543.88
751.621	39697.54
751.96	39491.22
752.298	39347.5
752.636	39339.14
752.975	39139.37
753.313	39029.09
