Data from white_steel_sheet_FLMS001491_071.txt Node
Date: Tue Feb 07 10:58:25 GMT 2017
User: dcchb
Spectrometer: FLMS00149
Trigger mode: 0
Integration Time (sec): 2.000000E-2
Scans to average: 10
Electric dark correction enabled: true
Nonlinearity correction enabled: false
Boxcar width: 0
XAxis mode: Wavelengths
Number of Pixels in Spectrum: 2048
>>>>>Begin Spectral Data<<<<<
341.393	-7.06
341.776	-7.06
342.16	-7.06
342.543	-62.65
342.927	-70.11
343.31	-65.14
343.693	-72.37
344.077	-70.11
344.46	-51.13
344.843	-59.04
345.226	-49.09
345.61	-30.34
345.993	-23.56
346.376	-20.17
346.759	8.76
347.142	35.65
347.525	36.55
347.908	58.02
348.291	84.24
348.674	89.43
349.057	128.3
349.44	134.18
349.823	142.76
350.206	175.53
350.588	208.98
350.971	195.87
351.354	233.61
351.737	234.29
352.119	244.91
352.502	269.09
352.884	264.12
353.267	297.79
353.65	314.06
354.032	334.62
354.414	318.58
354.797	320.16
355.179	332.59
355.562	343.21
355.944	325.36
356.326	333.72
356.709	363.32
357.091	345.02
357.473	353.83
357.855	374.17
358.238	331.01
358.62	347.96
359.002	338.47
359.384	341.18
359.766	358.35
360.148	340.95
360.53	358.35
360.912	341.63
361.294	346.83
361.676	317.9
362.057	338.01
362.439	346.83
362.821	332.36
363.203	340.27
363.584	326.71
363.966	333.49
364.348	341.18
364.729	337.56
365.111	333.95
365.493	347.96
365.874	325.36
366.256	337.34
366.637	334.17
367.019	327.84
367.4	325.58
367.781	319.03
368.163	327.39
368.544	319.94
368.925	317.45
369.306	315.64
369.688	337.79
370.069	337.56
370.45	326.04
370.831	328.75
371.212	357.67
371.593	344.12
371.974	339.37
372.355	323.1
372.736	334.17
373.117	332.82
373.498	324.68
373.879	331.01
374.26	327.84
374.641	337.56
375.021	330.78
375.402	329.43
375.783	321.97
376.163	358.8
376.544	353.15
376.925	364.68
377.305	352.02
377.686	353.15
378.066	363.78
378.447	349.76
378.827	360.39
379.208	348.63
379.588	361.06
379.968	357.22
380.349	369.65
380.729	359.26
381.109	359.93
381.489	374.62
381.87	347.96
382.25	371.69
382.63	376.66
383.01	370.1
383.39	377.79
383.77	367.39
384.15	376.43
384.53	373.04
384.91	390.89
385.29	402.19
385.67	398.8
386.049	405.58
386.429	393.83
386.809	403.32
387.189	411.01
387.568	385.02
387.948	414.62
388.328	402.87
388.707	392.25
389.087	417.33
389.466	379.82
389.846	411.01
390.225	432.7
390.605	421.4
390.984	438.35
391.363	433.15
391.743	444.68
392.122	454.62
392.501	473.83
392.881	461.4
393.26	476.54
393.639	481.51
394.018	486.48
394.397	496.65
394.776	492.59
395.155	497.33
395.534	466.15
395.913	490.33
396.292	514.51
396.671	494.62
397.05	521.29
397.429	494.62
397.808	519.03
398.186	539.59
398.565	544.34
398.944	527.16
399.323	550.44
399.701	548.4
400.08	582.08
400.458	567.84
400.837	579.59
401.215	575.97
401.594	590.66
401.972	613.03
402.351	622.3
402.729	617.33
403.107	639.93
403.486	615.75
403.864	634.96
404.242	650.1
404.62	684.45
404.999	672.69
405.377	677.44
405.755	686.71
406.133	702.98
406.511	709.08
406.889	745.46
407.267	742.75
407.645	772.58
408.023	746.36
408.401	787.27
408.779	776.87
409.156	815.06
409.534	787.27
409.912	850.99
410.29	863.42
410.667	861.39
411.045	867.04
411.422	881.73
411.8	900.71
412.178	912.69
412.555	898
412.933	947.04
413.31	927.83
413.687	954.95
414.065	978.22
414.442	966.02
414.819	1002.63
415.197	1001.73
415.574	1042.85
415.951	1039.01
416.328	1036.07
416.705	1048.05
417.082	1039.46
417.46	1056.41
417.837	1102.51
418.214	1099.35
418.591	1114.72
418.967	1121.04
419.344	1123.53
419.721	1137.09
420.098	1109.74
420.475	1164.88
420.852	1180.7
421.228	1206.69
421.605	1193.58
421.982	1235.39
422.358	1239.46
422.735	1242.85
423.111	1246.01
423.488	1276.97
423.864	1253.02
424.241	1294.37
424.617	1311.32
424.994	1306.58
425.37	1322.17
425.746	1347.03
426.123	1351.77
426.499	1393.35
426.875	1398.1
427.251	1424.76
427.627	1450.75
428.003	1465.22
428.379	1478.55
428.756	1487.36
429.132	1500.92
429.507	1537.53
429.883	1564.65
430.259	1571.2
430.635	1619.79
431.011	1587.92
431.387	1652.78
431.763	1659.33
432.138	1679
432.514	1663.85
432.89	1690.52
433.265	1753.57
433.641	1798.31
434.016	1794.47
434.392	1804.87
434.767	1833.57
435.143	1835.6
435.518	1844.87
435.894	1925.54
436.269	1920.8
436.644	1985.65
437.02	1968.93
437.395	1962.6
437.77	2016.61
438.145	2018.2
438.52	2057.74
438.895	2103.17
439.271	2083.96
439.646	2131.41
440.021	2130.51
440.395	2144.97
440.77	2134.58
441.145	2184.52
441.52	2257.29
441.895	2263.39
442.27	2254.57
442.645	2246.21
443.019	2292.09
443.394	2264.97
443.769	2340.22
444.143	2297.74
444.518	2386.32
444.892	2354.23
445.267	2389.26
445.641	2422.93
446.016	2428.81
446.39	2448.47
446.764	2493.44
447.139	2460.44
447.513	2500.67
447.887	2508.13
448.262	2513.78
448.636	2543.83
449.01	2587.67
449.384	2586.54
449.758	2652.98
450.132	2677.16
450.506	2691.17
450.88	2685.97
451.254	2693.21
451.628	2708.8
452.002	2798.29
452.376	2778.18
452.75	2816.59
453.123	2806.88
453.497	2921.9
453.871	2917.61
454.244	2950.6
454.618	2975.46
454.992	3030.15
455.365	3055
455.739	3124.83
456.112	3129.8
456.486	3169.8
456.859	3144.72
457.232	3238.95
457.606	3238.05
457.979	3294.32
458.352	3374.09
458.725	3367.99
459.099	3431.94
459.472	3500.42
459.845	3517.82
460.218	3562.79
460.591	3621.77
460.964	3650.02
461.337	3687.76
461.71	3735.66
462.083	3792.39
462.456	3838.26
462.829	3861.54
463.201	3883.01
463.574	3914.19
463.947	4007.97
464.32	4008.88
464.692	4109.44
465.065	4116.67
465.438	4182.43
465.81	4238.7
466.183	4265.37
466.555	4359.83
466.928	4417.91
467.3	4397.57
467.672	4500.62
468.045	4597.79
468.417	4620.39
468.789	4680.05
469.161	4684.57
469.534	4780.38
469.906	4910.77
470.278	4928.85
470.65	5010.66
471.022	5074.61
471.394	5208.85
471.766	5204.55
472.138	5212.24
472.51	5357.99
472.882	5401.61
473.253	5526.13
473.625	5559.35
473.997	5728.38
474.369	5751.88
474.74	5852.9
475.112	5974.93
475.484	6022.38
475.855	6133.12
476.227	6187.13
476.598	6348.48
476.97	6446.55
477.341	6600.67
477.713	6666.66
478.084	6679.99
478.455	6866.66
478.827	6933.55
479.198	7090.38
479.569	7091.73
479.94	7331.5
480.311	7433.87
480.682	7601.33
481.053	7770.36
481.424	7882.22
481.795	7958.6
482.166	8091.26
482.537	8239.27
482.908	8368.99
483.279	8459.83
483.65	8619.83
484.021	8827.96
484.391	8914.96
484.762	8893.72
485.133	9047.84
485.503	9236.99
485.874	9409.64
486.244	9456.87
486.615	9662.97
486.985	9753.36
487.356	9928.5
487.726	10053.69
488.097	10216.62
488.467	10258.88
488.837	10531.64
489.207	10601.47
489.578	10777.29
489.948	10921.24
490.318	10961.24
490.688	11060.22
491.058	11334.56
491.428	11361
491.798	11525.74
492.168	11776.36
492.538	11837.6
492.908	11936.13
493.278	12064.26
493.648	12180.41
494.017	12301.54
494.387	12404.36
494.757	12532.04
495.126	12719.16
495.496	12733.62
495.866	12827.63
496.235	13019.49
496.605	13074.63
496.974	13181.97
497.344	13344.68
497.713	13392.36
498.082	13506.71
498.452	13621.96
498.821	13792.8
499.19	13855.85
499.559	13975.17
499.928	14081.61
500.298	14167.71
500.667	14352.11
501.036	14262.85
501.405	14454.48
501.774	14456.51
502.143	14719.1
502.512	14819.89
502.88	14898.76
503.249	14916.39
503.618	15061.24
503.987	15120.68
504.356	15325.64
504.724	15298.52
505.093	15442.02
505.462	15460.33
505.83	15645.86
506.199	15734.22
506.567	15953.42
506.936	16011.95
507.304	16089.01
507.672	16260.76
508.041	16359.06
508.409	16607.19
508.777	16541.2
509.145	16775.77
509.514	16824.36
509.882	16934.87
510.25	17075.65
510.618	17214.41
510.986	17148.87
511.354	17392.03
511.722	17605.13
512.09	17786.37
512.458	17771.68
512.826	18025.01
513.193	18022.29
513.561	18195.4
513.929	18267.49
514.297	18527.37
514.664	18640.58
515.032	18688.49
515.4	18866.11
515.767	18900.01
516.135	19159.89
516.502	19090.06
516.869	19377.51
517.237	19512.42
517.604	19466.1
517.972	19765.53
518.339	19941.57
518.706	19995.58
519.073	20082.13
519.44	20339.07
519.808	20487.54
520.175	20488.9
520.542	20654.54
520.909	20936.57
521.276	20955.1
521.643	21151.93
522.009	21400.51
522.376	21487.74
522.743	21657
523.11	21908.52
523.477	22108.29
523.843	22259.92
524.21	22461.5
524.577	22644.77
524.943	22788.95
525.31	22831.66
525.676	23168.83
526.043	23271.65
526.409	23432.1
526.776	23662.15
527.142	23740.34
527.508	23851.07
527.874	24071.17
528.241	24287.89
528.607	24345.29
528.973	24585.51
529.339	24573.31
529.705	24830.93
530.071	25009.91
530.437	25054.65
530.803	25284.7
531.169	25502.32
531.535	25537.13
531.901	25666.84
532.267	25877.68
532.632	25940.28
532.998	26134.85
533.364	26162.65
533.73	26297.11
534.095	26546.82
534.461	26548.85
534.826	26707.04
535.192	26826.13
535.557	27015.05
535.923	26882.63
536.288	27025.67
536.653	27289.62
537.019	27380.24
537.384	27466.34
537.749	27638.09
538.114	27724.64
538.479	27682.61
538.845	27937.97
539.21	27859.55
539.575	28016.38
539.94	28060.22
540.305	28208.47
540.67	28358.75
541.034	28454.79
541.399	28593.99
541.764	28507.67
542.129	28665.4
542.494	28913.53
542.858	28935.45
543.223	29179.06
543.587	29237.14
543.952	29309
544.316	29283.24
544.681	29294.99
545.045	29584.02
545.41	29734.98
545.774	29737.69
546.138	29791.93
546.503	29899.72
546.867	29958.48
547.231	30223.33
547.595	30267.17
547.959	30318.24
548.324	30343.33
548.688	30467.84
549.052	30583.77
549.416	30689.98
549.779	30773.82
550.143	30947.6
550.507	31183.53
550.871	31090.2
551.235	31170.65
551.599	31463.3
551.962	31528.61
552.326	31433.69
552.689	31661.71
553.053	31583.29
553.417	31788.03
553.78	32220.57
554.143	32082.04
554.507	32245.42
554.87	32406.32
555.234	32623.27
555.597	32615.36
555.96	32746.43
556.323	32825.75
556.686	32843.15
557.05	33143.48
557.413	33263.48
557.776	33223.25
558.139	33492.62
558.502	33573.07
558.865	33635.44
559.228	33921.31
559.59	34020.52
559.953	34011.48
560.316	34444.01
560.679	34468.87
561.041	34665.02
561.404	34755.41
561.767	35173.26
562.129	34932.81
562.492	35232.69
562.854	35162.18
563.217	35349.97
563.579	35475.17
563.941	35769.85
564.304	35813.92
564.666	36064.31
565.028	36012.1
565.39	36279.67
565.753	36406.9
566.115	36499.32
566.477	36758.07
566.839	36842.59
567.201	36981.12
567.563	37021.57
567.925	37140.89
568.287	37347.21
568.648	37503.36
569.01	37556.7
569.372	37805.28
569.734	37750.82
570.095	38040.98
570.457	38160.97
570.819	38188.77
571.18	38211.14
571.542	38547.63
571.903	38528.65
572.265	38760.96
572.626	38769.55
572.987	38877.79
573.349	39084.11
573.71	39209.99
574.071	39173.38
574.432	39309.19
574.794	39625.34
575.155	39495.18
575.516	39439.58
575.877	39519.58
576.238	39740.14
576.599	39875.73
576.96	39812.46
577.32	39814.04
577.681	40020.13
578.042	40097.42
578.403	40059.23
578.763	40090.41
579.124	40146.23
579.485	40377.19
579.845	40498.54
580.206	40208.6
580.566	40330.41
580.927	40481.14
581.287	40411.76
581.648	40514.13
582.008	40608.82
582.368	40584.87
582.728	40530.18
583.089	40487.69
583.449	40549.84
583.809	40642.72
584.169	40542.38
584.529	40537.41
584.889	40822.15
585.249	40697.63
585.609	40513.68
585.969	40781.7
586.329	40606.33
586.688	40764.07
587.048	40646.33
587.408	40501.93
587.768	40645.88
588.127	40652.66
588.487	40564.75
588.846	40883.39
589.206	40545.77
589.565	40618.99
589.925	40823.73
590.284	40580.8
590.643	40786.67
591.003	40780.57
591.362	40907.34
591.721	40806.78
592.08	40740.79
592.44	40812.88
592.799	40859.21
593.158	40738.76
593.517	40672.77
593.876	40762.26
594.235	40748.48
594.593	40649.5
594.952	41002.26
595.311	40684.3
595.67	40901.47
596.029	41014.23
596.387	41026.89
596.746	41037.06
597.104	40910.96
597.463	40915.25
597.822	40997.51
598.18	40909.15
598.538	40828.93
598.897	41054.68
599.255	40726.56
599.613	41457.38
599.972	41038.19
600.33	41177.84
600.688	41002.03
601.046	41247.67
601.404	41239.76
601.762	41159.09
602.12	41211.06
602.478	41310.95
602.836	41359.99
603.194	41083.84
603.552	41170.39
603.91	41143.72
604.268	41229.82
604.625	41151.18
604.983	41250.38
605.341	40973.56
605.698	41374.67
606.056	41417.84
606.413	41381.68
606.771	41504.84
607.128	41634.78
607.485	41338.52
607.843	41366.54
608.2	41597.49
608.557	41810.37
608.914	41717.26
609.272	41761.78
609.629	41898.5
609.986	41986.86
610.343	41640.88
610.7	42103.24
611.057	42033.64
611.414	42008.56
611.771	41870.03
612.127	42013.98
612.484	42095.11
612.841	42145.95
613.198	42175.33
613.554	42115.9
613.911	42318.38
614.267	42450.13
614.624	42244.03
614.98	42501.65
615.337	42586.85
615.693	42555.89
616.05	42414.65
616.406	42781.87
616.762	42493.06
617.118	42598.15
617.475	42513.85
617.831	42844.01
618.187	42701.65
618.543	42888.53
618.899	42916.33
619.255	42919.04
619.611	42917.91
619.967	42952.94
620.323	43074.97
620.678	42992.26
621.034	42989.32
621.39	42821.64
621.746	42917.69
622.101	43286.26
622.457	43102.99
622.812	43140.96
623.168	43240.84
623.523	43162.42
623.879	43362.87
624.234	42958.36
624.589	43094.18
624.945	43238.35
625.3	43151.13
625.655	43160.84
626.01	43311.12
626.365	43064.35
626.72	43128.98
627.075	43009.21
627.43	43083.33
627.785	42970.79
628.14	43144.8
628.495	43174.4
628.85	43062.31
629.205	42818.25
629.559	43135.76
629.914	42856.9
630.269	42918.59
630.623	43022.77
630.978	42675.88
631.332	42904.58
631.687	43058.02
632.041	42797.69
632.396	42953.62
632.75	42708.43
633.104	42862.09
633.459	42488.77
633.813	42633.17
634.167	42456
634.521	42555.66
634.875	42499.84
635.229	42396.79
635.583	42296.01
635.937	42367.87
636.291	42252.84
636.645	42236.57
636.999	42296.23
637.352	42271.37
637.706	41947.32
638.06	42226.4
638.413	42053.75
638.767	41973.53
639.121	41983.25
639.474	41845.85
639.828	41728.11
640.181	41869.58
640.534	41721.78
640.888	41629.58
641.241	41495.35
641.594	41569.47
641.947	41604.73
642.301	41447.22
642.654	41431.4
643.007	41503.26
643.36	41331.29
643.713	41238.41
644.066	41428.46
644.419	41074.12
644.771	40976.04
645.124	40506.22
645.477	40447.92
645.83	40141.71
646.182	40105.56
646.535	40052.9
646.888	40087.25
647.24	39901.95
647.593	40111.21
647.945	39999.8
648.298	39839.8
648.65	39729.75
649.002	39620.37
649.355	39694.94
649.707	39596.87
650.059	39743.08
650.411	40252.44
650.763	40280.92
651.115	40615.37
651.467	40507.13
651.819	40455.83
652.171	40352.1
652.523	40270.07
652.875	40174.25
653.227	40066.23
653.578	40395.04
653.93	40198.66
654.282	40160.92
654.633	39997.54
654.985	39981.72
655.337	40115.27
655.688	40007.48
656.039	40127.7
656.391	39816.98
656.742	39849.74
657.094	39852
657.445	40035.28
657.796	39779.69
658.147	39829.4
658.498	39681.61
658.849	39833.25
659.2	39697.43
659.551	39644.32
659.902	39663.53
660.253	39594.38
660.604	39550.77
660.955	39415.86
661.306	39588.51
661.656	39374.05
662.007	39268.52
662.358	39226.93
662.708	39306.71
663.059	39208.63
663.409	39007.51
663.76	39254.28
664.11	39266.03
664.461	39167.05
664.811	39073.94
665.161	39071.23
665.511	38862.42
665.862	38905.36
666.212	38939.03
666.562	38891.58
666.912	38664.92
667.262	38611.81
667.612	38424.7
667.962	38546.95
668.312	38337.24
668.662	38496.33
669.011	38391.48
669.361	38157.36
669.711	38004.14
670.06	37956.23
670.41	37789.01
670.76	37730.93
671.109	37788.33
671.459	37770.02
671.808	37749.23
672.157	37619.07
672.507	37417.49
672.856	37387.66
673.205	37291.39
673.554	37307.66
673.904	37196.71
674.253	37348.11
674.602	37250.72
674.951	36551.98
675.3	36395.6
675.649	37074.9
675.998	36945.41
676.346	36953.55
676.695	37112.87
677.044	36846.21
677.393	36769.82
677.741	36985.86
678.09	36850.73
678.438	36528.7
678.787	36690.05
679.135	36828.58
679.484	36567.12
679.832	36697.74
680.181	36562.82
680.529	36711.07
680.877	36479.66
681.225	36556.5
681.573	36860.44
681.922	36411.64
682.27	36505.42
682.618	36481.7
682.966	36484.41
683.314	36558.3
683.661	36558.08
684.009	36375.03
684.357	36226.56
684.705	36297.75
685.053	36385.43
685.4	36434.01
685.748	36195.38
686.095	36264.75
686.443	36134.13
686.79	36268.14
687.138	36261.81
687.485	36271.31
687.832	36113.12
688.18	36330.29
688.527	36244.87
688.874	36068.37
689.221	36108.82
689.568	36039.67
689.915	36064.31
690.262	36015.04
690.609	35903.41
690.956	35927.36
691.303	35869.96
691.65	35766.91
691.997	35884.88
692.344	35643.98
692.69	35665.67
693.037	35747.03
693.383	35448.5
693.73	35591.1
694.077	35429.52
694.423	35563.98
694.769	35423.64
695.116	35364.89
695.462	35259.81
695.808	35282.63
696.155	35470.65
696.501	35095.74
696.847	35201.96
697.193	34919.93
697.539	34925.35
697.885	34806.26
698.231	34610.11
698.577	34722.42
698.923	34745.02
699.269	34595.87
699.614	34373.5
699.96	34221.64
700.306	34429.09
700.651	34154.3
700.997	33966.96
701.342	34109.1
701.688	34038.37
702.033	33943.91
702.379	33876.11
702.724	33727.19
703.069	33872.73
703.415	33465.5
703.76	33501.21
704.105	33576.69
704.45	33311.16
704.795	33220.31
705.14	33046.98
705.485	33118.17
705.83	33068.9
706.175	33084.05
706.52	33037.72
706.865	32831.62
707.209	32820.55
707.554	32661.46
707.899	32749.14
708.243	32441.35
708.588	32580.33
708.932	32322.48
709.277	32285.2
709.621	32336.95
709.966	32189.38
710.31	32301.92
710.654	31925.43
710.998	32022.15
711.342	31933.34
711.687	31888.6
712.031	31704.42
712.375	31661.94
712.719	31675.72
713.063	31588.49
713.407	31724.99
713.75	31384.2
714.094	31377.88
714.438	31440.25
714.782	31383.3
715.125	31125.9
715.469	31300.82
715.812	31098.56
716.156	30953.25
716.499	31010.88
716.843	30943.31
717.186	30823.54
717.53	30965.91
717.873	31003.65
718.216	30786.48
718.559	30782.18
718.902	30597.56
719.246	30616.54
719.589	30410.22
719.932	30393.27
720.275	30334.74
720.617	30303.33
720.96	30224.69
721.303	30280.96
721.646	30202.77
721.989	30072.15
722.331	30123.67
722.674	30006.39
723.016	30010
723.359	30054.52
723.701	30054.52
724.044	29839.16
724.386	29607.3
724.729	29848.88
725.071	29779.95
725.413	29680.52
725.755	29616.11
726.097	29496.57
726.439	29448.21
726.782	29481.88
727.124	29535.66
727.465	29360.75
727.807	29274.65
728.149	29228.1
728.491	29166.41
728.833	29174.54
729.175	29069.46
729.516	28982.68
729.858	29004.15
730.199	29049.58
730.541	29003.93
730.882	28909.69
731.224	28975
731.565	28790.82
731.906	28675.8
732.248	28704.5
732.589	28661.56
732.93	28558.97
733.271	28503.37
733.612	28622.69
733.953	28533.2
734.294	28436.03
734.635	28244.17
734.976	28344.51
735.317	28302.48
735.658	28194.46
735.999	28105.65
736.339	28060.67
736.68	28205.98
737.021	28142.03
737.361	28050.05
737.702	28107
738.042	28031.07
738.383	28002.6
738.723	27956.5
739.063	27945.42
739.404	27794.92
739.744	27829.72
740.084	27663.62
740.424	27835.14
740.764	27631.53
741.104	27765.77
741.444	27469.73
741.784	27470.18
742.124	27529.16
742.464	27543.17
742.804	27337.08
743.143	27219.34
743.483	27330.75
743.823	27171.88
744.162	27184.77
744.502	27263.41
744.841	27135.05
745.181	27128.95
745.52	27024.32
745.86	27090.08
746.199	27020.02
746.538	26970.99
746.877	27009.85
747.216	26891.89
747.556	26844.89
747.895	26825.23
748.234	26893.7
748.573	26693.7
748.911	26630.2
749.25	26614.16
749.589	26460.72
749.928	26556.99
750.267	26519.92
750.605	26420.94
750.944	26381.85
751.283	26221.17
751.621	26394.73
751.96	26151.8
752.298	26095.98
752.636	26144.34
752.975	26046.94
753.313	25875.87
