Data from White_paper_FLMS001491_091.txt Node
Date: Tue Feb 07 10:35:49 GMT 2017
User: dcchb
Spectrometer: FLMS00149
Trigger mode: 0
Integration Time (sec): 2.000000E-2
Scans to average: 10
Electric dark correction enabled: true
Nonlinearity correction enabled: false
Boxcar width: 0
XAxis mode: Wavelengths
Number of Pixels in Spectrum: 2048
>>>>>Begin Spectral Data<<<<<
341.393	-1.64
341.776	-1.64
342.16	-1.64
342.543	-75.76
342.927	-75.08
343.31	-76.44
343.693	-78.92
344.077	-69.89
344.46	-55.87
344.843	-29.43
345.226	-35.99
345.61	-17.68
345.993	-24.24
346.376	-5.03
346.759	-0.96
347.142	20.73
347.525	48.98
347.908	57.57
348.291	75.65
348.674	81.07
349.057	110.45
349.44	126.49
349.823	144.8
350.206	175.31
350.588	221.18
350.971	241.97
351.354	260.28
351.737	272.25
352.119	278.13
352.502	302.76
352.884	315.87
353.267	314.06
353.65	326.49
354.032	341.18
354.414	330.33
354.797	338.47
355.179	349.99
355.562	345.25
355.944	348.86
356.326	349.31
356.709	384.57
357.091	362.65
357.473	373.04
357.855	380.5
358.238	375.3
358.62	358.8
359.002	367.84
359.384	361.74
359.766	367.62
360.148	382.98
360.53	361.29
360.912	352.7
361.294	366.49
361.676	378.69
362.057	362.42
362.439	386.15
362.821	366.26
363.203	353.38
363.584	378.24
363.966	343.21
364.348	351.8
364.729	347.05
365.111	371.69
365.493	354.28
365.874	358.8
366.256	364.91
366.637	336.43
367.019	361.97
367.4	366.26
367.781	370.33
368.163	347.96
368.544	374.17
368.925	355.87
369.306	373.49
369.688	366.04
370.069	354.74
370.45	352.48
370.831	365.13
371.212	364.23
371.593	356.77
371.974	385.02
372.355	354.51
372.736	353.38
373.117	384.79
373.498	359.48
373.879	374.62
374.26	349.99
374.641	375.75
375.021	361.52
375.402	379.37
375.783	383.89
376.163	382.53
376.544	388.86
376.925	386.83
377.305	385.24
377.686	389.09
378.066	398.35
378.447	375.07
378.827	369.2
379.208	424.11
379.588	397.9
379.968	390.44
380.349	387.96
380.729	413.94
381.109	419.82
381.489	408.52
381.87	420.5
382.25	428.63
382.63	414.62
383.01	413.27
383.39	438.12
383.77	403.77
384.15	431.8
384.53	432.02
384.91	429.54
385.29	450.1
385.67	443.55
386.049	455.52
386.429	433.83
386.809	457.33
387.189	456.2
387.568	465.69
387.948	446.49
388.328	482.87
388.707	471.57
389.087	459.14
389.466	487.39
389.846	477.22
390.225	490.78
390.605	484.9
390.984	496.2
391.363	499.14
391.743	495.52
392.122	496.43
392.501	510.89
392.881	500.27
393.26	521.74
393.639	543.66
394.018	526.03
394.397	545.47
394.776	526.26
395.155	544.56
395.534	520.61
395.913	532.36
396.292	569.19
396.671	538.01
397.05	550.21
397.429	581.85
397.808	547.05
398.186	582.08
398.565	604.45
398.944	585.69
399.323	632.47
399.701	592.47
400.08	614.16
400.458	627.27
400.837	643.77
401.215	647.61
401.594	639.7
401.972	656.2
402.351	667.72
402.729	671.56
403.107	677.44
403.486	675.86
403.864	701.17
404.242	700.94
404.62	718.12
404.999	747.95
405.377	748.4
405.755	768.96
406.133	769.87
406.511	809.41
406.889	800.15
407.267	798.11
407.645	837.44
408.023	855.97
408.401	847.6
408.779	875.85
409.156	903.87
409.534	930.77
409.912	987.94
410.29	1011.89
410.667	987.04
411.045	999.24
411.422	1054.15
411.8	1082.17
412.178	1086.47
412.555	1103.87
412.933	1127.6
413.31	1147.48
413.687	1192.91
414.065	1236.97
414.442	1242.4
414.819	1274.71
415.197	1302.28
415.574	1333.69
415.951	1375.05
416.328	1395.16
416.705	1440.36
417.082	1403.07
417.46	1469.51
417.837	1496.18
418.214	1515.16
418.591	1547.25
418.967	1548.83
419.344	1568.94
419.721	1611.65
420.098	1621.6
420.475	1638.09
420.852	1712.21
421.228	1693.91
421.605	1705.44
421.982	1770.52
422.358	1771.87
422.735	1802.61
423.111	1819.33
423.488	1857.07
423.864	1866.79
424.241	1913.34
424.617	1947.91
424.994	1947.24
425.37	1956.73
425.746	1984.52
426.123	2019.78
426.499	2069.27
426.875	2038.99
427.251	2098.87
427.627	2130.73
428.003	2167.12
428.379	2211.18
428.756	2222.94
429.132	2286.89
429.507	2276.72
429.883	2342.25
430.259	2393.78
430.635	2380.9
431.011	2427.22
431.387	2473.32
431.763	2565.75
432.138	2538.86
432.514	2598.97
432.89	2589.48
433.265	2659.53
433.641	2702.02
434.016	2745.86
434.392	2801.68
434.767	2845.74
435.143	2812.52
435.518	2890.04
435.894	2938.85
436.269	3003.25
436.644	3014.1
437.02	3011.62
437.395	3038.28
437.77	3089.81
438.145	3156.7
438.52	3152.85
438.895	3175
439.271	3195.11
439.646	3275.11
440.021	3287.77
440.395	3327.54
440.77	3287.31
441.145	3340.42
441.52	3413.87
441.895	3396.69
442.27	3393.07
442.645	3456.58
443.019	3532.28
443.394	3489.57
443.769	3548.32
444.143	3510.13
444.518	3588.78
444.892	3593.97
445.267	3624.93
445.641	3682.56
446.016	3689.79
446.39	3680.07
446.764	3744.48
447.139	3720.07
447.513	3742.9
447.887	3752.61
448.262	3781.54
448.636	3830.58
449.01	3896.11
449.384	3903.57
449.758	3895.66
450.132	3996.9
450.506	4014.3
450.88	4039.16
451.254	4059.27
451.628	4134.52
452.002	4118.03
452.376	4186.27
452.75	4209.1
453.123	4245.03
453.497	4301.98
453.871	4305.37
454.244	4414.52
454.618	4455.65
454.992	4486.38
455.365	4544.68
455.739	4607.05
456.112	4657.22
456.486	4711.46
456.859	4735.41
457.232	4859.02
457.606	4893.6
457.979	4887.27
458.352	4967.27
458.725	5035.07
459.099	5087.27
459.472	5205.91
459.845	5259.24
460.218	5323.65
460.591	5318.9
460.964	5345.11
461.337	5472.12
461.71	5528.16
462.083	5583.3
462.456	5656.97
462.829	5684.99
463.201	5777.87
463.574	5785.78
463.947	5846.8
464.32	6033.91
464.692	6083.63
465.065	6112.1
465.438	6196.39
465.81	6291.08
466.183	6357.97
466.555	6478.87
466.928	6543.27
467.3	6548.92
467.672	6718.18
468.045	6817.17
468.417	6871.4
468.789	6894
469.161	6942.36
469.534	7126.54
469.906	7270.94
470.278	7284.95
470.65	7350.48
471.022	7539.41
471.394	7658.5
471.766	7726.52
472.138	7877.93
472.51	8016.91
472.882	8133.29
473.253	8260.29
473.625	8315.21
473.997	8500.28
474.369	8539.61
474.74	8658.02
475.112	8802.65
475.484	8947.96
475.855	9081.29
476.227	9192.24
476.598	9465.46
476.97	9523.53
477.341	9749.97
477.713	9856.41
478.084	9922.17
478.455	10175.72
478.827	10283.97
479.198	10617.74
479.569	10553.34
479.94	10855.93
480.311	10958.07
480.682	11179.08
481.053	11479.64
481.424	11673.99
481.795	11753.98
482.166	11975
482.537	12018.84
482.908	12324.14
483.279	12450.46
483.65	12685.26
484.021	12983.1
484.391	13095.42
484.762	13158.24
485.133	13386.26
485.503	13478.23
485.874	13803.65
486.244	13845.23
486.615	14111.44
486.985	14426.91
487.356	14565.21
487.726	14647.69
488.097	15007.01
488.467	15074.12
488.837	15372.65
489.207	15427.11
489.578	15662.58
489.948	15815.35
490.318	16037.71
490.688	16116.36
491.058	16391.38
491.428	16573.29
491.798	16799.95
492.168	17061.42
492.538	17065.03
492.908	17307.96
493.278	17592.48
493.648	17594.74
494.017	17838.34
494.387	18027.04
494.757	18096.87
495.126	18320.14
495.496	18382.96
495.866	18544.99
496.235	18692.33
496.605	18883.29
496.974	19024.3
497.344	19069.72
497.713	19286.44
498.082	19373.9
498.452	19523.27
498.821	19723.94
499.19	19776.6
499.559	19946.76
499.928	20054.11
500.298	20186.53
500.667	20365.28
501.036	20392.4
501.405	20602.11
501.774	20568.67
502.143	20789.91
502.512	20907.42
502.88	21025.15
503.249	21116.9
503.618	21363
503.987	21381.53
504.356	21647.74
504.724	21786.26
505.093	21865.58
505.462	21981.06
505.83	22021.74
506.199	22200.49
506.567	22475.74
506.936	22433.48
507.304	22658.56
507.672	22885.44
508.041	22962.05
508.409	23171.54
508.777	23318.88
509.145	23588.93
509.514	23540.57
509.882	23644.75
510.25	23756.61
510.618	23967.67
510.986	24087.22
511.354	24190.49
511.722	24540.09
512.09	24823.7
512.458	24725.17
512.826	24841.78
513.193	25090.58
513.561	25110.7
513.929	25465.71
514.297	25562.89
514.664	25741.64
515.032	25771.24
515.4	26025.47
515.767	26062.99
516.135	26260.04
516.502	26273.83
516.869	26642.63
517.237	26709.07
517.604	26613.93
517.972	27147.93
518.339	27207.59
518.706	27300.69
519.073	27424.99
519.44	27592.21
519.808	27960.79
520.175	27861.81
520.542	28247.56
520.909	28384.73
521.276	28444.39
521.643	28772.29
522.009	28979.52
522.376	29132.96
522.743	29405.05
523.11	29589.9
523.477	29917.8
523.843	29937.46
524.21	30268.98
524.577	30340.39
524.943	30748.06
525.31	30871
525.676	31091.1
526.043	31297.88
526.409	31395.05
526.776	31769.96
527.142	31726.34
527.508	32048.14
527.874	32217.85
528.241	32344.4
528.607	32595.02
528.973	32809.25
529.339	32978.29
529.705	33244.95
530.071	33532.4
530.437	33537.59
530.803	33762.45
531.169	34015.77
531.535	34017.58
531.901	34171.93
532.267	34252.15
532.632	34508.64
532.998	34670.67
533.364	34783.44
533.73	34876.99
534.095	35143.88
534.461	35344.55
534.826	35494.38
535.192	35675.16
535.557	35896.63
535.923	35837.87
536.288	36042.39
536.653	36343.62
537.019	36257.52
537.384	36419.78
537.749	36607.12
538.114	36605.76
538.479	36711.75
538.845	37061.79
539.21	37024.05
539.575	37015.24
539.94	37186.08
540.305	37412.52
540.67	37402.35
541.034	37697.94
541.399	37782.9
541.764	37910.13
542.129	37877.59
542.494	38179.28
542.858	38440.74
543.223	38269.22
543.587	38556.67
543.952	38616.56
544.316	38789.88
544.681	38806.83
545.045	39005.02
545.41	39099.71
545.774	39366.37
546.138	39413.14
546.503	39487.04
546.867	39493.37
547.231	39927.48
547.595	39981.27
547.959	40041.6
548.324	40089.28
548.688	40261.94
549.052	40387.58
549.416	40474.81
549.779	40572.44
550.143	40756.39
550.507	40898.98
550.871	41121.8
551.235	41066.43
551.599	41276.82
551.962	41380.78
552.326	41482.92
552.689	41814.89
553.053	41526.99
553.417	41820.76
553.78	42360.64
554.143	42168.55
554.507	42361.54
554.87	42467.75
555.234	42756.56
555.597	42557.02
555.96	42916.1
556.323	43168.3
556.686	42988.42
557.05	43423.89
557.413	43462.53
557.776	43533.94
558.139	43778
558.502	43804.89
558.865	43893.93
559.228	44294.6
559.59	44429.28
559.953	44443.75
560.316	44980.91
560.679	44815.94
561.041	45117.85
561.404	45253.44
561.767	45474.45
562.129	45362.82
562.492	45877.16
562.854	45764.39
563.217	45815.46
563.579	46031.28
563.941	46307.65
564.304	46394.88
564.666	46705.16
565.028	46563.24
565.39	46888.43
565.753	47156.9
566.115	47105.15
566.477	47400.73
566.839	47502.88
567.201	47736.77
567.563	47776.31
567.925	48165
568.287	48084.1
568.648	48087.27
569.01	48272.57
569.372	48670.53
569.734	48561.15
570.095	48877.53
570.457	48919.56
570.819	48979.9
571.18	49150.29
571.542	49244.52
571.903	49395.93
572.265	49487.23
572.626	49572.65
572.987	49798.86
573.349	49790.95
573.71	50004.05
574.071	50161.11
574.432	50122.02
574.794	50409.92
575.155	50344.38
575.516	50247.44
575.877	50535.34
576.238	50622.79
576.599	50764.48
576.96	50740.98
577.32	50703.24
577.681	50884.48
578.042	51129.9
578.403	51032.95
578.763	51176.45
579.124	51164.25
579.485	51357.46
579.845	51442.66
580.206	51409.67
580.566	51295.09
580.927	51538.93
581.287	51559.49
581.648	51348.65
582.008	51723.78
582.368	51650.56
582.728	51644.46
583.089	51650.56
583.449	51747.28
583.809	51695.76
584.169	51796.32
584.529	51773.72
584.889	52016.88
585.249	51914.28
585.609	51755.87
585.969	51941.18
586.329	51872.48
586.688	52048.97
587.048	51987.96
587.408	51995.19
587.768	52006.94
588.127	52103.21
588.487	51988.86
588.846	52195.86
589.206	51981.85
589.565	52065.47
589.925	52198.57
590.284	52189.31
590.643	52158.57
591.003	52142.98
591.362	52398.34
591.721	52267.5
592.08	52295.97
592.44	52364.22
592.799	52348.85
593.158	52369.41
593.517	52333.48
593.876	52553.14
594.235	52340.26
594.593	52485.34
594.952	52512.91
595.311	52406.25
595.67	52542.52
596.029	52719.69
596.387	52694.38
596.746	52771.66
597.104	52582.97
597.463	52681.5
597.822	52850.76
598.18	52642.85
598.538	52703.87
598.897	52832.68
599.255	52643.53
599.613	53008.04
599.972	52725.79
600.33	52941.38
600.688	52806.92
601.046	53001.94
601.404	53003.97
601.762	52967.82
602.12	53183.18
602.478	53064.99
602.836	53169.84
603.194	52971.43
603.552	53104.99
603.91	52975.27
604.268	53142.05
604.625	53039.68
604.983	53169.17
605.341	53065.21
605.698	53287.81
606.056	53316.06
606.413	53254.59
606.771	53360.57
607.128	53376.62
607.485	53257.07
607.843	53288.03
608.2	53438.76
608.557	53500.23
608.914	53384.08
609.272	53533.9
609.629	53533.23
609.986	53728.02
610.343	53524.64
610.7	53755.59
611.057	53702.03
611.414	53704.75
611.771	53678.08
612.127	53826.78
612.484	53818.64
612.841	53916.49
613.198	53795.37
613.554	53781.81
613.911	53973.89
614.267	53978.86
614.624	53972.54
614.98	54035.81
615.337	54157.16
615.693	54062.7
616.05	54040.1
616.406	54153.77
616.762	54047.79
617.118	54035.58
617.475	53968.92
617.831	54096.83
618.187	54175.69
618.543	54256.37
618.899	54299.53
619.255	54261.12
619.611	54249.36
619.967	54329.59
620.323	54458.4
620.678	54276.48
621.034	54239.87
621.39	54243.94
621.746	54231.06
622.101	54563.71
622.457	54308.8
622.812	54405.97
623.168	54379.08
623.523	54365.97
623.879	54523.26
624.234	54329.81
624.589	54408.23
624.945	54443.03
625.3	54485.06
625.655	54388.12
626.01	54412.75
626.365	54478.29
626.72	54425.63
627.075	54478.29
627.43	54423.82
627.785	54272.41
628.14	54366.88
628.495	54425.41
628.85	54445.97
629.205	54337.05
629.559	54521.9
629.914	54379.98
630.269	54432.86
630.623	54306.54
630.978	54250.72
631.332	54503.82
631.687	54380.43
632.041	54347.22
632.396	54405.74
632.75	54239.87
633.104	54306.76
633.459	54253.43
633.813	54226.09
634.167	54251.85
634.521	54175.47
634.875	54267.67
635.229	54220.44
635.583	54035.81
635.937	54078.07
636.291	54125.07
636.645	54079.2
636.999	54058.86
637.352	54172.08
637.706	53952.65
638.06	54091.4
638.413	53946.55
638.767	53945.42
639.121	54039.43
639.474	53834.01
639.828	53874.69
640.181	53985.64
640.534	53914.68
640.888	53737.29
641.241	53773.22
641.594	53756.27
641.947	53793.33
642.301	53775.7
642.654	53707.23
643.007	53759.43
643.36	53707.23
643.713	53656.84
644.066	53821.58
644.419	53587.46
644.771	53371.2
645.124	53140.02
645.477	53112.45
645.83	52975.05
646.182	52834.94
646.535	52800.59
646.888	52800.14
647.24	52664.55
647.593	52925.56
647.945	52761.27
648.298	52612.35
648.65	52628.84
649.002	52540.26
649.355	52595.62
649.707	52602.63
650.059	52776.86
650.411	53114.03
650.763	53154.03
651.115	53423.62
651.467	53289.39
651.819	53395.6
652.171	53235.38
652.523	53202.84
652.875	53256.17
653.227	53152.67
653.578	53343.17
653.93	53208.26
654.282	53063.18
654.633	53024.31
654.985	53085.33
655.337	53097.3
655.688	53132.33
656.039	53259.56
656.391	52930.08
656.742	52940.7
657.094	53049.17
657.445	53132.33
657.796	52993.8
658.147	53012.56
658.498	52945.67
658.849	53046.91
659.2	53006.69
659.551	52869.51
659.902	53012.79
660.253	52973.47
660.604	53011.88
660.955	52806.46
661.306	52864.54
661.656	52844.88
662.007	52878.33
662.358	52869.97
662.708	52803.3
663.059	52883.07
663.409	52612.57
663.76	52862.73
664.11	52744.55
664.461	52779.8
664.811	52803.98
665.161	52775.5
665.511	52660.25
665.862	52735.96
666.212	52810.53
666.562	52842.85
666.912	52681.72
667.262	52682.4
667.612	52657.09
667.962	52715.39
668.312	52567.83
668.662	52708.16
669.011	52632.46
669.361	52537.77
669.711	52458
670.06	52524.89
670.41	52440.37
670.76	52387.27
671.109	52553.59
671.459	52484.89
671.808	52369.19
672.157	52546.58
672.507	52262.3
672.856	52261.17
673.205	52243.54
673.554	52363.31
673.904	52203.32
674.253	52441.73
674.602	52252.81
674.951	51760.84
675.3	51587.06
675.649	52093.94
675.998	52098.01
676.346	52113.6
676.695	52280.6
677.044	51881.07
677.393	52029.76
677.741	52052.13
678.09	51911.8
678.438	51895.53
678.787	51933.95
679.135	51875.64
679.484	51648.53
679.832	51848.07
680.181	51578.25
680.529	51628.64
680.877	51501.87
681.225	51544.8
681.573	51697.34
681.922	51480.17
682.27	51397.01
682.618	51295.09
682.966	51206.51
683.314	51289.44
683.661	51143.68
684.009	50959.28
684.357	50959.28
684.705	50820.98
685.053	50871.37
685.4	50736.24
685.748	50735.11
686.095	50778.04
686.443	50513.42
686.79	50426.41
687.138	50522.91
687.485	50423.7
687.832	50232.52
688.18	50370.82
688.527	50162.01
688.874	50124.95
689.221	49979.87
689.568	49873.66
689.915	49865.98
690.262	49767.9
690.609	49675.47
690.956	49666.21
691.303	49453.78
691.65	49251.76
691.997	49408.81
692.344	49026.68
692.69	49122.72
693.037	49002.95
693.383	48801.6
693.73	48921.14
694.077	48751.88
694.423	48675.05
694.769	48686.57
695.116	48448.39
695.462	48422.85
695.808	48289.75
696.155	48360.03
696.501	48058.57
696.847	48031
697.193	47799.14
697.539	47866.93
697.885	47567.28
698.231	47489.32
698.577	47495.87
698.923	47396.89
699.269	47226.72
699.614	47003
699.96	47002.32
700.306	47066.28
700.651	46839.16
700.997	46626.74
701.342	46641.65
701.688	46560.98
702.033	46469
702.379	46437.82
702.724	46383.81
703.069	46446.86
703.415	45965.06
703.76	45923.71
704.105	45892.3
704.45	45796.71
704.795	45582.7
705.14	45573.21
705.485	45489.14
705.83	45249.38
706.175	45410.5
706.52	45253.67
706.865	45059.32
707.209	44950.63
707.554	44916.95
707.899	44935.94
708.243	44817.3
708.588	44673.35
708.932	44492.78
709.277	44429.96
709.621	44486.23
709.966	44201.04
710.31	44261.15
710.654	44021.16
710.998	44066.36
711.342	44148.61
711.687	43980.48
712.031	43785.46
712.375	43561.28
712.719	43641.51
713.063	43671.56
713.407	43657.1
713.75	43494.17
714.094	43378.46
714.438	43245.36
714.782	43348.86
715.125	43115.42
715.469	43075.65
715.812	42975.76
716.156	42823.45
716.499	42795.2
716.843	42827.97
717.186	42549.11
717.53	42705.71
717.873	42709.33
718.216	42542.78
718.559	42397.25
718.902	42029.35
719.246	42194.77
719.589	42096.01
719.932	41950.93
720.275	42010.36
720.617	41879.75
720.96	41766.75
721.303	41856.7
721.646	41713.2
721.989	41575.12
722.331	41677.94
722.674	41571.05
723.016	41588
723.359	41452.86
723.701	41383.49
724.044	41216.03
724.386	41065.3
724.729	41203.15
725.071	41089.71
725.413	41000.45
725.755	41150.27
726.097	40854.91
726.439	40601.81
726.782	40745.31
727.124	40873.45
727.465	40603.62
727.807	40608.37
728.149	40445.89
728.491	40499.22
728.833	40472.78
729.175	40293.12
729.516	40487.69
729.858	40172.45
730.199	40325.21
730.541	40221.71
730.882	40033.02
731.224	40234.14
731.565	39997.76
731.906	39862.85
732.248	40060.13
732.589	39852.91
732.93	39640.03
733.271	39713.93
733.612	39706.02
733.953	39830.08
734.294	39604.55
734.635	39478.45
734.976	39461.28
735.317	39261.51
735.658	39249.31
735.999	39319.36
736.339	39158.01
736.68	39230.78
737.021	39121.63
737.361	38939.03
737.702	39141.74
738.042	39091.8
738.383	38911.01
738.723	39002.76
739.063	38782.2
739.404	38945.81
739.744	38767.96
740.084	38561.64
740.424	38681.19
740.764	38490.46
741.104	38723.67
741.444	38553.96
741.784	38423.57
742.124	38390.35
742.464	38368.88
742.804	38287.07
743.143	38230.58
743.483	38274.87
743.823	38090.47
744.162	38134.76
744.502	38154.42
744.841	37838.95
745.181	37913.75
745.52	37976.57
745.86	37901.55
746.199	37810.93
746.538	37647.99
746.877	37803.02
747.216	37712.4
747.556	37597.82
747.895	37650.93
748.234	37449.13
748.573	37393.31
748.911	37359.41
749.25	37232.64
749.589	37141.57
749.928	37250.49
750.267	37219.08
750.605	37062.47
750.944	36987.22
751.283	36814.57
751.621	36894.11
751.96	36701.35
752.298	36688.7
752.636	36705.65
752.975	36428.82
