Data from whiteboard_FLMS001491_00044.txt Node
Date: Wed Feb 08 11:26:39 GMT 2017
User: dcchb
Spectrometer: FLMS00149
Trigger mode: 0
Integration Time (sec): 2.000000E-2
Scans to average: 10
Electric dark correction enabled: true
Nonlinearity correction enabled: false
Boxcar width: 0
XAxis mode: Wavelengths
Number of Pixels in Spectrum: 2048
>>>>>Begin Spectral Data<<<<<
341.393	5.42
341.776	5.42
342.16	5.42
342.543	-61.69
342.927	-61.02
343.31	-79.55
343.693	-68.47
344.077	-54.69
344.46	-43.84
344.843	-63.5
345.226	-53.78
345.61	-18.76
345.993	-27.57
346.376	-12.43
346.759	17.4
347.142	41.58
347.525	59.21
347.908	44.97
348.291	84.97
348.674	76.61
349.057	97.85
349.44	119.54
349.823	129.49
350.206	182.82
350.588	193.89
350.971	213.55
351.354	256.49
351.737	262.82
352.119	276.15
352.502	269.82
352.884	304.17
353.267	310.5
353.65	322.7
354.032	318.41
354.414	341.01
354.797	332.87
355.179	348.92
355.562	359.31
355.944	362.7
356.326	364.74
356.709	365.19
357.091	368.13
357.473	368.35
357.855	371.74
358.238	367.9
358.62	347.56
359.002	368.58
359.384	390.05
359.766	383.72
360.148	388.01
360.53	352.76
360.912	391.18
361.294	387.11
361.676	375.13
362.057	362.48
362.439	347.34
362.821	356.83
363.203	370.39
363.584	378.97
363.966	372.65
364.348	389.14
364.729	386.43
365.111	360.67
365.493	357.5
365.874	382.81
366.256	381.23
366.637	365.87
367.019	377.39
367.4	376.49
367.781	381.46
368.163	341.23
368.544	353.89
368.925	364.06
369.306	379.88
369.688	379.65
370.069	360.89
370.45	378.52
370.831	360.67
371.212	376.71
371.593	367.67
371.974	364.74
372.355	366.54
372.736	385.75
373.117	390.72
373.498	375.81
373.879	372.87
374.26	395.92
374.641	388.92
375.021	379.43
375.402	375.58
375.783	420.55
376.163	408.8
376.544	415.81
376.925	406.77
377.305	414.68
377.686	417.39
378.066	393.21
378.447	430.27
378.827	404.96
379.208	433.89
379.588	422.59
379.968	414
380.349	437.5
380.729	444.06
381.109	435.24
381.489	437.73
381.87	424.62
382.25	411.97
382.63	439.99
383.01	438.41
383.39	455.81
383.77	465.52
384.15	469.14
384.53	469.14
384.91	457.84
385.29	475.24
385.67	475.02
386.049	473.89
386.429	489.48
386.809	507.33
387.189	477.05
387.568	489.48
387.948	494.45
388.328	490.38
388.707	528.35
389.087	519.08
389.466	521.57
389.846	524.51
390.225	543.26
390.605	529.03
390.984	554.56
391.363	562.92
391.743	570.83
392.122	583.71
392.501	598.85
392.881	582.36
393.26	602.92
393.639	607.67
394.018	592.07
394.397	628.46
394.776	619.87
395.155	646.99
395.534	639.98
395.913	658.06
396.292	673.65
396.671	676.82
397.05	686.99
397.429	694.45
397.808	704.61
398.186	716.59
398.565	722.92
398.944	725.63
399.323	745.97
399.701	755.46
400.08	764.95
400.458	783.93
400.837	769.02
401.215	816.48
401.594	817.83
401.972	819.64
402.351	835.46
402.729	852.18
403.107	861.9
403.486	872.07
403.864	899.64
404.242	886.98
404.62	915.68
404.999	944.83
405.377	946.42
405.755	938.28
406.133	987.32
406.511	990.48
406.889	1008.79
407.267	1056.92
407.645	1053.08
408.023	1080.65
408.401	1096.47
408.779	1131.27
409.156	1155.22
409.534	1134.43
409.912	1198.61
410.29	1228.44
410.667	1264.6
411.045	1241.1
411.422	1299.17
411.8	1301.66
412.178	1313.86
412.555	1363.81
412.933	1396.35
413.31	1411.04
413.687	1420.3
414.065	1459.4
414.442	1484.25
414.819	1477.25
415.197	1535.33
415.574	1557.47
415.951	1564.03
416.328	1617.58
416.705	1585.72
417.082	1617.13
417.46	1637.47
417.837	1624.82
418.214	1721.54
418.591	1699.84
418.967	1722.44
419.344	1754.08
419.721	1773.74
420.098	1801.08
420.475	1839.5
420.852	1871.59
421.228	1891.7
421.605	1851.7
421.982	1907.29
422.358	1935.09
422.735	1947.97
423.111	1973.28
423.488	2034.75
423.864	2023
424.241	2076.33
424.617	2096.22
424.994	2096.44
425.37	2136.67
425.746	2154.07
426.123	2211.69
426.499	2228.19
426.875	2242.65
427.251	2289.21
427.627	2324.46
428.003	2352.71
428.379	2424.34
428.756	2394.97
429.132	2478.35
429.507	2477
429.883	2549.99
430.259	2539.14
430.635	2583.89
431.011	2616.88
431.387	2695.97
431.763	2726.48
432.138	2719.48
432.514	2778.23
432.89	2792.69
433.265	2875.18
433.641	2918.12
434.016	2945.91
434.392	3025.01
434.767	3033.37
435.143	3081.95
435.518	3101.61
435.894	3150.2
436.269	3172.12
436.644	3202.18
437.02	3293.47
437.395	3239.24
437.77	3385.45
438.145	3403.75
438.52	3417.99
438.895	3478.1
439.271	3553.35
439.646	3558.32
440.021	3608.72
440.395	3622.05
440.77	3592.22
441.145	3640.81
441.52	3763.29
441.895	3783.18
442.27	3769.84
442.645	3801.71
443.019	3862.5
443.394	3835.38
443.769	3948.14
444.143	3902.95
444.518	3953.57
444.892	3952.21
445.267	3997.18
445.641	4032.21
446.016	4081.02
446.39	4047.35
446.764	4141.59
447.139	4070.85
447.513	4173.9
447.887	4178.65
448.262	4191.53
448.636	4280.57
449.01	4292.77
449.384	4332.09
449.758	4364.86
450.132	4395.59
450.506	4490.5
450.88	4502.48
451.254	4514.01
451.628	4591.07
452.002	4663.83
452.376	4717.39
452.75	4768.46
453.123	4789.93
453.497	4930.27
453.871	4975.24
454.244	5064.73
454.618	5076.48
454.992	5161.9
455.365	5168.45
455.739	5318.28
456.112	5352.63
456.486	5400.08
456.859	5514.88
457.232	5582.45
457.606	5611.6
457.979	5701.32
458.352	5761.43
458.725	5874.42
459.099	5859.05
459.472	6065.38
459.845	6095.43
460.218	6165.26
460.591	6234.86
460.964	6270.8
461.337	6403.45
461.71	6499.72
462.083	6557.34
462.456	6579.26
462.829	6624.68
463.201	6755.98
463.574	6800.05
463.947	6878.01
464.32	7006.37
464.692	7093.82
465.065	7125.24
465.438	7225.8
465.81	7295.63
466.183	7466.7
466.555	7608.84
466.928	7641.16
467.3	7679.35
467.672	7785.33
468.045	8040.01
468.417	8033.91
468.789	8114.14
469.161	8254.25
469.534	8427.8
469.906	8649.26
470.278	8673.22
470.65	8763.61
471.022	9010.16
471.394	9150.27
471.766	9239.31
472.138	9393.43
472.51	9565.85
472.882	9792.74
473.253	9870.93
473.625	9988.21
473.997	10229.11
474.369	10259.39
474.74	10461.42
475.112	10618.7
475.484	10815.31
475.855	10985.7
476.227	11020.95
476.598	11413.26
476.97	11475.18
477.341	11728.96
477.713	11901.83
478.084	11937.77
478.455	12371.65
478.827	12378.88
479.198	12810.28
479.569	12768.7
479.94	13123.95
480.311	13198.75
480.682	13554.22
481.053	13808.22
481.424	14071.27
481.795	14130.48
482.166	14409.79
482.537	14600.97
482.908	14921.64
483.279	15087.06
483.65	15263.78
484.021	15638.46
484.391	15927.26
484.762	16006.81
485.133	16213.36
485.503	16362.73
485.874	16860.12
486.244	17009.5
486.615	17449.03
486.985	17544.17
487.356	17921.56
487.726	18114.55
488.097	18485.62
488.467	18553.41
488.837	18971.7
489.207	19176.44
489.578	19491.69
489.948	19685.81
490.318	20000.38
490.688	20035.63
491.058	20448.05
491.428	20801.49
491.798	21044.64
492.168	21399.21
492.538	21585.87
492.908	21773.89
493.278	21952.87
493.648	22133.43
494.017	22353.76
494.387	22516.24
494.757	22764.83
495.126	23032.39
495.496	23077.81
495.866	23211.82
496.235	23433.96
496.605	23664.01
496.974	23821.52
497.344	23985.58
497.713	24043.66
498.082	24229.87
498.452	24353.26
498.821	24656.75
499.19	24681.16
499.559	24842.51
499.928	25051.32
500.298	25158.43
500.667	25381.71
501.036	25388.03
501.405	25652.66
501.774	25708.93
502.143	26001.12
502.512	26139.65
502.88	26464.84
503.249	26395.46
503.618	26574.44
503.987	26812.85
504.356	27020.98
504.724	27211.49
505.093	27366.06
505.462	27627.07
505.83	27803.11
506.199	28087.17
506.567	28551.34
506.936	28450.55
507.304	28811.22
507.672	29020.93
508.041	29273.81
508.409	29531.88
508.777	29814.36
509.145	29932.32
509.514	29981.36
509.882	30259.09
510.25	30461.35
510.618	30609.14
510.986	30819.3
511.354	31071.05
511.722	31406.63
512.09	31754.19
512.458	31567.53
512.826	32069.89
513.193	32212.94
513.561	32410.45
513.929	32696.09
514.297	32892.92
514.664	33081.62
515.032	33139.69
515.4	33600.02
515.767	33391.21
516.135	33635.95
516.502	33719.57
516.869	34227.12
517.237	34361.13
517.604	34214.92
517.972	34711.4
518.339	34712.99
518.706	34912.08
519.073	35053.32
519.44	35273.2
519.808	35592.96
520.175	35704.6
520.542	36053.06
520.909	36192.72
521.276	36166.28
521.643	36704.57
522.009	37010.33
522.376	37142.3
522.743	37477.88
523.11	37840.59
523.477	38110.86
523.843	38533.68
524.21	38801.24
524.577	39026.09
524.943	39166.2
525.31	39424.27
525.676	39927.54
526.043	39994.2
526.409	40513.06
526.776	40751.24
527.142	40971.35
527.508	41247.05
527.874	41565.23
528.241	41875.51
528.607	42042.06
528.973	42555.72
529.339	42454.7
529.705	42989.83
530.071	43141.01
530.437	43477.5
530.803	43535.13
531.169	43845.63
531.535	43884.5
531.901	44114.55
532.267	44401.32
532.632	44704.36
532.998	44875.88
533.364	45173.28
533.73	45311.12
534.095	45600.16
534.461	45733.03
534.826	45905.46
535.192	46079.69
535.557	46375.28
535.923	46307.48
536.288	46463.64
536.653	46742.27
537.019	46589.74
537.384	46920.12
537.749	46969.61
538.114	47073.11
538.479	47173.45
538.845	47244.18
539.21	47272.43
539.575	47433.1
539.94	47532.31
540.305	47628.35
540.67	47619.54
541.034	47743.15
541.399	47842.36
541.764	47903.15
542.129	48135.01
542.494	48153.54
542.858	48369.35
543.223	48253.65
543.587	48629.68
543.952	48580.19
544.316	48736.57
544.681	48772.5
545.045	48901.54
545.41	49172.94
545.774	49323.9
546.138	49233.73
546.503	49458.81
546.867	49457
547.231	49878.46
547.595	49868.75
547.959	50024.67
548.324	50152.13
548.688	50143.09
549.052	50368.17
549.416	50478.45
549.779	50621.27
550.143	50641.38
550.507	50930.41
550.871	51096.28
551.235	51136.51
551.599	51448.36
551.962	51471.41
552.326	51643.16
552.689	51811.52
553.053	51800.22
553.417	51837.06
553.78	52264.39
554.143	52194.79
554.507	52361.79
554.87	52437.72
555.234	52890.59
555.597	52717.71
555.96	52828.44
556.323	53050.13
556.686	53029.57
557.05	53297.13
557.413	53335.09
557.776	53397.92
558.139	53662.09
558.502	53601.3
558.865	53848.08
559.228	53902.09
559.59	53956.1
559.953	54065.02
560.316	54334.39
560.679	54267.73
561.041	54388.85
561.404	54543.65
561.767	54696.87
562.129	54660.26
562.492	54865.9
562.854	54849.41
563.217	54865.68
563.579	54987.25
563.941	55108.83
564.304	55205.78
564.666	55321.94
565.028	55302.95
565.39	55462.72
565.753	55575.94
566.115	55728.03
566.477	55721.02
566.839	55807.35
567.201	55970.05
567.563	55942.03
567.925	56092.99
568.287	56090.5
568.648	56233.32
569.01	56393.32
569.372	56525.52
569.734	56439.42
570.095	56610.26
570.457	56615.01
570.819	56733.65
571.18	56773.42
571.542	56998.5
571.903	57004.6
572.265	57075.34
572.626	57145.39
572.987	57248.44
573.349	57308.55
573.71	57402.78
574.071	57560.75
574.432	57525.49
574.794	57752.61
575.155	57728.43
575.516	57758.03
575.877	57843.9
576.238	57889.33
576.599	58004.12
576.96	58069.66
577.32	58122.99
577.681	58214.06
578.042	58277.34
578.403	58343.78
578.763	58395.3
579.124	58426.03
579.485	58499.48
579.845	58584.45
580.206	58661.96
580.566	58615.86
580.927	58615.63
581.287	58731.11
581.648	58670.77
582.008	58772.24
582.368	58783.54
582.728	58893.82
583.089	58876.19
583.449	58803.65
583.809	58854.05
584.169	58868.51
584.529	58841.16
584.889	58983.53
585.249	58835.97
585.609	58795.06
585.969	58947.83
586.329	58871.9
586.688	58845.46
587.048	58855.4
587.408	58759.36
587.768	58748.96
588.127	58736.08
588.487	58658.57
588.846	58836.42
589.206	58661.96
589.565	58642.75
589.925	58737.66
590.284	58677.78
590.643	58787.83
591.003	58791.67
591.362	58758.46
591.721	58634.84
592.08	58645.69
592.44	58658.34
592.799	58683.43
593.158	58656.99
593.517	58647.95
593.876	58665.12
594.235	58590.32
594.593	58624.22
594.952	58635.07
595.311	58619.48
595.67	58650.89
596.029	58755.52
596.387	58736.08
596.746	58834.84
597.104	58685.46
597.463	58703.99
597.822	58821.28
598.18	58670.55
598.538	58638.91
598.897	58837.1
599.255	58662.19
599.613	58995.28
599.972	58887.49
600.33	58927.49
600.688	58902.18
601.046	58961.16
601.404	59069.18
601.762	59003.42
602.12	59100.14
602.478	59148.95
602.836	59278.22
603.194	59029.18
603.552	59224.66
603.91	59162.06
604.268	59264.88
604.625	59182.62
604.983	59343.98
605.341	59235.05
605.698	59394.14
606.056	59432.11
606.413	59417.19
606.771	59519.34
607.128	59556.63
607.485	59436.4
607.843	59520.47
608.2	59643.63
608.557	59736.73
608.914	59664.42
609.272	59773.12
609.629	59839.78
609.986	59940.34
610.343	59797.98
610.7	59968.59
611.057	59902.61
611.414	59961.14
611.771	59950.97
612.127	60041.59
612.484	59943.28
612.841	60039.33
613.198	60014.24
613.554	60017.86
613.911	60144.41
614.267	60105.99
614.624	60039.55
614.98	60084.97
615.337	60189.38
615.693	60118.42
616.05	60076.39
616.406	60176.72
616.762	60080.91
617.118	60091.3
617.475	59984.41
617.831	60094.01
618.187	60089.72
618.543	60100.57
618.899	60214.24
619.255	60208.59
619.611	60073
619.967	60204.74
620.323	60188.47
620.678	60107.57
621.034	60102.6
621.39	60036.84
621.746	59929.95
622.101	60206.33
622.457	60002.94
622.812	59995.48
623.168	59999.55
623.523	59995.48
623.879	60102.37
624.234	59850.63
624.589	59962.27
624.945	59983.96
625.3	59968.37
625.655	59898.09
626.01	59963.85
626.365	59942.38
626.72	59947.8
627.075	59950.51
627.43	59903.51
627.785	59819.9
628.14	59875.26
628.495	59815.6
628.85	59796.85
629.205	59762.27
629.559	59822.16
629.914	59761.37
630.269	59786.9
630.623	59734.47
630.978	59725.66
631.332	59792.1
631.687	59846.79
632.041	59761.37
632.396	59804.76
632.75	59667.58
633.104	59715.27
633.459	59682.5
633.813	59646.12
634.167	59627.13
634.521	59651.31
634.875	59724.31
635.229	59741.25
635.583	59662.61
635.937	59694.93
636.291	59667.81
636.645	59625.55
636.999	59588.94
637.352	59753.23
637.706	59557.98
638.06	59679.56
638.413	59655.38
638.767	59582.16
639.121	59615.38
639.474	59462.17
639.828	59517.53
640.181	59490.87
640.534	59459
640.888	59454.71
641.241	59386.24
641.594	59463.97
641.947	59512.11
642.301	59403.64
642.654	59471.88
643.007	59391.66
643.36	59315.95
643.713	59240.93
644.066	59370.87
644.419	59213.81
644.771	59059.46
645.124	58908.28
645.477	58837.55
645.83	58596.2
646.182	58455.64
646.535	58354.85
646.888	58326.15
647.24	58184.46
647.593	58285.02
647.945	58241.41
648.298	58041.86
648.65	57992.6
649.002	57947.63
649.355	58022.88
649.707	57988.08
650.059	58056.1
650.411	58335.42
650.763	58317.34
651.115	58487.95
651.467	58357.34
651.819	58374.51
652.171	58294.96
652.523	58212.03
652.875	58125.25
653.227	58059.26
653.578	58148.98
653.93	58162.76
654.282	58068.53
654.633	57944.01
654.985	57974.97
655.337	58001.86
655.688	57950.34
656.039	57958.48
656.391	57753.51
656.742	57792.83
657.094	57805.49
657.445	57808.65
657.796	57706.05
658.147	57649.78
658.498	57677.35
658.849	57714.87
659.2	57654.76
659.551	57580.63
659.902	57733.62
660.253	57614.53
660.604	57708.54
660.955	57556.23
661.306	57571.59
661.656	57560.97
662.007	57559.39
662.358	57612.27
662.708	57564.81
663.059	57542.22
663.409	57375.67
663.76	57589.67
664.11	57539.05
664.461	57624.47
664.811	57541.31
665.161	57518.49
665.511	57455.66
665.862	57429.68
666.212	57625.38
666.562	57624.93
666.912	57528.88
667.262	57475.55
667.612	57427.42
667.962	57562.33
668.312	57442.56
668.662	57613.63
669.011	57444.37
669.361	57491.6
669.711	57439.39
670.06	57449.34
670.41	57352.84
670.76	57378.83
671.109	57445.04
671.459	57410.47
671.808	57360.75
672.157	57388.1
672.507	57306.97
672.856	57236.69
673.205	57345.61
673.554	57349.9
673.904	57247.99
674.253	57382.22
674.602	57289.12
674.951	56970.03
675.3	56777.72
675.649	57253.18
675.998	57111.27
676.346	57132.51
676.695	57281.21
677.044	57051.83
677.393	57175.22
677.741	57165.95
678.09	57193.98
678.438	57134.77
678.787	57104.71
679.135	57135.9
679.484	56921.89
679.832	56950.37
680.181	56866.3
680.529	56936.58
680.877	56835.12
681.225	56811.61
681.573	56876.24
681.922	56714.44
682.27	56566.42
682.618	56692.75
682.966	56533.88
683.314	56590.83
683.661	56452.07
684.009	56277.84
684.357	56195.13
684.705	56165.98
685.053	56198.07
685.4	56120.56
685.748	56020
686.095	55978.87
686.443	55829.72
686.79	55728.03
687.138	55758.99
687.485	55771.87
687.832	55637.63
688.18	55656.62
688.527	55549.27
688.874	55434.47
689.221	55428.37
689.568	55324.65
689.915	55196.97
690.262	55146.12
690.609	55012.56
690.956	54960.36
691.303	54857.09
691.65	54745
691.997	54808.73
692.344	54492.58
692.69	54508.62
693.037	54571.67
693.383	54225.01
693.73	54311.34
694.077	54189.99
694.423	54141.85
694.769	54023.66
695.116	53975.08
695.462	53858.47
695.808	53790.9
696.155	53679.27
696.501	53500.74
696.847	53593.62
697.193	53198.15
697.539	53431.59
697.885	53190.24
698.231	53091.71
698.577	53012.62
698.923	53041.09
699.269	52993.41
699.614	52715.22
699.96	52639.29
700.306	52670.25
700.651	52475.23
700.997	52453.31
701.342	52399.3
701.688	52346.42
702.033	52230.04
702.379	52199.98
702.724	52198.63
703.069	52150.95
703.415	51792.08
703.76	51880.9
704.105	51912.99
704.45	51744.85
704.795	51567.23
705.14	51557.97
705.485	51496.27
705.83	51298.76
706.175	51546.22
706.52	51372.21
706.865	51316.39
707.209	51304.87
707.554	51134.93
707.899	51282.27
708.243	51037.3
708.588	51054.7
708.932	50885.22
709.277	50792.79
709.621	50873.69
709.966	50688.84
710.31	50803.64
710.654	50368.39
710.998	50497.88
711.342	50532.91
711.687	50444.1
712.031	50283.2
712.375	50181.73
712.719	50188.74
713.063	50278.45
713.407	50235.97
713.75	50058.8
714.094	49913.04
714.438	49759.14
714.782	49862.19
715.125	49692.25
715.469	49722.76
715.812	49572.03
716.156	49494.97
716.499	49490.9
716.843	49473.95
717.186	49283
717.53	49405.48
717.873	49304.01
718.216	49299.95
718.559	49113.96
718.902	48716.91
719.246	48907.41
719.589	48671.71
719.932	48629.23
720.275	48652.73
720.617	48422
720.96	48469.23
721.303	48361.89
721.646	48340.2
721.989	48210.26
722.331	48345.4
722.674	48035.57
723.016	47890.04
723.359	47712.19
723.701	47808.69
724.044	47616.83
724.386	47445.53
724.729	47632.19
725.071	47312.65
725.413	47243.96
725.755	47198.53
726.097	47087.12
726.439	46819.11
726.782	46819.33
727.124	46874.02
727.465	46661.37
727.807	46722.61
728.149	46442.39
728.491	46456.18
728.833	46402.17
729.175	46104.1
729.516	45983.88
729.858	45999.47
730.199	46009.64
730.541	45857.55
730.882	45763.32
731.224	45902.97
731.565	45457.11
731.906	45629.53
732.248	45651
732.589	45323.1
732.93	45179.38
733.271	45185.48
733.612	45177.12
733.953	45116.1
734.294	44822.32
734.635	44731.25
734.976	44842.21
735.317	44661.42
735.658	44627.08
735.999	44499.62
736.339	44262.79
736.68	44493.07
737.021	44426.4
737.361	44173.3
737.702	44318.83
738.042	44008.11
738.383	44084.49
738.723	44159.29
739.063	43913.42
739.404	43957.71
739.744	43834.55
740.084	43642.02
740.424	43607.89
740.764	43635.46
741.104	43688.79
741.444	43405.41
741.784	43285.87
742.124	43360.89
742.464	43369.26
742.804	43272.99
743.143	43170.62
743.483	43317.73
743.823	43023.05
744.162	42919.32
744.502	43107.12
744.841	42828.25
745.181	43095.59
745.52	42829.83
745.86	42903.05
746.199	42669.16
746.538	42725.88
746.877	42653.57
747.216	42641.82
747.556	42630.07
747.895	42636.62
748.234	42479.56
748.573	42510.75
748.911	42444.53
749.25	42477.3
749.589	42301.49
749.928	42219.45
750.267	42291.09
750.605	42302.16
750.944	42030.08
751.283	41831.22
751.621	41853.36
751.96	41708.73
752.298	41831.67
