Data from White_paper_FLMS001491_026.txt Node
Date: Tue Feb 07 10:34:52 GMT 2017
User: dcchb
Spectrometer: FLMS00149
Trigger mode: 0
Integration Time (sec): 2.000000E-2
Scans to average: 10
Electric dark correction enabled: true
Nonlinearity correction enabled: false
Boxcar width: 0
XAxis mode: Wavelengths
Number of Pixels in Spectrum: 2048
>>>>>Begin Spectral Data<<<<<
341.393	-11.51
341.776	-11.51
342.16	-11.51
342.543	-63.26
342.927	-58.97
343.31	-57.39
343.693	-73.2
344.077	-56.93
344.46	-73.2
344.843	-66.2
345.226	-29.59
345.61	-33.21
345.993	-29.82
346.376	-12.64
346.759	3.18
347.142	36.4
347.525	42.05
347.908	70.75
348.291	68.26
348.674	104.87
349.057	106.68
349.44	122.95
349.823	128.15
350.206	154.81
350.588	210.18
350.971	233.91
351.354	277.52
351.737	270.06
352.119	271.65
352.502	283.62
352.884	285.2
353.267	313
353.65	328.37
354.032	321.14
354.414	345.09
354.797	344.64
355.179	332.43
355.562	347.8
355.944	352.1
356.326	354.58
356.709	362.26
357.091	367.01
357.473	368.59
357.855	367.01
358.238	366.78
358.62	361.81
359.002	381.02
359.384	374.69
359.766	388.48
360.148	396.61
360.53	361.81
360.912	388.48
361.294	347.35
361.676	385.31
362.057	376.05
362.439	367.69
362.821	371.08
363.203	361.13
363.584	372.89
363.966	374.69
364.348	382.6
364.729	353
365.111	371.98
365.493	356.16
365.874	372.43
366.256	333.79
366.637	351.87
367.019	376.5
367.4	358.42
367.781	369.5
368.163	343.96
368.544	359.55
368.925	359.55
369.306	355.71
369.688	351.64
370.069	368.82
370.45	372.21
370.831	387.35
371.212	363.62
371.593	370.63
371.974	368.14
372.355	388.7
372.736	352.77
373.117	377.41
373.498	364.75
373.879	375.37
374.26	369.72
374.641	359.1
375.021	373.56
375.402	379.21
375.783	397.97
376.163	402.72
376.544	404.98
376.925	400.23
377.305	387.35
377.686	376.5
378.066	394.35
378.447	384.86
378.827	405.65
379.208	383.73
379.588	384.41
379.968	403.39
380.349	413.79
380.729	414.24
381.109	418.76
381.489	425.99
381.87	420.34
382.25	433.9
382.63	413.11
383.01	427.8
383.39	430.29
383.77	429.83
384.15	432.55
384.53	437.29
384.91	423.51
385.29	437.06
385.67	442.94
386.049	459.66
386.429	460.57
386.809	460.34
387.189	472.54
387.568	472.09
387.948	464.18
388.328	472.32
388.707	479.78
389.087	488.14
389.466	469.15
389.846	485.88
390.225	498.31
390.605	488.36
390.984	491.98
391.363	493.79
391.743	508.93
392.122	529.72
392.501	523.62
392.881	534.92
393.26	531.53
393.639	531.07
394.018	535.37
394.397	550.51
394.776	541.92
395.155	542.15
395.534	576.5
395.913	583.73
396.292	566.1
396.671	585.08
397.05	583.5
397.429	573.11
397.808	576.72
398.186	581.92
398.565	600
398.944	614.46
399.323	617.17
399.701	623.27
400.08	661.01
400.458	633.9
400.837	639.09
401.215	631.64
401.594	656.27
401.972	673.22
402.351	691.07
402.729	724.06
403.107	713.22
403.486	724.51
403.864	709.83
404.242	743.72
404.62	722.26
404.999	755.7
405.377	775.36
405.755	783.95
406.133	814.23
406.511	811.97
406.889	839.09
407.267	855.81
407.645	886.32
408.023	870.27
408.401	891.29
408.779	909.37
409.156	966.77
409.534	951.85
409.912	1000.44
410.29	1005.41
410.667	1026.2
411.045	1066.2
411.422	1106.2
411.8	1113.66
412.178	1147.33
412.555	1125.18
412.933	1208.57
413.31	1230.49
413.687	1242.92
414.065	1293.31
414.442	1311.39
414.819	1304.84
415.197	1348.23
415.574	1406.53
415.951	1411.73
416.328	1424.16
416.705	1446.53
417.082	1477.49
417.46	1508.45
417.837	1543.48
418.214	1552.29
418.591	1625.96
418.967	1597.49
419.344	1631.38
419.721	1688.11
420.098	1699.18
420.475	1727.65
420.852	1739.63
421.228	1785.73
421.605	1813.3
421.982	1829.8
422.358	1848.78
422.735	1870.7
423.111	1871.6
423.488	1908.89
423.864	1920.64
424.241	1968.1
424.617	2000.87
424.994	2038.6
425.37	2079.28
425.746	2095.1
426.123	2085.16
426.499	2103.24
426.875	2108.43
427.251	2210.8
427.627	2225.49
428.003	2222.55
428.379	2294.19
428.756	2299.61
429.132	2359.73
429.507	2410.12
429.883	2408.76
430.259	2481.08
430.635	2496.9
431.011	2511.59
431.387	2588.65
431.763	2622.77
432.138	2654.18
432.514	2687.18
432.89	2725.59
433.265	2757.91
433.641	2810.34
434.016	2832.71
434.392	2873.61
434.767	2974.85
435.143	2960.16
435.518	2960.84
435.894	3002.2
436.269	3054.62
436.644	3122.42
437.02	3139.37
437.395	3195.64
437.77	3137.78
438.145	3265.69
438.52	3307.27
438.895	3339.14
439.271	3367.38
439.646	3399.25
440.021	3470.43
440.395	3452.35
440.77	3430.88
441.145	3467.27
441.52	3491.67
441.895	3503.42
442.27	3569.64
442.645	3575.51
443.019	3639.24
443.394	3643.76
443.769	3647.38
444.143	3664.78
444.518	3723.76
444.892	3717.66
445.267	3737.99
445.641	3781.61
446.016	3796.52
446.39	3823.87
446.764	3860.7
447.139	3856.86
447.513	3903.64
447.887	3909.74
448.262	3918.33
448.636	3948.84
449.01	4000.36
449.384	4099.34
449.758	4074.03
450.132	4092.79
450.506	4112.22
450.88	4160.58
451.254	4157.87
451.628	4256.17
452.002	4287.36
452.376	4306.12
452.75	4353.35
453.123	4414.59
453.497	4402.16
453.871	4504.3
454.244	4585.43
454.618	4592.89
454.992	4614.58
455.365	4680.8
455.739	4772.54
456.112	4793.79
456.486	4869.94
456.859	4900.22
457.232	5043.72
457.606	5021.13
457.979	5062.93
458.352	5129.6
458.725	5223.15
459.099	5254.79
459.472	5342.25
459.845	5409.82
460.218	5405.75
460.591	5472.41
460.964	5549.7
461.337	5671.96
461.71	5756.02
462.083	5835.34
462.456	5844.83
462.829	5888.67
463.201	5990.37
463.574	6015.22
463.947	6115.79
464.32	6199.85
464.692	6243.24
465.065	6302.45
465.438	6440.97
465.81	6477.81
466.183	6536.34
466.555	6732.49
466.928	6757.8
467.3	6762.1
467.672	6851.59
468.045	7098.58
468.417	7055.2
468.789	7115.76
469.161	7209.99
469.534	7334.06
469.906	7492.02
470.278	7508.97
470.65	7601.4
471.022	7778.57
471.394	7944.21
471.766	7997.09
472.138	8098.56
472.51	8189.4
472.882	8350.3
473.253	8521.82
473.625	8560.92
473.997	8791.2
474.369	8832.55
474.74	8943.51
475.112	9049.49
475.484	9234.35
475.855	9398.86
476.227	9414
476.598	9706.65
476.97	9821.9
477.341	9978.73
477.713	10166.53
478.084	10209.69
478.455	10548.21
478.827	10591.6
479.198	10958.37
479.569	10888.77
479.94	11199.49
480.311	11323.11
480.682	11559.26
481.053	11785.24
481.424	12020.72
481.795	12111.79
482.166	12232.23
482.537	12466.35
482.908	12772.79
483.279	12793.12
483.65	13102.49
484.021	13299.78
484.391	13442.6
484.762	13614.12
485.133	13680.56
485.503	13884.17
485.874	14124.61
486.244	14321.45
486.615	14640.53
486.985	14728.89
487.356	14923.24
487.726	15133.4
488.097	15498.36
488.467	15483.45
488.837	15803.67
489.207	15944.91
489.578	16085.69
489.948	16334.27
490.318	16544.66
490.688	16628.73
491.058	16838.67
491.428	17114.14
491.798	17339.9
492.168	17576.95
492.538	17611.3
492.908	17840.9
493.278	18080.67
493.648	17991.86
494.017	18362.24
494.387	18505.74
494.757	18664.16
495.126	18830.71
495.496	18924.04
495.866	19151.83
496.235	19262.56
496.605	19364.25
496.974	19483.8
497.344	19601.76
497.713	19683.79
498.082	19942.99
498.452	20137.79
498.821	20269.99
499.19	20371.91
499.559	20548.63
499.928	20838.11
500.298	20821.84
500.667	20996.98
501.036	20946.13
501.405	21247.14
501.774	21118.1
502.143	21518.32
502.512	21557.19
502.88	21786.79
503.249	21734.81
503.618	21907.46
503.987	22196.94
504.356	22101.81
504.724	22427.45
505.093	22438.52
505.462	22586.76
505.83	22646.2
506.199	22852.75
506.567	23119.86
506.936	23134.77
507.304	23459.28
507.672	23465.61
508.041	23446.18
508.409	23746.51
508.777	23822.21
509.145	24100.62
509.514	24184.69
509.882	24353.72
510.25	24417.9
510.618	24490.67
510.986	24739.48
511.354	24922.3
511.722	25224.66
512.09	25348.27
512.458	25324.09
512.826	25572
513.193	25760.92
513.561	25678.43
513.929	26026.9
514.297	26209.72
514.664	26362.03
515.032	26430.96
515.4	26723.38
515.767	26827.78
516.135	26977.84
516.502	26877.73
516.869	27353.42
517.237	27419.41
517.604	27442.68
517.972	27729
518.339	27853.29
518.706	27994.31
519.073	28090.35
519.44	28289.89
519.808	28615.31
520.175	28785.25
520.542	29031.57
520.909	29133.94
521.276	29132.81
521.643	29498.45
522.009	29743.64
522.376	29939.57
522.743	30072.22
523.11	30242.38
523.477	30642.6
523.843	30714.91
524.21	31223.6
524.577	31292.98
524.943	31434.22
525.31	31665.62
525.676	31863.58
526.043	32112.62
526.409	32198.04
526.776	32429.22
527.142	32624.92
527.508	32869.66
527.874	33092.03
528.241	33386.93
528.607	33338.8
528.973	33792.35
529.339	33685.46
529.705	34007.71
530.071	34233.69
530.437	34408.15
530.803	34562.95
531.169	34773.56
531.535	34741.02
531.901	35033.67
532.267	35111.41
532.632	35479.76
532.998	35539.64
533.364	35655.12
533.73	35762.01
534.095	35969.69
534.461	36188.89
534.826	36359.06
535.192	36496.91
535.557	36737.58
535.923	36830.01
536.288	36984.8
536.653	37145.7
537.019	37188.87
537.384	37291.01
537.749	37569.65
538.114	37550.89
538.479	37841.73
538.845	37827.04
539.21	37776.87
539.575	38010.99
539.94	38063.87
540.305	38316.97
540.67	38385.22
541.034	38465.67
541.399	38657.98
541.764	38884.64
542.129	39011.64
542.494	38983.4
542.858	39391.07
543.223	39346.55
543.587	39539.31
543.952	39573.66
544.316	39760.1
544.681	39715.58
545.045	39865.18
545.41	40169.13
545.774	40267.43
546.138	40351.95
546.503	40367.54
546.867	40513.53
547.231	40845.04
547.595	40837.58
547.959	40933.18
548.324	41087.75
548.688	41144.69
549.052	41336.33
549.416	41485.25
549.779	41571.8
550.143	41672.59
550.507	41982.19
550.871	41985.12
551.235	42022.41
551.599	42400.71
551.962	42535.84
552.326	42521.83
552.689	42836.85
553.053	42566.58
553.417	42785.33
553.78	43250.85
554.143	43111.65
554.507	43338.08
554.87	43374.92
555.234	43795.47
555.597	43595.7
555.96	43921.35
556.323	44018.29
556.686	44134.67
557.05	44500.09
557.413	44449.24
557.776	44443.59
558.139	44917.25
558.502	44883.58
558.865	44882.68
559.228	45163.12
559.59	45396.79
559.953	45464.36
560.316	45867.28
560.679	45810.79
561.041	46124.9
561.404	46272.7
561.767	46427.27
562.129	46347.27
562.492	46691.22
562.854	46797.2
563.217	46887.37
563.579	47013.92
563.941	47106.12
564.304	47202.39
564.666	47659.55
565.028	47595.37
565.39	47779.77
565.753	47959.21
566.115	48106.77
566.477	48398.74
566.839	48432.86
567.201	48596.25
567.563	48773.19
567.925	48969.12
568.287	49015.67
568.648	49047.31
569.01	49335.89
569.372	49530.46
569.734	49360.98
570.095	49681.42
570.457	49891.58
570.819	49983.56
571.18	50048.87
571.542	50267.62
571.903	50266.49
572.265	50466.94
572.626	50505.13
572.987	50674.61
573.349	50754.61
573.71	50878.68
574.071	51043.42
574.432	51051.1
574.794	51311.21
575.155	51255.62
575.516	51109.4
575.877	51386.46
576.238	51434.59
576.599	51649.05
576.96	51635.94
577.32	51618.54
577.681	51828.26
578.042	51831.19
578.403	51928.14
578.763	51986.67
579.124	52045.2
579.485	52186.21
579.845	52314.12
580.206	52168.13
580.566	52275.48
580.927	52273.44
581.287	52435.47
581.648	52301.24
582.008	52451.97
582.368	52415.36
582.728	52486.32
583.089	52545.3
583.449	52552.76
583.809	52585.07
584.169	52677.5
584.529	52682.92
584.889	52895.8
585.249	52744.39
585.609	52666.88
585.969	52817.16
586.329	52702.81
586.688	52868
587.048	52863.93
587.408	52861.45
587.768	52809.7
588.127	52850.6
588.487	52773.54
588.846	53070.26
589.206	52750.49
589.565	52859.19
589.925	52984.84
590.284	52896.02
590.643	52998.17
591.003	53114.32
591.362	53147.09
591.721	53065.06
592.08	53149.58
592.44	53136.7
592.799	53176.7
593.158	53212.63
593.517	53217.82
593.876	53265.96
594.235	53215.79
594.593	53174.66
594.952	53308.67
595.311	53204.49
595.67	53377.59
596.029	53481.32
596.387	53470.47
596.746	53531.04
597.104	53423.02
597.463	53388.67
597.822	53615.33
598.18	53405.16
598.538	53443.81
598.897	53660.75
599.255	53379.63
599.613	53813.74
599.972	53568.32
600.33	53676.79
600.688	53604.93
601.046	53750.69
601.404	53823.91
601.762	53768.32
602.12	53835.43
602.478	53828.43
602.836	53941.42
603.194	53721.09
603.552	53875.21
603.91	53793.4
604.268	53954.98
604.625	53847.41
604.983	54029.33
605.341	53890.57
605.698	54015.09
606.056	54055.32
606.413	53998.59
606.771	54080.63
607.128	54212.6
607.485	54020.06
607.843	53986.62
608.2	54215.76
608.557	54146.84
608.914	54142.09
609.272	54293.5
609.629	54416.89
609.986	54459.37
610.343	54314.52
610.7	54501.63
611.057	54425.25
611.414	54476.1
611.771	54496.43
612.127	54550.22
612.484	54510.9
612.841	54662.08
613.198	54490.56
613.554	54601.06
613.911	54735.52
614.267	54706.82
614.624	54681.06
614.98	54681.51
615.337	54895.07
615.693	54775.07
616.05	54685.13
616.406	54873.83
616.762	54765.13
617.118	54731.68
617.475	54821.4
617.831	54847.39
618.187	54933.03
618.543	54968.29
618.899	55056.87
619.255	55024.33
619.611	54960.6
619.967	55036.08
620.323	55086.93
620.678	55043.31
621.034	55028.62
621.39	54951.56
621.746	54935.74
622.101	55273.36
622.457	54949.98
622.812	55066.81
623.168	55191.11
623.523	55155.17
623.879	55267.71
624.234	55030.88
624.589	55020.94
624.945	55186.36
625.3	55200.37
625.655	55097.32
626.01	55126.47
626.365	55093.25
626.72	55121.5
627.075	55089.64
627.43	55056.65
627.785	55008.29
628.14	55086.7
628.495	55236.08
628.85	55080.37
629.205	54968.29
629.559	55174.61
629.914	55040.15
630.269	55123.76
630.623	55048.06
630.978	55048.96
631.332	55187.72
631.687	55166.25
632.041	55028.85
632.396	55114.95
632.75	55093.71
633.104	55023.65
633.459	54887.16
633.813	54814.17
634.167	54863.2
634.521	54877.44
634.875	54940.26
635.229	54899.81
635.583	54705.24
635.937	54775.75
636.291	54744.34
636.645	54809.65
636.999	54739.37
637.352	54802.64
637.706	54643.55
638.06	54820.27
638.413	54709.99
638.767	54646.94
639.121	54702.98
639.474	54579.14
639.828	54680.38
640.181	54603.32
640.534	54629.31
640.888	54589.09
641.241	54448.75
641.594	54581.4
641.947	54638.13
642.301	54568.3
642.654	54566.71
643.007	54634.96
643.36	54524.68
643.713	54473.61
644.066	54571.69
644.419	54307.74
644.771	54168.31
645.124	53935.32
645.477	53836.11
645.83	53773.52
646.182	53651.03
646.535	53593.41
646.888	53551.37
647.24	53530.58
647.593	53573.29
647.945	53604.71
648.298	53415.56
648.65	53357.71
649.002	53327.88
649.355	53466.18
649.707	53421.21
650.059	53612.39
650.411	53904.81
650.763	53904.59
651.115	54121.75
651.467	54137.35
651.819	54113.85
652.171	54044.69
652.523	54037.69
652.875	53976.9
653.227	53871.37
653.578	54119.95
653.93	54046.95
654.282	53859.84
654.633	53743.91
654.985	53836.11
655.337	53818.49
655.688	53866.62
656.039	54041.76
656.391	53717.47
656.742	53820.29
657.094	53886.96
657.445	53867.75
657.796	53839.73
658.147	53739.39
658.498	53749.34
658.849	53797.92
659.2	53749.34
659.551	53786.62
659.902	53823.46
660.253	53726.29
660.604	53775.32
660.955	53656.68
661.306	53768.54
661.656	53690.35
662.007	53663.01
662.358	53604.48
662.708	53640.86
663.059	53702.78
663.409	53469.12
663.76	53686.29
664.11	53630.47
664.461	53644.48
664.811	53644.93
665.161	53573.52
665.511	53538.49
665.862	53523.35
666.212	53586.85
666.562	53597.02
666.912	53512.73
667.262	53485.84
667.612	53454.65
667.962	53512.73
668.312	53518.15
668.662	53593.18
669.011	53403.13
669.361	53434.99
669.711	53443.13
670.06	53348.22
670.41	53310.48
670.76	53223.02
671.109	53250.82
671.459	53227.77
671.808	53233.42
672.157	53242.91
672.507	52958.85
672.856	53096.47
673.205	53056.92
673.554	53213.98
673.904	53050.14
674.253	53249.91
674.602	53138.73
674.951	52627.1
675.3	52505.3
675.649	52913.88
675.998	52989.58
676.346	53023.48
676.695	53086.3
677.044	52737.16
677.393	52823.94
677.741	52957.94
678.09	52839.53
678.438	52771.96
678.787	52721.57
679.135	52796.82
679.484	52458.75
679.832	52636.14
680.181	52452.87
680.529	52465.53
680.877	52336.49
681.225	52402.03
681.573	52529.03
681.922	52235.93
682.27	52162.03
682.618	52219.66
682.966	52206.78
683.314	52178.76
683.661	52114.35
684.009	51946.9
684.357	51822.15
684.705	51740.8
685.053	51816.28
685.4	51750.97
685.748	51603.86
686.095	51598.66
686.443	51519.56
686.79	51318.21
687.138	51422.39
687.485	51318.89
687.832	51224.88
688.18	51269.17
688.527	51046.81
688.874	51065.56
689.221	50952.12
689.568	50875.29
689.915	50779.7
690.262	50784.89
690.609	50656.08
690.956	50446.15
691.303	50550.1
691.65	50192.14
691.997	50350.78
692.344	50013.39
692.69	50117.57
693.037	50007.96
693.383	49763.68
693.73	49977.68
694.077	49652.95
694.423	49600.97
694.769	49545.83
695.116	49465.38
695.462	49444.82
695.808	49281.43
696.155	49447.3
696.501	49117.59
696.847	49057.48
697.193	48746.53
697.539	48964.38
697.885	48650.49
698.231	48625.63
698.577	48501.79
698.923	48504.73
699.269	48277.39
699.614	48070.16
699.96	48005.31
700.306	47937.28
700.651	47951.97
700.997	47744.97
701.342	47676.73
701.688	47818.64
702.033	47646.67
702.379	47487.81
702.724	47265.21
703.069	47469.27
703.415	46924.88
703.76	47021.6
704.105	47003.52
704.45	46890.31
704.795	46707.71
705.14	46668.62
705.485	46515.18
705.83	46348.4
706.175	46528.73
706.52	46350.66
706.865	46122.42
707.209	46129.87
707.554	45821.18
707.899	46217.78
708.243	45792.48
708.588	45856.89
708.932	45627.06
709.277	45501.19
709.621	45492.38
709.966	45200.63
710.31	45465.71
710.654	44910.25
710.998	45146.62
711.342	45160.86
711.687	44969.45
712.031	44664.38
712.375	44686.52
712.719	44681.33
713.063	44679.52
713.407	44658.73
713.75	44558.62
714.094	44262.81
714.438	44152.07
714.782	44211.51
715.125	44038.4
715.469	44065.3
715.812	43967.45
716.156	43670.28
716.499	43829.82
716.843	43824.17
717.186	43661.92
717.53	43695.36
717.873	43764.51
718.216	43559.09
718.559	43420.57
718.902	43124.08
719.246	43365.2
719.589	43198.43
719.932	42985.78
720.275	43147.58
720.617	42930.64
720.96	42815.84
721.303	42896.29
721.646	42838.66
721.989	42681.83
722.331	42767.25
722.674	42588.05
723.016	42590.08
723.359	42503.76
723.701	42410.42
724.044	42272.8
724.386	42029.19
724.729	42240.49
725.071	42058.8
725.413	42018.34
725.755	42139.25
726.097	41926.6
726.439	41727.73
726.782	41725.47
727.124	41963.88
727.465	41589.88
727.807	41712.59
728.149	41568.86
728.491	41502.2
728.833	41588.53
729.175	41256.1
729.516	41140.85
729.858	41183.34
730.199	41276.89
730.541	41104.92
730.882	41174.07
731.224	41191.25
731.565	40836.91
731.906	41014.53
732.248	40932.72
732.589	40870.13
732.93	40628.55
733.271	40786.29
733.612	40674.88
733.953	40600.98
734.294	40509.46
734.635	40395.56
734.976	40563.02
735.317	40315.11
735.658	40304.04
735.999	40162.57
736.339	40232.85
736.68	40150.82
737.021	40155.57
737.361	39938.17
737.702	40026.53
738.042	40054.78
738.383	39959.42
738.723	40060.66
739.063	39791.06
739.404	39767.1
739.744	39763.49
740.084	39572.08
740.424	39706.54
740.764	39570.05
741.104	39586.77
741.444	39362.14
741.784	39248.02
742.124	39445.76
742.464	39179.55
742.804	39328.7
743.143	39143.62
743.483	39174.58
743.823	38893
744.162	38861.82
744.502	39001.25
744.841	38955.83
745.181	38986.11
745.52	38879.9
745.86	38857.3
746.199	38762.61
746.538	38671.31
746.877	38645.55
747.216	38655.04
747.556	38565.55
747.895	38557.64
748.234	38397.2
748.573	38366.69
748.911	38389.06
749.25	38260.03
749.589	38103.87
749.928	38228.61
750.267	38109.97
750.605	38026.81
750.944	37923.54
751.283	37727.84
751.621	37924.21
751.96	37700.94
752.298	37628.4
752.636	37614.84
752.975	37466.37
