Data from whiteboard_FLMS001491_00013.txt Node
Date: Wed Feb 08 11:25:28 GMT 2017
User: dcchb
Spectrometer: FLMS00149
Trigger mode: 0
Integration Time (sec): 2.000000E-2
Scans to average: 10
Electric dark correction enabled: true
Nonlinearity correction enabled: false
Boxcar width: 0
XAxis mode: Wavelengths
Number of Pixels in Spectrum: 2048
>>>>>Begin Spectral Data<<<<<
341.393	-22.51
341.776	-22.51
342.16	-22.51
342.543	-40.82
342.927	-60.03
343.31	-49.86
343.693	-51.89
344.077	-51.67
344.46	-63.42
344.843	-49.63
345.226	-46.24
345.61	-53.7
345.993	-19.58
346.376	-7.6
346.759	13.64
347.142	31.27
347.525	31.95
347.908	57.03
348.291	65.85
348.674	96.81
349.057	97.03
349.44	117.37
349.823	148.1
350.206	165.73
350.588	232.4
350.971	250.93
351.354	272.39
351.737	269.46
352.119	276.24
352.502	302
352.884	313.52
353.267	309
353.65	341.09
354.032	320.98
354.414	339.51
354.797	384.26
355.179	375.89
355.562	368.89
355.944	360.75
356.326	373.18
356.709	395.55
357.091	382
357.473	352.62
357.855	376.35
358.238	396.46
358.62	387.19
359.002	372.5
359.384	367.53
359.766	382.67
360.148	394.42
360.53	372.73
360.912	391.03
361.294	418.15
361.676	367.53
362.057	372.96
362.439	397.36
362.821	391.03
363.203	400.53
363.584	368.89
363.966	359.62
364.348	359.17
364.729	387.65
365.111	366.4
365.493	374.99
365.874	383.8
366.256	375.22
366.637	364.59
367.019	383.35
367.4	397.36
367.781	359.17
368.163	385.39
368.544	367.98
368.925	365.27
369.306	382.45
369.688	374.31
370.069	381.54
370.45	388.1
370.831	394.88
371.212	393.97
371.593	387.19
371.974	395.78
372.355	367.08
372.736	404.59
373.117	386.06
373.498	388.1
373.879	384.48
374.26	391.03
374.641	373.41
375.021	388.1
375.402	405.27
375.783	412.96
376.163	438.72
376.544	413.18
376.925	412.96
377.305	394.2
377.686	394.65
378.066	411.15
378.447	421.99
378.827	443.91
379.208	431.26
379.588	426.74
379.968	405.27
380.349	444.59
380.729	452.05
381.109	445.72
381.489	441.2
381.87	453.86
382.25	444.82
382.63	464.48
383.01	450.24
383.39	454.99
383.77	476
384.15	458.83
384.53	472.16
384.91	475.55
385.29	495.66
385.67	511.71
386.049	482.11
386.429	503.35
386.809	509.9
387.189	502.44
387.568	501.31
387.948	494.08
388.328	514.42
388.707	508.09
389.087	521.88
389.466	534.31
389.846	536.57
390.225	529.11
390.605	555.32
390.984	557.81
391.363	556.23
391.743	582.22
392.122	579.96
392.501	597.36
392.881	588.32
393.26	604.59
393.639	600.75
394.018	609.79
394.397	629.22
394.776	640.75
395.155	616.79
395.534	632.16
395.913	659.95
396.292	658.37
396.671	645.94
397.05	660.63
397.429	688.43
397.808	678.26
398.186	698.6
398.565	704.92
398.944	725.94
399.323	720.29
399.701	709.44
400.08	736.34
400.458	775.43
400.837	781.31
401.215	786.96
401.594	780.63
401.972	799.16
402.351	789.22
402.729	816.79
403.107	833.96
403.486	850.23
403.864	824.92
404.242	861.53
404.62	888.42
404.999	896.78
405.377	915.77
405.755	952.38
406.133	952.38
406.511	964.81
406.889	980.85
407.267	984.01
407.645	1013.17
408.023	1027.63
408.401	1036.22
408.779	1031.7
409.156	1097.68
409.534	1101.75
409.912	1095.2
410.29	1129.55
410.667	1164.12
411.045	1161.41
411.422	1183.1
411.8	1198.02
412.178	1253.61
412.555	1267.17
412.933	1290.9
413.31	1314.17
413.687	1330.45
414.065	1355.98
414.442	1365.7
414.819	1395.75
415.197	1389.2
415.574	1427.62
415.951	1437.11
416.328	1476.2
416.705	1477.11
417.082	1470.1
417.46	1533.83
417.837	1549.65
418.214	1568.86
418.591	1552.13
418.967	1583.09
419.344	1603.66
419.721	1614.96
420.098	1629.65
420.475	1657.22
420.852	1668.97
421.228	1691.79
421.605	1690.66
421.982	1733.6
422.358	1742.64
422.735	1810.43
423.111	1770.43
423.488	1839.13
423.864	1836.65
424.241	1867.61
424.617	1901.05
424.994	1920.03
425.37	1924.78
425.746	1951.67
426.123	1958
426.499	1962.07
426.875	2037.55
427.251	2058.56
427.627	2092.91
428.003	2101.05
428.379	2166.58
428.756	2174.49
429.132	2181.72
429.507	2230.08
429.883	2280.02
430.259	2320.25
430.635	2323.64
431.011	2351.44
431.387	2404.09
431.763	2414.03
432.138	2456.29
432.514	2528.15
432.89	2528.61
433.265	2584.42
433.641	2625.1
434.016	2630.3
434.392	2693.12
434.767	2771.99
435.143	2733.8
435.518	2786
435.894	2868.26
436.269	2825.32
436.644	2895.15
437.02	2939.67
437.395	2979.44
437.77	3005.2
438.145	3030.97
438.52	3033.68
438.895	3067.35
439.271	3068.25
439.646	3143.96
440.021	3172.2
440.395	3205.2
440.77	3168.36
441.145	3215.37
441.52	3288.13
441.895	3273.22
442.27	3336.72
442.645	3347.34
443.019	3413.55
443.394	3438.41
443.769	3486.09
444.143	3461.46
444.518	3563.38
444.892	3464.4
445.267	3550.5
445.641	3614.23
446.016	3594.57
446.39	3647.67
446.764	3678.41
447.139	3693.09
447.513	3731.06
447.887	3726.77
448.262	3723.15
448.636	3771.06
449.01	3846.09
449.384	3869.81
449.758	3908.23
450.132	3967.21
450.506	3991.84
450.88	3980.32
451.254	4015.8
451.628	4068.9
452.002	4155.23
452.376	4184.16
452.75	4223.7
453.123	4221.22
453.497	4330.59
453.871	4360.65
454.244	4423.7
454.618	4431.83
454.992	4531.72
455.365	4572.39
455.739	4682.45
456.112	4729.23
456.486	4747.08
456.859	4822.56
457.232	4894.19
457.606	4891.71
457.979	4976.23
458.352	5077.24
458.725	5094.41
459.099	5174.19
459.472	5307.06
459.845	5356.33
460.218	5408.98
460.591	5461.64
460.964	5482.88
461.337	5570.33
461.71	5715.41
462.083	5795.41
462.456	5820.27
462.829	5787.73
463.201	5924.9
463.574	5955.86
463.947	6055.07
464.32	6222.52
464.692	6264.78
465.065	6313.37
465.438	6400.59
465.81	6478.33
466.183	6583.64
466.555	6721.49
466.928	6745.67
467.3	6764.43
467.672	6844.2
468.045	7038.09
468.417	7044.42
468.789	7149.95
469.161	7217.3
469.534	7324.41
469.906	7622.94
470.278	7580.45
470.65	7713.55
471.022	7846.43
471.394	7943.83
471.766	8030.83
472.138	8195.12
472.51	8314.44
472.882	8473.08
473.253	8558.05
473.625	8643.25
473.997	8840.53
474.369	8903.58
474.74	8990.81
475.112	9212.95
475.484	9334.3
475.855	9534.75
476.227	9615.43
476.598	9884.57
476.97	9932.48
477.341	10154.85
477.713	10388.51
478.084	10411.11
478.455	10699.01
478.827	10812.68
479.198	11082.28
479.569	11141.26
479.94	11451.76
480.311	11568.14
480.682	11844.52
481.053	12021.46
481.424	12235.47
481.795	12384.39
482.166	12613.31
482.537	12842.68
482.908	13155.22
483.279	13187.31
483.65	13381.2
484.021	13752.49
484.391	13823.9
484.762	13972.15
485.133	14102.54
485.503	14324.23
485.874	14679.25
486.244	14822.07
486.615	15077.88
486.985	15307.7
487.356	15570.52
487.726	15757.86
488.097	16052.32
488.467	16140
488.837	16474.91
489.207	16637.39
489.578	16857.95
489.948	16994.89
490.318	17303.13
490.688	17419.29
491.058	17776.34
491.428	17883.68
491.798	18077.8
492.168	18386.04
492.538	18534.74
492.908	18648.18
493.278	18965.46
493.648	19038
494.017	19297.66
494.387	19383.3
494.757	19633.92
495.126	19863.97
495.496	19909.84
495.866	20054.25
496.235	20216.05
496.605	20563.39
496.974	20724.51
497.344	20850.16
497.713	21119.53
498.082	21121.79
498.452	21444.72
498.821	21449.24
499.19	21638.61
499.559	21740.53
499.928	22026.4
500.298	22087.41
500.667	22299.16
501.036	22309.33
501.405	22491.02
501.774	22530.57
502.143	22750.45
502.512	22859.6
502.88	23095.97
503.249	23093.94
503.618	23276.99
503.987	23484.89
504.356	23643.53
504.724	23791.32
505.093	23916.97
505.462	23987.02
505.83	24163.97
506.199	24376.62
506.567	24737.06
506.936	24720.34
507.304	25038.52
507.672	25179.54
508.041	25199.65
508.409	25574.33
508.777	25718.96
509.145	25916.01
509.514	25948.1
509.882	26213.86
510.25	26255.89
510.618	26567.07
510.986	26724.58
511.354	26896.33
511.722	27228.75
512.09	27270.33
512.458	27374.96
512.826	27650.66
513.193	27781.28
513.561	27982.4
513.929	28066.69
514.297	28462.84
514.664	28690.4
515.032	28809.5
515.4	29154.57
515.767	29220.79
516.135	29474.11
516.502	29149.15
516.869	29769.7
517.237	29846.31
517.604	29823.26
517.972	30252.62
518.339	30407.65
518.706	30519.96
519.073	30713.18
519.44	30851.48
519.808	31246.49
520.175	31199.26
520.542	31536.66
520.909	31828.85
521.276	31849.19
521.643	32306.81
522.009	32399.68
522.376	32575.27
522.743	32810.07
523.11	33196.5
523.477	33460
523.843	33673.78
524.21	34029.92
524.577	34282.35
524.943	34500.42
525.31	34759.4
525.676	34982.22
526.043	35270.12
526.409	35457.46
526.776	35876.66
527.142	35868.29
527.508	36143.09
527.874	36545.11
528.241	36640.03
528.607	36829.17
528.973	37111.88
529.339	37175.83
529.705	37584.41
530.071	38023.27
530.437	37980.1
530.803	38076.82
531.169	38326.99
531.535	38287.44
531.901	38566.98
532.267	38740.54
532.632	38974.43
532.998	39045.16
533.364	39347.52
533.73	39528.99
534.095	39672.04
534.461	39858.47
534.826	40108.63
535.192	40287.39
535.557	40444.9
535.923	40444.45
536.288	40700.48
536.653	40915.39
537.019	40796.98
537.384	41104.09
537.749	41365.1
538.114	41353.57
538.479	41415.04
538.845	41717.86
539.21	41656.16
539.575	41914.24
539.94	42085.31
540.305	42287.11
540.67	42157.85
541.034	42513.09
541.399	42737.27
541.764	42692.07
542.129	42881.44
542.494	43063.36
542.858	43116.24
543.223	43279.85
543.587	43428.1
543.952	43472.61
544.316	43726.62
544.681	43731.14
545.045	43884.35
545.41	44207.51
545.774	44320.05
546.138	44364.57
546.503	44597.56
546.867	44562.08
547.231	44934.04
547.595	45002.29
547.959	45020.6
548.324	45103.31
548.688	45270.98
549.052	45417.2
549.416	45524.99
549.779	45588.26
550.143	45686.34
550.507	46140.34
550.871	46102.83
551.235	46167.01
551.599	46426.21
551.962	46572.42
552.326	46609.93
552.689	46846.76
553.053	46806.76
553.417	46919.76
553.78	47577.82
554.143	47231.39
554.507	47508.67
554.87	47608.78
555.234	48076.79
555.597	47797.7
555.96	47955.43
556.323	48211.25
556.686	48191.81
557.05	48466.61
557.413	48475.42
557.776	48608.3
558.139	48876.99
558.502	49016.65
558.865	49093.03
559.228	49338.45
559.59	49439.69
559.953	49542.51
560.316	49890.07
560.679	50007.81
561.041	50083.74
561.404	50240.57
561.767	50429.04
562.129	50445.31
562.492	50840.56
562.854	50853.44
563.217	50848.47
563.579	51007.11
563.941	51200.77
564.304	51299.53
564.666	51614.32
565.028	51552.4
565.39	51699.97
565.753	51918.72
566.115	51979.06
566.477	52092.73
566.839	52253.17
567.201	52445.94
567.563	52368.2
567.925	52626.95
568.287	52638.7
568.648	52845.47
569.01	53008.41
569.372	53214.96
569.734	53132.47
570.095	53371.11
570.457	53435.97
570.819	53492.69
571.18	53503.54
571.542	53675.06
571.903	53785.79
572.265	54004.77
572.626	54012.68
572.987	54149.4
573.349	54201.82
573.71	54287.02
574.071	54400.69
574.432	54538.54
574.794	54667.8
575.155	54632.09
575.516	54631.87
575.877	54717.97
576.238	54732.66
576.599	54739.66
576.96	54896.49
577.32	54898.3
577.681	55072.31
578.042	55107.34
578.403	55087.22
578.763	55159.54
579.124	55178.07
579.485	55199.76
579.845	55288.12
580.206	55319.08
580.566	55288.8
580.927	55296.26
581.287	55413.54
581.648	55316.37
582.008	55365.63
582.368	55331.74
582.728	55395.24
583.089	55359.31
583.449	55308.46
583.809	55400.89
584.169	55397.5
584.529	55385.3
584.889	55581.67
585.249	55412.87
585.609	55351.62
585.969	55504.16
586.329	55425.29
586.688	55464.16
587.048	55489.7
587.408	55536.93
587.768	55437.27
588.127	55486.31
588.487	55450.15
588.846	55690.6
589.206	55492.64
589.565	55534.67
589.925	55649.69
590.284	55635.01
590.643	55680.43
591.003	55805.85
591.362	55829.13
591.721	55802.01
592.08	55864.83
592.44	55837.94
592.799	55879.52
593.158	55898.05
593.517	55873.42
593.876	55965.17
594.235	55892.4
594.593	55997.03
594.952	56056.24
595.311	55940.99
595.67	56014.43
596.029	56203.8
596.387	56220.3
596.746	56294.2
597.104	56124.94
597.463	56077.93
597.822	56233.18
598.18	56111.38
598.538	56046.52
598.897	56259.85
599.255	56014.88
599.613	56364.48
599.972	56137.82
600.33	56177.59
600.688	56126.52
601.046	56171.26
601.404	56293.29
601.762	56196.57
602.12	56355.21
602.478	56308.21
602.836	56238.15
603.194	56152.73
603.552	56141.43
603.91	56064.6
604.268	56256.01
604.625	56153.41
604.983	56254.42
605.341	56121.32
605.698	56262.33
606.056	56289.45
606.413	56237.7
606.771	56328.77
607.128	56403.12
607.485	56252.62
607.843	56310.69
608.2	56441.76
608.557	56560.86
608.914	56397.02
609.272	56519.95
609.629	56554.76
609.986	56693.06
610.343	56529.9
610.7	56732.83
611.057	56748.65
611.414	56759.04
611.771	56764.02
612.127	56878.14
612.484	56903.45
612.841	56960.17
613.198	56853.51
613.554	56940.73
613.911	57187.28
614.267	57089.21
614.624	57141.41
614.98	57082.88
615.337	57299.6
615.693	57237.22
616.05	57206.26
616.406	57430.67
616.762	57355.64
617.118	57274.74
617.475	57299.82
617.831	57402.19
618.187	57485.35
618.543	57478.57
618.899	57626.37
619.255	57503.88
619.611	57518.35
619.967	57643.77
620.323	57651.9
620.678	57530.55
621.034	57450.78
621.39	57516.31
621.746	57439.48
622.101	57749.53
622.457	57477.67
622.812	57526.93
623.168	57500.49
623.523	57492.13
623.879	57670.66
624.234	57405.81
624.589	57551.34
624.945	57475.64
625.3	57525.35
625.655	57500.27
626.01	57484.9
626.365	57513.6
626.72	57402.19
627.075	57378.69
627.43	57343.44
627.785	57329.2
628.14	57319.71
628.495	57311.8
628.85	57323.1
629.205	57214.63
629.559	57319.26
629.914	57178.02
630.269	57247.85
630.623	57123.55
630.978	57084.46
631.332	57232.25
631.687	57204.68
632.041	57111.8
632.396	57197.9
632.75	57063.44
633.104	57112.71
633.459	57055.08
633.813	57047.62
634.167	57057.34
634.521	56991.35
634.875	56960.17
635.229	57006.5
635.583	56914.29
635.937	56910.68
636.291	56853.96
636.645	56853.73
636.999	56790
637.352	56912.03
637.706	56715.2
638.06	56835.65
638.413	56729.21
638.767	56726.95
639.121	56800.4
639.474	56618.26
639.828	56647.63
640.181	56698.93
640.534	56653.96
640.888	56637.47
641.241	56489.67
641.594	56557.92
641.947	56649.44
642.301	56487.87
642.654	56501.2
643.007	56494.87
643.36	56437.02
643.713	56396.34
644.066	56487.19
644.419	56227.98
644.771	56095.56
645.124	55806.98
645.477	55811.5
645.83	55685.63
646.182	55587.32
646.535	55416.71
646.888	55509.36
647.24	55266.43
647.593	55460.77
647.945	55308.01
648.298	55267.11
648.65	55164.74
649.002	55097.17
649.355	55180.55
649.707	55119.09
650.059	55306.88
650.411	55570.6
650.763	55572.18
651.115	55785.28
651.467	55776.47
651.819	55683.82
652.171	55619.41
652.523	55563.37
652.875	55568.12
653.227	55421
653.578	55607.44
653.93	55578.06
654.282	55468.46
654.633	55404.96
654.985	55413.54
655.337	55377.61
655.688	55402.92
656.039	55460.32
656.391	55230.04
656.742	55246.99
657.094	55250.16
657.445	55323.15
657.796	55296.48
658.147	55202.48
658.498	55223.94
658.849	55326.09
659.2	55220.78
659.551	55144.17
659.902	55249.48
660.253	55200.89
660.604	55136.49
660.955	55114.79
661.306	55122.25
661.656	55096.72
662.007	54973.78
662.358	54981.92
662.708	55033.89
663.059	55034.8
663.409	54797.29
663.76	55033.67
664.11	54984.85
664.461	55051.07
664.811	54982.37
665.161	54964.74
665.511	54870.51
665.862	54943.72
666.212	55024.17
666.562	55081.12
666.912	54974.91
667.262	54936.95
667.612	54846.55
667.962	54850.85
668.312	54834.12
668.662	54897.4
669.011	54823.28
669.361	54797.51
669.711	54852.2
670.06	54726.78
670.41	54755.03
670.76	54649.27
671.109	54769.72
671.459	54743.5
671.808	54680.68
672.157	54733.11
672.507	54536.05
672.856	54607.01
673.205	54635.03
673.554	54728.14
673.904	54538.76
674.253	54717.52
674.602	54636.16
674.951	54165.21
675.3	53917.54
675.649	54480.01
675.998	54448.82
676.346	54412.21
676.695	54494.25
677.044	54237.98
677.393	54355.49
677.741	54442.5
678.09	54340.12
678.438	54219.45
678.787	54234.82
679.135	54213.8
679.484	53907.37
679.832	54158.43
680.181	53953.24
680.529	53951.89
680.877	53885.45
681.225	53800.48
681.573	54005.67
681.922	53727.94
682.27	53680.93
682.618	53679.58
682.966	53608.39
683.314	53579.24
683.661	53499.24
684.009	53368.62
684.357	53308.97
684.705	53248.85
685.053	53253.83
685.4	53148.97
685.748	52971.12
686.095	52881.18
686.443	52933.83
686.79	52858.36
687.138	52818.58
687.485	52786.72
687.832	52673.95
688.18	52734.52
688.527	52428.31
688.874	52491.13
689.221	52408.42
689.568	52317.35
689.915	52118.04
690.262	52231.93
690.609	52149.22
690.956	51966.85
691.303	51974.99
691.65	51779.51
691.997	51766.18
692.344	51539.29
692.69	51471.05
693.037	51588.11
693.383	51209.13
693.73	51484.83
694.077	51225.63
694.423	51166.65
694.769	51006.65
695.116	51053.66
695.462	51108.57
695.808	50917.84
696.155	51017.73
696.501	50750.84
696.847	50870.61
697.193	50463.84
697.539	50644.18
697.885	50419.55
698.231	50265.2
698.577	50363.05
698.923	50208.03
699.269	49914.48
699.614	49978.66
699.96	49979.11
700.306	50012.33
700.651	49755.84
700.997	49626.8
701.342	49590.19
701.688	49556.52
702.033	49457.99
702.379	49386.13
702.724	49389.07
703.069	49389.97
703.415	48915.86
703.76	49099.81
704.105	48965.58
704.45	48819.59
704.795	48746.83
705.14	48525.59
705.485	48454.18
705.83	48352.26
706.175	48516.1
706.52	48284.69
706.865	48143.68
707.209	48148.88
707.554	48080.18
707.899	48109.1
708.243	47931.25
708.588	47780.52
708.932	47733.29
709.277	47491.94
709.621	47604.26
709.966	47296.92
710.31	47437.48
710.654	47129.24
710.998	47163.59
711.342	47119.07
711.687	47042.24
712.031	46925.63
712.375	46677.05
712.719	46733.32
713.063	46576.04
713.407	46669.82
713.75	46411.75
714.094	46343.5
714.438	46188.7
714.782	46138.08
715.125	45999.33
715.469	45977.63
715.812	45649.96
716.156	45467.14
716.499	45352.56
716.843	45439.12
717.186	45443.18
717.53	45439.79
717.873	45532.9
718.216	45197.77
718.559	45052.69
718.902	44805.69
719.246	44727.95
719.589	44711.68
719.932	44553.72
720.275	44437.79
720.617	44423.78
720.96	44228.3
721.303	44370.44
721.646	44396.66
721.989	44050.45
722.331	44174.74
722.674	43935.65
723.016	43884.35
723.359	43774.53
723.701	43807.75
724.044	43531.82
724.386	43322.79
724.729	43589.22
725.071	43520.97
725.413	43455.21
725.755	43295.9
726.097	43000.99
726.439	42956.02
726.782	42970.25
727.124	43031.27
727.465	42794.44
727.807	42742.24
728.149	42625.18
728.491	42493.66
728.833	42593.99
729.175	42460.21
729.516	42273.78
729.858	42289.37
730.199	42385.64
730.541	42163.04
730.882	42117.85
731.224	42288.92
731.565	41845.09
731.906	41956.04
732.248	42014.35
732.589	41708.14
732.93	41750.17
733.271	41766.44
733.612	41871.53
733.953	41768.93
734.294	41590.86
734.635	41649.39
734.976	41655.03
735.317	41521.7
735.658	41444.42
735.999	41542.5
736.339	41267.02
736.68	41350.64
737.021	41310.64
737.361	41154.48
737.702	41273.35
738.042	41053.24
738.383	41051.66
738.723	41001.72
739.063	40952.23
739.404	40982.74
739.744	40929.18
740.084	40705.68
740.424	40849.18
740.764	40805.34
741.104	40777.77
741.444	40579.36
741.784	40415.75
742.124	40481.28
742.464	40388.85
742.804	40403.32
743.143	40207.39
743.483	40307.95
743.823	40109.76
744.162	40140.95
744.502	40177.79
744.841	39861.41
745.181	40086.94
745.52	39881.97
745.86	39887.85
746.199	39749.32
746.538	39654.18
746.877	39765.82
747.216	39567.41
747.556	39498.26
747.895	39491.02
748.234	39311.82
748.573	39383
748.911	39161.77
749.25	39183.01
749.589	38981.43
749.928	39031.83
750.267	38986.63
750.605	38908.21
750.944	38804.71
751.283	38756.58
751.621	38801.1
751.96	38543.48
752.298	38562.23
752.636	38465.06
752.975	38239.08
