Data from White_reflection_standard_FLMS001491_088.txt Node
Date: Tue Feb 07 10:32:12 GMT 2017
User: dcchb
Spectrometer: FLMS00149
Trigger mode: 0
Integration Time (sec): 2.000000E-2
Scans to average: 10
Electric dark correction enabled: true
Nonlinearity correction enabled: false
Boxcar width: 0
XAxis mode: Wavelengths
Number of Pixels in Spectrum: 2048
>>>>>Begin Spectral Data<<<<<
341.393	-11.41
341.776	-11.41
342.16	-11.41
342.543	-68.13
342.927	-79.66
343.31	-76.72
343.693	-66.1
344.077	-76.04
344.46	-67.68
344.843	-43.5
345.226	-42.6
345.61	-29.49
345.993	-15.93
346.376	-0.34
346.759	9.15
347.142	26.1
347.525	38.08
347.908	56.83
348.291	67.68
348.674	88.25
349.057	132.31
349.44	116.49
349.823	139.32
350.206	144.74
350.588	228.58
350.971	245.08
351.354	274.91
351.737	294.12
352.119	305.19
352.502	303.61
352.884	327.11
353.267	319.88
353.65	331.63
354.032	354.45
354.414	344.74
354.797	373.89
355.179	349.93
355.562	389.03
355.944	402.14
356.326	389.71
356.709	363.72
357.091	394.45
357.473	394
357.855	387.67
358.238	394.9
358.62	406.43
359.002	397.16
359.384	400.33
359.766	392.19
360.148	415.7
360.53	387.22
360.912	417.28
361.294	397.62
361.676	403.27
362.057	407.11
362.439	414.11
362.821	408.92
363.203	428.12
363.584	411.63
363.966	416.15
364.348	377.5
364.729	395.36
365.111	408.46
365.493	413.89
365.874	396.03
366.256	405.75
366.637	404.4
367.019	399.65
367.4	434.68
367.781	379.99
368.163	425.41
368.544	413.89
368.925	416.6
369.306	415.02
369.688	405.75
370.069	424.06
370.45	421.8
370.831	432.19
371.212	439.88
371.593	444.4
371.974	441.23
372.355	451.4
372.736	436.49
373.117	443.72
373.498	435.58
373.879	455.69
374.26	434.9
374.641	421.12
375.021	421.57
375.402	462.7
375.783	460.44
376.163	478.52
376.544	502.92
376.925	492.98
377.305	486.2
377.686	497.95
378.066	498.4
378.447	497.73
378.827	517.39
379.208	538.4
379.588	502.47
379.968	521.91
380.349	536.82
380.729	542.47
381.109	526.65
381.489	569.14
381.87	521
382.25	545.18
382.63	549.7
383.01	542.7
383.39	554.22
383.77	573.66
384.15	574.34
384.53	603.26
384.91	576.6
385.29	576.14
385.67	602.81
386.049	601.45
386.429	605.97
386.809	633.77
387.189	625.86
387.568	628.8
387.948	639.64
388.328	671.51
388.707	659.98
389.087	657.27
389.466	650.04
389.846	675.8
390.225	695.24
390.605	676.48
390.984	709.92
391.363	692.75
391.743	684.16
392.122	706.76
392.501	744.73
392.881	729.13
393.26	749.02
393.639	754.22
394.018	762.8
394.397	774.1
394.776	793.99
395.155	774.78
395.534	793.54
395.913	783.82
396.292	804.39
396.671	805.74
397.05	846.87
397.429	837.83
397.808	838.96
398.186	850.03
398.565	859.98
398.944	863.37
399.323	881.45
399.701	878.73
400.08	886.64
400.458	906.08
400.837	920.54
401.215	914.89
401.594	905.4
401.972	941.33
402.351	942.91
402.729	976.81
403.107	966.64
403.486	958.28
403.864	985.62
404.242	1017.94
404.62	1005.28
404.999	1003.25
405.377	1040.54
405.755	1070.59
406.133	1068.11
406.511	1079.18
406.889	1084.6
407.267	1096.36
407.645	1154.88
408.023	1136.35
408.401	1154.88
408.779	1158.95
409.156	1172.96
409.534	1198.73
409.912	1233.53
410.29	1218.39
410.667	1260.87
411.045	1291.6
411.422	1284.82
411.8	1299.29
412.178	1293.19
412.555	1342
412.933	1346.29
413.31	1362.11
413.687	1404.14
414.065	1433.3
414.442	1426.06
414.819	1432.39
415.197	1437.14
415.574	1493.86
415.951	1478.94
416.328	1503.35
416.705	1553.07
417.082	1525.27
417.46	1549.22
417.837	1579.51
418.214	1560.07
418.591	1596.91
418.967	1611.37
419.344	1640.75
419.721	1675.78
420.098	1651.82
420.475	1702.67
420.852	1684.14
421.228	1718.26
421.605	1735.21
421.982	1767.75
422.358	1800.74
422.735	1807.07
423.111	1805.72
423.488	1839.16
423.864	1861.08
424.241	1900.85
424.617	1897.46
424.994	1875.54
425.37	1905.15
425.746	1960.29
426.123	1985.6
426.499	2007.97
426.875	2033.96
427.251	2070.12
427.627	2098.14
428.003	2111.24
428.379	2174.52
428.756	2192.37
429.132	2210.22
429.507	2226.27
429.883	2291.35
430.259	2289.54
430.635	2310.11
431.011	2341.52
431.387	2402.54
431.763	2430.56
432.138	2471.01
432.514	2457.9
432.89	2509.2
433.265	2564.79
433.641	2604.79
434.016	2624.45
434.392	2656.77
434.767	2742.64
435.143	2731.57
435.518	2785.35
435.894	2805.91
436.269	2817.44
436.644	2877.55
437.02	2904.9
437.395	2903.31
437.77	2962.29
438.145	2998.68
438.52	3023.76
438.895	3075.74
439.271	3070.99
439.646	3122.97
440.021	3171.1
440.395	3178.33
440.77	3200.93
441.145	3198.45
441.52	3235.28
441.895	3262.17
442.27	3323.64
442.645	3277.31
443.019	3337.65
443.394	3386.92
443.769	3384.88
444.143	3414.49
444.518	3461.49
444.892	3451.1
445.267	3496.29
445.641	3520.7
446.016	3519.57
446.39	3596.85
446.764	3569.74
447.139	3605.22
447.513	3657.64
447.887	3638.89
448.262	3715.04
448.636	3731.54
449.01	3741.03
449.384	3794.82
449.758	3850.18
450.132	3879.78
450.506	3902.16
450.88	3931.54
451.254	3942.83
451.628	4009.27
452.002	4080.68
452.376	4100.12
452.75	4138.99
453.123	4161.81
453.497	4264.18
453.871	4223.96
454.244	4350.28
454.618	4414.46
454.992	4478.64
455.365	4491.29
455.739	4572.65
456.112	4642.48
456.486	4686.77
456.859	4703.72
457.232	4771.74
457.606	4739.88
457.979	4868.69
458.352	4970.6
458.725	5066.65
459.099	5078.17
459.472	5118.17
459.845	5185.74
460.218	5255.34
460.591	5325.4
460.964	5343.93
461.337	5497.82
461.71	5526.07
462.083	5659.85
462.456	5647.65
462.829	5695.33
463.201	5750.02
463.574	5843.8
463.947	5900.3
464.32	6066.85
464.692	6105.72
465.065	6121.31
465.438	6191.36
465.81	6308.2
466.183	6340.96
466.555	6480.62
466.928	6579.6
467.3	6580.73
467.672	6695.08
468.045	6869.08
468.417	6903.66
468.789	6889.42
469.161	7032.92
469.534	7149.3
469.906	7356.53
470.278	7349.3
470.65	7510.88
471.022	7603.53
471.394	7737.76
471.766	7813.47
472.138	7905.44
472.51	8079.67
472.882	8229.05
473.253	8344.07
473.625	8437.41
473.997	8627.46
474.369	8647.8
474.74	8781.58
475.112	8945.41
475.484	9125.75
475.855	9277.61
476.227	9338.17
476.598	9654.1
476.97	9694.55
477.341	9913.98
477.713	10026.97
478.084	10074.42
478.455	10427.64
478.827	10537.46
479.198	10849.55
479.569	10850.45
479.94	11146.03
480.311	11202.3
480.682	11443.43
481.053	11746.7
481.424	11993.92
481.795	11985.33
482.166	12320.24
482.537	12421.71
482.908	12650.18
483.279	12766.78
483.65	13001.35
484.021	13260.33
484.391	13408.8
484.762	13554.33
485.133	13701.9
485.503	13885.17
485.874	14218.72
486.244	14375.33
486.615	14533.97
486.985	14771.25
487.356	15035.42
487.726	15164.91
488.097	15545.47
488.467	15640.83
488.837	15867.04
489.207	16030.65
489.578	16336.41
489.948	16460.02
490.318	16667.47
490.688	16822.72
491.058	17029.95
491.428	17270.39
491.798	17461.35
492.168	17813.66
492.538	17845.97
492.908	18077.38
493.278	18329.35
493.648	18297.26
494.017	18663.35
494.387	18802.1
494.757	18937.02
495.126	19221.75
495.496	19152.15
495.866	19292.49
496.235	19570.9
496.605	19822.87
496.974	19794.85
497.344	20116.19
497.713	20244.78
498.082	20393.02
498.452	20589.63
498.821	20728.83
499.19	20810.19
499.559	20976.96
499.928	21101.25
500.298	21191.65
500.667	21482.94
501.036	21551.41
501.405	21712.76
501.774	21737.85
502.143	21943.04
502.512	22071.62
502.88	22329.92
503.249	22286.08
503.618	22631.38
503.987	22692.85
504.356	22813.52
504.724	22948.89
505.093	23157.92
505.462	23226.62
505.83	23445.37
506.199	23613.96
506.567	23861.63
506.936	23857.34
507.304	24207.16
507.672	24374.84
508.041	24338.68
508.409	24619.35
508.777	24787.71
509.145	24935.28
509.514	25038.78
509.882	25240.81
510.25	25278.09
510.618	25586.11
510.986	25736.16
511.354	25957.62
511.722	26063.16
512.09	26359.42
512.458	26352.64
512.826	26661.56
513.193	26803.7
513.561	26888.22
513.929	27182.22
514.297	27380.41
514.664	27482.1
515.032	27582.21
515.4	28070.79
515.767	28163.44
516.135	28310.1
516.502	28218.35
516.869	28741.96
517.237	28739.02
517.604	28685.23
517.972	29295.61
518.339	29371.54
518.706	29569.28
519.073	29694.02
519.44	29839.78
519.808	30186.89
520.175	30269.37
520.542	30726.31
520.909	30810.83
521.276	30867.78
521.643	31317.93
522.009	31463.01
522.376	31738.71
522.743	31818.71
523.11	32325.36
523.477	32508.64
523.843	32591.35
524.21	32949.3
524.577	33134.16
524.943	33363.53
525.31	33609.85
525.676	33927.58
526.043	34261.13
526.409	34269.04
526.776	34705.87
527.142	34792.87
527.508	35012.3
527.874	35325.29
528.241	35476.92
528.607	35596.01
528.973	35964.82
529.339	35917.13
529.705	36340.63
530.071	36747.4
530.437	36910.55
530.803	36987.84
531.169	37313.71
531.535	37247.5
531.901	37363.2
532.267	37563.42
532.632	37833.47
532.998	37932.67
533.364	38166.79
533.73	38219.22
534.095	38595.48
534.461	38760.68
534.826	38877.51
535.192	39114.56
535.557	39326.99
535.923	39305.29
536.288	39601.33
536.653	39741.89
537.019	39677.04
537.384	39937.82
537.749	40192.05
538.114	40258.94
538.479	40225.72
538.845	40473.85
539.21	40646.05
539.575	40643.11
539.94	40825.71
540.305	41229.31
540.67	41109.09
541.034	41226.83
541.399	41451
541.764	41414.62
542.129	41734.61
542.494	41913.36
542.858	42022.51
543.223	42072.23
543.587	42354.03
543.952	42324.42
544.316	42509.05
544.681	42525.32
545.045	42786.78
545.41	43034.46
545.774	43010.73
546.138	43046.21
546.503	43243.5
546.867	43222.93
547.231	43765.29
547.595	43775.23
547.959	44028.79
548.324	44035.11
548.688	44061.55
549.052	44189.23
549.416	44346.52
549.779	44411.37
550.143	44627.19
550.507	44922.1
550.871	44936.11
551.235	44942.43
551.599	45350.11
551.962	45367.28
552.326	45472.82
552.689	45805.69
553.053	45643.43
553.417	45738.12
553.78	46272.57
554.143	46169.07
554.507	46414.26
554.87	46565.22
555.234	46866
555.597	46726.12
555.96	46899.9
556.323	47130.4
556.686	47283.39
557.05	47372.65
557.413	47487.9
557.776	47650.61
558.139	47965.18
558.502	48049.92
558.865	48178.06
559.228	48413.76
559.59	48583.02
559.953	48497.14
560.316	49131.93
560.679	49037.24
561.041	49270
561.404	49382.09
561.767	49551.58
562.129	49563.78
562.492	49932.59
562.854	49891.68
563.217	50045.12
563.579	50193.37
563.941	50472.91
564.304	50519.69
564.666	50756.07
565.028	50818.44
565.39	50937.3
565.753	51098.43
566.115	51160.12
566.477	51441.02
566.839	51489.61
567.201	51729.37
567.563	51718.98
567.925	51979.54
568.287	52023.83
568.648	52011.63
569.01	52281.9
569.372	52441.67
569.734	52375.46
570.095	52613.19
570.457	52723.47
570.819	52773.87
571.18	52800.31
571.542	52963.01
571.903	53011.37
572.265	53141.54
572.626	53215.66
572.987	53305.38
573.349	53357.13
573.71	53544.92
574.071	53542.43
574.432	53712.6
574.794	53787.17
575.155	53765.93
575.516	53713.73
575.877	53899.94
576.238	54009.99
576.599	54078.69
576.96	54148.52
577.32	54207.95
577.681	54244.34
578.042	54325.69
578.403	54285.69
578.763	54311.45
579.124	54447.27
579.485	54473.03
579.845	54621.05
580.206	54589.64
580.566	54549.41
580.927	54583.08
581.287	54746.02
581.648	54610.2
582.008	54748.05
582.368	54723.65
582.728	54715.28
583.089	54601.62
583.449	54572.69
583.809	54779.24
584.169	54751.44
584.529	54733.14
584.889	54923.19
585.249	54711.67
585.609	54654.04
585.969	54856.3
586.329	54769.97
586.688	54814.94
587.048	54787.6
587.408	54733.14
587.768	54783.08
588.127	54791.67
588.487	54750.09
588.846	54989.63
589.206	54832.8
589.565	54781.05
589.925	54923.19
590.284	54775.17
590.643	54822.17
591.003	54940.36
591.362	55008.61
591.721	54903.98
592.08	54940.59
592.44	54968.39
592.799	54988.95
593.158	54943.98
593.517	54916.41
593.876	55022.62
594.235	54889.74
594.593	55003.64
594.952	55039.8
595.311	54960.93
595.67	55040.02
596.029	55173.13
596.387	55215.84
596.746	55209.73
597.104	55108.49
597.463	55088.38
597.822	55272.11
598.18	55092.45
598.538	55061.04
598.897	55248.15
599.255	55016.97
599.613	55423.06
599.972	55218.1
600.33	55390.07
600.688	55236.4
601.046	55250.19
601.404	55472.78
601.762	55429.62
602.12	55455.6
602.478	55534.25
602.836	55554.58
603.194	55346
603.552	55463.51
603.91	55320.01
604.268	55576.73
604.625	55456.73
604.983	55599.78
605.341	55500.35
605.698	55601.14
606.056	55644.75
606.413	55633
606.771	55751.19
607.128	55754.35
607.485	55623.74
607.843	55696.73
608.2	55856.72
608.557	55877.74
608.914	55792.77
609.272	55927
609.629	55903.73
609.986	56055.59
610.343	55887.23
610.7	56073.21
611.057	56060.11
611.414	56059.2
611.771	56070.28
612.127	56177.62
612.484	56147.11
612.841	56209.03
613.198	56116.38
613.554	56167.22
613.911	56237.28
614.267	56257.16
614.624	56225.3
614.98	56307.33
615.337	56425.3
615.693	56362.02
616.05	56287.9
616.406	56479.76
616.762	56378.29
617.118	56406.31
617.475	56351.63
617.831	56540.1
618.187	56433.66
618.543	56454
618.899	56618.06
619.255	56552.3
619.611	56555.46
619.967	56566.08
620.323	56680.2
620.678	56557.95
621.034	56486.31
621.39	56564.95
621.746	56561.79
622.101	56763.82
622.457	56503.94
622.812	56581.9
623.168	56660.54
623.523	56602.47
623.879	56711.62
624.234	56505.75
624.589	56690.37
624.945	56669.58
625.3	56701.45
625.655	56641.11
626.01	56639.53
626.365	56635.01
626.72	56618.74
627.075	56546.87
627.43	56637.72
627.785	56576.93
628.14	56630.71
628.495	56603.82
628.85	56540.55
629.205	56500.55
629.559	56600.66
629.914	56477.95
630.269	56565.18
630.623	56334.45
630.978	56467.33
631.332	56508.23
631.687	56521.79
632.041	56385.52
632.396	56418.06
632.75	56255.13
633.104	56362.25
633.459	56145.76
633.813	56236.83
634.167	56166.55
634.521	56177.62
634.875	56169.71
635.229	56031.86
635.583	56044.74
635.937	56004.97
636.291	55950.05
636.645	55948.02
636.999	55903.05
637.352	55961.35
637.706	55751.42
638.06	55885.42
638.413	55842.94
638.767	55744.64
639.121	55809.94
639.474	55627.12
639.828	55637.75
640.181	55689.04
640.534	55624.19
640.888	55548.48
641.241	55447.69
641.594	55492.44
641.947	55492.67
642.301	55498.31
642.654	55468.03
643.007	55385.1
643.36	55400.46
643.713	55273.69
644.066	55341.71
644.419	55202.5
644.771	54984.43
645.124	54654.72
645.477	54688.62
645.83	54490.66
646.182	54394.84
646.535	54315.3
646.888	54359.14
647.24	54178.12
647.593	54379.25
647.945	54321.4
648.298	54136.54
648.65	54121.63
649.002	53973.16
649.355	54085.02
649.707	54075.53
650.059	54151.68
650.411	54529.98
650.763	54492.47
651.115	54821.72
651.467	54686.81
651.819	54666.92
652.171	54587.38
652.523	54439.59
652.875	54499.24
653.227	54353.71
653.578	54572.69
653.93	54431.45
654.282	54352.81
654.633	54267.84
654.985	54349.42
655.337	54330.89
655.688	54249.53
656.039	54334.28
656.391	54031.91
656.742	54167.73
657.094	54109.2
657.445	54209.99
657.796	54170.67
658.147	54072.36
658.498	54085.92
658.849	54121.63
659.2	54018.81
659.551	53986.72
659.902	54103.1
660.253	54002.08
660.604	53992.14
660.955	53810.9
661.306	54007.73
661.656	53870.11
662.007	53935.19
662.358	53888.41
662.708	53856.78
663.059	53815.2
663.409	53643.9
663.76	53809.77
664.11	53802.99
664.461	53819.49
664.811	53767.96
665.161	53692.94
665.511	53644.35
665.862	53719.83
666.212	53742.43
666.562	53763.22
666.912	53717.12
667.262	53649.32
667.612	53645.48
667.962	53697.46
668.312	53638.25
668.662	53680.96
669.011	53542.66
669.361	53509.44
669.711	53560.51
670.06	53471.48
670.41	53417.92
670.76	53324.36
671.109	53470.12
671.459	53429.44
671.808	53291.14
672.157	53398.48
672.507	53129.56
672.856	53226.74
673.205	53205.49
673.554	53312.61
673.904	53206.85
674.253	53291.14
674.602	53240.52
674.951	52834.66
675.3	52622.91
675.649	53066.29
675.998	53031.03
676.346	53100.64
676.695	53102.9
677.044	52882.11
677.393	52970.02
677.741	52979.96
678.09	52961.43
678.438	52857.93
678.787	52880.76
679.135	52916.69
679.484	52602.57
679.832	52868.33
680.181	52653.64
680.529	52670.37
680.877	52511.05
681.225	52558.51
681.573	52710.37
681.922	52403.71
682.27	52424.95
682.618	52319.64
682.966	52330.94
683.314	52395.57
683.661	52270.38
684.009	52114.22
684.357	52028.35
684.705	51926.88
685.053	52091.62
685.4	51900.44
685.748	51797.17
686.095	51718.75
686.443	51673.78
686.79	51576.38
687.138	51527.57
687.485	51495.71
687.832	51444.86
688.18	51529.38
688.527	51207.35
688.874	51215.94
689.221	51229.5
689.568	51049.62
689.915	50946.57
690.262	50821.38
690.609	50729.4
690.956	50716.75
691.303	50688.72
691.65	50498.67
691.997	50466.13
692.344	50257.55
692.69	50279.69
693.037	50336.64
693.383	49994.5
693.73	50112.02
694.077	49948.18
694.423	49919.7
694.769	49704.79
695.116	49666.38
695.462	49665.47
695.808	49528.98
696.155	49486.95
696.501	49251.25
696.847	49145.49
697.193	48947.3
697.539	49176
697.885	48707.76
698.231	48691.71
698.577	48676.35
698.923	48699.85
699.269	48424.15
699.614	48205.4
699.96	48225.51
700.306	48224.83
700.651	47984.84
700.997	47912.3
701.342	47708.46
701.688	47749.37
702.033	47672.08
702.379	47677.28
702.724	47505.76
703.069	47564.06
703.415	47121.81
703.76	47069.38
704.105	47021.25
704.45	46875.26
704.795	46821.25
705.14	46700.81
705.485	46671.88
705.83	46348.72
706.175	46440.02
706.52	46340.14
706.865	46207.49
707.209	46133.82
707.554	46021.5
707.899	46071.9
708.243	45772.69
708.588	45793.03
708.932	45518.92
709.277	45519.59
709.621	45664.45
709.966	45311.69
710.31	45471.69
710.654	44995.31
710.998	45098.36
711.342	45155.54
711.687	44850.69
712.031	44732.5
712.375	44557.81
712.719	44689.33
713.063	44590.35
713.407	44658.37
713.75	44433.52
714.094	44280.3
714.438	44170.25
714.782	44235.33
715.125	43925.96
715.469	44071.5
715.812	43949.01
716.156	43600.32
716.499	43668.12
716.843	43645.75
717.186	43405.07
717.53	43707.89
717.873	43525.97
718.216	43364.4
718.559	43374.57
718.902	42922.37
719.246	43039.66
719.589	42899.32
719.932	42742.04
720.275	42775.71
720.617	42653.91
720.96	42714.92
721.303	42608.48
721.646	42655.49
721.989	42395.16
722.331	42416.17
722.674	42324.2
723.016	42266.57
723.359	42201.49
723.701	42224.54
724.044	41854.38
724.386	41707.26
724.729	41944.55
725.071	41863.65
725.413	41924.21
725.755	41694.16
726.097	41551.11
726.439	41332.81
726.782	41427.27
727.124	41609.41
727.465	41333.04
727.807	41277.9
728.149	41174.4
728.491	41136.88
728.833	41069.09
729.175	41004.23
729.516	40872.71
729.858	40907.06
730.199	40924.91
730.541	40761.53
730.882	40811.47
731.224	40823.9
731.565	40553.85
731.906	40572.15
732.248	40380.52
732.589	40226.4
732.93	40176.01
733.271	40331.03
733.612	40328.09
733.953	40239.51
734.294	40050.59
734.635	39982.11
734.976	40031.15
735.317	39773.53
735.658	39836.81
735.999	39671.61
736.339	39565.4
736.68	39665.51
737.021	39555.68
737.361	39448.12
737.702	39556.59
738.042	39352.98
738.383	39284.5
738.723	39373.54
739.063	39103.72
739.404	39120.44
739.744	39028.01
740.084	38995.25
740.424	39074.34
740.764	38826.21
741.104	38900.11
741.444	38705.08
741.784	38565.88
742.124	38687.91
742.464	38781.69
742.804	38565.2
743.143	38333.57
743.483	38400.46
743.823	38258.09
744.162	38214.93
744.502	38224.19
744.841	38003.18
745.181	38080.69
745.52	37949.4
745.86	38026.91
746.199	38107.81
746.538	37749.18
746.877	37982.17
747.216	37751.89
747.556	37610.65
747.895	37687.03
748.234	37495.62
748.573	37421.5
748.911	37454.27
749.25	37438.45
749.589	37106.48
749.928	37218.57
750.267	37248.85
750.605	37150.55
750.944	37042.3
751.283	36986.26
751.621	36833.04
751.96	36612.26
752.298	36713.5
752.636	36565.25
