Data from white_steel_sheet_FLMS001491_034.txt Node
Date: Tue Feb 07 10:57:45 GMT 2017
User: dcchb
Spectrometer: FLMS00149
Trigger mode: 0
Integration Time (sec): 2.000000E-2
Scans to average: 10
Electric dark correction enabled: true
Nonlinearity correction enabled: false
Boxcar width: 0
XAxis mode: Wavelengths
Number of Pixels in Spectrum: 2048
>>>>>Begin Spectral Data<<<<<
341.393	-18.47
341.776	-18.47
342.16	-18.47
342.543	-69.55
342.927	-52.37
343.31	-59.15
343.693	-65.48
344.077	-62.54
344.46	-59.83
344.843	-46.04
345.226	-37.46
345.61	-51.02
345.993	-16.89
346.376	-12.82
346.759	-5.14
347.142	16.78
347.525	46.61
347.908	67.85
348.291	84.35
348.674	99.94
349.057	100.84
349.44	119.38
349.823	153.27
350.206	177.9
350.588	197.79
350.971	219.49
351.354	242.08
351.737	248.19
352.119	227.62
352.502	256.32
352.884	284.34
353.267	281.41
353.65	282.08
354.032	313.27
354.414	298.81
354.797	308.75
355.179	311.01
355.562	343.55
355.944	356.21
356.326	333.61
356.709	336.32
357.091	326.6
357.473	325.25
357.855	327.28
358.238	335.64
358.62	344.45
359.002	340.39
359.384	328.18
359.766	334.74
360.148	345.36
360.53	345.13
360.912	348.52
361.294	352.36
361.676	353.27
362.057	327.05
362.439	335.64
362.821	349.43
363.203	335.19
363.584	334.28
363.966	321.18
364.348	317.56
364.729	320.27
365.111	337
365.493	329.99
365.874	316.88
366.256	313.95
366.637	336.54
367.019	330.44
367.4	318.01
367.781	326.38
368.163	324.12
368.544	323.44
368.925	344.91
369.306	328.64
369.688	315.98
370.069	318.47
370.45	311.46
370.831	333.83
371.212	341.29
371.593	327.96
371.974	317.11
372.355	330.44
372.736	326.15
373.117	327.96
373.498	317.56
373.879	328.18
374.26	316.43
374.641	313.95
375.021	308.75
375.402	320.27
375.783	342.87
376.163	351.23
376.544	345.58
376.925	345.58
377.305	332.93
377.686	340.61
378.066	333.16
378.447	350.33
378.827	348.3
379.208	322.76
379.588	343.55
379.968	333.61
380.349	358.69
380.729	365.92
381.109	333.83
381.489	374.51
381.87	369.31
382.25	374.28
382.63	362.08
383.01	353.27
383.39	360.5
383.77	383.78
384.15	368.18
384.53	372.7
384.91	371.35
385.29	365.02
385.67	370.67
386.049	387.62
386.429	400.5
386.809	396.43
387.189	379.03
387.568	393.04
387.948	388.52
388.328	392.36
388.707	406.83
389.087	405.47
389.466	404.57
389.846	406.15
390.225	405.02
390.605	424
390.984	397.33
391.363	416.77
391.743	434.4
392.122	417.9
392.501	428.29
392.881	438.24
393.26	442.08
393.639	462.19
394.018	451.57
394.397	455.41
394.776	467.39
395.155	473.49
395.534	470.33
395.913	454.73
396.292	492.7
396.671	500.38
397.05	480.95
397.429	520.27
397.808	484.79
398.186	504.9
398.565	500.16
398.944	530.44
399.323	521.62
399.701	529.99
400.08	534.51
400.458	549.65
400.837	550.55
401.215	546.93
401.594	557.78
401.972	567.95
402.351	583.09
402.729	576.31
403.107	607.95
403.486	583.09
403.864	591.91
404.242	620.38
404.62	621.06
404.999	651.79
405.377	649.3
405.755	638.91
406.133	660.83
406.511	651.56
406.889	705.57
407.267	681.39
407.645	707.61
408.023	721.17
408.401	741.96
408.779	732.01
409.156	782.86
409.534	756.65
409.912	763.2
410.29	785.12
410.667	787.61
411.045	811.11
411.422	807.27
411.8	835.97
412.178	826.25
412.555	864.21
412.933	872.12
413.31	875.51
413.687	888.85
414.065	903.08
414.442	897.43
414.819	910.99
415.197	960.94
415.574	948.28
415.951	948.05
416.328	973.59
416.705	964.78
417.082	978.79
417.46	998.9
417.837	1016.53
418.214	1013.14
418.591	1033.93
418.967	1011.1
419.344	1028.96
419.721	1034.38
420.098	1076.86
420.475	1065.79
420.852	1089.52
421.228	1098.56
421.605	1104.89
421.982	1137.2
422.358	1133.13
422.735	1132.23
423.111	1155.96
423.488	1156.41
423.864	1170.2
424.241	1174.94
424.617	1208.39
424.994	1203.64
425.37	1207.48
425.746	1243.19
426.123	1248.39
426.499	1258.55
426.875	1293.58
427.251	1276.18
427.627	1310.53
428.003	1314.15
428.379	1355.5
428.756	1353.69
429.132	1366.57
429.507	1391.43
429.883	1413.35
430.259	1423.3
430.635	1440.92
431.011	1458.55
431.387	1491.99
431.763	1510.53
432.138	1498.55
432.514	1522.95
432.89	1544.65
433.265	1574.48
433.641	1603.4
434.016	1635.04
434.392	1639.56
434.767	1668.04
435.143	1640.24
435.518	1703.06
435.894	1722.72
436.269	1752.78
436.644	1752.78
437.02	1761.37
437.395	1771.99
437.77	1826.9
438.145	1833.45
438.52	1860.35
438.895	1879.33
439.271	1886.33
439.646	1910.29
440.021	1944.64
440.395	1967.01
440.77	1934.02
441.145	1969.27
441.52	1986.67
441.895	1986.22
442.27	2009.27
442.645	2033.22
443.019	2054.47
443.394	2036.61
443.769	2112.09
444.143	2071.19
444.518	2133.56
444.892	2109.15
445.267	2144.63
445.641	2177.17
446.016	2194.58
446.39	2190.73
446.764	2194.8
447.139	2212.2
447.513	2240.68
447.887	2239.09
448.262	2256.72
448.636	2287
449.01	2343.05
449.384	2324.97
449.758	2343.05
450.132	2425.76
450.506	2407.22
450.88	2395.7
451.254	2417.85
451.628	2440.22
452.002	2485.87
452.376	2481.12
452.75	2528.35
453.123	2549.14
453.497	2587.11
453.871	2572.19
454.244	2653.77
454.618	2661.91
454.992	2711.17
455.365	2697.61
455.739	2806.31
456.112	2816.93
456.486	2852.41
456.859	2872.3
457.232	2919.98
457.606	2900.09
457.979	2924.5
458.352	2990.49
458.725	3039.75
459.099	3090.6
459.472	3116.81
459.845	3168.11
460.218	3164.72
460.591	3207.88
460.964	3245.39
461.337	3288.33
461.71	3330.14
462.083	3402.68
462.456	3386.63
462.829	3414.66
463.201	3460.76
463.574	3490.81
463.947	3529.46
464.32	3573.97
464.692	3626.18
465.065	3692.84
465.438	3745.27
465.81	3765.83
466.183	3823.68
466.555	3878.15
466.928	3908.43
467.3	3892.38
467.672	4013.51
468.045	4070.68
468.417	4092.83
468.789	4103.45
469.161	4190.91
469.534	4223.22
469.906	4346.16
470.278	4345.48
470.65	4409.43
471.022	4520.84
471.394	4565.36
471.766	4611.91
472.138	4687.16
472.51	4724.9
472.882	4825.69
473.253	4852.81
473.625	4953.82
473.997	5053.71
474.369	5091.45
474.74	5112.92
475.112	5236.53
475.484	5334.38
475.855	5401.95
476.227	5468.16
476.598	5584.09
476.97	5614.6
477.341	5785.89
477.713	5877.87
478.084	5857.76
478.455	6046.68
478.827	6124.87
479.198	6303.17
479.569	6272.43
479.94	6456.16
480.311	6504.07
480.682	6687.11
481.053	6854.34
481.424	6982.92
481.795	6988.35
482.166	7076.48
482.537	7191.05
482.908	7363.25
483.279	7397.83
483.65	7579.97
484.021	7741.77
484.391	7835.33
484.762	7888.66
485.133	7963.69
485.503	8036.23
485.874	8274.87
486.244	8340.85
486.615	8482.32
486.985	8581.07
487.356	8718.47
487.726	8772.71
488.097	8982.65
488.467	9050.67
488.837	9264.45
489.207	9311.68
489.578	9542.4
489.948	9553.7
490.318	9709.63
490.688	9729.07
491.058	9819.46
491.428	10007.25
491.798	10086.57
492.168	10302.16
492.538	10271.2
492.908	10459.67
493.278	10582.6
493.648	10657.4
494.017	10759.1
494.387	10864.4
494.757	10969.49
495.126	11136.03
495.496	11130.16
495.866	11243.15
496.235	11409.02
496.605	11484.27
496.974	11567.89
497.344	11641.11
497.713	11744.15
498.082	11857.6
498.452	11974.43
498.821	12000.42
499.19	12121.09
499.559	12260.53
499.928	12327.64
500.298	12366.06
500.667	12567.18
501.036	12524.47
501.405	12673.17
501.774	12683.11
502.143	12775.31
502.512	12862.54
502.88	13042.43
503.249	13023.67
503.618	13149.77
503.987	13272.48
504.356	13299.82
504.724	13388.18
505.093	13437.9
505.462	13603.31
505.83	13614.84
506.199	13781.62
506.567	13974.38
506.936	13976.41
507.304	14153.58
507.672	14203.3
508.041	14361.49
508.409	14450.98
508.777	14536.17
509.145	14678.09
509.514	14674.92
509.882	14790.63
510.25	14897.07
510.618	15013.22
510.986	14994.69
511.354	15335.7
511.722	15403.49
512.09	15450.27
512.458	15554.22
512.826	15628.12
513.193	15833.09
513.561	15807.1
513.929	16074.21
514.297	16103.14
514.664	16218.61
515.032	16341.1
515.4	16553.97
515.767	16554.2
516.135	16696.34
516.502	16686.85
516.869	16951.48
517.237	17010.23
517.604	17053.62
517.972	17222.43
518.339	17332.48
518.706	17487.96
519.073	17535.87
519.44	17687.28
519.808	17842.75
520.175	17871
520.542	18132.46
520.909	18336.07
521.276	18239.35
521.643	18427.59
522.009	18689.06
522.376	18672.56
522.743	18910.75
523.11	19180.57
523.477	19256.5
523.843	19317.51
524.21	19561.8
524.577	19772.42
524.943	19829.82
525.31	19919.53
525.676	20173.99
526.043	20319.07
526.409	20448.11
526.776	20664.6
527.142	20713.64
527.508	20773.97
527.874	21011.71
528.241	21182.78
528.607	21205.6
528.973	21410.12
529.339	21369.21
529.705	21647.62
530.071	21861.85
530.437	21940.27
530.803	22041.74
531.169	22269.3
531.535	22180.94
531.901	22224.33
532.267	22447.83
532.632	22597.88
532.998	22744.77
533.364	22707.71
533.73	22838.78
534.095	23154.25
534.461	23149.73
534.826	23404.64
535.192	23359.67
535.557	23508.36
535.923	23627.68
536.288	23601.92
536.653	23834.68
537.019	23706.55
537.384	23944.74
537.749	24125.3
538.114	24158.52
538.479	24214.11
538.845	24300.21
539.21	24408.91
539.575	24497.04
539.94	24592.63
540.305	24664.49
540.67	24748.33
541.034	24895.22
541.399	24919.85
541.764	24936.58
542.129	25203.24
542.494	25297.24
542.858	25326.62
543.223	25396.45
543.587	25585.37
543.952	25520.29
544.316	25699.04
544.681	25651.59
545.045	25874.63
545.41	25844.35
545.774	25937.68
546.138	26022.65
546.503	26103.55
546.867	26149.2
547.231	26502.18
547.595	26371.57
547.959	26489.53
548.324	26605.46
548.688	26725.91
549.052	26763.19
549.416	26733.59
549.779	26868.5
550.143	26915.96
550.507	27172
550.871	27263.75
551.235	27142.85
551.599	27395.95
551.962	27390.97
552.326	27564.08
552.689	27842.49
553.053	27576.51
553.417	27809.49
553.78	28095.81
554.143	28015.14
554.507	28162.93
554.87	28210.61
555.234	28529.7
555.597	28463.71
555.96	28522.47
556.323	28687.21
556.686	28772.41
557.05	28921.33
557.413	29100.76
557.776	29048.33
558.139	29280.87
558.502	29343.24
558.865	29378.27
559.228	29632.95
559.59	29727.18
559.953	29808.99
560.316	30179.83
560.679	30158.59
561.041	30381.18
561.404	30459.59
561.767	30705.24
562.129	30636.99
562.492	30942.75
562.854	30940.03
563.217	30949.3
563.579	31087.15
563.941	31379.8
564.304	31352.9
564.666	31580.47
565.028	31640.35
565.39	31729.62
565.753	31964.87
566.115	32048.03
566.477	32142.49
566.839	32193.33
567.201	32462.25
567.563	32482.37
567.925	32616.83
568.287	32643.49
568.648	32765.3
569.01	32900.21
569.372	33030.83
569.734	33123.25
570.095	33249.13
570.457	33405.51
570.819	33459.97
571.18	33446.63
571.542	33737.93
571.903	33653.63
572.265	33861.99
572.626	33898.83
572.987	33909.67
573.349	34217.01
573.71	34177.69
574.071	34266.05
574.432	34410.45
574.794	34668.98
575.155	34560.05
575.516	34520.5
575.877	34605.02
576.238	34730.67
576.599	34916.88
576.96	34896.54
577.32	34849.08
577.681	35052.47
578.042	35120.71
578.403	34995.07
578.763	35151
579.124	35215.18
579.485	35328.85
579.845	35341.95
580.206	35190.32
580.566	35307.38
580.927	35369.07
581.287	35487.48
581.648	35260.82
582.008	35648.38
582.368	35473.25
582.728	35499.46
583.089	35471.21
583.449	35464.43
583.809	35508.28
584.169	35649.29
584.529	35510.31
584.889	35760.25
585.249	35619.68
585.609	35433.93
585.969	35686.12
586.329	35570.42
586.688	35664.88
587.048	35586.69
587.408	35724.77
587.768	35621.27
588.127	35576.75
588.487	35486.58
588.846	35821.26
589.206	35507.82
589.565	35603.87
589.925	35813.13
590.284	35683.64
590.643	35676.18
591.003	35826.23
591.362	35644.77
591.721	35573.81
592.08	35698.33
592.44	35831.43
592.799	35675.05
593.158	35778.55
593.517	35706.91
593.876	35729.06
594.235	35739.46
594.593	35692
594.952	35764.31
595.311	35672.34
595.67	35744.65
596.029	36011.09
596.387	35841.15
596.746	35981.48
597.104	35794.37
597.463	35781.71
597.822	35761.15
598.18	35875.05
598.538	35729.51
598.897	35991.2
599.255	35756.63
599.613	36191.2
599.972	35913.01
600.33	36095.6
600.688	35909.39
601.046	36019
601.404	36164.08
601.762	36049.28
602.12	36221.03
602.478	36209.95
602.836	36252.89
603.194	35983.29
603.552	36009.05
603.91	35901.26
604.268	36315.94
604.625	36014.25
604.983	36195.71
605.341	35990.52
605.698	36297.86
606.056	36202.95
606.413	36263.96
606.771	36411.08
607.128	36491.53
607.485	36207.47
607.843	36294.47
608.2	36517.29
608.557	36475.03
608.914	36397.29
609.272	36676.15
609.629	36691.07
609.986	36821.01
610.343	36544.18
610.7	36880.44
611.057	36792.54
611.414	36753.89
611.771	36754.57
612.127	36999.08
612.484	36886.32
612.841	37121.79
613.198	36826.43
613.554	36871.4
613.911	37156.37
614.267	37070.04
614.624	37076.14
614.98	37222.13
615.337	37274.33
615.693	37389.58
616.05	37173.99
616.406	37406.76
616.762	37317.95
617.118	37278.17
617.475	37202.92
617.831	37493.76
618.187	37446.08
618.543	37582.57
618.899	37750.7
619.255	37532.4
619.611	37554.78
619.967	37600.2
620.323	37537.83
620.678	37511.39
621.034	37497.6
621.39	37556.36
621.746	37517.26
622.101	37960.87
622.457	37597.49
622.812	37786.18
623.168	37823.92
623.523	37838.61
623.879	37923.58
624.234	37574.44
624.589	37694.88
624.945	37886.97
625.3	37702.34
625.655	37748.89
626.01	37761.32
626.365	37891.26
626.72	37689.46
627.075	37696.92
627.43	37703.47
627.785	37625.06
628.14	37899.4
628.495	37735.34
628.85	37722.68
629.205	37673.42
629.559	37820.3
629.914	37610.59
630.269	37644.04
630.623	37564.04
630.978	37443.82
631.332	37700.76
631.687	37802.23
632.041	37530.14
632.396	37376.02
632.75	37307.32
633.104	37497.15
633.459	37278.17
633.813	37328.57
634.167	37308.68
634.521	37252.86
634.875	37301.67
635.229	37304.39
635.583	37046.77
635.937	37164.95
636.291	37114.11
636.645	37098.06
636.999	37087.22
637.352	36959.31
637.706	36719.77
638.06	36922.7
638.413	36731.07
638.767	36689.04
639.121	36717.74
639.474	36481.13
639.828	36483.39
640.181	36439.32
640.534	36490.17
640.888	36388.03
641.241	36243.17
641.594	36409.27
641.947	36280.46
642.301	36195.94
642.654	36296.96
643.007	36272.55
643.36	36205.88
643.713	36173.12
644.066	36277.75
644.419	35943.97
644.771	35830.3
645.124	35331.56
645.477	35438.45
645.83	35094.05
646.182	34944.45
646.535	34885.69
646.888	35026.48
647.24	34825.58
647.593	34981.51
647.945	34969.31
648.298	34809.76
648.65	34648.86
649.002	34527.28
649.355	34686.38
649.707	34572.03
650.059	34685.7
650.411	35100.15
650.763	35109.64
651.115	35596.63
651.467	35352.12
651.819	35299.02
652.171	35257.43
652.523	35198.68
652.875	35384.89
653.227	34979.02
653.578	35363.42
653.93	35244.78
654.282	35202.52
654.633	35027.84
654.985	34984.67
655.337	35068.74
655.688	35071.68
656.039	35014.05
656.391	34861.29
656.742	34697.22
657.094	34696.77
657.445	35020.83
657.796	34752.59
658.147	34789.65
658.498	34797.79
658.849	34783.77
659.2	34764.79
659.551	34631.24
659.902	34605.25
660.253	34490.9
660.604	34560.73
660.955	34429.66
661.306	34465.59
661.656	34332.04
662.007	34296.56
662.358	34259.49
662.708	34398.7
663.059	34250.68
663.409	34000.74
663.76	34198.25
664.11	34162.1
664.461	34111.25
664.811	34144.47
665.161	34023.34
665.511	33754.2
665.862	33902.89
666.212	33879.39
666.562	33815.89
666.912	33782.45
667.262	33718.04
667.612	33600.75
667.962	33483.7
668.312	33339.97
668.662	33514.66
669.011	33400.08
669.361	33161.44
669.711	33174.78
670.06	33018.62
670.41	32977.27
670.76	32838.06
671.109	32986.31
671.459	32699.76
671.808	32620.89
672.157	32774.79
672.507	32520.56
672.856	32538.64
673.205	32475.81
673.554	32552.42
673.904	32391.97
674.253	32511.29
674.602	32396.04
674.951	31831.76
675.3	31788.37
675.649	32161.24
675.998	32085.09
676.346	32173.22
676.695	32261.58
677.044	32187.01
677.393	32056.84
677.741	32133.67
678.09	31954.92
678.438	31896.39
678.787	31925.09
679.135	32008.93
679.484	31812.1
679.832	32004.41
680.181	31788.15
680.529	31859.78
680.877	31755.15
681.225	31697.3
681.573	32034.02
681.922	31745.66
682.27	31560.13
682.618	31648.94
682.966	31795.83
683.314	31854.59
683.661	31683.29
684.009	31600.13
684.357	31613.01
684.705	31586.12
685.053	31585.21
685.4	31623.86
685.748	31524.2
686.095	31738.21
686.443	31447.37
686.79	31380.02
687.138	31656.17
687.485	31651.65
687.832	31503.41
688.18	31593.8
688.527	31505.67
688.874	31570.53
689.221	31527.36
689.568	31602.16
689.915	31375.5
690.262	31388.84
690.609	31330.08
690.956	31272
691.303	31297.99
691.65	31156.53
691.997	31224.09
692.344	31113.14
692.69	31174.6
693.037	31112.68
693.383	30874.5
693.73	31039.24
694.077	30825.91
694.423	30840.15
694.769	30782.07
695.116	30911.56
695.462	30873.59
695.808	30687.39
696.155	30785.01
696.501	30515.41
696.847	30609.2
697.193	30348.19
697.539	30478.8
697.885	30381.18
698.231	30161.3
698.577	30301.86
698.923	30187.51
699.269	29985.03
699.614	30016.67
699.96	29880.63
700.306	29884.69
700.651	29830.68
700.997	29684.02
701.342	29790.46
701.688	29603.8
702.033	29565.61
702.379	29585.95
702.724	29493.97
703.069	29568.32
703.415	29249.91
703.76	29327.87
704.105	29044.26
704.45	29052.17
704.795	28765.4
705.14	28974.44
705.485	28868
705.83	28733.76
706.175	28773.54
706.52	28659.19
706.865	28616.03
707.209	28460.1
707.554	28479.99
707.899	28491.28
708.243	28377.16
708.588	28427.11
708.932	28199.09
709.277	28198.86
709.621	28209.26
709.966	28000.68
710.31	28149.6
710.654	27804.75
710.998	27876.84
711.342	27933.79
711.687	27720.01
712.031	27644.98
712.375	27629.61
712.719	27528.37
713.063	27561.37
713.407	27708.93
713.75	27511.2
714.094	27519.56
714.438	27417.19
714.782	27463.74
715.125	27296.97
715.469	27237.53
715.812	27165.9
716.156	26997.99
716.499	27014.04
716.843	27027.14
717.186	26841.61
717.53	26937.88
717.873	27038.22
718.216	26881.84
718.559	26705.57
718.902	26545.35
719.246	26658.34
719.589	26491.79
719.932	26480.94
720.275	26473.71
720.617	26386.03
720.96	26407.95
721.303	26409.98
721.646	26390.32
721.989	26174.74
722.331	26262.64
722.674	26134.96
723.016	26252.02
723.359	26164.11
723.701	26033.72
724.044	25935.65
724.386	25849.09
724.729	25903.78
725.071	25816.78
725.413	25907.62
725.755	25757.35
726.097	25737.01
726.439	25594.86
726.782	25562.32
727.124	25648.42
727.465	25504.92
727.807	25473.74
728.149	25452.27
728.491	25437.58
728.833	25408.88
729.175	25261.77
729.516	25283.23
729.858	25316.68
730.199	25227.64
730.541	25147.19
730.882	25138.15
731.224	25228.55
731.565	24972.73
731.906	25013.41
732.248	25020.42
732.589	24885.96
732.93	24745.62
733.271	24863.36
733.612	24787.65
733.953	24744.49
734.294	24669.24
734.635	24649.13
734.976	24716.47
735.317	24588.56
735.658	24641.44
735.999	24545.63
736.339	24473.09
736.68	24521.45
737.021	24342.92
737.361	24307.44
737.702	24384.05
738.042	24356.25
738.383	24168.23
738.723	24215.69
739.063	24176.37
739.404	24280.77
739.744	24207.33
740.084	24176.37
740.424	24108.35
740.764	24130.04
741.104	24162.13
741.444	24023.83
741.784	23904.96
742.124	23878.3
742.464	23892.54
742.804	23856.15
743.143	23955.36
743.483	23885.3
743.823	23675.37
744.162	23705.2
744.502	23678.08
744.841	23654.12
745.181	23738.42
745.52	23545.65
745.86	23597.85
746.199	23561.92
746.538	23416.16
746.877	23521.47
747.216	23487.35
747.556	23382.27
747.895	23449.84
748.234	23234.02
748.573	23283.06
748.911	23219.11
749.25	23169.39
749.589	23068.6
749.928	23180.01
750.267	23188.37
750.605	23073.35
750.944	22827.7
751.283	22862.05
751.621	22873.58
751.96	22748.84
752.298	22725.11
752.636	22810.3
752.975	22593.13
753.313	22514.27
753.651	22704.09
