Data from white_steel_sheet_FLMS001491_068.txt Node
Date: Tue Feb 07 10:58:17 GMT 2017
User: dcchb
Spectrometer: FLMS00149
Trigger mode: 0
Integration Time (sec): 2.000000E-2
Scans to average: 10
Electric dark correction enabled: true
Nonlinearity correction enabled: false
Boxcar width: 0
XAxis mode: Wavelengths
Number of Pixels in Spectrum: 2048
>>>>>Begin Spectral Data<<<<<
341.393	-28.12
341.776	-28.12
342.16	-28.12
342.543	-69.25
342.927	-48.01
343.31	-55.01
343.693	-54.79
344.077	-61.11
344.46	-70.61
344.843	-44.17
345.226	-34.67
345.61	-33.32
345.993	-14.79
346.376	-6.65
346.759	12.56
347.142	29.05
347.525	26.57
347.908	43.97
348.291	64.31
348.674	96.85
349.057	101.82
349.44	148.6
349.823	147.24
350.206	180.01
350.588	205.32
350.971	201.93
351.354	237.63
351.737	242.61
352.119	262.49
352.502	271.98
352.884	268.59
353.267	291.64
353.65	297.97
354.032	321.93
354.414	331.19
354.797	330.74
355.179	347.69
355.562	336.16
355.944	332.32
356.326	333.68
356.709	349.27
357.091	339.1
357.473	344.75
357.855	350.85
358.238	328.25
358.62	370.96
359.002	341.36
359.384	363.28
359.766	340.91
360.148	354.47
360.53	335.71
360.912	340.23
361.294	340.46
361.676	349.95
362.057	351.76
362.439	312.21
362.821	344.52
363.203	317.41
363.584	328.48
363.966	341.14
364.348	335.03
364.729	333.9
365.111	331.19
365.493	324.86
365.874	318.31
366.256	323.28
366.637	341.59
367.019	326.22
367.4	323.06
367.781	335.03
368.163	327.35
368.544	328.48
368.925	335.71
369.306	333.23
369.688	335.26
370.069	326.9
370.45	316.95
370.831	340.91
371.212	344.3
371.593	322.6
371.974	330.29
372.355	333.23
372.736	324.86
373.117	348.82
373.498	325.77
373.879	314.24
374.26	356.28
374.641	320.57
375.021	352.89
375.402	328.25
375.783	337.29
376.163	334.58
376.544	353.56
376.925	348.37
377.305	329.61
377.686	342.49
378.066	352.43
378.447	332.32
378.827	360.12
379.208	334.13
379.588	348.59
379.968	336.84
380.349	354.02
380.729	353.56
381.109	358.76
381.489	356.95
381.87	365.32
382.25	359.44
382.63	387.01
383.01	373.9
383.39	382.94
383.77	384.98
384.15	377.29
384.53	383.85
384.91	386.33
385.29	383.85
385.67	393.56
386.049	389.27
386.429	369.16
386.809	402.15
387.189	410.74
387.568	383.39
387.948	398.53
388.328	405.54
388.707	416.61
389.087	406.67
389.466	415.48
389.846	417.29
390.225	413.45
390.605	432.66
390.984	407.35
391.363	407.57
391.743	422.49
392.122	445.77
392.501	442.15
392.881	436.95
393.26	445.99
393.639	453
394.018	443.51
394.397	470.17
394.776	481.02
395.155	470.4
395.534	485.54
395.913	463.39
396.292	482.6
396.671	481.47
397.05	485.09
397.429	514.24
397.808	493
398.186	488.25
398.565	530.96
398.944	518.31
399.323	518.31
399.701	526.44
400.08	519.44
400.458	540.45
400.837	547.91
401.215	553.11
401.594	578.19
401.972	570.28
402.351	578.64
402.729	589.94
403.107	593.78
403.486	601.24
403.864	585.2
404.242	591.52
404.62	623.16
404.999	624.97
405.377	639.88
405.755	633.1
406.133	645.08
406.511	678.75
406.889	677.4
407.267	696.83
407.645	702.93
408.023	717.17
408.401	718.3
408.779	732.99
409.156	721.46
409.534	737.28
409.912	763.5
410.29	782.03
410.667	779.77
411.045	822.93
411.422	814.79
411.8	816.6
412.178	853.89
412.555	844.62
412.933	833.1
413.31	875.36
413.687	889.37
414.065	892.08
414.442	901.8
414.819	906.09
415.197	918.75
415.574	936.15
415.951	956.94
416.328	972.53
416.705	965.98
417.082	974.11
417.46	1002.13
417.837	990.16
418.214	1000.78
418.591	1019.99
418.967	1030.38
419.344	1036.03
419.721	1044.17
420.098	1059.99
420.475	1090.72
420.852	1078.29
421.228	1091.62
421.605	1098.4
421.982	1103.15
422.358	1130.04
422.735	1116.03
423.111	1132.98
423.488	1158.74
423.864	1154.22
424.241	1175.69
424.617	1184.5
424.994	1213.88
425.37	1216.59
425.746	1227.21
426.123	1250.72
426.499	1273.54
426.875	1251.17
427.251	1299.75
427.627	1313.76
428.003	1309.47
428.379	1326.65
428.756	1328.23
429.132	1390.83
429.507	1382.92
429.883	1405.06
430.259	1431.28
430.635	1423.59
431.011	1448.9
431.387	1480.54
431.763	1509.69
432.138	1512.86
432.514	1509.24
432.89	1551.5
433.265	1595.79
433.641	1583.81
434.016	1585.62
434.392	1614.1
434.767	1638.28
435.143	1665.39
435.518	1659.74
435.894	1717.82
436.269	1758.5
436.644	1740.65
437.02	1736.35
437.395	1759.85
437.77	1788.1
438.145	1831.72
438.52	1825.62
438.895	1893.64
439.271	1862
439.646	1946.52
440.021	1895.67
440.395	1946.29
440.77	1905.61
441.145	1908.78
441.52	1990.13
441.895	1993.07
442.27	2011.37
442.645	1980.19
443.019	2029.9
443.394	2056.57
443.769	2076.23
444.143	2033.29
444.518	2131.37
444.892	2085.72
445.267	2079.39
445.641	2122.78
446.016	2144.03
446.39	2155.78
446.764	2212.5
447.139	2184.02
447.513	2207.3
447.887	2230.58
448.262	2253.18
448.636	2280.29
449.01	2314.64
449.384	2346.96
449.758	2304.02
450.132	2349.44
450.506	2362.32
450.88	2377.24
451.254	2371.14
451.628	2431.48
452.002	2447.52
452.376	2470.12
452.75	2512.6
453.123	2548.08
453.497	2569.33
453.871	2576.56
454.244	2633.96
454.618	2666.5
454.992	2664.46
455.365	2710.11
455.739	2743.33
456.112	2784.01
456.486	2774.52
456.859	2864.23
457.232	2888.86
457.606	2861.52
457.979	2905.36
458.352	2969.31
458.725	3018.13
459.099	3034.4
459.472	3116.66
459.845	3121.63
460.218	3150.78
460.591	3134.28
460.964	3191.91
461.337	3262.87
461.71	3310.32
462.083	3344.67
462.456	3343.54
462.829	3372.47
463.201	3415.63
463.574	3444.56
463.947	3484.1
464.32	3545.34
464.692	3579.69
465.065	3619.02
465.438	3618.34
465.81	3701.27
466.183	3708.28
466.555	3815.39
466.928	3857.2
467.3	3848.61
467.672	3908.95
468.045	3981.72
468.417	4037.08
468.789	4048.61
469.161	4119.79
469.534	4160.24
469.906	4238.21
470.278	4302.16
470.65	4328.15
471.022	4436.17
471.394	4538.09
471.766	4551.42
472.138	4604.98
472.51	4662.38
472.882	4722.94
473.253	4799.55
473.625	4925.2
473.997	4984.63
474.369	5006.1
474.74	5044.74
475.112	5137.39
475.484	5258.75
475.855	5317.28
476.227	5382.58
476.598	5531.51
476.97	5586.19
477.341	5671.84
477.713	5804.72
478.084	5814.66
478.455	6000.42
478.827	6020.76
479.198	6218.95
479.569	6228.89
479.94	6323.35
480.311	6438.83
480.682	6587.75
481.053	6741.19
481.424	6730.8
481.795	6880.85
482.166	7007.17
482.537	7056.44
482.908	7232.03
483.279	7326.26
483.65	7416.66
484.021	7531.45
484.391	7655.07
484.762	7752.69
485.133	7750.21
485.503	7928.28
485.874	8104.77
486.244	8195.17
486.615	8347.7
486.985	8456.63
487.356	8598.32
487.726	8668.83
488.097	8858.2
488.467	8892.1
488.837	9034.24
489.207	9177.29
489.578	9341.12
489.948	9359.88
490.318	9575.47
490.688	9581.34
491.058	9742.47
491.428	9855.46
491.798	9919.64
492.168	10113.31
492.538	10135
492.908	10296.81
493.278	10412.28
493.648	10482.56
494.017	10632.39
494.387	10743.35
494.757	10776.11
495.126	10981.08
495.496	11030.57
495.866	11041.64
496.235	11140.17
496.605	11300.85
496.974	11334.97
497.344	11450.9
497.713	11509.88
498.082	11565.92
498.452	11737.9
498.821	11820.38
499.19	11861.06
499.559	11984.44
499.928	12124.55
500.298	12230.31
500.667	12285.91
501.036	12297.66
501.405	12421.5
501.774	12437.54
502.143	12589.63
502.512	12640.7
502.88	12847.25
503.249	12866.68
503.618	12909.17
503.987	12953.46
504.356	13080.24
504.724	13156.17
505.093	13190.51
505.462	13282.49
505.83	13362.49
506.199	13514.12
506.567	13674.57
506.936	13701.24
507.304	13857.16
507.672	13988.01
508.041	14085.41
508.409	14118.85
508.777	14277.04
509.145	14384.61
509.514	14468.67
509.882	14519.97
510.25	14613.75
510.618	14678.84
510.986	14843.13
511.354	14926.97
511.722	15073.4
512.09	15194.98
512.458	15238.14
512.826	15358.82
513.193	15498.93
513.561	15585.25
513.929	15629.09
514.297	15854.4
514.664	16009.2
515.032	16087.84
515.4	16156.76
515.767	16220.72
516.135	16408.06
516.502	16353.37
516.869	16582.74
517.237	16677.43
517.604	16738.44
517.972	16934.82
518.339	17109.96
518.706	17081.03
519.073	17122.16
519.44	17293.91
519.808	17532.1
520.175	17502.49
520.542	17788.59
520.909	17813.9
521.276	17952.65
521.643	18090.72
522.009	18265.18
522.376	18478.29
522.743	18539.98
523.11	18703.14
523.477	18886.64
523.843	18963.02
524.21	19208.66
524.577	19349.45
524.943	19518.03
525.31	19638.71
525.676	19893.62
526.043	20079.83
526.409	19972.71
526.776	20175.19
527.142	20390.1
527.508	20499.25
527.874	20700.37
528.241	20730.88
528.607	20790.54
528.973	21032.34
529.339	20984.66
529.705	21324.31
530.071	21432.33
530.437	21543.29
530.803	21643.17
531.169	21804.98
531.535	21760.46
531.901	21980.79
532.267	22051.07
532.632	22175.14
532.998	22335.13
533.364	22427.56
533.73	22463.49
534.095	22709.81
534.461	22744.61
534.826	22917.26
535.192	22991.16
535.557	23249.01
535.923	23100.31
536.288	23223.7
536.653	23448.55
537.019	23384.82
537.384	23504.14
537.749	23651.26
538.114	23670.24
538.479	23815.77
538.845	23918.59
539.21	23930.35
539.575	24035.2
539.94	24159.27
540.305	24256.21
540.67	24369.2
541.034	24336.89
541.399	24606.26
541.764	24589.99
542.129	24565.58
542.494	24796.76
542.858	24834.95
543.223	24889.42
543.587	25009.41
543.952	25044.67
544.316	25142.52
544.681	25125.34
545.045	25401.95
545.41	25477.42
545.774	25494.6
546.138	25535.73
546.503	25739.56
546.867	25693.01
547.231	25870.63
547.595	26008.03
547.959	26062.72
548.324	26095.49
548.688	26152.43
549.052	26321.92
549.416	26286.89
549.779	26317.63
550.143	26430.39
550.507	26629.03
550.871	26670.84
551.235	26638.52
551.599	26968.01
551.962	27047.78
552.326	27016.14
552.689	27233.76
553.053	27117.15
553.417	27238.05
553.78	27601.89
554.143	27490.25
554.507	27714.43
554.87	27784.03
555.234	28130.69
555.597	27880.3
555.96	28137.01
556.323	28228.99
556.686	28162.55
557.05	28477.57
557.413	28492.49
557.776	28662.42
558.139	28803.66
558.502	28761.63
558.865	28855.87
559.228	29166.82
559.59	29198.68
559.953	29288.17
560.316	29565
560.679	29562.97
561.041	29829.85
561.404	29853.58
561.767	29966.34
562.129	29914.82
562.492	30416.28
562.854	30238.2
563.217	30298.77
563.579	30538.31
563.941	30708.25
564.304	30834.57
564.666	30941.23
565.028	30992.31
565.39	31205.41
565.753	31359.98
566.115	31472.75
566.477	31525.63
566.839	31523.59
567.201	31868.22
567.563	31886.52
567.925	32073.86
568.287	32037.93
568.648	32124.71
569.01	32346.85
569.372	32553.85
569.734	32471.14
570.095	32759.72
570.457	32794.07
570.819	32886.04
571.18	32897.79
571.542	33184.11
571.903	33231.57
572.265	33312.25
572.626	33316.77
572.987	33364.22
573.349	33472.24
573.71	33587.49
574.071	33731.9
574.432	33753.82
574.794	33952
575.155	34057.76
575.516	33947.71
575.877	34118.1
576.238	34145.22
576.599	34173.01
576.96	34200.58
577.32	34284.42
577.681	34340.47
578.042	34358.55
578.403	34522.61
578.763	34506.11
579.124	34603.51
579.485	34815.71
579.845	34917.63
580.206	34734.36
580.566	34706.11
580.927	34699.33
581.287	34874.01
581.648	34857.74
582.008	34994.01
582.368	34736.16
582.728	34970.06
583.089	34913.33
583.449	34892.09
583.809	34978.64
584.169	35007.57
584.529	34985.87
584.889	35198.75
585.249	35001.01
585.609	34884.18
585.969	35055.48
586.329	34909.72
586.688	35086.66
587.048	34959.89
587.408	34902.26
587.768	35013.9
588.127	34907.68
588.487	34973.22
588.846	35259.99
589.206	34921.47
589.565	35078.98
589.925	35224.29
590.284	35030.84
590.643	35154.91
591.003	35217.73
591.362	35159.2
591.721	35109.03
592.08	35084.4
592.44	35225.87
592.799	35201.69
593.158	35082.59
593.517	35087.79
593.876	35159.2
594.235	35098.19
594.593	35048.02
594.952	35257.96
595.311	35020.22
595.67	35144.74
596.029	35333.89
596.387	35324.62
596.746	35322.14
597.104	35075.36
597.463	35175.47
597.822	35333.21
598.18	35085.08
598.538	35125.76
598.897	35261.57
599.255	35070.62
599.613	35581.56
599.972	35293.44
600.33	35478.52
600.688	35306.09
601.046	35494.56
601.404	35623.15
601.762	35319.2
602.12	35518.29
602.478	35530.72
602.836	35534.11
603.194	35405.75
603.552	35523.49
603.91	35277.17
604.268	35498.85
604.625	35358.29
604.983	35425.41
605.341	35351.74
605.698	35568.91
606.056	35653.43
606.413	35640.09
606.771	35787.21
607.128	35708.79
607.485	35597.38
607.843	35692.3
608.2	35873.08
608.557	35836.47
608.914	35810.03
609.272	35874.21
609.629	35839.86
609.986	36025.39
610.343	35989.69
610.7	36190.36
611.057	36162.11
611.414	36108.78
611.771	36098.16
612.127	36243.02
612.484	36201.66
612.841	36262
613.198	36231.49
613.554	36245.28
613.911	36382.45
614.267	36429.68
614.624	36483.46
614.98	36427.64
615.337	36620.18
615.693	36519.62
616.05	36476.91
616.406	36710.8
616.762	36588.54
617.118	36589
617.475	36659.5
617.831	36751.7
618.187	36633.74
618.543	36687.52
618.899	37042.77
619.255	36955.54
619.611	36938.59
619.967	36926.39
620.323	36999.38
620.678	36903.56
621.034	36905.37
621.39	36905.82
621.746	36955.99
622.101	37332.03
622.457	36934.98
622.812	37090
623.168	37121.86
623.523	37201.63
623.879	37141.07
624.234	36810.91
624.589	37144.91
624.945	37132.03
625.3	37138.59
625.655	37051.58
626.01	37192.6
626.365	37122.54
626.72	37191.24
627.075	37044.8
627.43	37031.02
627.785	36947.86
628.14	37034.41
628.495	36892.26
628.85	36940.62
629.205	36811.14
629.559	37022.66
629.914	36938.59
630.269	36965.03
630.623	36728.65
630.978	36724.36
631.332	36966.61
631.687	36924.13
632.041	36711.7
632.396	36770.23
632.75	36661.99
633.104	36825.15
633.459	36556
633.813	36541.77
634.167	36594.87
634.521	36633.97
634.875	36559.39
635.229	36443.01
635.583	36296.57
635.937	36357.82
636.291	36204.15
636.645	36253.41
636.999	36161.66
637.352	36339.06
637.706	35992.4
638.06	36305.61
638.413	36070.14
638.767	35909.01
639.121	35937.26
639.474	35829.69
639.828	35733.2
640.181	35951.72
640.534	35758.96
640.888	35687.1
641.241	35586.76
641.594	35590.83
641.947	35692.3
642.301	35583.82
642.654	35554.67
643.007	35537.95
643.36	35502.92
643.713	35409.14
644.066	35672.41
644.419	35182.93
644.771	35080.11
645.124	34702.04
645.477	34637.41
645.83	34379.34
646.182	34396.28
646.535	34170.98
646.888	34266.12
647.24	34100.25
647.593	34310.41
647.945	34180.25
648.298	34006.92
648.65	33976.41
649.002	33838.33
649.355	34069.97
649.707	33802.63
650.059	33996.52
650.411	34342.05
650.763	34448.03
651.115	34744.3
651.467	34685.99
651.819	34598.54
652.171	34384.08
652.523	34554.47
652.875	34458.66
653.227	34399.45
653.578	34497.3
653.93	34355.38
654.282	34267.02
654.633	34316.06
654.985	34194.26
655.337	34349.05
655.688	34257.08
656.039	34353.12
656.391	33997.65
656.742	34020.48
657.094	34090.08
657.445	34170.53
657.796	34161.71
658.147	33886.92
658.498	34008.05
658.849	34075.62
659.2	33876.52
659.551	33849.86
659.902	33947.48
660.253	33737.32
660.604	33913.36
660.955	33733.7
661.306	33702.29
661.656	33595.18
662.007	33523.09
662.358	33545.69
662.708	33525.12
663.059	33528.29
663.409	33326.26
663.76	33477.21
664.11	33407.61
664.461	33469.98
664.811	33301.17
665.161	33169.42
665.511	33147.28
665.862	33083.1
666.212	33215.52
666.562	33210.55
666.912	33013.27
667.262	32857.79
667.612	32877.45
667.962	32873.16
668.312	32726.95
668.662	32827.96
669.011	32718.36
669.361	32580.29
669.711	32587.97
670.06	32401.54
670.41	32325.38
670.76	32102.33
671.109	32320.63
671.459	32223.23
671.808	32185.72
672.157	32175.33
672.507	31813.98
672.856	31928.55
673.205	31873.41
673.554	31963.58
673.904	31797.03
674.253	31805.62
674.602	31794.55
674.951	31255.35
675.3	31123.6
675.649	31607.21
675.998	31471.84
676.346	31518.39
676.695	31639.07
677.044	31343.03
677.393	31461.22
677.741	31397.04
678.09	31350.49
678.438	31308.23
678.787	31364.05
679.135	31390.26
679.484	31208.35
679.832	31228.68
680.181	31030.27
680.529	31085.19
680.877	30993.44
681.225	31156.14
681.573	31286.31
681.922	31113.21
682.27	31022.81
682.618	31171.28
682.966	31055.81
683.314	31160.44
683.661	31161.57
684.009	30934
684.357	31033.89
684.705	30901.69
685.053	30995.47
685.4	31052.42
685.748	30869.37
686.095	30868.02
686.443	30739.88
686.79	30856.94
687.138	31008.8
687.485	30987.33
687.832	30868.47
688.18	30991.85
688.527	30763.61
688.874	30905.08
689.221	30799.54
689.568	30633.67
689.915	30693.33
690.262	30674.57
690.609	30634.12
690.956	30528.59
691.303	30603.16
691.65	30404.3
691.997	30484.52
692.344	30401.81
692.69	30343.06
693.037	30405.88
693.383	30198.2
693.73	30350.29
694.077	30120.01
694.423	30145.78
694.769	30125.89
695.116	30056.74
695.462	30055.38
695.808	29915.27
696.155	30007.7
696.501	29769.06
696.847	29926.57
697.193	29614.26
697.539	29725.45
697.885	29609.29
698.231	29541.27
698.577	29423.53
698.923	29459.92
699.269	29282.07
699.614	29180.83
699.96	29150.1
700.306	29222.41
700.651	29084.79
700.997	28947.61
701.342	28873.72
701.688	28903.77
702.033	28776.55
702.379	28724.34
702.724	28607.96
703.069	28806.83
703.415	28362.09
703.76	28370.91
704.105	28435.09
704.45	28377.01
704.795	28156.67
705.14	28044.14
705.485	28102.67
705.83	27964.14
706.175	27947.64
706.52	27848.89
706.865	27803.24
707.209	27729.34
707.554	27648.67
707.899	27760.08
708.243	27598.95
708.588	27675.56
708.932	27375.23
709.277	27446.19
709.621	27438.95
709.966	27291.61
710.31	27268.56
710.654	26985.86
710.998	27212.07
711.342	27150.6
711.687	27010.04
712.031	26903.15
712.375	26791.51
712.719	26782.93
713.063	26752.64
713.407	26875.58
713.75	26610.5
714.094	26622.7
714.438	26660.9
714.782	26669.93
715.125	26412.31
715.469	26545.87
715.812	26487.11
716.156	26312.2
716.499	26219.55
716.843	26238.76
717.186	26054.58
717.53	26259.1
717.873	26232.88
718.216	26090.74
718.559	25958.09
718.902	25721.26
719.246	25970.07
719.589	25824.98
719.932	25722.84
720.275	25801.03
720.617	25686.01
720.96	25577.08
721.303	25701.6
721.646	25655.95
721.989	25438.78
722.331	25523.07
722.674	25441.72
723.016	25411.44
723.359	25387.03
723.701	25308.39
724.044	25242.18
724.386	25053.03
724.729	25270.2
725.071	25073.82
725.413	25140.48
725.755	24976.87
726.097	25051.9
726.439	24842.64
726.782	24858.46
727.124	24996.98
727.465	24813.94
727.807	24745.47
728.149	24808.51
728.491	24741.62
728.833	24701.17
729.175	24580.27
729.516	24587.73
729.858	24452.14
730.199	24565.58
730.541	24546.37
730.882	24425.93
731.224	24502.31
731.565	24361.07
731.906	24301.64
732.248	24421.63
732.589	24187.06
732.93	24108.42
733.271	24113.17
733.612	24152.71
733.953	24110.45
734.294	23992.94
734.635	23970.57
734.976	23983.68
735.317	23862.32
735.658	23841.99
735.999	23834.3
736.339	23841.53
736.68	23923.34
737.021	23763.57
737.361	23764.25
737.702	23721.54
738.042	23523.12
738.383	23495.33
738.723	23536.01
739.063	23443.8
739.404	23500.75
739.744	23414.2
740.084	23357.48
740.424	23305.73
740.764	23253.3
741.104	23345.73
741.444	23213.98
741.784	23200.2
742.124	23135.56
742.464	23173.76
742.804	23072.29
743.143	23131.27
743.483	23019.18
743.823	22969.24
744.162	22872.07
744.502	23035.91
744.841	22797.04
745.181	22830.26
745.52	22809.24
745.86	22752.75
746.199	22656.25
746.538	22676.14
746.877	22686.76
747.216	22687.44
747.556	22592.75
747.895	22548.69
748.234	22579.19
748.573	22447.22
748.911	22478.86
749.25	22376.04
749.589	22305.76
749.928	22228.02
750.267	22228.47
750.605	22186.21
750.944	22161.13
751.283	22080.22
751.621	22131.97
751.96	21938.76
752.298	21966.78
752.636	21939.44
752.975	21885.65
753.313	21797.29
753.651	21875.03
