Data from White_paper_FLMS001491_065.txt Node
Date: Tue Feb 07 10:35:24 GMT 2017
User: dcchb
Spectrometer: FLMS00149
Trigger mode: 0
Integration Time (sec): 2.000000E-2
Scans to average: 10
Electric dark correction enabled: true
Nonlinearity correction enabled: false
Boxcar width: 0
XAxis mode: Wavelengths
Number of Pixels in Spectrum: 2048
>>>>>Begin Spectral Data<<<<<
341.393	-6.36
341.776	-6.36
342.16	-6.36
342.543	-54.49
342.927	-68.73
343.31	-68.73
343.693	-69.86
344.077	-41.61
344.46	-72.57
344.843	-43.64
345.226	-51.33
345.61	-23.08
345.993	-11.33
346.376	-11.33
346.759	3.14
347.142	44.26
347.525	11.5
347.908	56.24
348.291	78.39
348.674	86.52
349.057	113.42
349.44	133.3
349.823	133.98
350.206	156.58
350.588	232.73
350.971	242.23
351.354	257.14
351.737	278.38
352.119	272.28
352.502	278.61
352.884	320.42
353.267	294.88
353.65	312.73
354.032	323.13
354.414	355.22
354.797	341.66
355.179	364.93
355.562	370.81
355.944	360.19
356.326	371.49
356.709	360.64
357.091	361.32
357.473	371.04
357.855	368.32
358.238	372.62
358.62	350.25
359.002	380.3
359.384	364.71
359.766	351.15
360.148	373.07
360.53	362
360.912	360.64
361.294	372.17
361.676	374.43
362.057	367.87
362.439	373.07
362.821	355.67
363.203	350.92
363.584	370.13
363.966	358.83
364.348	338.72
364.729	370.13
365.111	373.75
365.493	355.67
365.874	360.87
366.256	367.65
366.637	369.91
367.019	367.65
367.4	353.41
367.781	342.11
368.163	364.48
368.544	355.89
368.925	359.96
369.306	336.91
369.688	364.93
370.069	367.87
370.45	370.36
370.831	384.37
371.212	387.31
371.593	363.8
371.974	348.89
372.355	371.26
372.736	376.23
373.117	357.25
373.498	358.61
373.879	347.53
374.26	375.1
374.641	390.02
375.021	386.85
375.402	378.94
375.783	367.87
376.163	394.09
376.544	379.85
376.925	380.98
377.305	406.29
377.686	378.49
378.066	415.55
378.447	397.25
378.827	378.94
379.208	410.58
379.588	392.96
379.968	401.32
380.349	418.04
380.729	426.18
381.109	418.94
381.489	420.3
381.87	430.92
382.25	398.15
382.63	429.34
383.01	426.18
383.39	437.25
383.77	431.15
384.15	431.37
384.53	435.89
384.91	439.51
385.29	434.99
385.67	445.38
386.049	463.91
386.429	466.4
386.809	471.15
387.189	482.9
387.568	474.31
387.948	465.5
388.328	465.04
388.707	467.76
389.087	484.03
389.466	470.69
389.846	500.07
390.225	491.71
390.605	509.11
390.984	482.9
391.363	528.77
391.743	515.21
392.122	517.7
392.501	514.76
392.881	533.07
393.26	556.79
393.639	535.32
394.018	538.04
394.397	544.36
394.776	556.34
395.155	574.65
395.534	557.92
395.913	554.53
396.292	555.89
396.671	572.16
397.05	581.65
397.429	569.22
397.808	587.53
398.186	588.88
398.565	605.38
398.944	636.11
399.323	628.88
399.701	631.14
400.08	627.3
400.458	636.11
400.837	632.5
401.215	652.16
401.594	668.43
401.972	675.21
402.351	691.7
402.729	678.37
403.107	691.03
403.486	712.5
403.864	722.44
404.242	706.62
404.62	752.49
404.999	756.56
405.377	762.66
405.755	790.91
406.133	800.18
406.511	816.9
406.889	842.66
407.267	879.5
407.645	886.73
408.023	882.89
408.401	919.72
408.779	933.05
409.156	955.2
409.534	970.57
409.912	970.79
410.29	1011.02
410.667	1065.25
411.045	1070
411.422	1102.99
411.8	1116.55
412.178	1157
412.555	1176.89
412.933	1186.38
413.31	1219.37
413.687	1278.81
414.065	1282.88
414.442	1323.33
414.819	1354.74
415.197	1359.03
415.574	1400.16
415.951	1380.27
416.328	1439.71
416.705	1479.03
417.082	1492.36
417.46	1529.65
417.837	1575.98
418.214	1602.64
418.591	1593.6
418.967	1627.95
419.344	1639.25
419.721	1703.88
420.098	1685.35
420.475	1755.41
420.852	1773.03
421.228	1780.26
421.605	1824.33
421.982	1822.3
422.358	1863.88
422.735	1910.2
423.111	1874.95
423.488	1933.93
423.864	1985.68
424.241	1993.59
424.617	2009.41
424.994	2034.72
425.37	2056.19
425.746	2061.16
426.123	2105.23
426.499	2136.19
426.875	2180.71
427.251	2217.54
427.627	2283.53
428.003	2280.36
428.379	2358.55
428.756	2359.46
429.132	2384.32
429.507	2401.04
429.883	2476.74
430.259	2502.28
430.635	2506.8
431.011	2535.27
431.387	2603.75
431.763	2634.25
432.138	2646.46
432.514	2705.89
432.89	2726
433.265	2781.37
433.641	2859.11
434.016	2852.78
434.392	2887.81
434.767	2986.33
435.143	2996.96
435.518	2987.92
435.894	3069.5
436.269	3113.56
436.644	3155.82
437.02	3173
437.395	3192.88
437.77	3269.72
438.145	3271.75
438.52	3316.72
438.895	3347.91
439.271	3374.8
439.646	3471.97
440.021	3462.71
440.395	3527.34
440.77	3478.52
441.145	3508.35
441.52	3579.09
441.895	3621.35
442.27	3589.03
442.645	3665.86
443.019	3681.68
443.394	3682.81
443.769	3717.84
444.143	3700.44
444.518	3819.31
444.892	3792.41
445.267	3804.84
445.641	3848.91
446.016	3872.19
446.39	3921.22
446.764	3921
447.139	3883.03
447.513	3980.21
447.887	3935.69
448.262	3965.74
448.636	4017.04
449.01	4041
449.384	4136.59
449.758	4166.19
450.132	4164.16
450.506	4211.84
450.88	4245.51
451.254	4216.36
451.628	4317.6
452.002	4342.23
452.376	4385.85
452.75	4407.31
453.123	4447.99
453.497	4517.14
453.871	4521.43
454.244	4629
454.618	4674.2
454.992	4751.03
455.365	4704.71
455.739	4862.67
456.112	4920.52
456.486	4948.77
456.859	4984.25
457.232	5106.5
457.606	5113.74
457.979	5167.97
458.352	5292.04
458.725	5289.78
459.099	5324.58
459.472	5441.18
459.845	5530.45
460.218	5564.35
460.591	5587.4
460.964	5678.92
461.337	5741.52
461.71	5865.13
462.083	5914.84
462.456	5984
462.829	6007.05
463.201	6057.89
463.574	6139.92
463.947	6195.74
464.32	6300.15
464.692	6391.89
465.065	6442.06
465.438	6494.26
465.81	6641.38
466.183	6695.84
466.555	6830.98
466.928	6896.97
467.3	6832.79
467.672	7046.34
468.045	7184.42
468.417	7230.97
468.789	7254.02
469.161	7388.25
469.534	7475.71
469.906	7692.42
470.278	7677.74
470.65	7745.3
471.022	7941.23
471.394	8126.76
471.766	8163.6
472.138	8217.61
472.51	8472.29
472.882	8588.67
473.253	8654.89
473.625	8742.34
473.997	8892.62
474.369	8983.24
474.74	9101.88
475.112	9297.81
475.484	9467.97
475.855	9566.73
476.227	9757.23
476.598	10042.87
476.97	10029.09
477.341	10212.36
477.713	10415.97
478.084	10460.94
478.455	10730.09
478.827	10848.95
479.198	11111.09
479.569	11159.9
479.94	11458.65
480.311	11585.66
480.682	11855.03
481.053	12095.92
481.424	12306.99
481.795	12435.35
482.166	12554.22
482.537	12686.19
482.908	13013.87
483.279	13134.54
483.65	13371.37
484.021	13602.78
484.391	13730.23
484.762	13881.87
485.133	13977.68
485.503	14261.52
485.874	14542.41
486.244	14664.9
486.615	14865.57
486.985	15053.36
487.356	15343.3
487.726	15414.03
488.097	15770.18
488.467	15863.74
488.837	16123.16
489.207	16314.8
489.578	16504.17
489.948	16662.81
490.318	17009.92
490.688	16912.75
491.058	17391.83
491.428	17499.4
491.798	17669.79
492.168	17948.65
492.538	18051.7
492.908	18260.28
493.278	18491.24
493.648	18545.47
494.017	18779.14
494.387	18918.8
494.757	19066.59
495.126	19156.98
495.496	19267.94
495.866	19498.22
496.235	19667.93
496.605	19824.08
496.974	19986.11
497.344	20176.84
497.713	20232.89
498.082	20467
498.452	20644.17
498.821	20682.14
499.19	20832.19
499.559	21034.22
499.928	21153.99
500.298	21270.15
500.667	21505.17
501.036	21409.13
501.405	21740.42
501.774	21648.22
502.143	21911.03
502.512	22033.52
502.88	22268.09
503.249	22238.71
503.618	22522.32
503.987	22582.2
504.356	22839.15
504.724	22882.08
505.093	22966.15
505.462	23014.28
505.83	23304.67
506.199	23501.05
506.567	23642.51
506.936	23551.67
507.304	23897.87
507.672	24061.49
508.041	24148.26
508.409	24343.51
508.777	24516.62
509.145	24731.52
509.514	24754.12
509.882	24960.22
510.25	24947.56
510.618	25282.47
510.986	25414.9
511.354	25476.59
511.722	25780.54
512.09	25963.81
512.458	26000.19
512.826	26176.68
513.193	26374.42
513.561	26432.72
513.929	26684.24
514.297	26858.02
514.664	27047.62
515.032	27122.42
515.4	27356.31
515.767	27387.95
516.135	27594.95
516.502	27495.07
516.869	28071.78
517.237	28095.05
517.604	27942.29
517.972	28365.33
518.339	28508.37
518.706	28668.82
519.073	28893
519.44	28914.01
519.808	29390.16
520.175	29400.33
520.542	29672.41
520.909	29889.36
521.276	29906.98
521.643	30282.79
522.009	30361.89
522.376	30639.84
522.743	30773.4
523.11	31054.07
523.477	31447.28
523.843	31506.71
524.21	31644.79
524.577	31988.96
524.943	32116.42
525.31	32453.36
525.676	32629.17
526.043	32882.27
526.409	33042.72
526.776	33270.51
527.142	33451.3
527.508	33472.54
527.874	33927.44
528.241	34101.67
528.607	34196.81
528.973	34486.75
529.339	34584.6
529.705	34907.08
530.071	35092.83
530.437	35247.41
530.803	35480.62
531.169	35675.87
531.535	35680.39
531.901	35844.45
532.267	36011
532.632	36285.12
532.998	36459.8
533.364	36512.23
533.73	36708.16
534.095	37086
534.461	36998.55
534.826	37326.22
535.192	37468.14
535.557	37631.75
535.923	37587.23
536.288	37742.03
536.653	37860.67
537.019	37849.37
537.384	38222.24
537.749	38426.98
538.114	38561.9
538.479	38498.85
538.845	38743.59
539.21	38725.06
539.575	38884.15
539.94	39114.2
540.305	39327.75
540.67	39227.64
541.034	39367.07
541.399	39662.43
541.764	39779.49
542.129	39958.24
542.494	40071.01
542.858	40351.45
543.223	40316.65
543.587	40558.23
543.952	40445.91
544.316	40703.76
544.681	40604.1
545.045	41005.67
545.41	41241.83
545.774	41280.47
546.138	41223.75
546.503	41350.97
546.867	41431.65
547.231	41791.64
547.595	41778.31
547.959	41965.2
548.324	41994.35
548.688	42185.3
549.052	42291.74
549.416	42372.64
549.779	42558.63
550.143	42649.02
550.507	43042.23
550.871	42938.05
551.235	43014.21
551.599	43325.61
551.962	43427.76
552.326	43689.67
552.689	43755.21
553.053	43697.35
553.417	43719.5
553.78	44287.17
554.143	44048.53
554.507	44288.52
554.87	44485.13
555.234	44815.52
555.597	44611.23
555.96	44766.25
556.323	45058.67
556.686	45135.96
557.05	45525.55
557.413	45494.14
557.776	45568.27
558.139	45955.83
558.502	45817.52
558.865	46072.43
559.228	46289.6
559.59	46434.68
559.953	46463.83
560.316	46768.01
560.679	46887.33
561.041	47040.99
561.404	47255
561.767	47414.09
562.129	47303.81
562.492	47898.15
562.854	47737.7
563.217	47706.51
563.579	47938.82
563.941	48302.66
564.304	48321.19
564.666	48594.63
565.028	48645.7
565.39	48732.7
565.753	49005.69
566.115	49163.65
566.477	49435.51
566.839	49412.46
567.201	49696.29
567.563	49791.66
567.925	49899
568.287	50000.92
568.648	50100.35
569.01	50185.09
569.372	50465.54
569.734	50448.81
570.095	50672.54
570.457	50788.01
570.819	50769.03
571.18	50825.98
571.542	51033.43
571.903	51199.3
572.265	51306.42
572.626	51442.01
572.987	51426.19
573.349	51623.47
573.71	51795.22
574.071	51863.69
574.432	51868.21
574.794	52123.12
575.155	52082.22
575.516	51959.06
575.877	52182.55
576.238	52262.33
576.599	52392.94
576.96	52482.43
577.32	52469.78
577.681	52598.59
578.042	52634.97
578.403	52630.9
578.763	52721.3
579.124	52808.53
579.485	52965.13
579.845	53077.22
580.206	53030.22
580.566	53055.07
580.927	53035.64
581.287	53295.29
581.648	53158.35
582.008	53296.88
582.368	53264.56
582.728	53320.6
583.089	53225.24
583.449	53355.63
583.809	53369.87
584.169	53468.4
584.529	53447.83
584.889	53654.61
585.249	53505.23
585.609	53441.05
585.969	53582.29
586.329	53569.64
586.688	53587.26
587.048	53556.3
587.408	53570.54
587.768	53549.3
588.127	53674.49
588.487	53551.78
588.846	53789.97
589.206	53615.74
589.565	53528.06
589.925	53743.42
590.284	53649.86
590.643	53757.88
591.003	53905
591.362	54003.52
591.721	53859.12
592.08	53845.56
592.44	53954.49
592.799	53959
593.158	53923.98
593.517	53971.21
593.876	54013.69
594.235	53907.71
594.593	53972.79
594.952	54035.61
595.311	53954.94
595.67	54006.01
596.029	54247.13
596.387	54265.21
596.746	54261.6
597.104	54115.39
597.463	54120.13
597.822	54384.76
598.18	54161.26
598.538	54135.5
598.897	54323.06
599.255	54047.36
599.613	54568.71
599.972	54286.91
600.33	54410.74
600.688	54401.93
601.046	54451.87
601.404	54515.83
601.762	54494.13
602.12	54558.76
602.478	54611.87
602.836	54616.84
603.194	54463.17
603.552	54552.66
603.91	54474.25
604.268	54644.86
604.625	54533.68
604.983	54730.74
605.341	54595.82
605.698	54610.97
606.056	54723.96
606.413	54753.56
606.771	54815.71
607.128	54800.11
607.485	54725.31
607.843	54761.24
608.2	54875.59
608.557	55003.95
608.914	54854.35
609.272	55029.94
609.629	55067.22
609.986	55195.81
610.343	54987
610.7	55176.37
611.057	55165.98
611.414	55096.6
611.771	55187.22
612.127	55266.99
612.484	55289.59
612.841	55350.38
613.198	55291.63
613.554	55323.94
613.911	55365.52
614.267	55298.18
614.624	55398.97
614.98	55363.49
615.337	55487.78
615.693	55448.46
616.05	55395.8
616.406	55593.09
616.762	55491.62
617.118	55560.09
617.475	55476.71
617.831	55556.03
618.187	55582.47
618.543	55580.43
618.899	55783.14
619.255	55686.64
619.611	55620.88
619.967	55790.14
620.323	55838.73
620.678	55699.07
621.034	55705.63
621.39	55732.52
621.746	55639.19
622.101	55873.76
622.457	55686.87
622.812	55785.62
623.168	55779.75
623.523	55786.08
623.879	55936.58
624.234	55673.31
624.589	55872.4
624.945	55806.41
625.3	55934.77
625.655	55819.07
626.01	55812.74
626.365	55882.8
626.72	55768.9
627.075	55789.24
627.43	55812.74
627.785	55841.67
628.14	55854.77
628.495	55826.53
628.85	55811.61
629.205	55715.34
629.559	55888.22
629.914	55707.66
630.269	55787.21
630.623	55719.41
630.978	55755.12
631.332	55814.1
631.687	55850.93
632.041	55712.41
632.396	55842.35
632.75	55638.96
633.104	55766.64
633.459	55615.46
633.813	55664.27
634.167	55538.17
634.521	55646.19
634.875	55644.38
635.229	55601
635.583	55553.54
635.937	55453.2
636.291	55487.78
636.645	55558.28
636.999	55440.77
637.352	55452.52
637.706	55313.09
638.06	55470.83
638.413	55382.92
638.767	55389.02
639.121	55410.04
639.474	55289.59
639.828	55337.73
640.181	55370.72
640.534	55376.37
640.888	55250.72
641.241	55187
641.594	55147.67
641.947	55360.78
642.301	55285.52
642.654	55165.75
643.007	55299.08
643.36	55240.78
643.713	55151.74
644.066	55198.07
644.419	55129.37
644.771	54844.18
645.124	54655.94
645.477	54625.43
645.83	54518.31
646.182	54350.41
646.535	54247.36
646.888	54285.1
647.24	54253.01
647.593	54372.78
647.945	54388.37
648.298	54181.37
648.65	54120.13
649.002	54068.61
649.355	54156.06
649.707	54119.23
650.059	54260.01
650.411	54613.9
650.763	54702.71
651.115	54919.43
651.467	54885.08
651.819	54904.29
652.171	54737.97
652.523	54733.45
652.875	54709.95
653.227	54596.28
653.578	54769.83
653.93	54701.13
654.282	54592.89
654.633	54550.63
654.985	54554.47
655.337	54583.85
655.688	54575.71
656.039	54716.73
656.391	54481.48
656.742	54540.46
657.094	54535.26
657.445	54641.92
657.796	54508.37
658.147	54472.89
658.498	54461.59
658.849	54622.49
659.2	54468.82
659.551	54390.18
659.902	54518.76
660.253	54441.03
660.604	54535.26
660.955	54386.79
661.306	54397.19
661.656	54392.67
662.007	54318.54
662.358	54360.35
662.708	54272.89
663.059	54282.61
663.409	54164.88
663.76	54344.08
664.11	54333.91
664.461	54363.51
664.811	54399.9
665.161	54294.82
665.511	54260.92
665.862	54244.65
666.212	54330.52
666.562	54333.01
666.912	54283.97
667.262	54232.9
667.612	54239.9
667.962	54250.3
668.312	54218.89
668.662	54292.1
669.011	54188.15
669.361	54097.98
669.711	54119
670.06	54049.62
670.41	54038.1
670.76	53972.34
671.109	54090.3
671.459	54005.33
671.808	53969.17
672.157	53996.74
672.507	53786.58
672.856	53752.68
673.205	53870.87
673.554	53842.62
673.904	53749.29
674.253	53961.49
674.602	53817.54
674.951	53349.3
675.3	53194.73
675.649	53718.79
675.998	53701.38
676.346	53601.73
676.695	53702.51
677.044	53572.8
677.393	53648.05
677.741	53585.46
678.09	53515.4
678.438	53434.95
678.787	53462.75
679.135	53397.89
679.484	53206.93
679.832	53262.07
680.181	53134.62
680.529	53320.83
680.877	53147.05
681.225	53079.48
681.573	53229.31
681.922	53056.2
682.27	52964
682.618	52990.44
682.966	52957.22
683.314	52916.55
683.661	52869.77
684.009	52736.66
684.357	52643.79
684.705	52480.85
685.053	52638.59
685.4	52480.63
685.748	52294.42
686.095	52467.74
686.443	52196.11
686.79	52146.17
687.138	52153.18
687.485	52251.03
687.832	52015.33
688.18	52081.09
688.527	51838.16
688.874	51845.61
689.221	51794.77
689.568	51715.45
689.915	51625.28
690.262	51582.34
690.609	51448.34
690.956	51479.97
691.303	51366.53
691.65	51197.5
691.997	51229.81
692.344	50963.15
692.69	50968.8
693.037	50891.06
693.383	50584.4
693.73	50773.55
694.077	50644.97
694.423	50475.25
694.769	50462.6
695.116	50335.82
695.462	50309.16
695.808	50067.81
696.155	50309.61
696.501	49971.54
696.847	49993.23
697.193	49681.83
697.539	49899.22
697.885	49539.69
698.231	49464.21
698.577	49426.47
698.923	49418.33
699.269	49269.86
699.614	49064.9
699.96	49055.41
700.306	49118
700.651	48824
700.997	48716.2
701.342	48730.22
701.688	48630.56
702.033	48545.14
702.379	48548.07
702.724	48377.68
703.069	48427.17
703.415	48058.37
703.76	48019.27
704.105	48058.6
704.45	47831.26
704.795	47645.95
705.14	47635.56
705.485	47538.16
705.83	47411.15
706.175	47481.44
706.52	47219.97
706.865	47197.15
707.209	47187.21
707.554	47010.94
707.899	47106.76
708.243	46892.52
708.588	46795.13
708.932	46482.59
709.277	46545.87
709.621	46537.96
709.966	46427.9
710.31	46419.99
710.654	46081.25
710.998	46063.39
711.342	46135.93
711.687	45918.76
712.031	45954.02
712.375	45756.73
712.719	45835.83
713.063	45820.69
713.407	45655.27
713.75	45540.24
714.094	45472.9
714.438	45439.23
714.782	45384.77
715.125	45216.86
715.469	45251.89
715.812	44970.31
716.156	44756.76
716.499	44763.31
716.843	44804.9
717.186	44720.38
717.53	44723.54
717.873	44835.4
718.216	44591.34
718.559	44433.61
718.902	44179.6
719.246	44455.75
719.589	43966.95
719.932	44019.83
720.275	44059.38
720.617	44005.37
720.96	43777.35
721.303	43877.91
721.646	43860.97
721.989	43588.66
722.331	43754.53
722.674	43644.02
723.016	43743
723.359	43485.61
723.701	43434.99
724.044	43269.12
724.386	43054.88
724.729	43303.24
725.071	42994.32
725.413	43181.66
725.755	43008.56
726.097	42850.37
726.439	42719.98
726.782	42761.56
727.124	42861.67
727.465	42684.95
727.807	42578.97
728.149	42548.23
728.491	42441.34
728.833	42468.01
729.175	42308.01
729.516	42350.04
729.858	42319.99
730.199	42290.61
730.541	42190.05
730.882	42002.26
731.224	42181.91
731.565	41973.11
731.906	41926.78
732.248	42011.52
732.589	41860.34
732.93	41617.41
733.271	41675.49
733.612	41656.73
733.953	41802.26
734.294	41572.21
734.635	41566.56
734.976	41461.03
735.317	41247.93
735.658	41298.77
735.999	41209.06
736.339	41060.14
736.68	41174.48
737.021	41109.17
737.361	40951.21
737.702	41126.57
738.042	40999.8
738.383	40819.92
738.723	41001.38
739.063	40814.94
739.404	40815.85
739.744	40607.04
740.084	40510.54
740.424	40672.35
740.764	40592.8
741.104	40546.7
741.444	40387.84
741.784	40404.33
742.124	40395.75
742.464	40354.39
742.804	40232.13
743.143	40249.76
743.483	40129.09
743.823	39983.55
744.162	40070.56
744.502	40025.36
744.841	39831.01
745.181	39982.88
745.52	39864.91
745.86	39826.72
746.199	39707.18
746.538	39628.99
746.877	39824.69
747.216	39684.8
747.556	39565.94
747.895	39527.97
748.234	39275.32
748.573	39270.58
748.911	39240.52
749.25	39395.77
749.589	39041.43
749.928	39154.87
750.267	39132.73
750.605	38932.96
750.944	38959.4
751.283	38654.1
751.621	38731.16
751.96	38722.12
752.298	38535
752.636	38575.45
752.975	38381.56
753.313	38259.3
753.651	38366.19
