Data from White_reflection_standard_FLMS001491_001.txt Node
Date: Tue Feb 07 10:31:55 GMT 2017
User: dcchb
Spectrometer: FLMS00149
Trigger mode: 0
Integration Time (sec): 2.000000E-2
Scans to average: 10
Electric dark correction enabled: true
Nonlinearity correction enabled: false
Boxcar width: 0
XAxis mode: Wavelengths
Number of Pixels in Spectrum: 2048
>>>>>Begin Spectral Data<<<<<
341.393	16.88
341.776	16.88
342.16	16.88
342.543	-67.64
342.927	-79.62
343.31	-63.12
343.693	-66.74
344.077	-45.04
344.46	-72.16
344.843	-40.07
345.226	-39.17
345.61	-25.61
345.993	-24.25
346.376	-3.69
346.759	16.2
347.142	27.5
347.525	29.99
347.908	63.2
348.291	61.4
348.674	76.09
349.057	105.46
349.44	119.7
349.823	136.65
350.206	171.22
350.588	260.71
350.971	263.2
351.354	281.96
351.737	283.99
352.119	292.13
352.502	313.59
352.884	298.45
353.267	325.57
353.65	337.32
354.032	340.94
354.414	363.08
354.797	363.76
355.179	375.06
355.562	366.93
355.944	382.29
356.326	384.78
356.709	400.14
357.091	403.31
357.473	385
357.855	407.83
358.238	407.83
358.62	392.69
359.002	415.96
359.384	408.28
359.766	418.68
360.148	422.07
360.53	424.55
360.912	425.91
361.294	388.39
361.676	398.34
362.057	416.64
362.439	419.58
362.821	416.42
363.203	415.74
363.584	386.36
363.966	400.37
364.348	395.17
364.729	416.19
365.111	407.6
365.493	421.61
365.874	403.08
366.256	415.06
366.637	434.95
367.019	412.35
367.4	403.31
367.781	426.36
368.163	414.83
368.544	403.08
368.925	444.44
369.306	440.82
369.688	436.53
370.069	453.02
370.45	432.46
370.831	423.2
371.212	443.53
371.593	419.13
371.974	439.24
372.355	458.67
372.736	462.29
373.117	456.64
373.498	448.05
373.879	448.28
374.26	442.18
374.641	417.09
375.021	439.69
375.402	463.65
375.783	479.24
376.163	506.36
376.544	501.61
376.925	485.34
377.305	486.47
377.686	483.98
378.066	544.32
378.447	508.16
378.827	513.81
379.208	507.94
379.588	537.99
379.968	517.88
380.349	515.17
380.729	529.63
381.109	549.97
381.489	540.93
381.87	532.8
382.25	545.68
382.63	567.82
383.01	568.5
383.39	575.96
383.77	580.71
384.15	568.05
384.53	572.12
384.91	580.93
385.29	596.07
385.67	611.21
386.049	617.09
386.429	642.62
386.809	646.47
387.189	629.29
387.568	635.84
387.948	625.22
388.328	646.01
388.707	665.45
389.087	647.14
389.466	676.75
389.846	691.21
390.225	675.84
390.605	709.06
390.984	694.6
391.363	709.74
391.743	708.84
392.122	733.02
392.501	741.38
392.881	749.29
393.26	754.71
393.639	775.28
394.018	764.66
394.397	767.14
394.776	782.96
395.155	810.53
395.534	806.91
395.913	825.9
396.292	825.44
396.671	795.61
397.05	807.59
397.429	837.87
397.808	865.67
398.186	867.48
398.565	847.82
398.944	866.35
399.323	887.14
399.701	881.49
400.08	893.92
400.458	898.66
400.837	933.46
401.215	923.75
401.594	946.12
401.972	935.27
402.351	943.86
402.729	951.32
403.107	970.07
403.486	990.19
403.864	1031.09
404.242	1002.16
404.62	1030.18
404.999	1041.94
405.377	1044.42
405.755	1061.6
406.133	1097.08
406.511	1063.86
406.889	1079.45
407.267	1101.37
407.645	1121.26
408.023	1162.38
408.401	1165.77
408.779	1174.59
409.156	1194.25
409.534	1192.89
409.912	1215.49
410.29	1226.34
410.667	1255.04
411.045	1302.04
411.422	1263.4
411.8	1305.66
412.178	1335.94
412.555	1345.66
412.933	1345.43
413.31	1383.62
413.687	1389.27
414.065	1411.87
414.442	1420.23
414.819	1449.61
415.197	1468.37
415.574	1478.31
415.951	1495.71
416.328	1517.18
416.705	1509.95
417.082	1542.71
417.46	1599.44
417.837	1580.68
418.214	1584.52
418.591	1607.34
418.967	1611.19
419.344	1652.77
419.721	1647.12
420.098	1670.17
420.475	1689.15
420.852	1704.52
421.228	1723.5
421.605	1732.31
421.982	1751.75
422.358	1783.16
422.735	1802.59
423.111	1828.58
423.488	1816.15
423.864	1881.01
424.241	1907.9
424.617	1907.45
424.994	1925.08
425.37	1927.34
425.746	1961.23
426.123	1983.15
426.499	2029.25
426.875	2026.54
427.251	2062.25
427.627	2114.9
428.003	2149.25
428.379	2175.69
428.756	2191.06
429.132	2221.11
429.507	2241.45
429.883	2239.42
430.259	2319.87
430.635	2343.14
431.011	2337.04
431.387	2396.48
431.763	2459.75
432.138	2461.33
432.514	2467.21
432.89	2523.48
433.265	2597.83
433.641	2594.89
434.016	2620.2
434.392	2664.27
434.767	2740.65
435.143	2727.54
435.518	2736.35
435.894	2811.15
436.269	2808.44
436.644	2885.05
437.02	2910.59
437.395	2907.2
437.77	2946.74
438.145	2976.35
438.52	3047.53
438.895	3066.74
439.271	3041.88
439.646	3146.97
440.021	3164.82
440.395	3195.1
440.77	3156.91
441.145	3209.56
441.52	3260.63
441.895	3240.97
442.27	3327.53
442.645	3288.66
443.019	3391.93
443.394	3386.51
443.769	3431.7
444.143	3393.51
444.518	3478.03
444.892	3479.39
445.267	3479.39
445.641	3499.5
446.016	3543.34
446.39	3572.72
446.764	3652.71
447.139	3608.42
447.513	3687.74
447.887	3693.17
448.262	3708.98
448.636	3715.31
449.01	3809.32
449.384	3817.46
449.758	3871.69
450.132	3940.39
450.506	3931.8
450.88	3928.19
451.254	3921.86
451.628	4018.81
452.002	4075.3
452.376	4103.78
452.75	4138.13
453.123	4175.19
453.497	4231
453.871	4307.61
454.244	4358.68
454.618	4396.65
454.992	4446.59
455.365	4465.12
455.739	4586.48
456.112	4656.53
456.486	4660.6
456.859	4721.84
457.232	4824.89
457.606	4798.67
457.979	4851.1
458.352	4990.76
458.725	5062.62
459.099	5097.87
459.472	5171.09
459.845	5234.14
460.218	5249.96
460.591	5328.15
460.964	5339.68
461.337	5503.74
461.71	5565.43
462.083	5588.71
462.456	5694.02
462.829	5673
463.201	5767.01
463.574	5822.6
463.947	5920
464.32	6026.44
464.692	6080.22
465.065	6168.81
465.438	6217.62
465.81	6353.21
466.183	6360.67
466.555	6508.01
466.928	6526.54
467.3	6532.86
467.672	6704.16
468.045	6888.79
468.417	6867.09
468.789	6929.46
469.161	7016.69
469.534	7158.61
469.906	7365.84
470.278	7393.41
470.65	7431.37
471.022	7527.19
471.394	7764.25
471.766	7887.18
472.138	7953.62
472.51	8076.33
472.882	8248.98
473.253	8306.6
473.625	8441.97
473.997	8584.34
474.369	8692.13
474.74	8750.89
475.112	9009.86
475.484	9143.42
475.855	9294.83
476.227	9397.2
476.598	9603.29
476.97	9683.74
477.341	9878.77
477.713	10111.98
478.084	10103.17
478.455	10362.59
478.827	10395.14
479.198	10852.75
479.569	10838.06
479.94	11096.13
480.311	11137.26
480.682	11513.75
481.053	11708.55
481.424	11954.64
481.795	11982.21
482.166	12261.08
482.537	12341.07
482.908	12709.65
483.279	12858.8
483.65	13049.53
484.021	13324.78
484.391	13483.64
484.762	13679.57
485.133	13761.38
485.503	13902.84
485.874	14206.11
486.244	14339.67
486.615	14604.29
486.985	14837.51
487.356	15084.73
487.726	15155.92
488.097	15527.43
488.467	15590.03
488.837	15865.95
489.207	16036.34
489.578	16303.23
489.948	16493.06
490.318	16604.24
490.688	16820.96
491.058	17043.1
491.428	17237.89
491.798	17482.86
492.168	17757.43
492.538	17840.36
492.908	18122.62
493.278	18310.63
493.648	18290.07
494.017	18622.94
494.387	18667.46
494.757	18923.05
495.126	19105.64
495.496	19122.14
495.866	19418.18
496.235	19517.61
496.605	19780.88
496.974	19871.27
497.344	20062.9
497.713	20242.79
498.082	20308.55
498.452	20552.61
498.821	20770
499.19	20738.14
499.559	20886.39
499.928	21104.01
500.298	21297.45
500.667	21427.84
501.036	21490.44
501.405	21813.37
501.774	21788.96
502.143	21951.67
502.512	22068.5
502.88	22371.77
503.249	22382.39
503.618	22612.89
503.987	22603.18
504.356	22806.11
504.724	22974.69
505.093	23108.47
505.462	23247.68
505.83	23336.94
506.199	23578.52
506.567	23818.96
506.936	23897.15
507.304	24195
507.672	24307.99
508.041	24413.52
508.409	24597.7
508.777	24843.8
509.145	25059.38
509.514	25189.78
509.882	25275.87
510.25	25345.7
510.618	25644
510.986	25581.63
511.354	25885.58
511.722	26166.02
512.09	26411.21
512.458	26385.68
512.826	26720.58
513.193	26779.56
513.561	26874.48
513.929	27156.73
514.297	27370.74
514.664	27695.25
515.032	27880.78
515.4	27910.38
515.767	28041.9
516.135	28215.23
516.502	28218.62
516.869	28742.22
517.237	28866.29
517.604	28762.79
517.972	29191.25
518.339	29417.91
518.706	29584.01
519.073	29639.83
519.44	30032.59
519.808	30240.72
520.175	30315.06
520.542	30733.13
520.909	30833.69
521.276	30814.26
521.643	31181.48
522.009	31491.76
522.376	31690.62
522.743	31980.78
523.11	32237.95
523.477	32494.22
523.843	32693.53
524.21	33024.37
524.577	33292.39
524.943	33349.56
525.31	33604.02
525.676	33818.48
526.043	34106.6
526.409	34276.54
526.776	34659.58
527.142	34915.62
527.508	35056.41
527.874	35325.33
528.241	35566.68
528.607	35577.98
528.973	35894.35
529.339	36051.86
529.705	36237.39
530.071	36620.21
530.437	36745.4
530.803	37012.74
531.169	37257.93
531.535	37231.72
531.901	37381.77
532.267	37604.59
532.632	37870.8
532.998	37933.4
533.364	38240.28
533.73	38230.56
534.095	38615.64
534.461	38578.12
534.826	38922.52
535.192	39044.55
535.557	39296.98
535.923	39278.22
536.288	39530.64
536.653	39884.3
537.019	39696.29
537.384	39861.03
537.749	40212.43
538.114	40256.27
538.479	40433.22
538.845	40652.42
539.21	40596.15
539.575	40811.29
539.94	40905.97
540.305	41085.18
540.67	41131.73
541.034	41241.78
541.399	41540.53
541.764	41425.05
542.129	41735.33
542.494	41962.67
542.858	42079.95
543.223	42098.03
543.587	42317.91
543.952	42223.68
544.316	42480.17
544.681	42461.19
545.045	42636.77
545.41	42944.11
545.774	42994.28
546.138	43119.02
546.503	43340.03
546.867	43301.39
547.231	43660.02
547.595	43865.44
547.959	43869.28
548.324	43970.07
548.688	43996.29
549.052	44229.95
549.416	44411.87
549.779	44303.17
550.143	44544.07
550.507	44874.91
550.871	44934.57
551.235	44895.02
551.599	45335.91
551.962	45433.54
552.326	45438.73
552.689	45732.74
553.053	45714.21
553.417	45733.87
553.78	46269
554.143	46083.46
554.507	46348.77
554.87	46548.31
555.234	46881.63
555.597	46612.04
555.96	46951.92
556.323	47105.36
556.686	47111.91
557.05	47405.46
557.413	47610.88
557.776	47749.86
558.139	47946.47
558.502	48046.12
558.865	48162.5
559.228	48348.49
559.59	48585.09
559.953	48567.47
560.316	49062.82
560.679	49105.76
561.041	49206.09
561.404	49411.74
561.767	49614.9
562.129	49488.12
562.492	50004.49
562.854	50045.39
563.217	49914.32
563.579	50175.79
563.941	50476.57
564.304	50589.56
564.666	50727.86
565.028	50787.75
565.39	50993.84
565.753	51180.96
566.115	51224.12
566.477	51372.82
566.839	51447.84
567.201	51694.84
567.563	51679.47
567.925	51978.9
568.287	52014.83
568.648	52133.93
569.01	52249.63
569.372	52447.14
569.734	52335.73
570.095	52582.28
570.457	52740.24
570.819	52785.43
571.18	52843.96
571.542	52998.54
571.903	53064.97
572.265	53128.7
572.626	53307.91
572.987	53383.84
573.349	53384.74
573.71	53515.81
574.071	53595.36
574.432	53648.24
574.794	53789.25
575.155	53894.56
575.516	53704.28
575.877	53912.41
576.238	53977.04
576.599	54119.64
576.96	54061.56
577.32	54207.32
577.681	54255.23
578.042	54353.98
578.403	54315.34
578.763	54378.39
579.124	54343.13
579.485	54485.28
579.845	54521.89
580.206	54484.6
580.566	54496.12
580.927	54531.83
581.287	54623.58
581.648	54530.25
582.008	54716
582.368	54659.06
582.728	54665.84
583.089	54679.85
583.449	54699.28
583.809	54808.43
584.169	54801.65
584.529	54652.73
584.889	54959.61
585.249	54760.52
585.609	54719.17
585.969	54864.25
586.329	54777.92
586.688	54803.46
587.048	54772.95
587.408	54656.8
587.768	54869.9
588.127	54814.99
588.487	54814.99
588.846	54900.41
589.206	54802.1
589.565	54737.93
589.925	54934.08
590.284	54771.82
590.643	54766.62
591.003	54911.71
591.362	54943.34
591.721	54860.86
592.08	54887.98
592.44	55043.23
592.799	54981.53
593.158	54984.47
593.517	54913.97
593.876	54974.08
594.235	54984.7
594.593	54946.73
594.952	54996.22
595.311	54948.77
595.67	55012.49
596.029	55197.8
596.387	55201.87
596.746	55212.49
597.104	55074.64
597.463	55101.76
597.822	55209.78
598.18	55151.7
598.538	55070.57
598.897	55265.82
599.255	55047.52
599.613	55394.63
599.972	55167.29
600.33	55365.48
600.688	55211.36
601.046	55362.99
601.404	55442.31
601.762	55342.66
602.12	55501.75
602.478	55430.34
602.836	55540.84
603.194	55348.53
603.552	55454.29
603.91	55357.34
604.268	55537.23
604.625	55461.07
604.983	55595.3
605.341	55419.94
605.698	55633.49
606.056	55643.21
606.413	55547.62
606.771	55731.57
607.128	55734.51
607.485	55603.21
607.843	55650.22
608.2	55837.56
608.557	55880.95
608.914	55792.59
609.272	55895.18
609.629	55952.81
609.986	56066.03
610.343	55922.53
610.7	56135.4
611.057	56068.74
611.414	55984.67
611.771	56018.12
612.127	56141.28
612.484	56125.23
612.841	56223.99
613.198	56219.92
613.554	56124.56
613.911	56348.5
614.267	56325.23
614.624	56278.9
614.98	56236.42
615.337	56406.36
615.693	56303.76
616.05	56424.43
616.406	56428.28
616.762	56390.54
617.118	56373.14
617.475	56358.45
617.831	56432.57
618.187	56420.14
618.543	56514.83
618.899	56670.76
619.255	56586.01
619.611	56510.99
619.967	56605.45
620.323	56659
620.678	56621.72
621.034	56522.51
621.39	56496.97
621.746	56464.89
622.101	56762.96
622.457	56535.84
622.812	56659.91
623.168	56625.79
623.523	56613.81
623.879	56731.77
624.234	56533.13
624.589	56634.6
624.945	56623.07
625.3	56656.97
625.655	56562.28
626.01	56681.15
626.365	56686.12
626.72	56581.72
627.075	56612.9
627.43	56576.52
627.785	56529.52
628.14	56587.37
628.495	56631.43
628.85	56502.85
629.205	56413.36
629.559	56662.62
629.914	56434.83
630.269	56514.83
630.623	56405.23
630.978	56428.73
631.332	56449.52
631.687	56468.73
632.041	56411.78
632.396	56359.35
632.75	56234.83
633.104	56313.7
633.459	56226.02
633.813	56198.68
634.167	56178.34
634.521	56119.81
634.875	56211.11
635.229	56156.19
635.583	56014.73
635.937	56016.99
636.291	55938.35
636.645	55959.81
636.999	55873.49
637.352	55903.32
637.706	55834.39
638.06	55971.79
638.413	55836.65
638.767	55807.73
639.121	55800.04
639.474	55717.33
639.828	55648.64
640.181	55699.71
640.534	55683.44
640.888	55501.52
641.241	55476.21
641.594	55493.84
641.947	55506.72
642.301	55437.34
642.654	55460.17
643.007	55404.35
643.36	55317.8
643.713	55311.02
644.066	55407.96
644.419	55164.13
644.771	55017.24
645.124	54737.02
645.477	54697.25
645.83	54468.55
646.182	54432.85
646.535	54200.31
646.888	54325.51
647.24	54165.51
647.593	54365.28
647.945	54239.18
648.298	54095.46
648.65	54109.24
649.002	54025.63
649.355	54096.13
649.707	54110.6
650.059	54223.81
650.411	54477.14
650.763	54492.51
651.115	54769.11
651.467	54654.09
651.819	54644.59
652.171	54558.27
652.523	54511.26
652.875	54491.6
653.227	54398.27
653.578	54593.07
653.93	54440.76
654.282	54338.84
654.633	54243.47
654.985	54305.39
655.337	54287.09
655.688	54256.81
656.039	54298.39
656.391	54108.79
656.742	54094.78
657.094	54163.93
657.445	54250.93
657.796	54190.59
658.147	54020.43
658.498	54096.81
658.849	54102.01
659.2	54055.91
659.551	53950.15
659.902	54070.82
660.253	53958.51
660.604	54058.17
660.955	53909.7
661.306	53997.38
661.656	53853.88
662.007	53969.58
662.358	53893.2
662.708	53862.47
663.059	53794.67
663.409	53606.66
663.76	53883.26
664.11	53852.07
664.461	53885.07
664.811	53750.83
665.161	53754
665.511	53718.52
665.862	53638.29
666.212	53845.07
666.562	53758.29
666.912	53659.54
667.262	53665.86
667.612	53615.92
667.962	53580.44
668.312	53568.92
668.662	53701.12
669.011	53549.48
669.361	53510.61
669.711	53447.56
670.06	53470.61
670.41	53365.08
670.76	53330.73
671.109	53466.77
671.459	53310.39
671.808	53374.57
672.157	53379.09
672.507	53187.46
672.856	53268.81
673.205	53189.04
673.554	53356.49
673.904	53191.75
674.253	53281.92
674.602	53227.23
674.951	52756.51
675.3	52551.54
675.649	53101.13
675.998	53067.01
676.346	53017.74
676.695	53162.37
677.044	52955.6
677.393	52921.25
677.741	53078.76
678.09	52901.36
678.438	52926
678.787	52980.68
679.135	52909.5
679.484	52656.4
679.832	52730.97
680.181	52573.24
680.529	52624.31
680.877	52529.17
681.225	52484.65
681.573	52742.5
681.922	52418.44
682.27	52375.28
682.618	52464.76
682.966	52355.84
683.314	52343.19
683.661	52199.46
684.009	52023.87
684.357	51877.89
684.705	51866.59
685.053	51980.94
685.4	51895.74
685.748	51840.6
686.095	51733.71
686.443	51678.8
686.79	51596.09
687.138	51638.8
687.485	51634.73
687.832	51409.88
688.18	51448.29
688.527	51221.18
688.874	51256.66
689.221	51210.33
689.568	51061.41
689.915	50971.02
690.262	50997.01
690.609	50923.34
690.956	50766.73
691.303	50657.81
691.65	50547.75
691.997	50474.08
692.344	50202.9
692.69	50266.86
693.037	50247.2
693.383	49972.85
693.73	50218.95
694.077	49869.13
694.423	49865.51
694.769	49790.94
695.116	49665.97
695.462	49495.8
695.808	49457.61
696.155	49589.36
696.501	49247.67
696.847	49231.63
697.193	49030.5
697.539	49173.55
697.885	48734.69
698.231	48642.27
698.577	48719.78
698.923	48612.44
699.269	48326.12
699.614	48284.76
699.96	48195.72
700.306	48299.68
700.651	47979.91
700.997	47811.78
701.342	47772.46
701.688	47837.32
702.033	47664.66
702.379	47665.34
702.724	47483.88
703.069	47487.27
703.415	47102.87
703.76	47144.9
704.105	47114.85
704.45	46921.86
704.795	46679.83
705.14	46760.51
705.485	46594.41
705.83	46498.37
706.175	46579.27
706.52	46406.84
706.865	46129.34
707.209	46149.68
707.554	45875.56
707.899	46058.83
708.243	45729.8
708.588	45818.84
708.932	45518.73
709.277	45441.45
709.621	45530.94
709.966	45262.69
710.31	45306.53
710.654	45083.94
710.998	45066.32
711.342	45056.15
711.687	44915.13
712.031	44730.5
712.375	44624.97
712.719	44667
713.063	44544.75
713.407	44749.94
713.75	44396.73
714.094	44181.59
714.438	44188.6
714.782	44215.72
715.125	43922.39
715.469	44094.36
715.812	43755.39
716.156	43650.31
716.499	43591.78
716.843	43627.93
717.186	43419.13
717.53	43607.37
717.873	43640.36
718.216	43446.7
718.559	43235.85
718.902	42956.77
719.246	43113.37
719.589	42834.74
719.932	42867.73
720.275	42721.29
720.617	42734.85
720.96	42848.52
721.303	42580.28
721.646	42669.54
721.989	42278.37
722.331	42430.45
722.674	42395.2
723.016	42287.63
723.359	42137.13
723.701	42216.45
724.044	41928.54
724.386	41915.44
724.729	41930.13
725.071	41832.5
725.413	41866.85
725.755	41665.5
726.097	41564.26
726.439	41479.52
726.782	41451.04
727.124	41621.43
727.465	41259.64
727.807	41334.44
728.149	41272.29
728.491	41146.42
728.833	41263.7
729.175	40938.97
729.516	40963.82
729.858	40868.46
730.199	40831.17
730.541	40658.75
730.882	40655.81
731.224	40811.51
731.565	40469.37
731.906	40517.73
732.248	40460.79
732.589	40315.25
732.93	40140.79
733.271	40157.52
733.612	40190.96
733.953	40234.13
734.294	39978.54
734.635	39986.22
734.976	39955.04
735.317	39840.46
735.658	39652.67
735.999	39799.11
736.339	39679.34
736.68	39742.61
737.021	39537.19
737.361	39466.91
737.702	39421.27
738.042	39416.97
738.383	39210.65
738.723	39317.77
739.063	39153.48
739.404	39174.94
739.744	39045.91
740.084	39013.82
740.424	39040.94
740.764	38869.64
741.104	38968.17
741.444	38698.12
741.784	38637.78
742.124	38784.22
742.464	38553.04
742.804	38469.43
743.143	38488.63
743.483	38389.2
743.823	38271.92
744.162	38151.02
744.502	38257
744.841	38004.58
745.181	38183.56
745.52	37953.06
745.86	38077.35
746.199	37902.44
746.538	37966.16
746.877	37852.27
747.216	37809.1
747.556	37770.46
747.895	37630.13
748.234	37494.76
748.573	37367.76
748.911	37469.68
749.25	37385.39
749.589	37155.34
749.928	37259.29
750.267	37219.74
750.605	37091.61
750.944	37056.13
751.283	36923.93
751.621	36981.78
751.96	36626.76
752.298	36734.33
