Data from white_wall_FLMS001491_040.txt Node
Date: Tue Feb 07 11:04:19 GMT 2017
User: dcchb
Spectrometer: FLMS00149
Trigger mode: 0
Integration Time (sec): 2.000000E-2
Scans to average: 10
Electric dark correction enabled: true
Nonlinearity correction enabled: false
Boxcar width: 0
XAxis mode: Wavelengths
Number of Pixels in Spectrum: 2048
>>>>>Begin Spectral Data<<<<<
341.393	-8.76
341.776	-8.76
342.16	-8.76
342.543	-65.03
342.927	-73.84
343.31	-71.35
343.693	-51.02
344.077	-74.97
344.46	-83.78
344.843	-44.46
345.226	-48.08
345.61	-25.03
345.993	-10.11
346.376	-13.28
346.759	3.9
347.142	15.42
347.525	61.52
347.908	64.69
348.291	77.79
348.674	72.37
349.057	126.38
349.44	124.35
349.823	129.54
350.206	170.45
350.588	203.44
350.971	213.38
351.354	242.76
351.737	255.42
352.119	259.26
352.502	293.38
352.884	282.53
353.267	301.07
353.65	283.44
354.032	311.69
354.414	321.18
354.797	318.47
355.179	328.86
355.562	321.86
355.944	333.61
356.326	340.84
356.709	355.53
357.091	361.4
357.473	348.52
357.855	332.93
358.238	358.47
358.62	357.56
359.002	360.95
359.384	358.92
359.766	349.65
360.148	356.43
360.53	361.18
360.912	346.49
361.294	346.49
361.676	326.83
362.057	346.04
362.439	357.11
362.821	340.39
363.203	339.03
363.584	327.05
363.966	348.52
364.348	315.08
364.729	329.54
365.111	332.7
365.493	324.57
365.874	328.86
366.256	311.69
366.637	337.22
367.019	310.33
367.4	313.49
367.781	316.21
368.163	317.34
368.544	331.57
368.925	315.3
369.306	341.97
369.688	337
370.069	331.57
370.45	341.06
370.831	321.4
371.212	317.56
371.593	313.72
371.974	310.1
372.355	322.08
372.736	328.41
373.117	343.1
373.498	340.16
373.879	329.77
374.26	330.44
374.641	317.79
375.021	359.14
375.402	320.27
375.783	319.82
376.163	351.23
376.544	362.53
376.925	350.1
377.305	327.05
377.686	353.95
378.066	365.92
378.447	357.34
378.827	349.65
379.208	360.72
379.588	337.9
379.968	342.65
380.349	357.34
380.729	363.21
381.109	383.32
381.489	386.71
381.87	352.82
382.25	372.7
382.63	363.66
383.01	397.79
383.39	383.55
383.77	401.85
384.15	375.19
384.53	384.23
384.91	368.86
385.29	383.55
385.67	379.26
386.049	397.56
386.429	421.51
386.809	389.42
387.189	396.88
387.568	387.39
387.948	414.73
388.328	402.76
388.707	426.26
389.087	398.01
389.466	416.54
389.846	414.73
390.225	418.8
390.605	443.89
390.984	421.97
391.363	441.17
391.743	431.46
392.122	453.83
392.501	455.86
392.881	468.74
393.26	473.04
393.639	480.04
394.018	464.45
394.397	488.18
394.776	502.87
395.155	489.99
395.534	517.56
395.913	500.38
396.292	521.4
396.671	515.52
397.05	522.75
397.429	515.52
397.808	531.57
398.186	555.97
398.565	562.53
398.944	564.56
399.323	573.37
399.701	579.02
400.08	602.98
400.458	606.59
400.837	611.11
401.215	600.72
401.594	626.48
401.972	651.79
402.351	643.2
402.729	653.15
403.107	675.74
403.486	669.42
403.864	701.73
404.242	712.81
404.62	729.53
404.999	708.74
405.377	738.12
405.755	749.64
406.133	775.18
406.511	762.07
406.889	807.04
407.267	794.84
407.645	788.74
408.023	823.54
408.401	826.02
408.779	862.86
409.156	870.32
409.534	893.82
409.912	882.07
410.29	910.09
410.667	923.2
411.045	939.47
411.422	937.66
411.8	972.91
412.178	1002.52
412.555	1000.03
412.933	1011.33
413.31	1052.23
413.687	1066.02
414.065	1073.47
414.442	1058.33
414.819	1064.21
415.197	1103.53
415.574	1103.76
415.951	1132
416.328	1158.44
416.705	1140.14
417.082	1169.07
417.46	1163.87
417.837	1200.25
418.214	1223.53
418.591	1192.12
418.967	1233.7
419.344	1260.81
419.721	1259.01
420.098	1270.31
420.475	1297.65
420.852	1304.2
421.228	1303.75
421.605	1328.16
421.982	1343.07
422.358	1357.31
422.735	1367.7
423.111	1372.9
423.488	1362.73
423.864	1379.91
424.241	1428.04
424.617	1449.51
424.994	1468.49
425.37	1471.88
425.746	1488.15
426.123	1489.51
426.499	1508.72
426.875	1509.62
427.251	1553.24
427.627	1582.84
428.003	1588.49
428.379	1628.71
428.756	1639.79
429.132	1632.78
429.507	1685.66
429.883	1712.1
430.259	1771.54
430.635	1733.34
431.011	1741.93
431.387	1772.89
431.763	1821.25
432.138	1875.94
432.514	1855.6
432.89	1872.32
433.265	1916.62
433.641	1930.63
434.016	1948.03
434.392	1970.63
434.767	2007.24
435.143	2041.13
435.518	2041.36
435.894	2089.27
436.269	2107.12
436.644	2133.11
437.02	2162.94
437.395	2143.95
437.77	2224.4
438.145	2215.37
438.52	2257.4
438.895	2296.95
439.271	2268.7
439.646	2357.28
440.021	2351.18
440.395	2385.98
440.77	2318.87
441.145	2405.64
441.52	2435.92
441.895	2401.58
442.27	2503.95
442.645	2446.09
443.019	2517.05
443.394	2488.35
443.769	2553.21
444.143	2498.52
444.518	2569.71
444.892	2577.84
445.267	2585.98
445.641	2641.79
446.016	2653.77
446.39	2670.04
446.764	2722.47
447.139	2657.16
447.513	2720.21
447.887	2728.35
448.262	2753.66
448.636	2770.15
449.01	2805.18
449.384	2833.43
449.758	2861
450.132	2896.93
450.506	2909.81
450.88	2955.01
451.254	2943.26
451.628	2969.02
452.002	3058.28
452.376	3020.77
452.75	3051.5
453.123	3136.7
453.497	3156.13
453.871	3169.24
454.244	3258.5
454.618	3258.5
454.992	3299.86
455.365	3346.41
455.739	3413.98
456.112	3431.15
456.486	3519.51
456.859	3534.43
457.232	3589.79
457.606	3543.47
457.979	3598.38
458.352	3703.24
458.725	3752.95
459.099	3745.72
459.472	3886.51
459.845	3845.61
460.218	3881.08
460.591	3936.68
460.964	3984.58
461.337	4065.94
461.71	4157.69
462.083	4202.88
462.456	4274.29
462.829	4212.83
463.201	4282.66
463.574	4345.7
463.947	4400.17
464.32	4495.76
464.692	4505.02
465.065	4573.5
465.438	4653.27
465.81	4688.52
466.183	4696.43
466.555	4825.01
466.928	4875.41
467.3	4921.28
467.672	4968.51
468.045	5125.57
468.417	5154.27
468.789	5121.05
469.161	5211.67
469.534	5347.03
469.906	5435.62
470.278	5485.79
470.65	5521.49
471.022	5670.19
471.394	5758.1
471.766	5795.84
472.138	5899.11
472.51	5992.67
472.882	6084.42
473.253	6121.03
473.625	6249.38
473.997	6424.07
474.369	6438.08
474.74	6550.62
475.112	6647.57
475.484	6771.4
475.855	6851.85
476.227	6916.94
476.598	7140.66
476.97	7174.56
477.341	7438.05
477.713	7507.66
478.084	7498.84
478.455	7772.06
478.827	7863.13
479.198	8057.02
479.569	8097.02
479.94	8358.03
480.311	8393.51
480.682	8593.05
481.053	8793.5
481.424	8957.34
481.795	8991.23
482.166	9101.29
482.537	9234.62
482.908	9511.22
483.279	9612.91
483.65	9743.53
484.021	9993.01
484.391	10074.59
484.762	10166.79
485.133	10287.02
485.503	10438.88
485.874	10694.24
486.244	10732.43
486.615	10974.46
486.985	11094
487.356	11312.53
487.726	11391.17
488.097	11609.92
488.467	11704.61
488.837	11940.08
489.207	12058.95
489.578	12250.13
489.948	12439.28
490.318	12545.49
490.688	12690.8
491.058	12783.45
491.428	13103.21
491.798	13149.77
492.168	13411
492.538	13522.86
492.908	13594.73
493.278	13830.65
493.648	13855.74
494.017	14029.29
494.387	14252.79
494.757	14363.29
495.126	14486
495.496	14562.39
495.866	14694.13
496.235	14883.28
496.605	15037.85
496.974	15107
497.344	15299.09
497.713	15310.16
498.082	15567.56
498.452	15626.76
498.821	15699.76
499.19	15774.56
499.559	15963.7
499.928	16099.97
500.298	16213.42
500.667	16471.04
501.036	16341.32
501.405	16634.2
501.774	16659.51
502.143	16767.07
502.512	16926.84
502.88	17090.91
503.249	17167.97
503.618	17342.65
503.987	17419.03
504.356	17489.09
504.724	17673.94
505.093	17713.04
505.462	17846.14
505.83	18009.53
506.199	18231.67
506.567	18341.04
506.936	18347.82
507.304	18657.42
507.672	18725.44
508.041	18779.22
508.409	18976.05
508.777	19047.69
509.145	19213.34
509.514	19317.74
509.882	19500.33
510.25	19667.56
510.618	19780.78
510.986	19910.04
511.354	20034.11
511.722	20282.24
512.09	20467.09
512.458	20390.93
512.826	20580.53
513.193	20640.87
513.561	20766.74
513.929	20992.95
514.297	21180.97
514.664	21375.99
515.032	21425.03
515.4	21677
515.767	21758.58
516.135	21972.36
516.502	21809.43
516.869	22324.67
517.237	22354.27
517.604	22331.45
517.972	22585.68
518.339	22815.05
518.706	22926.01
519.073	23090.52
519.44	23211.88
519.808	23359.89
520.175	23421.36
520.542	23742.26
520.909	23895.7
521.276	23905.42
521.643	24257.5
522.009	24348.34
522.376	24620.2
522.743	24861.55
523.11	25006.18
523.477	25126.63
523.843	25324.14
524.21	25548.09
524.577	25767.29
524.943	25866.5
525.31	26083.21
525.676	26301.51
526.043	26371.34
526.409	26586.02
526.776	26885.68
527.142	27110.08
527.508	27084.32
527.874	27384.42
528.241	27483.85
528.607	27523.85
528.973	27953.22
529.339	27918.64
529.705	28187.11
530.071	28370.38
530.437	28549.81
530.803	28795.23
531.169	28951.16
531.535	28841.78
531.901	28903.25
532.267	29216.24
532.632	29391.83
532.998	29416.91
533.364	29709.33
533.73	29682.67
534.095	30108.42
534.461	30114.52
534.826	30168.75
535.192	30395.19
535.557	30552.93
535.923	30562.42
536.288	30765.58
536.653	30932.12
537.019	30923.54
537.384	31012.35
537.749	31239.01
538.114	31299.8
538.479	31283.75
538.845	31564.42
539.21	31556.51
539.575	31615.72
539.94	31870.63
540.305	32096.84
540.67	32106.56
541.034	32115.82
541.399	32351.07
541.764	32409.15
542.129	32652.53
542.494	32676.71
542.858	32801.45
543.223	32872.41
543.587	33104.04
543.952	33084.16
544.316	33330.25
544.681	33331.38
545.045	33436.24
545.41	33800.52
545.774	33707.87
546.138	33819.28
546.503	33981.08
546.867	34051.82
547.231	34360.06
547.595	34514.86
547.959	34658.13
548.324	34630.56
548.688	34813.38
549.052	35000.27
549.416	35036.42
549.779	35084.78
550.143	35318.9
550.507	35564.77
550.871	35516.64
551.235	35545.34
551.599	35866.23
551.962	36065.55
552.326	36138.09
552.689	36379.89
553.053	36251.53
553.417	36476.84
553.78	36899.65
554.143	36708.7
554.507	37009.7
554.87	37197.95
555.234	37608.11
555.597	37420.77
555.96	37654.66
556.323	37874.77
556.686	37928.55
557.05	38129.9
557.413	38431.81
557.776	38390.01
558.139	38709.32
558.502	38772.6
558.865	38923.33
559.228	39167.61
559.59	39268.4
559.953	39230.66
560.316	39881.49
560.679	39878.33
561.041	40126.91
561.404	40304.08
561.767	40443.06
562.129	40569.84
562.492	40995.36
562.854	40844.41
563.217	41012.09
563.579	41121.24
563.941	41392.41
564.304	41555.35
564.666	41800.09
565.028	41768.45
565.39	41832.18
565.753	42132.06
566.115	42269.91
566.477	42492.27
566.839	42551.93
567.201	42832.6
567.563	42883.67
567.925	43144.91
568.287	43295.64
568.648	43374.74
569.01	43551.23
569.372	43855.4
569.734	43707.38
570.095	44172.68
570.457	44216.75
570.819	44286.12
571.18	44340.13
571.542	44535.83
571.903	44588.71
572.265	44828.93
572.626	44735.83
572.987	45008.36
573.349	45102.15
573.71	45233.22
574.071	45326.32
574.432	45348.92
574.794	45730.15
575.155	45590.5
575.516	45623.49
575.877	45701.68
576.238	45811.28
576.599	46093.76
576.96	46108
577.32	46120.88
577.681	46300.99
578.042	46329.46
578.403	46378.95
578.763	46336.47
579.124	46376.24
579.485	46659.39
579.845	46703.91
580.206	46584.14
580.566	46748.66
580.927	46710.69
581.287	46985.04
581.648	46797.92
582.008	46971.93
582.368	46930.57
582.728	46900.07
583.089	46905.94
583.449	46807.87
583.809	47034.98
584.169	46995.43
584.529	46949.78
584.889	47325.14
585.249	47095.99
585.609	46947.97
585.969	47277.23
586.329	47036.79
586.688	47060.06
587.048	46964.25
587.408	47029.33
587.768	47092.38
588.127	47043.11
588.487	47044.7
588.846	47365.82
589.206	46913.4
589.565	47102.32
589.925	47174.18
590.284	47088.99
590.643	47140.74
591.003	47131.25
591.362	47312.71
591.721	47217.35
592.08	47170.57
592.44	47239.72
592.799	47255.99
593.158	47291.47
593.517	47329.66
593.876	47314.74
594.235	47193.62
594.593	47249.21
594.952	47386.38
595.311	47211.92
595.67	47338.47
596.029	47484.01
596.387	47577.79
596.746	47538.47
597.104	47451.24
597.463	47424.35
597.822	47556.55
598.18	47473.16
598.538	47519.94
598.897	47651.91
599.255	47393.84
599.613	47945.01
599.972	47696.66
600.33	47804.9
600.688	47625.47
601.046	47799.48
601.404	47870.21
601.762	47626.15
602.12	47954.95
602.478	47940.26
602.836	47902.98
603.194	47802.64
603.552	47957.21
603.91	47854.84
604.268	48001.05
604.625	47918.34
604.983	48119.47
605.341	47907.5
605.698	48062.75
606.056	48279.47
606.413	48163.31
606.771	48381.38
607.128	48375.28
607.485	48136.19
607.843	48268.84
608.2	48392.91
608.557	48540.02
608.914	48366.24
609.272	48546.12
609.629	48658.66
609.986	48767.81
610.343	48489.85
610.7	48782.05
611.057	48672
611.414	48699.34
611.771	48698.44
612.127	48919.67
612.484	48854.14
612.841	48968.71
613.198	48952.22
613.554	48994.02
613.911	49192.21
614.267	49133
614.624	49090.97
614.98	49209.38
615.337	49358.53
615.693	49223.39
616.05	49094.13
616.406	49537.29
616.762	49299.55
617.118	49384.29
617.475	49282.38
617.831	49552.2
618.187	49394.46
618.543	49503.16
618.899	49691.63
619.255	49587.45
619.611	49592.2
619.967	49744.51
620.323	49884.85
620.678	49678.07
621.034	49462.94
621.39	49525.99
621.746	49540.45
622.101	49903.6
622.457	49582.93
622.812	49655.02
623.168	49825.87
623.523	49740.9
623.879	49837.16
624.234	49568.02
624.589	49772.31
624.945	49825.87
625.3	49853.43
625.655	49768.01
626.01	49845.07
626.365	49831.06
626.72	49768.69
627.075	49744.51
627.43	49725.08
627.785	49658.19
628.14	49662.71
628.495	49806.88
628.85	49707.45
629.205	49563.73
629.559	49869.93
629.914	49715.13
630.269	49678.07
630.623	49719.43
630.978	49547.91
631.332	49640.33
631.687	49743.61
632.041	49606.44
632.396	49707.22
632.75	49458.87
633.104	49564.4
633.459	49405.31
633.813	49347.91
634.167	49411.19
634.521	49285.54
634.875	49396.27
635.229	49343.84
635.583	49112.89
635.937	49056.17
636.291	49129.39
636.645	49093.68
636.999	49056.62
637.352	49161.7
637.706	48853.69
638.06	49062.5
638.413	49018.2
638.767	48864.53
639.121	48887.36
639.474	48747.25
639.828	48809.62
640.181	48814.82
640.534	48780.92
640.888	48647.59
641.241	48483.53
641.594	48548.38
641.947	48577.99
642.301	48345.68
642.654	48495.28
643.007	48502.51
643.36	48439.23
643.713	48265.91
644.066	48408.73
644.419	48148.4
644.771	47922.64
645.124	47493.05
645.477	47473.38
645.83	47166.5
646.182	47150
646.535	47023.68
646.888	47002.66
647.24	46921.76
647.593	47098.93
647.945	47054.64
648.298	46870.69
648.65	46750.01
649.002	46718.15
649.355	46951.14
649.707	46790.46
650.059	46844.25
650.411	47427.96
650.763	47366.72
651.115	47750.44
651.467	47510.22
651.819	47496.66
652.171	47489.88
652.523	47406.27
652.875	47372.6
653.227	47197.91
653.578	47478.36
653.93	47376.21
654.282	47147.52
654.633	47107.07
654.985	47102.32
655.337	47125.15
655.688	47162.88
656.039	47253.28
656.391	47022.77
656.742	46999.5
657.094	46997.01
657.445	46997.24
657.796	46993.85
658.147	46896.22
658.498	46842.44
658.849	46941.42
659.2	46694.2
659.551	46668.21
659.902	46853.51
660.253	46707.75
660.604	46775.32
660.955	46575.78
661.306	46671.82
661.656	46580.3
662.007	46651.03
662.358	46611.26
662.708	46652.62
663.059	46542.11
663.409	46344.15
663.76	46747.08
664.11	46548.89
664.461	46655.1
664.811	46587.08
665.161	46490.59
665.511	46299.4
665.862	46453.75
666.212	46598.61
666.562	46460.98
666.912	46270.25
667.262	46339.63
667.612	46313.42
667.962	46272.51
668.312	46208.78
668.662	46383.92
669.011	46332.85
669.361	46204.49
669.711	46194.55
670.06	46124.72
670.41	45985.06
670.76	46106.19
671.109	46223.25
671.459	46066.87
671.808	46056.92
672.157	46124.27
672.507	45823.71
672.856	45874.33
673.205	45911.39
673.554	46001.78
673.904	45856.25
674.253	45996.14
674.602	45858.06
674.951	45320.67
675.3	45178.08
675.649	45783.03
675.998	45670.27
676.346	45708.46
676.695	45842.01
677.044	45413.55
677.393	45410.61
677.741	45648.12
678.09	45473.21
678.438	45381.46
678.787	45460.78
679.135	45439.54
679.484	45148.47
679.832	45245.19
680.181	45043.62
680.529	45232.54
680.877	45013.34
681.225	45083.39
681.573	45198.19
681.922	44869.84
682.27	44715.49
682.618	44759.78
682.966	44694.7
683.314	44815.38
683.661	44530.41
684.009	44482.95
684.357	44345.56
684.705	44218.78
685.053	44199.35
685.4	44087.26
685.748	44019.46
686.095	43775.63
686.443	43816.31
686.79	43677.1
687.138	43791.9
687.485	43746.02
687.832	43500.61
688.18	43664.67
688.527	43497.9
688.874	43407.95
689.221	43312.59
689.568	43111.69
689.915	42964.12
690.262	42946.5
690.609	42923.22
690.956	42626.05
691.303	42796.22
691.65	42535.44
691.997	42445.04
692.344	42177.93
692.69	42255.67
693.037	42331.15
693.383	41815.68
693.73	42146.74
694.077	41724.16
694.423	41809.58
694.769	41729.35
695.116	41723.71
695.462	41430.83
695.808	41339.53
696.155	41503.37
696.501	41289.59
696.847	41170.27
697.193	40956.27
697.539	40948.81
697.885	40786.55
698.231	40605.32
698.577	40507.69
698.923	40416.62
699.269	40346.79
699.614	40089.4
699.96	40117.19
700.306	40176.85
700.651	39801.27
700.997	39703.87
701.342	39711.33
701.688	39772.34
702.033	39565.57
702.379	39572.35
702.724	39339.81
703.069	39500.26
703.415	38926.94
703.76	39067.5
704.105	39090.55
704.45	38884.46
704.795	38624.58
705.14	38633.84
705.485	38528.08
705.83	38391.36
706.175	38481.08
706.52	38278.37
706.865	38234.31
707.209	38091.26
707.554	38048.32
707.899	38178.26
708.243	37946.18
708.588	37804.71
708.932	37647.2
709.277	37602.46
709.621	37728.1
709.966	37505.51
710.31	37612.4
710.654	37143.49
710.998	37253.99
711.342	37432.29
711.687	37173.77
712.031	36913.66
712.375	36848.13
712.719	36989.37
713.063	36903.49
713.407	36967.9
713.75	36737.4
714.094	36815.36
714.438	36531.07
714.782	36611.07
715.125	36512.32
715.469	36414.24
715.812	36236.62
716.156	36314.81
716.499	36214.92
716.843	36216.05
717.186	35934.48
717.53	36059.22
717.873	36071.2
718.216	35926.8
718.559	35936.74
718.902	35677.76
719.246	35694.26
719.589	35607.48
719.932	35521.83
720.275	35443.42
720.617	35559.35
720.96	35291.11
721.303	35321.16
721.646	35424.44
721.989	35043.65
722.331	35283.65
722.674	34993.94
723.016	34936.54
723.359	35001.17
723.701	35078.23
724.044	34627.62
724.386	34487.74
724.729	34837.11
725.071	34541.97
725.413	34583.1
725.755	34567.06
726.097	34515.08
726.439	34294.3
726.782	34395.08
727.124	34495.87
727.465	34265.14
727.807	34364.58
728.149	34168.2
728.491	34114.87
728.833	34042.1
729.175	33800.75
729.516	33881.65
729.858	33857.47
730.199	33795.78
730.541	33797.81
730.882	33714.2
731.224	33711.71
731.565	33497.03
731.906	33466.52
732.248	33533.19
732.589	33316.24
732.93	33138.39
733.271	33267.43
733.612	33395.34
733.953	33343.59
734.294	33210.03
734.635	33021.56
734.976	33214.1
735.317	32961.45
735.658	33024.95
735.999	32848.01
736.339	32941.56
736.68	32925.52
737.021	32942.69
737.361	32664.51
737.702	32737.5
738.042	32703.83
738.383	32697.28
738.723	32689.59
739.063	32556.04
739.404	32530.05
739.744	32443.72
740.084	32341.58
740.424	32306.78
740.764	32155.82
741.104	32479.43
741.444	32243.5
741.784	32029.27
742.124	32067.24
742.464	31959.89
742.804	31944.75
743.143	31907.92
743.483	31927.13
743.823	31766.68
744.162	31848.94
744.502	31790.86
744.841	31664.08
745.181	31735.49
745.52	31600.13
745.86	31680.13
746.199	31525.33
746.538	31455.27
746.877	31539.34
747.216	31585.44
747.556	31415.73
747.895	31288.5
748.234	31177.32
748.573	31291.21
748.911	31058.45
749.25	31227.94
749.589	30876.76
749.928	31087.15
750.267	30882.18
750.605	30884.22
750.944	30851.22
751.283	30587.95
751.621	30662.3
751.96	30507.73
752.298	30528.29
752.636	30421.18
752.975	30301.41
753.313	30280.39
