Data from White_reflection_standard_FLMS001491_025.txt Node
Date: Tue Feb 07 10:32:00 GMT 2017
User: dcchb
Spectrometer: FLMS00149
Trigger mode: 0
Integration Time (sec): 2.000000E-2
Scans to average: 10
Electric dark correction enabled: true
Nonlinearity correction enabled: false
Boxcar width: 0
XAxis mode: Wavelengths
Number of Pixels in Spectrum: 2048
>>>>>Begin Spectral Data<<<<<
341.393	-38.15
341.776	-38.15
342.16	-38.15
342.543	-71.82
342.927	-73.85
343.31	-77.24
343.693	-68.66
344.077	-76.11
344.46	-60.3
344.843	-44.93
345.226	-39.5
345.61	-31.14
345.993	-27.3
346.376	-16.68
346.759	22.64
347.142	28.74
347.525	44.56
347.908	55.41
348.291	93.37
348.674	90.44
349.057	106.71
349.44	119.81
349.823	138.57
350.206	169.98
350.588	231.67
350.971	236.65
351.354	245.69
351.737	287.49
352.119	292.92
352.502	302.41
352.884	336.53
353.267	330.2
353.65	322.29
354.032	345.57
354.414	353.48
354.797	340.15
355.179	350.77
355.562	348.96
355.944	383.99
356.326	373.14
356.709	391.44
357.091	396.64
357.473	391.22
357.855	392.12
358.238	409.3
358.62	403.65
359.002	403.87
359.384	394.61
359.766	395.74
360.148	410.65
360.53	415.17
360.912	398
361.294	411.11
361.676	416.98
362.057	405
362.439	400.94
362.821	406.59
363.203	402.97
363.584	388.51
363.966	419.92
364.348	404.55
364.729	407.49
365.111	414.95
365.493	407.26
365.874	401.39
366.256	396.19
366.637	408.17
367.019	422.4
367.4	429.41
367.781	419.24
368.163	418.34
368.544	413.14
368.925	397.09
369.306	426.7
369.688	434.83
370.069	434.38
370.45	431.44
370.831	446.36
371.212	439.35
371.593	429.18
371.974	427.38
372.355	409.3
372.736	447.26
373.117	462.4
373.498	454.27
373.879	433.48
374.26	437.77
374.641	446.36
375.021	445.23
375.402	450.88
375.783	478.45
376.163	489.75
376.544	497.66
376.925	474.15
377.305	481.84
377.686	487.49
378.066	502.63
378.447	492.01
378.827	512.8
379.208	515.51
379.588	486.36
379.968	512.57
380.349	521.61
380.729	531.33
381.109	541.05
381.489	539.92
381.87	540.82
382.25	540.37
382.63	535.85
383.01	543.08
383.39	552.8
383.77	557.77
384.15	564.1
384.53	587.37
384.91	568.84
385.29	576.52
385.67	606.35
386.049	599.12
386.429	624.21
386.809	613.59
387.189	585.79
387.568	631.66
387.948	623.08
388.328	644.32
388.707	669.63
389.087	660.14
389.466	664.88
389.846	662.85
390.225	681.15
390.605	686.8
390.984	710.53
391.363	700.59
391.743	714.83
392.122	712.57
392.501	699.46
392.881	751.89
393.26	749.18
393.639	737.88
394.018	760.7
394.397	760.7
394.776	782.17
395.155	781.94
395.534	764.09
395.913	802.51
396.292	797.76
396.671	811.09
397.05	826.24
397.429	820.36
397.808	808.83
398.186	851.55
398.565	851.32
398.944	851.32
399.323	859.45
399.701	869.17
400.08	900.36
400.458	882.05
400.837	917.76
401.215	913.92
401.594	917.98
401.972	913.92
402.351	942.16
402.729	961.15
403.107	963.63
403.486	956.85
403.864	996.4
404.242	1002.95
404.62	978.55
404.999	1011.09
405.377	1037.08
405.755	1052.67
406.133	1056.29
406.511	1081.14
406.889	1099.45
407.267	1117.75
407.645	1095.83
408.023	1120.24
408.401	1135.61
408.779	1167.02
409.156	1177.19
409.534	1200.91
409.912	1201.14
410.29	1261.25
410.667	1249.95
411.045	1258.09
411.422	1305.77
411.8	1299.22
412.178	1326.11
412.555	1333.79
412.933	1342.83
413.31	1388.25
413.687	1391.42
414.065	1412.43
414.442	1433.23
414.819	1456.5
415.197	1442.94
415.574	1505.99
415.951	1502.15
416.328	1510.96
416.705	1515.26
417.082	1511.19
417.46	1541.7
417.837	1555.48
418.214	1587.12
418.591	1611.75
418.967	1625.99
419.344	1636.16
419.721	1643.16
420.098	1636.16
420.475	1686.1
420.852	1716.61
421.228	1713.22
421.605	1714.12
421.982	1751.18
422.358	1746.44
422.735	1832.99
423.111	1819.66
423.488	1842.03
423.864	1839.99
424.241	1883.83
424.617	1915.7
424.994	1929.71
425.37	1919.99
425.746	1946.66
426.123	1996.83
426.499	1988.24
426.875	1969.71
427.251	2050.16
427.627	2098.29
428.003	2129.03
428.379	2116.37
428.756	2177.39
429.132	2210.38
429.507	2234.79
429.883	2264.39
430.259	2317.95
430.635	2286.31
431.011	2338.51
431.387	2375.35
431.763	2411.5
432.138	2441.79
432.514	2514.33
432.89	2509.35
433.265	2580.09
433.641	2588.9
434.016	2626.64
434.392	2658.28
434.767	2693.3
435.143	2724.49
435.518	2776.92
435.894	2800.65
436.269	2830.48
436.644	2883.81
437.02	2902.56
437.395	2896.24
437.77	2940.98
438.145	2988.66
438.52	2994.77
438.895	3002
439.271	3029.12
439.646	3119.06
440.021	3129.45
440.395	3196.57
440.77	3175.78
441.145	3211.94
441.52	3242.44
441.895	3278.15
442.27	3263.46
442.645	3307.07
443.019	3376.68
443.394	3365.15
443.769	3404.47
444.143	3363.8
444.518	3465.49
444.892	3418.03
445.267	3467.75
445.641	3541.42
446.016	3561.76
446.39	3564.47
446.764	3645.6
447.139	3585.48
447.513	3694.63
447.887	3684.92
448.262	3662.32
448.636	3720.4
449.01	3777.34
449.384	3800.85
449.758	3824.8
450.132	3901.63
450.506	3923.56
450.88	3938.92
451.254	3979.6
451.628	4030.67
452.002	4081.07
452.376	4096.88
452.75	4162.64
453.123	4163.55
453.497	4278.8
453.871	4294.62
454.244	4352.02
454.618	4394.96
454.992	4468.85
455.365	4474.28
455.739	4588.4
456.112	4660.26
456.486	4669.75
456.859	4720.82
457.232	4798.79
457.606	4825.9
457.979	4892.12
458.352	4919.24
458.725	5045.56
459.099	5091.21
459.472	5186.12
459.845	5244.2
460.218	5276.06
460.591	5348.38
460.964	5304.31
461.337	5493.46
461.71	5541.37
462.083	5637.41
462.456	5673.11
462.829	5698.88
463.201	5778.2
463.574	5824.3
463.947	5909.49
464.32	6067.45
464.692	6092.31
465.065	6115.14
465.438	6221.12
465.81	6325.98
466.183	6344.28
466.555	6500.89
466.928	6574.33
467.3	6603.48
467.672	6683.93
468.045	6856.59
468.417	6835.57
468.789	7010.93
469.161	7076.92
469.534	7110.36
469.906	7314.65
470.278	7315.56
470.65	7475.78
471.022	7673.74
471.394	7713.51
471.766	7778.14
472.138	7938.82
472.51	8054.07
472.882	8227.17
473.253	8308.52
473.625	8395.75
473.997	8544.45
474.369	8652.02
474.74	8769.53
475.112	8966.81
475.484	9051.78
475.855	9311.44
476.227	9304.43
476.598	9588.72
476.97	9675.49
477.341	9852.66
477.713	10030.97
478.084	10076.16
478.455	10424.18
478.827	10470.95
479.198	10736.71
479.569	10867.33
479.94	11122.01
480.311	11167.43
480.682	11443.13
481.053	11706.63
481.424	11884.93
481.795	11997.47
482.166	12274.97
482.537	12350.9
482.908	12663.21
483.279	12774.17
483.65	12992.47
484.021	13286.47
484.391	13386.36
484.762	13586.58
485.133	13668.61
485.503	13932.78
485.874	14167.58
486.244	14371.42
486.615	14641.24
486.985	14828.81
487.356	14982.02
487.726	15176.82
488.097	15421.78
488.467	15574.32
488.837	15931.83
489.207	16053.18
489.578	16274.64
489.948	16476.67
490.318	16681.86
490.688	16830.33
491.058	17033.72
491.428	17193.04
491.798	17501.73
492.168	17739.24
492.538	17776.98
492.908	18077.99
493.278	18365.44
493.648	18412.67
494.017	18539.44
494.387	18772.88
494.757	18864.41
495.126	19077.96
495.496	19187.79
495.866	19377.16
496.235	19550.71
496.605	19745.74
496.974	19916.58
497.344	20045.62
497.713	20112.73
498.082	20303.01
498.452	20657.58
498.821	20698.03
499.19	20793.39
499.559	20996.55
499.928	21043.78
500.298	21244.68
500.667	21492.81
501.036	21373.49
501.405	21730.32
501.774	21810.77
502.143	22017.09
502.512	22021.84
502.88	22391.54
503.249	22436.74
503.618	22467.25
503.987	22657.3
504.356	22730.74
504.724	22897.29
505.093	23111.98
505.462	23134.8
505.83	23378.41
506.199	23556.94
506.567	23919.41
506.936	23918.06
507.304	24192.4
507.672	24177.49
508.041	24406.63
508.409	24599.85
508.777	24909.67
509.145	24947.41
509.514	24977.24
509.882	25196.89
510.25	25309.66
510.618	25546.49
510.986	25668.07
511.354	25831.91
511.722	26170.88
512.09	26472.57
512.458	26338.56
512.826	26685.67
513.193	26842.27
513.561	26906.91
513.929	27181.93
514.297	27367.23
514.664	27544.18
515.032	27645.42
515.4	27899.87
515.767	28077.04
516.135	28314.33
516.502	28253.54
516.869	28646.97
517.237	28733.07
517.604	28786.63
517.972	29276.33
518.339	29385.71
518.706	29534.86
519.073	29663.22
519.44	30008.07
519.808	30218.68
520.175	30212.13
520.542	30632.01
520.909	30872.45
521.276	30833.58
521.643	31250.07
522.009	31409.39
522.376	31661.36
522.743	31881.69
523.11	32408.46
523.477	32513.76
523.843	32635.12
524.21	33111.04
524.577	33266.29
524.943	33396.68
525.31	33583.57
525.676	33955.08
526.043	34113.27
526.409	34279.37
526.776	34671.45
527.142	34863.76
527.508	34928.84
527.874	35308.49
528.241	35530.18
528.607	35663.06
528.973	36056.72
529.339	36002.71
529.705	36346.88
530.071	36577.61
530.437	36815.12
530.803	36973.31
531.169	37295.56
531.535	37327.42
531.901	37383.92
532.267	37569.45
532.632	37722.44
532.998	37965.6
533.364	38179.6
533.73	38215.08
534.095	38630.67
534.461	38731
534.826	38953.59
535.192	39034.27
535.557	39383.41
535.923	39327.14
536.288	39566.23
536.653	39814.36
537.019	39721.26
537.384	39882.61
537.749	40218.65
538.114	40186.33
538.479	40419.54
538.845	40481.24
539.21	40436.27
539.575	40702.47
539.94	40908.12
540.305	41118.51
540.67	41009.13
541.034	41325.96
541.399	41514.43
541.764	41552.4
542.129	41749.68
542.494	41793.29
542.858	42003.01
543.223	42065.38
543.587	42424.46
543.952	42373.39
544.316	42403.9
544.681	42491.35
545.045	42711.24
545.41	43145.12
545.774	43050.44
546.138	43091.79
546.503	43243.2
546.867	43288.4
547.231	43751.66
547.595	43794.6
547.959	43834.14
548.324	43919.11
548.688	44053.8
549.052	44252.21
549.416	44233.46
549.779	44387.12
550.143	44577.63
550.507	44877.05
550.871	45021.23
551.235	44897.62
551.599	45211.73
551.962	45464.38
552.326	45586.64
552.689	45639.52
553.053	45550.71
553.417	45776.47
553.78	46291.71
554.143	46100.07
554.507	46314.76
554.87	46631.81
555.234	46902.76
555.597	46761.75
555.96	46983.44
556.323	47152.93
556.686	47160.16
557.05	47431.56
557.413	47521.73
557.776	47574.16
558.139	47838.33
558.502	48111.77
558.865	48135.73
559.228	48426.34
559.59	48559.44
559.953	48723.06
560.316	49069.71
560.679	49032.2
561.041	49319.42
561.404	49328.46
561.767	49522.81
562.129	49436.26
562.492	49934.55
562.854	49928.45
563.217	49992.85
563.579	50172.73
563.941	50501.77
564.304	50388.1
564.666	50780.4
565.028	50826.05
565.39	51031.47
565.753	51129.09
566.115	51167.51
566.477	51425.81
566.839	51568.63
567.201	51669.64
567.563	51786.93
567.925	51891.33
568.287	51924.78
568.648	52115.28
569.01	52341.49
569.372	52421.49
569.734	52335.16
570.095	52553.46
570.457	52692.89
570.819	52828.26
571.18	52715.27
571.542	52984.41
571.903	53075.93
572.265	53144.18
572.626	53250.39
572.987	53317.74
573.349	53355.7
573.71	53494
574.071	53546.43
574.432	53543.27
574.794	53871.85
575.155	53824.62
575.516	53796.59
575.877	53916.82
576.238	53916.14
576.599	54059.86
576.96	54086.3
577.32	54164.95
577.681	54269.12
578.042	54239.97
578.403	54259.18
578.763	54346.18
579.124	54404.94
579.485	54479.06
579.845	54534.65
580.206	54421.21
580.566	54535.33
580.927	54547.31
581.287	54687.87
581.648	54550.02
582.008	54719.96
582.368	54690.58
582.728	54716.34
583.089	54722.9
583.449	54754.99
583.809	54717.47
584.169	54840.86
584.529	54695.78
584.889	54912.95
585.249	54790.24
585.609	54672.05
585.969	54801.77
586.329	54759.05
586.688	54798.83
587.048	54774.2
587.408	54746.4
587.768	54833.4
588.127	54794.53
588.487	54777.13
588.846	54994.75
589.206	54743.01
589.565	54801.09
589.925	54874.53
590.284	54815.78
590.643	54843.8
591.003	55039.27
591.362	55016.67
591.721	54967.41
592.08	54939.61
592.44	55004.25
592.799	55015.32
593.158	54968.54
593.517	54933.97
593.876	54964.92
594.235	54898.94
594.593	54905.49
594.952	55064.81
595.311	54978.48
595.67	55076.33
596.029	55157.91
596.387	55206.73
596.746	55280.4
597.104	55110.91
597.463	55072.94
597.822	55175.54
598.18	55119.5
598.538	55020.74
598.897	55253.5
599.255	54966.51
599.613	55441.97
599.972	55281.53
600.33	55334.41
600.688	55258.25
601.046	55268.65
601.404	55424.35
601.762	55396.33
602.12	55365.82
602.478	55451.24
602.836	55461.63
603.194	55353.16
603.552	55428.19
603.91	55345.03
604.268	55533.05
604.625	55425.25
604.983	55591.35
605.341	55449.88
605.698	55613.5
606.056	55679.03
606.413	55580.73
606.771	55707.73
607.128	55771.01
607.485	55648.75
607.843	55644.23
608.2	55815.52
608.557	55881.74
608.914	55771.01
609.272	55940.27
609.629	55937.33
609.986	56044.67
610.343	55895.3
610.7	56086.03
611.057	56049.19
611.414	56010.77
611.771	56087.61
612.127	56147.27
612.484	56076.08
612.841	56238.56
613.198	56112.92
613.554	56175.06
613.911	56296.87
614.267	56289.86
614.624	56314.27
614.98	56300.26
615.337	56395.17
615.693	56373.93
616.05	56274.49
616.406	56429.52
616.762	56379.8
617.118	56432.46
617.475	56324.44
617.831	56396.53
618.187	56499.12
618.543	56467.71
618.899	56642.62
619.255	56661.38
619.611	56506.81
619.967	56560.36
620.323	56682.62
620.678	56502.51
621.034	56491.66
621.39	56472.68
621.746	56496.64
622.101	56780.7
622.457	56572.11
622.812	56575.05
623.168	56675.61
623.523	56705.44
623.879	56678.78
624.234	56530.99
624.589	56578.44
624.945	56625.67
625.3	56653.69
625.655	56624.09
626.01	56652.79
626.365	56656.63
626.72	56571.89
627.075	56631.77
627.43	56644.2
627.785	56548.61
628.14	56602.85
628.495	56540.7
628.85	56558.56
629.205	56442.63
629.559	56605.11
629.914	56456.64
630.269	56530.53
630.623	56455.28
630.978	56309.3
631.332	56469.97
631.687	56492.79
632.041	56356.53
632.396	56381.84
632.75	56306.58
633.104	56329.18
633.459	56228.17
633.813	56191.11
634.167	56129.41
634.521	56123.99
634.875	56189.98
635.229	56115.86
635.583	55977.1
635.937	56041.96
636.291	55958.8
636.645	55970.1
636.999	55905.24
637.352	55930.55
637.706	55789.08
638.06	55916.54
638.413	55816.2
638.767	55728.29
639.121	55768.97
639.474	55601.74
639.828	55629.99
640.181	55643.33
640.534	55639.26
640.888	55477.23
641.241	55391.13
641.594	55467.28
641.947	55555.19
642.301	55460.96
642.654	55361.07
643.007	55497.79
643.36	55350.9
643.713	55281.98
644.066	55347.97
644.419	55142.77
644.771	54991.36
645.124	54737.36
645.477	54662.33
645.83	54504.37
646.182	54368.78
646.535	54350.03
646.888	54357.26
647.24	54151.16
647.593	54378.95
647.945	54266.64
648.298	54112.52
648.65	54051.05
649.002	53997.27
649.355	54078.39
649.707	54010.15
650.059	54215.79
650.411	54521.09
650.763	54526.97
651.115	54736.91
651.467	54650.36
651.819	54619.4
652.171	54569.68
652.523	54431.61
652.875	54506.63
653.227	54407.2
653.578	54532.62
653.93	54467.54
654.282	54260.31
654.633	54261.44
654.985	54300.31
655.337	54284.26
655.688	54264.6
656.039	54330.59
656.391	54139.86
656.742	54136.47
657.094	54129.47
657.445	54129.92
657.796	54183.25
658.147	54039.07
658.498	54068.45
658.849	54093.99
659.2	54032.97
659.551	53981.22
659.902	54098.05
660.253	53979.19
660.604	54077.94
660.955	53857.84
661.306	54030.03
661.656	53972.63
662.007	53842.24
662.358	53802.02
662.708	53805.63
663.059	53814.67
663.409	53647.9
663.76	53835.91
664.11	53807.67
664.461	53891.73
664.811	53822.36
665.161	53744.17
665.511	53639.08
665.862	53706.65
666.212	53676.82
666.562	53745.75
666.912	53729.93
667.262	53601.8
667.612	53615.36
667.962	53602.7
668.312	53564.74
668.662	53682.92
669.011	53585.75
669.361	53565.64
669.711	53484.51
670.06	53463.27
670.41	53381.46
670.76	53330.17
671.109	53510.05
671.459	53423.72
671.808	53331.3
672.157	53419.88
672.507	53130.4
672.856	53177.63
673.205	53244.29
673.554	53270.96
673.904	53179.21
674.253	53383.05
674.602	53177.63
674.951	52740.35
675.3	52539.45
675.649	53083.62
675.998	53084.75
676.346	53096.27
676.695	53207
677.044	52881.82
677.393	52922.49
677.741	53048.14
678.09	52873.45
678.438	52848.6
678.787	52894.24
679.135	52912.32
679.484	52699
679.832	52828.26
680.181	52568.6
680.529	52722.27
680.877	52612.22
681.225	52593.91
681.573	52717.07
681.922	52470.08
682.27	52365.9
682.618	52408.16
682.966	52227.14
683.314	52416.74
683.661	52232.34
684.009	52174.04
684.357	52065.11
684.705	52039.35
685.053	51962.74
685.4	51873.71
685.748	51752.58
686.095	51723.65
686.443	51586.26
686.79	51581.06
687.138	51669.19
687.485	51693.15
687.832	51365.25
688.18	51475.07
688.527	51201.41
688.874	51348.75
689.221	51231.46
689.568	51065.14
689.915	50942.66
690.262	50996.44
690.609	50761.42
690.956	50670.57
691.303	50742.21
691.65	50447.76
691.997	50477.36
692.344	50314.2
692.69	50209.12
693.037	50348.78
693.383	49936.58
693.73	50115.33
694.077	49884.83
694.423	49994.43
694.769	49810.03
695.116	49601.22
695.462	49545.18
695.808	49481
696.155	49414.79
696.501	49213.89
696.847	49281.01
697.193	48898.87
697.539	49095.93
697.885	48758.08
698.231	48660.91
698.577	48632.89
698.923	48610.52
699.269	48473.8
699.614	48317.19
699.96	48308.38
700.306	48312.44
700.651	47981.38
700.997	47889.18
701.342	47929.4
701.688	47798.33
702.033	47680.14
702.379	47642.86
702.724	47495.06
703.069	47532.35
703.415	47013.95
703.76	47094.17
704.105	47034.29
704.45	46976.21
704.795	46783.22
705.14	46613.05
705.485	46626.61
705.83	46479.5
706.175	46478.14
706.52	46262.1
706.865	46228.88
707.209	46138.26
707.554	45956.57
707.899	46038.15
708.243	45803.58
708.588	45792.51
708.932	45586.41
709.277	45454.21
709.621	45409.24
709.966	45169.48
710.31	45412.63
710.654	44988.24
710.998	44982.14
711.342	45017.16
711.687	44878.86
712.031	44641.81
712.375	44620.34
712.719	44746.44
713.063	44564.97
713.407	44614.01
713.75	44424.41
714.094	44293.34
714.438	44253.12
714.782	44218.54
715.125	44037.75
715.469	44124.53
715.812	43840.47
716.156	43634.15
716.499	43766.35
716.843	43598.44
717.186	43422.18
717.53	43617.65
717.873	43574.49
718.216	43356.87
718.559	43318.9
718.902	42970.21
719.246	43204.78
719.589	43013.6
719.932	42942.19
720.275	42741.52
720.617	42604.12
720.96	42697.22
721.303	42739.94
721.646	42584.23
721.989	42375.65
722.331	42454.75
722.674	42297.46
723.016	42247.29
723.359	42244.58
723.701	42218.14
724.044	41951.26
724.386	41688.66
724.729	41924.82
725.071	41966.4
725.413	41828.1
725.755	41883.91
726.097	41598.04
726.439	41362.12
726.782	41457.71
727.124	41511.04
727.465	41253.65
727.807	41387.43
728.149	41078.28
728.491	41136.14
728.833	41373.19
729.175	40899.76
729.516	40852.98
729.858	40779.54
730.199	40770.27
730.541	40799.87
730.882	40667.45
731.224	40818.63
731.565	40470.39
731.906	40468.13
732.248	40505.64
732.589	40215.26
732.93	40292.54
733.271	40236.95
733.612	40138.65
733.953	40251.64
734.294	40130.06
734.635	39912.44
734.976	40093
735.317	39820.24
735.658	39739.34
735.999	39630.64
736.339	39564.43
736.68	39814.59
737.021	39487.14
737.361	39469.06
737.702	39603.29
738.042	39277.88
738.383	39374.83
738.723	39334.15
739.063	39094.16
739.404	39256.41
739.744	39024.33
740.084	39026.59
740.424	39058.68
740.764	38850.32
741.104	39003.99
741.444	38610.78
741.784	38574.17
742.124	38711.11
742.464	38616.88
742.804	38521.29
743.143	38502.53
743.483	38447.39
743.823	38215.08
744.162	38148.42
744.502	38233.84
744.841	38058.25
745.181	38265.48
745.52	37896
745.86	38129.44
746.199	37801.31
746.538	37874.53
746.877	37835.88
747.216	37704.59
747.556	37652.16
747.895	37723.57
748.234	37458.94
748.573	37498.27
748.911	37417.82
749.25	37405.61
749.589	37189.12
749.928	37201.1
750.267	37194.09
750.605	37146.86
750.944	36979.41
751.283	36906.42
751.621	36970.14
751.96	36699.42
