Data from white_steel_sheet_FLMS001491_083.txt Node
Date: Tue Feb 07 10:58:36 GMT 2017
User: dcchb
Spectrometer: FLMS00149
Trigger mode: 0
Integration Time (sec): 2.000000E-2
Scans to average: 10
Electric dark correction enabled: true
Nonlinearity correction enabled: false
Boxcar width: 0
XAxis mode: Wavelengths
Number of Pixels in Spectrum: 2048
>>>>>Begin Spectral Data<<<<<
341.393	-23.7
341.776	-23.7
342.16	-23.7
342.543	-46.52
342.927	-72.51
343.31	-65.05
343.693	-44.72
344.077	-58.28
344.46	-71.61
344.843	-59.41
345.226	-35.9
345.61	-52.63
345.993	-2.91
346.376	-2.46
346.759	4.77
347.142	42.29
347.525	37.54
347.908	51.33
348.291	79.12
348.674	78.22
349.057	99.69
349.44	137.65
349.823	125.9
350.206	172
350.588	208.84
350.971	208.16
351.354	229.85
351.737	268.04
352.119	264.43
352.502	274.6
352.884	281.38
353.267	278.21
353.65	313.01
354.032	309.17
354.414	319.57
354.797	332.22
355.179	312.34
355.562	320.02
355.944	349.17
356.326	345.78
356.709	344.2
357.091	352.11
357.473	351.66
357.855	350.53
358.238	342.84
358.62	332.22
359.002	359.11
359.384	360.24
359.766	347.14
360.148	342.62
360.53	347.82
360.912	372.45
361.294	348.72
361.676	336.97
362.057	339
362.439	357.31
362.821	334.26
363.203	347.36
363.584	355.27
363.966	329.96
364.348	337.42
364.729	332.67
365.111	332
365.493	332
365.874	350.3
366.256	339.91
366.637	339.23
367.019	339.91
367.4	339.45
367.781	350.08
368.163	324.09
368.544	334.26
368.925	332.9
369.306	321.38
369.688	323.41
370.069	334.93
370.45	342.62
370.831	349.4
371.212	307.82
371.593	359.11
371.974	339.68
372.355	336.06
372.736	342.17
373.117	331.77
373.498	334.71
373.879	352.11
374.26	329.06
374.641	343.3
375.021	305.1
375.402	346.69
375.783	351.21
376.163	377.42
376.544	354.37
376.925	372.22
377.305	351.66
377.686	372.9
378.066	350.3
378.447	342.39
378.827	360.7
379.208	369.06
379.588	361.6
379.968	377.19
380.349	361.37
380.729	374.93
381.109	362.28
381.489	392.11
381.87	389.62
382.25	367.93
382.63	376.06
383.01	405.89
383.39	390.53
383.77	377.42
384.15	404.76
384.53	382.39
384.91	408.15
385.29	393.92
385.67	398.66
386.049	410.41
386.429	382.62
386.809	409.73
387.189	405.89
387.568	420.13
387.948	394.82
388.328	435.05
388.707	429.4
389.087	417.87
389.466	420.81
389.846	444.76
390.225	455.38
390.605	442.28
390.984	430.98
391.363	452.9
391.743	445.21
392.122	448.38
392.501	456.74
392.881	464.2
393.26	505.33
393.639	472.78
394.018	454.71
394.397	466.91
394.776	494.48
395.155	503.74
395.534	519.34
395.913	494.03
396.292	515.27
396.671	533.57
397.05	520.01
397.429	518.43
397.808	528.6
398.186	526.12
398.565	526.12
398.944	541.71
399.323	553.46
399.701	553.46
400.08	564.31
400.458	553.46
400.837	572.44
401.215	564.99
401.594	574.93
401.972	614.02
402.351	617.87
402.729	618.32
403.107	618.77
403.486	628.49
403.864	668.03
404.242	654.47
404.62	641.14
404.999	666
405.377	657.86
405.755	695.15
406.133	701.93
406.511	685.43
406.889	734.02
407.267	735.38
407.645	748.71
408.023	744.19
408.401	773.79
408.779	776.51
409.156	788.26
409.534	810.18
409.912	830.97
410.29	842.49
410.667	832.55
411.045	859.21
411.422	874.81
411.8	881.59
412.178	886.78
412.555	911.64
412.933	931.53
413.31	938.08
413.687	937.63
414.065	957.97
414.442	960.68
414.819	986.67
415.197	996.61
415.574	1008.36
415.951	992.09
416.328	1040.23
416.705	1057.63
417.082	1026.22
417.46	1051.53
417.837	1061.92
418.214	1094.91
418.591	1093.33
418.967	1099.89
419.344	1102.15
419.721	1133.33
420.098	1124.29
420.475	1142.6
420.852	1156.83
421.228	1164.07
421.605	1166.78
421.982	1199.77
422.358	1204.29
422.735	1218.53
423.111	1197.96
423.488	1250.39
423.864	1271.63
424.241	1269.15
424.617	1283.84
424.994	1265.53
425.37	1294.68
425.746	1317.06
426.123	1331.29
426.499	1361.35
426.875	1378.75
427.251	1386.66
427.627	1390.73
428.003	1410.39
428.379	1439.09
428.756	1457.39
429.132	1474.34
429.507	1499.2
429.883	1500.33
430.259	1533.1
430.635	1546.2
431.011	1547.78
431.387	1571.96
431.763	1631.17
432.138	1660.78
432.514	1652.19
432.89	1626.2
433.265	1715.01
433.641	1719.98
434.016	1730.83
434.392	1743.94
434.767	1805.4
435.143	1818.51
435.518	1844.73
435.894	1811.96
436.269	1898.28
436.644	1876.59
437.02	1950.49
437.395	1911.62
437.77	1956.59
438.145	2003.14
438.52	2012.18
438.895	2025.29
439.271	2020.77
439.646	2060.99
440.021	2112.52
440.395	2101.22
440.77	2088.33
441.145	2135.57
441.52	2148.67
441.895	2152.29
442.27	2163.36
442.645	2206.52
443.019	2220.99
443.394	2253.98
443.769	2274.77
444.143	2244.26
444.518	2265.96
444.892	2270.03
445.267	2309.8
445.641	2334.2
446.016	2340.31
446.39	2340.98
446.764	2388.89
447.139	2406.29
447.513	2408.55
447.887	2419.85
448.262	2451.49
448.636	2437.03
449.01	2484.71
449.384	2484.03
449.758	2544.59
450.132	2600.41
450.506	2590.92
450.88	2587.08
451.254	2596.57
451.628	2618.94
452.002	2672.05
452.376	2695.78
452.75	2715.21
453.123	2750.46
453.497	2779.62
453.871	2814.87
454.244	2878.37
454.618	2915.66
454.992	2941.42
455.365	2910.23
455.739	3008.99
456.112	3042.89
456.486	3047.63
456.859	3087.4
457.232	3171.24
457.606	3132.15
457.979	3206.72
458.352	3241.98
458.725	3276.55
459.099	3327.4
459.472	3357
459.845	3398.36
460.218	3462.99
460.591	3467.73
460.964	3518.13
461.337	3568.52
461.71	3601.52
462.083	3688.29
462.456	3672.25
462.829	3667.73
463.201	3773.49
463.574	3734.39
463.947	3802.19
464.32	3902.98
464.692	3942.07
465.065	3964.9
465.438	4011.67
465.81	4118.34
466.183	4130.09
466.555	4246.02
466.928	4232.91
467.3	4237.66
467.672	4315.62
468.045	4428.16
468.417	4413.02
468.789	4477.65
469.161	4500.7
469.534	4603.97
469.906	4657.98
470.278	4730.53
470.65	4755.84
471.022	4892.78
471.394	4990.86
471.766	5045.55
472.138	5076.28
472.51	5182.04
472.882	5250.74
473.253	5296.16
473.625	5392.2
473.997	5504.52
474.369	5528.7
474.74	5615.47
475.112	5707.22
475.484	5753.55
475.855	5836.26
476.227	5878.74
476.598	6044.16
476.97	6151.5
477.341	6289.81
477.713	6376.13
478.084	6392.18
478.455	6634.66
478.827	6609.12
479.198	6856.57
479.569	6864.48
479.94	7023.12
480.311	7114.87
480.682	7287.97
481.053	7443.9
481.424	7527.74
481.795	7603.9
482.166	7706.72
482.537	7801.18
482.908	8019.7
483.279	8112.58
483.65	8204.78
484.021	8410.43
484.391	8445.23
484.762	8508.73
485.133	8598.45
485.503	8808.16
485.874	8974.48
486.244	9048.15
486.615	9197.98
486.985	9343.29
487.356	9547.12
487.726	9588.25
488.097	9788.25
488.467	9788.47
488.837	9982.14
489.207	10101.01
489.578	10331.73
489.948	10378.06
490.318	10524.27
490.688	10574.21
491.058	10775.79
491.428	10944.83
491.798	11017.14
492.168	11206.29
492.538	11255.33
492.908	11359.5
493.278	11539.16
493.648	11673.39
494.017	11761.3
494.387	11849.66
494.757	11929.88
495.126	12161.97
495.496	12180.05
495.866	12301.4
496.235	12404.45
496.605	12492.36
496.974	12588.85
497.344	12661.39
497.713	12786.58
498.082	12888.73
498.452	12996.97
498.821	13137.99
499.19	13101.6
499.559	13297.98
499.928	13427.92
500.298	13423.18
500.667	13570.29
501.036	13613.46
501.405	13735.03
501.774	13780.46
502.143	13910.62
502.512	14055.7
502.88	14166.21
503.249	14213.67
503.618	14320.56
503.987	14456.6
504.356	14561.68
504.724	14619.76
505.093	14677.16
505.462	14793.99
505.83	14792.41
506.199	14964.38
506.567	15166.86
506.936	15158.73
507.304	15451.37
507.672	15427.87
508.041	15549.68
508.409	15624.7
508.777	15813.62
509.145	15889.55
509.514	15983.34
509.882	16121.19
510.25	16318.92
510.618	16277.79
510.986	16308.07
511.354	16638.46
511.722	16754.39
512.09	16875.74
512.458	16866.93
512.826	17015.17
513.193	17081.16
513.561	17218.11
513.929	17328.84
514.297	17543.3
514.664	17736.51
515.032	17750.3
515.4	17857.86
515.767	17959.56
516.135	18119.33
516.502	18049.05
516.869	18428.24
517.237	18446.1
517.604	18452.65
517.972	18742.81
518.339	18837.95
518.706	18938.06
519.073	18954.33
519.44	19181.9
519.808	19385.96
520.175	19348.22
520.542	19734.88
520.909	19763.58
521.276	19940.97
521.643	20167.18
522.009	20266.61
522.376	20427.29
522.743	20493.5
523.11	20705.25
523.477	20933.26
523.843	20996.31
524.21	21307.26
524.577	21452.12
524.943	21507.71
525.31	21601.27
525.676	21916.29
526.043	22038.77
526.409	22160.8
526.776	22480.34
527.142	22462.26
527.508	22514.24
527.874	22807.11
528.241	22937.05
528.607	22995.36
528.973	23227.21
529.339	23287.33
529.705	23582.46
530.071	23735
530.437	23859.74
530.803	23941.55
531.169	24036.68
531.535	24190.35
531.901	24348.54
532.267	24385.38
532.632	24517.8
532.998	24681.64
533.364	24868.3
533.73	24829.21
534.095	25065.13
534.461	25165.92
534.826	25404.56
535.192	25322.3
535.557	25577.21
535.923	25522.97
536.288	25826.47
536.653	25928.16
537.019	25964.32
537.384	25992.11
537.749	26190.07
538.114	26220.58
538.479	26277.08
538.845	26535.6
539.21	26560.01
539.575	26523.4
539.94	26639.55
540.305	26941.47
540.67	26808.14
541.034	26895.14
541.399	27001.13
541.764	27193.89
542.129	27316.15
542.494	27405.18
542.858	27512.07
543.223	27563.15
543.587	27733.54
543.952	27610.6
544.316	27789.81
544.681	27803.82
545.045	28021.21
545.41	28204.26
545.774	28104.37
546.138	28246.97
546.503	28327.19
546.867	28315.44
547.231	28675.43
547.595	28670.46
547.959	28769.44
548.324	28736.45
548.688	28829.1
549.052	28962.2
549.416	29079.04
549.779	29263.21
550.143	29246.49
550.507	29451.46
550.871	29564.9
551.235	29653.71
551.599	29669.98
551.962	29818.91
552.326	29856.64
552.689	30186.58
553.053	29985
553.417	30081.05
553.78	30616.17
554.143	30417.08
554.507	30682.61
554.87	30711.99
555.234	30986.78
555.597	30730.29
555.96	30988.82
556.323	31156.72
556.686	31192.88
557.05	31441.69
557.413	31525.98
557.776	31603.94
558.139	31877.16
558.502	31834.67
558.865	31961.45
559.228	32274.43
559.59	32357.82
559.953	32378.39
560.316	32807.3
560.679	32733.63
561.041	32948.99
561.404	33033.96
561.767	33295.65
562.129	33280.51
562.492	33674.17
562.854	33554.85
563.217	33688.86
563.579	33759.82
563.941	33984.45
564.304	34087.27
564.666	34212.69
565.028	34292.91
565.39	34404.55
565.753	34577.42
566.115	34753.69
566.477	34924.31
566.839	34953.23
567.201	35157.97
567.563	35274.35
567.925	35496.27
568.287	35418.76
568.648	35494.01
569.01	35790.5
569.372	35875.47
569.734	35875.02
570.095	36241.11
570.457	36266.42
570.819	36351.39
571.18	36465.74
571.542	36571.5
571.903	36572.4
572.265	36798.38
572.626	36823.47
572.987	36899.62
573.349	36998.38
573.71	37061.2
574.071	37281.08
574.432	37251.93
574.794	37633.61
575.155	37568.08
575.516	37475.43
575.877	37670.68
576.238	37626.61
576.599	37862.08
576.96	37769.43
577.32	37839.71
577.681	38032.47
578.042	38133.26
578.403	38145.47
578.763	38072.25
579.124	38189.31
579.485	38140.04
579.845	38427.49
580.206	38303.65
580.566	38326.93
580.927	38296.87
581.287	38572.35
581.648	38344.78
582.008	38539.13
582.368	38498.45
582.728	38582.29
583.089	38525.57
583.449	38487.38
583.809	38510.2
584.169	38686.69
584.529	38637.88
584.889	38790.19
585.249	38688.05
585.609	38578
585.969	38734.83
586.329	38539.35
586.688	38643.98
587.048	38644.44
587.408	38684.21
587.768	38662.06
588.127	38725.79
588.487	38593.59
588.846	38714.04
589.206	38489.19
589.565	38635.62
589.925	38743.87
590.284	38606.7
590.643	38632.01
591.003	38745.22
591.362	38854.37
591.721	38752.68
592.08	38885.11
592.44	38846.01
592.799	38867.48
593.158	38792.23
593.517	38780.25
593.876	38745.45
594.235	38678.33
594.593	38732.12
594.952	38874.49
595.311	38694.83
595.67	38722.17
596.029	39036.74
596.387	38967.37
596.746	39041.26
597.104	38834.94
597.463	38808.05
597.822	38984.31
598.18	38854.6
598.538	38838.78
598.897	38954.03
599.255	38676.98
599.613	39214.82
599.972	39024.31
600.33	39027.48
600.688	38912.45
601.046	39132.78
601.404	39239.9
601.762	39068.38
602.12	39360.8
602.478	39202.84
602.836	39231.77
603.194	38983.18
603.552	39173.24
603.91	39032.22
604.268	39232.89
604.625	39026.8
604.983	39269.28
605.341	39060.92
605.698	39262.27
606.056	39401.25
606.413	39257.3
606.771	39541.59
607.128	39611.19
607.485	39309.73
607.843	39339.78
608.2	39545.43
608.557	39617.07
608.914	39344.98
609.272	39649.16
609.629	39740
609.986	39792.2
610.343	39583.62
610.7	39944.51
611.057	39889.83
611.414	39957.62
611.771	39941.35
612.127	40044.4
612.484	39993.55
612.841	40183.15
613.198	40048.47
613.554	39996.72
613.911	40248.01
614.267	40235.58
614.624	40152.64
614.98	40352.19
615.337	40492.52
615.693	40361.68
616.05	40299.31
616.406	40512.41
616.762	40362.13
617.118	40557.38
617.475	40447.78
617.831	40543.82
618.187	40626.3
618.543	40625.63
618.899	40766.41
619.255	40676.7
619.611	40760.09
619.967	40833.76
620.323	40890.48
620.678	40742.46
621.034	40599.19
621.39	40725.74
621.746	40691.16
622.101	41086.86
622.457	40742.01
622.812	40819.52
623.168	40927.54
623.523	40879.18
623.879	41074.2
624.234	40790.82
624.589	40893.42
624.945	40991.04
625.3	41065.62
625.655	40883.93
626.01	40914.43
626.365	41036.46
626.72	40966.86
627.075	40904.49
627.43	40897.71
627.785	40725.29
628.14	40835.11
628.495	40867.65
628.85	40838.73
629.205	40781.1
629.559	40884.6
629.914	40629.47
630.269	40749.69
630.623	40728.9
630.978	40747.66
631.332	40741.33
631.687	40801.44
632.041	40628.79
632.396	40694.33
632.75	40496.14
633.104	40515.57
633.459	40378.18
633.813	40324.62
634.167	40192.64
634.521	40198.97
634.875	40312.64
635.229	40248.91
635.583	40083.72
635.937	40104.06
636.291	40128.92
636.645	40082.59
636.999	40011.41
637.352	40064.74
637.706	39770.28
638.06	39833.33
638.413	39760.56
638.767	39737.51
639.121	39673.79
639.474	39457.75
639.828	39484.19
640.181	39629.72
640.534	39543.62
640.888	39476.28
641.241	39290.97
641.594	39452.78
641.947	39437.41
642.301	39377.75
642.654	39336.62
643.007	39356.96
643.36	39290.29
643.713	39087.59
644.066	39312.67
644.419	38988.61
644.771	38826.13
645.124	38418.45
645.477	38219.59
645.83	37994.51
646.182	37862.99
646.535	37813.5
646.888	37960.16
647.24	37747.74
647.593	37982.08
647.945	37995.19
648.298	37711.13
648.65	37695.53
649.002	37522.43
649.355	37724.23
649.707	37482.43
650.059	37665.93
650.411	38084.9
650.763	38088.07
651.115	38527.15
651.467	38287.38
651.819	38388.62
652.171	38119.48
652.523	38307.04
652.875	38140.72
653.227	37957.67
653.578	38201.51
653.93	38166.26
654.282	37991.12
654.633	37926.71
654.985	37933.95
655.337	37934.85
655.688	38045.81
656.039	38049.65
656.391	37663.67
656.742	37869.77
657.094	37874.74
657.445	37841.97
657.796	37717.68
658.147	37787.96
658.498	37667.74
658.849	37771.46
659.2	37628.87
659.551	37580.06
659.902	37536.22
660.253	37444.24
660.604	37427.52
660.955	37228.43
661.306	37327.63
661.656	37219.16
662.007	37158.83
662.358	37286.73
662.708	37208.99
663.059	37119.73
663.409	36884.71
663.76	37144.81
664.11	37036.79
664.461	37027.98
664.811	36976.68
665.161	36926.74
665.511	36622.57
665.862	36617.82
666.212	36887.87
666.562	36642.23
666.912	36448.34
667.262	36427.09
667.612	36353.65
667.962	36297.15
668.312	36243.37
668.662	36244.5
669.011	36245.85
669.361	35996.82
669.711	35980.55
670.06	35749.82
670.41	35697.85
670.76	35649.49
671.109	35772.87
671.459	35605.42
671.808	35589.37
672.157	35515.03
672.507	35237.07
672.856	35396.39
673.205	35280
673.554	35294.92
673.904	35143.06
674.253	35320
674.602	35155.71
674.951	34621.26
675.3	34433.7
675.649	34882.05
675.998	34916.4
676.346	34940.35
676.695	35056.51
677.044	34664.65
677.393	34844.76
677.741	34814.25
678.09	34700.36
678.438	34649.74
678.787	34651.32
679.135	34734.26
679.484	34497.2
679.832	34583.3
680.181	34339.01
680.529	34634.15
680.877	34471.44
681.225	34419.46
681.573	34671.88
681.922	34471.21
682.27	34431.21
682.618	34452.68
682.966	34438.44
683.314	34439.57
683.661	34375.62
684.009	34263.99
684.357	34282.97
684.705	34381.95
685.053	34333.36
685.4	34332.68
685.748	34185.8
686.095	34379.01
686.443	34141.73
686.79	34198
687.138	34393.93
687.485	34393.93
687.832	34101.96
688.18	34262.18
688.527	34106.02
688.874	34233.7
689.221	34108.74
689.568	34102.86
689.915	34017.21
690.262	34140.6
690.609	33978.12
690.956	34001.62
691.303	33901.74
691.65	33851.34
691.997	33828.97
692.344	33594.63
692.69	33743.1
693.037	33763.66
693.383	33554.85
693.73	33620.39
694.077	33441.63
694.423	33552.14
694.769	33307.63
695.116	33384.91
695.462	33420.84
695.808	33167.29
696.155	33305.82
696.501	33098.59
696.847	33098.14
697.193	32838.03
697.539	33116.45
697.885	32793.97
698.231	32724.59
698.577	32741.09
698.923	32577.02
699.269	32529.57
699.614	32452.06
699.96	32325.73
700.306	32310.82
700.651	32324.38
700.997	32247.32
701.342	32027.43
701.688	32127.77
702.033	31980.2
702.379	31911.51
702.724	31911.28
703.069	32046.42
703.415	31545.64
703.76	31710.83
704.105	31562.59
704.45	31539.09
704.795	31354.23
705.14	31220.22
705.485	31300.45
705.83	31048.7
706.175	31241.47
706.52	31009.38
706.865	30991.53
707.209	30958.54
707.554	30854.81
707.899	30893.23
708.243	30812.55
708.588	30649.39
708.932	30440.81
709.277	30392
709.621	30538.43
709.966	30283.75
710.31	30368.04
710.654	30101.61
710.998	30299.12
711.342	30313.58
711.687	30055.06
712.031	29975.96
712.375	29866.81
712.719	29995.85
713.063	29814.84
713.407	29933.25
713.75	29611.91
714.094	29757.89
714.438	29524.45
714.782	29652.58
715.125	29481.29
715.469	29437.67
715.812	29345.25
716.156	29360.84
716.499	29338.47
716.843	29191.35
717.186	29082.88
717.53	29230.67
717.873	29123.78
718.216	29108.64
718.559	28972.83
718.902	28820.74
719.246	28921.75
719.589	28706.17
719.932	28623.68
720.275	28677.69
720.617	28603.34
720.96	28566.96
721.303	28588.43
721.646	28541.2
721.989	28320.41
722.331	28393.41
722.674	28364.93
723.016	28286.74
723.359	28237.03
723.701	28342.11
724.044	28129.68
724.386	27963.81
724.729	28068.89
725.071	28062.34
725.413	27971.5
725.755	27853.31
726.097	27846.3
726.439	27752.29
726.782	27677.72
727.124	27853.76
727.465	27682.46
727.807	27639.53
728.149	27581.45
728.491	27579.19
728.833	27561.11
729.175	27472.98
729.516	27398.4
729.858	27348.69
730.199	27298.29
730.541	27322.47
730.882	27227.33
731.224	27213.1
731.565	27143.04
731.906	27135.81
732.248	27070.73
732.589	26941.69
732.93	26923.61
733.271	26852.2
733.612	26847.23
733.953	26833.67
734.294	26853.33
734.635	26756.16
734.976	26850.62
735.317	26703.73
735.658	26543.74
735.999	26582.61
736.339	26554.13
736.68	26671.87
737.021	26590.06
737.361	26381.26
737.702	26509.39
738.042	26446.34
738.383	26317.75
738.723	26309.17
739.063	26249.73
739.404	26267.59
739.744	26111.43
740.084	26067.82
740.424	26160.92
740.764	26096.74
741.104	26120.47
741.444	26011.1
741.784	25831.44
742.124	26037.54
742.464	25874.38
742.804	25699.24
743.143	25696.98
743.483	25745.34
743.823	25687.04
744.162	25702.18
744.502	25724.78
744.841	25504.22
745.181	25566.14
745.52	25412.69
745.86	25558.45
746.199	25506.25
746.538	25365.69
746.877	25451.56
747.216	25353.26
747.556	25277.33
747.895	25278.46
748.234	25181.96
748.573	25128.63
748.911	25128.63
749.25	25126.15
749.589	24888.64
749.928	24937.9
750.267	24908.53
750.605	24896.32
750.944	24818.58
751.283	24787.17
751.621	24771.58
751.96	24678.02
752.298	24590.79
752.636	24534.98
752.975	24528.42
753.313	24299.95
753.651	24500.85
753.989	24342.89
