Data from white_poster_card_FLMS001491_00094.txt Node
Date: Wed Feb 08 11:52:18 GMT 2017
User: dcchb
Spectrometer: FLMS00149
Trigger mode: 0
Integration Time (sec): 2.000000E-2
Scans to average: 10
Electric dark correction enabled: true
Nonlinearity correction enabled: false
Boxcar width: 0
XAxis mode: Wavelengths
Number of Pixels in Spectrum: 2048
>>>>>Begin Spectral Data<<<<<
341.393	-13.09
341.776	-13.09
342.16	-13.09
342.543	-62.58
342.927	-63.94
343.31	-71.85
343.693	-70.27
344.077	-67.78
344.46	-56.26
344.843	-39.31
345.226	-35.24
345.61	-15.8
345.993	-27.78
346.376	-10.61
346.759	7.92
347.142	33.91
347.525	39.56
347.908	45.89
348.291	70.52
348.674	85.44
349.057	111.65
349.44	113.01
349.823	115.04
350.206	172.66
350.588	203.62
350.971	213.12
351.354	213.79
351.737	244.98
352.119	245.88
352.502	251.08
352.884	269.61
353.267	277.75
353.65	296.96
354.032	312.55
354.414	300.8
354.797	308.93
355.179	288.14
355.562	322.94
355.944	328.59
356.326	322.72
356.709	348.93
357.091	334.24
357.473	324.75
357.855	347.12
358.238	365.88
358.62	332.66
359.002	343.73
359.384	333.11
359.766	328.14
360.148	346.9
360.53	345.09
360.912	331.53
361.294	310.74
361.676	336.95
362.057	329.72
362.439	335.82
362.821	310.51
363.203	321.59
363.584	315.94
363.966	320.01
364.348	321.59
364.729	331.98
365.111	314.36
365.493	327.92
365.874	318.42
366.256	306.9
366.637	310.97
367.019	320.68
367.4	313.9
367.781	305.77
368.163	316.39
368.544	305.09
368.925	325.2
369.306	321.14
369.688	318.65
370.069	297.41
370.45	338.99
370.831	325.66
371.212	299.44
371.593	303.28
371.974	309.16
372.355	308.71
372.736	311.87
373.117	319.33
373.498	318.42
373.879	308.71
374.26	303.28
374.641	311.19
375.021	327.92
375.402	336.28
375.783	330.17
376.163	329.72
376.544	316.16
376.925	323.4
377.305	327.69
377.686	304.86
378.066	325.43
378.447	331.98
378.827	306.22
379.208	336.95
379.588	346.45
379.968	341.7
380.349	329.72
380.729	311.64
381.109	335.37
381.489	319.78
381.87	350.06
382.25	343.51
382.63	354.58
383.01	366.56
383.39	355.03
383.77	344.41
384.15	326.79
384.53	331.76
384.91	342.38
385.29	373.34
385.67	350.97
386.049	360.23
386.429	356.84
386.809	351.42
387.189	343.51
387.568	368.59
387.948	364.75
388.328	353.68
388.707	367.91
389.087	359.33
389.466	386.44
389.846	372.43
390.225	360.23
390.605	370.63
390.984	372.89
391.363	369.04
391.743	360
392.122	378.99
392.501	394.13
392.881	408.82
393.26	397.07
393.639	410.4
394.018	402.04
394.397	404.3
394.776	389.38
395.155	428.03
395.534	381.92
395.913	398.65
396.292	409.27
396.671	404.75
397.05	431.42
397.429	420.34
397.808	422.83
398.186	421.25
398.565	429.83
398.944	415.82
399.323	418.99
399.701	430.96
400.08	441.81
400.458	442.71
400.837	452.21
401.215	437.97
401.594	433.9
401.972	449.27
402.351	437.52
402.729	460.12
403.107	444.52
403.486	454.92
403.864	477.06
404.242	461.7
404.62	483.39
404.999	504.63
405.377	473
405.755	493.79
406.133	494.01
406.511	478.87
406.889	496.27
407.267	513.67
407.645	502.15
408.023	513.67
408.401	519.1
408.779	518.19
409.156	529.27
409.534	550.28
409.912	571.98
410.29	572.88
410.667	578.53
411.045	585.31
411.422	607.68
411.8	614.46
412.178	619.43
412.555	602.48
412.933	648.58
413.31	664.4
413.687	662.6
414.065	667.12
414.442	669.15
414.819	692.43
415.197	686.78
415.574	738.3
415.951	728.81
416.328	741.92
416.705	752.08
417.082	779.88
417.46	773.1
417.837	802.25
418.214	832.08
418.591	813.78
418.967	828.69
419.344	853.55
419.721	859.65
420.098	877.96
420.475	875.25
420.852	905.53
421.228	919.54
421.605	926.77
421.982	931.97
422.358	934.23
422.735	996.37
423.111	964.96
423.488	999.99
423.864	1013.77
424.241	1014
424.617	1031.4
424.994	1015.35
425.37	1052.64
425.746	1077.5
426.123	1083.83
426.499	1085.86
426.875	1108.23
427.251	1120.66
427.627	1136.03
428.003	1160.89
428.379	1198.17
428.756	1173.32
429.132	1222.35
429.507	1245.63
429.883	1246.08
430.259	1277.49
430.635	1267.55
431.011	1307.1
431.387	1332.86
431.763	1335.8
432.138	1340.32
432.514	1393.65
432.89	1362.01
433.265	1438.39
433.641	1455.57
434.016	1436.81
434.392	1456.47
434.767	1513.87
435.143	1482.01
435.518	1536.02
435.894	1531.27
436.269	1515.68
436.644	1571.27
437.02	1600.65
437.395	1596.36
437.77	1615.79
438.145	1634.32
438.52	1660.08
438.895	1677.03
439.271	1679.52
439.646	1704.6
440.021	1732.85
440.395	1758.84
440.77	1729.01
441.145	1741.89
441.52	1778.95
441.895	1778.95
442.27	1824.82
442.645	1809.68
443.019	1799.29
443.394	1817.82
443.769	1826.41
444.143	1827.08
444.518	1864.6
444.892	1875.67
445.267	1848.78
445.641	1896.24
446.016	1931.94
446.39	1917.03
446.764	1927.2
447.139	1938.27
447.513	1966.97
447.887	1973.97
448.262	1974.88
448.636	1964.48
449.01	2005.39
449.384	2017.14
449.758	2083.8
450.132	2060.75
450.506	2094.2
450.88	2093.07
451.254	2095.78
451.628	2143.91
452.002	2162.22
452.376	2151.6
452.75	2178.71
453.123	2211.48
453.497	2194.76
453.871	2216.9
454.244	2304.36
454.618	2282.89
454.992	2346.39
455.365	2310.01
455.739	2368.09
456.112	2435.88
456.486	2432.04
456.859	2444.92
457.232	2499.16
457.606	2472.04
457.979	2502.55
458.352	2611.24
458.725	2580.96
459.099	2577.8
459.472	2671.36
459.845	2676.55
460.218	2710.9
460.591	2735.99
460.964	2761.52
461.337	2813.05
461.71	2838.58
462.083	2871.13
462.456	2866.61
462.829	2862.31
463.201	2970.56
463.574	2924.01
463.947	3000.84
464.32	3053.95
464.692	3034.51
465.065	3103.66
465.438	3104.11
465.81	3201.06
466.183	3244
466.555	3251.91
466.928	3321.96
467.3	3277.89
467.672	3363.99
468.045	3426.59
468.417	3459.13
468.789	3437.21
469.161	3479.24
469.534	3535.29
469.906	3613.03
470.278	3621.84
470.65	3710.43
471.022	3759.24
471.394	3797.88
471.766	3823.19
472.138	3918.78
472.51	3953.13
472.882	4001.49
473.253	4080.58
473.625	4117.42
473.997	4182.28
474.369	4245.1
474.74	4225.44
475.112	4321.93
475.484	4396.73
475.855	4488.94
476.227	4503.62
476.598	4625.43
476.97	4675.15
477.341	4757.18
477.713	4880.56
478.084	4860.9
478.455	4983.61
478.827	5043.72
479.198	5192.42
479.569	5157.62
479.94	5326.65
480.311	5346.31
480.682	5473.99
481.053	5607.78
481.424	5664.5
481.795	5712.18
482.166	5740.88
482.537	5894.55
482.908	6058.61
483.279	6055.9
483.65	6153.3
484.021	6277.82
484.391	6335.21
484.762	6420.64
485.133	6414.31
485.503	6523.23
485.874	6725.49
486.244	6793.96
486.615	6817.01
486.985	6912.83
487.356	7128.19
487.726	7132.93
488.097	7304.23
488.467	7287.73
488.837	7435.3
489.207	7574.05
489.578	7658.57
489.948	7770.21
490.318	7835.51
490.688	7878.23
491.058	8008.62
491.428	8104.66
491.798	8242.74
492.168	8304.88
492.538	8348.27
492.908	8462.84
493.278	8593.23
493.648	8582.39
494.017	8708.26
494.387	8842.27
494.757	8881.59
495.126	8998.87
495.496	9022.38
495.866	9112.54
496.235	9247.68
496.605	9324.97
496.974	9328.58
497.344	9465.08
497.713	9518.18
498.082	9562.25
498.452	9676.37
498.821	9762.92
499.19	9757.72
499.559	9929.47
499.928	9950.71
500.298	10053.31
500.667	10129.47
501.036	10103.25
501.405	10208.56
501.774	10234.32
502.143	10298.95
502.512	10393.41
502.88	10493.3
503.249	10519.06
503.618	10573.97
503.987	10604.93
504.356	10741.2
504.724	10785.49
505.093	10852.61
505.462	10878.82
505.83	10967.64
506.199	11181.19
506.567	11213.05
506.936	11231.58
507.304	11340.96
507.672	11396.32
508.041	11462.09
508.409	11549.54
508.777	11610.33
509.145	11782.98
509.514	11853.04
509.882	11899.36
510.25	11950.43
510.618	12081.96
510.986	12037.21
511.354	12284.89
511.722	12339.35
512.09	12377.09
512.458	12469.97
512.826	12566.92
513.193	12601.26
513.561	12661.6
513.929	12759.9
514.297	12925.32
514.664	12994.7
515.032	13071.31
515.4	13172.32
515.767	13242.38
516.135	13258.42
516.502	13248.25
516.869	13485.08
517.237	13588.36
517.604	13540.22
517.972	13756.26
518.339	13895.92
518.706	13888.24
519.073	14035.8
519.44	14132.52
519.808	14286.42
520.175	14269.02
520.542	14496.58
520.909	14562.12
521.276	14593.53
521.643	14712.85
522.009	14850.25
522.376	14986.74
522.743	15033.29
523.11	15230.8
523.477	15305.6
523.843	15438.7
524.21	15594.63
524.577	15680.96
524.943	15755.98
525.31	15871.69
525.676	16061.51
526.043	16123.88
526.409	16195.07
526.776	16414.5
527.142	16483.87
527.508	16635.28
527.874	16736.3
528.241	16909.85
528.607	16899.68
528.973	17049.96
529.339	17077.53
529.705	17214.7
530.071	17354.36
530.437	17524.53
530.803	17534.47
531.169	17680.45
531.535	17731.75
531.901	17858.53
532.267	17883.39
532.632	18064.4
532.998	18162.25
533.364	18196.6
533.73	18276.14
534.095	18386.42
534.461	18515.91
534.826	18543.71
535.192	18603.14
535.557	18748.9
535.923	18720.88
536.288	18935.34
536.653	18939.63
537.019	18904.83
537.384	19048.55
537.749	19128.55
538.114	19145.5
538.479	19185.05
538.845	19419.84
539.21	19441.08
539.575	19546.39
539.94	19547.07
540.305	19733.73
540.67	19697.12
541.034	19806.05
541.399	19822.32
541.764	19888.98
542.129	19973.27
542.494	20087.4
542.858	20105.25
543.223	20127.17
543.587	20286.71
543.952	20262.53
544.316	20356.99
544.681	20328.52
545.045	20655.74
545.41	20658.23
545.774	20801.73
546.138	20693.48
546.503	20841.05
546.867	20836.75
547.231	21081.04
547.595	21070.87
547.959	21165.79
548.324	21124.66
548.688	21288.27
549.052	21368.49
549.416	21400.58
549.779	21455.04
550.143	21496.85
550.507	21684.64
550.871	21671.53
551.235	21866.33
551.599	21924.41
551.962	21953.79
552.326	22073.33
552.689	22115.82
553.053	22109.72
553.417	22144.74
553.78	22411.63
554.143	22350.39
554.507	22547.44
554.87	22505.41
555.234	22723.26
555.597	22664.5
555.96	22821.11
556.323	22910.82
556.686	22999.18
557.05	23086.64
557.413	23243.47
557.776	23304.71
558.139	23511.26
558.502	23577.47
558.865	23663.57
559.228	23762.33
559.59	23816.56
559.953	23971.14
560.316	24179.72
560.679	24125.26
561.041	24315.76
561.404	24398.02
561.767	24556.43
562.129	24372.93
562.492	24775.41
562.854	24752.58
563.217	24695.41
563.579	24818.34
563.941	25070.32
564.304	25212.91
564.666	25407.03
565.028	25451.32
565.39	25556.86
565.753	25642.73
566.115	25801.14
566.477	25858.77
566.839	25929.28
567.201	26134.24
567.563	26086.11
567.925	26333.11
568.287	26291.53
568.648	26417.85
569.01	26426.66
569.372	26584.63
569.734	26666.43
570.095	26779.2
570.457	27025.29
570.819	27009.47
571.18	27072.52
571.542	27188.9
571.903	27276.13
572.265	27331.72
572.626	27287.66
572.987	27431.61
573.349	27490.36
573.71	27659.63
574.071	27656.69
574.432	27782.79
574.794	27936.45
575.155	27992.5
575.516	27874.08
575.877	28040.63
576.238	28012.84
576.599	28250.12
576.96	28224.36
577.32	28172.61
577.681	28382.54
578.042	28411.47
578.403	28263.68
578.763	28480.17
579.124	28674.51
579.485	28663.22
579.845	28674.97
580.206	28626.38
580.566	28656.21
580.927	28729.2
581.287	28895.07
581.648	28674.51
582.008	28856.66
582.368	28863.44
582.728	28989.76
583.089	28842.65
583.449	28796.55
583.809	28935.52
584.169	28914.06
584.529	28890.55
584.889	29057.1
585.249	28918.8
585.609	28891.01
585.969	29056.43
586.329	28913.38
586.688	29017.1
587.048	29082.19
587.408	28961.06
587.768	28979.14
588.127	28960.38
588.487	28928.29
588.846	29172.58
589.206	28937.33
589.565	28965.81
589.925	29059.59
590.284	29069.53
590.643	29091
591.003	29193.82
591.362	29346.59
591.721	29089.87
592.08	29160.83
592.44	29185.69
592.799	29222.3
593.158	29069.76
593.517	29221.84
593.876	29161.96
594.235	29138.23
594.593	29112.02
594.952	29163.54
595.311	29214.39
595.67	29289.64
596.029	29383.87
596.387	29339.13
596.746	29404.89
597.104	29175.29
597.463	29198.79
597.822	29451.9
598.18	29346.36
598.538	29326.25
598.897	29598.78
599.255	29304.1
599.613	29633.36
599.972	29508.84
600.33	29559.91
600.688	29475.85
601.046	29605.79
601.404	29719.91
601.762	29692.57
602.12	29707.03
602.478	29768.27
602.836	29803.3
603.194	29676.75
603.552	29723.07
603.91	29568.73
604.268	29746.58
604.625	29732.11
604.983	29806.46
605.341	29697.09
605.698	29935.05
606.056	29961.49
606.413	29933.24
606.771	30027.25
607.128	30027.02
607.485	29879.68
607.843	29923.3
608.2	30049.39
608.557	30315.83
608.914	30137.3
609.272	30219.33
609.629	30123.74
609.986	30496.39
610.343	30064.76
610.7	30573.22
611.057	30317.86
611.414	30363.96
611.771	30383.85
612.127	30539.55
612.484	30545.2
612.841	30700.22
613.198	30443.73
613.554	30476.5
613.911	30669.94
614.267	30721.69
614.624	30594.01
614.98	30627.46
615.337	30848.24
615.693	30716.04
616.05	30791.29
616.406	30839.43
616.762	30771.41
617.118	30730.05
617.475	30830.84
617.831	30915.13
618.187	30806.44
618.543	30843.27
618.899	31035.58
619.255	30909.03
619.611	30985.41
619.967	31121.23
620.323	31066.32
620.678	30930.27
621.034	31048.24
621.39	30936.15
621.746	30953.78
622.101	31301.34
622.457	30921.23
622.812	31080.33
623.168	31115.13
623.523	31056.82
623.879	31191.74
624.234	30943.16
624.589	31205.3
624.945	31097.73
625.3	31223.6
625.655	31102.47
626.01	31173.88
626.365	31133.88
626.72	31136.6
627.075	31124.17
627.43	31145.18
627.785	30996.49
628.14	31007.56
628.495	31144.51
628.85	31146.54
629.205	30996.71
629.559	31020.67
629.914	30906.77
630.269	30908.13
630.623	30920.33
630.978	30815.48
631.332	30964.62
631.687	30979.76
632.041	30854.57
632.396	30961.69
632.75	30787.91
633.104	30756.04
633.459	30644.86
633.813	30577.06
634.167	30588.36
634.521	30604.18
634.875	30694.8
635.229	30513.56
635.583	30434.92
635.937	30468.37
636.291	30363.28
636.645	30413.23
636.999	30223.4
637.352	30341.82
637.706	30164.87
638.06	30273.12
638.413	30168.71
638.767	29999.23
639.121	30283.06
639.474	29933.01
639.828	29983.63
640.181	30016.17
640.534	30062.27
640.888	29857.31
641.241	29791.32
641.594	29843.52
641.947	29878.55
642.301	29756.07
642.654	29849.85
643.007	29861.15
643.36	29699.35
643.713	29672.91
644.066	29749.97
644.419	29577.54
644.771	29393.14
645.124	29069.76
645.477	29091
645.83	28921.74
646.182	28877.9
646.535	28712.71
646.888	28636.55
647.24	28620.05
647.593	28703.21
647.945	28541.86
648.298	28430.9
648.65	28326.73
649.002	28316.33
649.355	28496.89
649.707	28432.71
650.059	28482.43
650.411	28795.19
650.763	28836.54
651.115	29088.29
651.467	28985.24
651.819	28927.62
652.171	28928.29
652.523	28844
652.875	28956.09
653.227	28715.87
653.578	28939.82
653.93	28753.83
654.282	28855.3
654.633	28600.84
654.985	28596.55
655.337	28683.55
655.688	28600.17
656.039	28746.6
656.391	28376.22
656.742	28547.06
657.094	28470.68
657.445	28724.46
657.796	28423.9
658.147	28461.64
658.498	28406.27
658.849	28535.54
659.2	28397.23
659.551	28320.85
659.902	28352.71
660.253	28344.35
660.604	28364.01
660.955	28226.62
661.306	28310.68
661.656	28218.26
662.007	28324.92
662.358	28234.3
662.708	28258.25
663.059	28196.33
663.409	27979.17
663.76	28191.36
664.11	28102.78
664.461	28229.1
664.811	28168.99
665.161	28125.6
665.511	28038.37
665.862	28086.06
666.212	28142.1
666.562	28214.87
666.912	28113.85
667.262	28179.16
667.612	28159.95
667.962	28019.62
668.312	27954.31
668.662	28280.85
669.011	28104.81
669.361	28038.37
669.711	28141.42
670.06	27927.87
670.41	27915.89
670.76	27788.44
671.109	27922.22
671.459	27877.7
671.808	27797.7
672.157	27846.51
672.507	27656.91
672.856	27701.21
673.205	27674.31
673.554	27710.7
673.904	27602.23
674.253	27867.08
674.602	27643.81
674.951	27296.92
675.3	27061.68
675.649	27583.24
675.998	27453.53
676.346	27505.05
676.695	27626.18
677.044	27416.69
677.393	27623.92
677.741	27447.2
678.09	27471.38
678.438	27447.88
678.787	27416.47
679.135	27448.11
679.484	27225.74
679.832	27322.46
680.181	27153.88
680.529	27261.44
680.877	27110.71
681.225	27154.1
681.573	27176.25
681.922	27038.63
682.27	27056.03
682.618	26994.78
682.966	26864.84
683.314	27051.51
683.661	26816.71
684.009	26759.99
684.357	26715.24
684.705	26688.35
685.053	26749.59
685.4	26570.61
685.748	26454.01
686.095	26495.81
686.443	26425.53
686.79	26346.21
687.138	26430.73
687.485	26351.86
687.832	26261.92
688.18	26180.57
688.527	26070.97
688.874	26211.53
689.221	25990.07
689.568	26021.7
689.915	25874.14
690.262	25897.86
690.609	25740.58
690.956	25658.55
691.303	25763.86
691.65	25555.95
691.997	25493.58
692.344	25414.94
692.69	25363.87
693.037	25306.02
693.383	25134.95
693.73	25247.03
694.077	25026.25
694.423	25007.04
694.769	24927.72
695.116	24946.25
695.462	24833.49
695.808	24704.22
696.155	24853.82
696.501	24591.23
696.847	24643.66
697.193	24363.67
697.539	24475.98
697.885	24307.62
698.231	24320.73
698.577	24293.61
698.923	24239.6
699.269	24160.06
699.614	23999.38
699.96	23931.59
700.306	24034.64
700.651	23891.82
700.997	23887.07
701.342	23733.4
701.688	23741.76
702.033	23542.45
702.379	23676.45
702.724	23557.81
703.069	23532.95
703.415	23332.51
703.76	23287.31
704.105	23336.8
704.45	23317.82
704.795	23145.39
705.14	23120.76
705.485	23026.53
705.83	22856.81
706.175	23006.64
706.52	22871.5
706.865	22826.31
707.209	22786.31
707.554	22684.39
707.899	22844.39
708.243	22548.12
708.588	22656.82
708.932	22345.42
709.277	22446.88
709.621	22409.59
709.966	22271.07
710.31	22339.31
710.654	22117.4
710.998	22110.17
711.342	22106.33
711.687	22032.88
712.031	22011.41
712.375	21886.44
712.719	21972.32
713.063	21924.64
713.407	21955.37
713.75	21904.75
714.094	21799.67
714.438	21689.61
714.782	21717.64
715.125	21575.94
715.469	21642.83
715.812	21593.12
716.156	21326.91
716.499	21503.18
716.843	21465.66
717.186	21241.49
717.53	21435.61
717.873	21457.53
718.216	21342.5
718.559	21288.49
718.902	21082.17
719.246	21119.01
719.589	20989.07
719.932	20964.66
720.275	20956.3
720.617	20981.61
720.96	20866.13
721.303	20857.54
721.646	20825.91
721.989	20634.5
722.331	20687.83
722.674	20659.36
723.016	20745.46
723.359	20608.06
723.701	20687.83
724.044	20495.29
724.386	20471.34
724.729	20464.11
725.071	20419.59
725.413	20431.12
725.755	20418.23
726.097	20208.07
726.439	20165.13
726.782	20253.72
727.124	20302.08
727.465	20206.94
727.807	20163.1
728.149	20134.85
728.491	20072.25
728.833	20062.54
729.175	20004.69
729.516	19989.77
729.858	19885.82
730.199	19967.17
730.541	19889.43
730.882	19865.93
731.224	19986.38
731.565	19821.64
731.906	19727.18
732.248	19706.61
732.589	19624.58
732.93	19620.74
733.271	19554.08
733.612	19623.45
733.953	19706.39
734.294	19553.85
734.635	19471.59
734.976	19398.6
735.317	19407.64
735.658	19429.11
735.999	19360.41
736.339	19324.48
736.68	19310.69
737.021	19134.2
737.361	19175.1
737.702	19317.47
738.042	19202.22
738.383	19131.71
738.723	19171.26
739.063	19068.89
739.404	19188.66
739.744	19104.6
740.084	19071.15
740.424	19009.91
740.764	19071.83
741.104	19013.98
741.444	18827.77
741.784	18853.08
742.124	18965.84
742.464	18881.33
742.804	18764.49
743.143	18768.79
743.483	18813.3
743.823	18646.3
744.162	18619.64
744.502	18628
744.841	18505.97
745.181	18652.18
745.52	18591.39
745.86	18553.65
746.199	18455.8
746.538	18382.81
746.877	18428.46
747.216	18359.08
747.556	18416.25
747.895	18379.42
748.234	18233.43
748.573	18191.4
748.911	18250.38
749.25	18183.04
749.589	18062.14
749.928	18115.92
750.267	18189.37
750.605	18117.5
750.944	18025.08
751.283	17927.9
751.621	18034.34
751.96	17776.27
752.298	17783.28
752.636	17835.48
752.975	17742.37
753.313	17661.24
753.651	17838.42
753.989	17705.99
754.327	17606.78
754.666	17509.16
