Data from white_steel_sheet_FLMS001491_019.txt Node
Date: Tue Feb 07 10:57:28 GMT 2017
User: dcchb
Spectrometer: FLMS00149
Trigger mode: 0
Integration Time (sec): 2.000000E-2
Scans to average: 10
Electric dark correction enabled: true
Nonlinearity correction enabled: false
Boxcar width: 0
XAxis mode: Wavelengths
Number of Pixels in Spectrum: 2048
>>>>>Begin Spectral Data<<<<<
341.393	-12.3
341.776	-12.3
342.16	-12.3
342.543	-60.21
342.927	-83.94
343.31	-76.93
343.693	-85.75
344.077	-81
344.46	-47.1
344.843	-47.1
345.226	-43.94
345.61	-34.45
345.993	-6.43
346.376	-4.62
346.759	21.82
347.142	36.06
347.525	31.99
347.908	65.89
348.291	76.28
348.674	89.84
349.057	105.44
349.44	114.02
349.823	119.9
350.206	169.84
350.588	179.33
350.971	217.97
351.354	246
351.737	236.96
352.119	235.38
352.502	254.81
352.884	271.76
353.267	286.9
353.65	289.84
354.032	301.59
354.414	300.68
354.797	307.46
355.179	316.73
355.562	333.23
355.944	341.81
356.326	337.52
356.709	328.25
357.091	325.99
357.473	353.34
357.855	340.23
358.238	341.59
358.62	336.16
359.002	340.23
359.384	372.09
359.766	341.14
360.148	351.08
360.53	373.22
360.912	338.42
361.294	340.46
361.676	336.84
362.057	344.3
362.439	332.32
362.821	323.51
363.203	348.59
363.584	344.3
363.966	335.49
364.348	319.67
364.729	319.21
365.111	319.67
365.493	316.05
365.874	338.2
366.256	333.45
366.637	328.03
367.019	311.08
367.4	322.38
367.781	331.64
368.163	315.15
368.544	327.8
368.925	325.77
369.306	317.86
369.688	311.31
370.069	328.03
370.45	321.47
370.831	309.27
371.212	337.97
371.593	340.68
371.974	315.83
372.355	339.33
372.736	323.28
373.117	319.44
373.498	321.02
373.879	326.9
374.26	350.4
374.641	337.97
375.021	326.67
375.402	345.43
375.783	342.49
376.163	352.21
376.544	345.43
376.925	350.4
377.305	320.57
377.686	342.72
378.066	363.73
378.447	330.97
378.827	368.48
379.208	344.3
379.588	322.38
379.968	344.3
380.349	347.91
380.729	367.12
381.109	330.29
381.489	365.77
381.87	370.06
382.25	364.86
382.63	357.86
383.01	360.12
383.39	360.57
383.77	356.73
384.15	354.47
384.53	389.5
384.91	384.3
385.29	384.98
385.67	365.77
386.049	389.27
386.429	373.68
386.809	376.61
387.189	386.56
387.568	387.46
387.948	396.5
388.328	374.58
388.707	404.18
389.087	403.28
389.466	420.91
389.846	426.56
390.225	429.72
390.605	412.09
390.984	413.45
391.363	416.84
391.743	436.95
392.122	418.87
392.501	454.58
392.881	427.23
393.26	442.15
393.639	445.54
394.018	455.48
394.397	441.25
394.776	452.54
395.155	439.89
395.534	456.16
395.913	486.67
396.292	485.09
396.671	501.58
397.05	493.22
397.429	481.92
397.808	469.04
398.186	505.65
398.565	501.58
398.944	498.42
399.323	517.18
399.701	536.38
400.08	525.31
400.458	532.54
400.837	560.34
401.215	539.1
401.594	543.16
401.972	565.99
402.351	550.85
402.729	576.84
403.107	601.47
403.486	568.93
403.864	588.59
404.242	590.62
404.62	617.06
404.999	635.36
405.377	616.38
405.755	641.92
406.133	659.09
406.511	676.95
406.889	664.29
407.267	692.54
407.645	684.18
408.023	699.77
408.401	720.79
408.779	747.68
409.156	749.94
409.534	731.63
409.912	743.84
410.29	763.27
410.667	763.95
411.045	794
411.422	804.4
411.8	797.85
412.178	833.55
412.555	835.36
412.933	836.49
413.31	855.02
413.687	852.53
414.065	866.09
414.442	907
414.819	903.61
415.197	917.39
415.574	915.36
415.951	923.49
416.328	934.57
416.705	954.9
417.082	958.52
417.46	984.06
417.837	970.05
418.214	975.24
418.591	995.13
418.967	1002.36
419.344	1023.38
419.721	1016.15
420.098	1024.73
420.475	1059.31
420.852	1059.31
421.228	1082.36
421.605	1066.99
421.982	1112.41
422.358	1091.4
422.735	1113.77
423.111	1113.77
423.488	1151.51
423.864	1145.63
424.241	1153.54
424.617	1184.28
424.994	1185.41
425.37	1169.14
425.746	1194.9
426.123	1239.19
426.499	1222.69
426.875	1244.61
427.251	1239.64
427.627	1302.01
428.003	1292.97
428.379	1287.55
428.756	1330.49
429.132	1330.49
429.507	1335.46
429.883	1353.76
430.259	1372.52
430.635	1398.96
431.011	1413.65
431.387	1433.76
431.763	1454.55
432.138	1485.51
432.514	1496.58
432.89	1511.27
433.265	1536.81
433.641	1573.19
434.016	1571.39
434.392	1598.73
434.767	1612.97
435.143	1630.82
435.518	1649.8
435.894	1654.55
436.269	1707.65
436.644	1710.36
437.02	1731.16
437.395	1720.31
437.77	1749.69
438.145	1763.92
438.52	1794.43
438.895	1810.47
439.271	1783.81
439.646	1866.52
440.021	1881.66
440.395	1906.97
440.77	1870.81
441.145	1907.65
441.52	1956.91
441.895	1970.02
442.27	1952.62
442.645	1963.01
443.019	2024.48
443.394	1997.59
443.769	2017.7
444.143	2009.57
444.518	2057.93
444.892	2068.77
445.267	2087.98
445.641	2109
446.016	2086.4
446.39	2145.83
446.764	2163.69
447.139	2112.39
447.513	2182.67
447.887	2158.04
448.262	2177.47
448.636	2175.21
449.01	2249.79
449.384	2266.06
449.758	2261.08
450.132	2276
450.506	2334.75
450.88	2330.69
451.254	2318.94
451.628	2365.04
452.002	2393.74
452.376	2406.84
452.75	2439.61
453.123	2476.45
453.497	2495.65
453.871	2517.12
454.244	2541.08
454.618	2597.12
454.992	2619.27
455.365	2615.88
455.739	2701.75
456.112	2709.43
456.486	2737.68
456.859	2765.93
457.232	2806.83
457.606	2807.74
457.979	2849.77
458.352	2902.65
458.725	2926.15
459.099	2948.3
459.472	3012.93
459.845	3038.24
460.218	3071.91
460.591	3122.08
460.964	3090.67
461.337	3158.91
461.71	3269.87
462.083	3237.78
462.456	3276.43
462.829	3300.61
463.201	3363.65
463.574	3345.8
463.947	3383.77
464.32	3523.88
464.692	3518.9
465.065	3528.17
465.438	3564.55
465.81	3611.33
466.183	3678.45
466.555	3726.58
466.928	3800.25
467.3	3796.19
467.672	3859.91
468.045	3934.94
468.417	3943.3
468.789	3970.42
469.161	4056.52
469.534	4084.31
469.906	4176.29
470.278	4223.07
470.65	4246.34
471.022	4317.75
471.394	4403.85
471.766	4421.03
472.138	4489.95
472.51	4563.4
472.882	4665.32
473.253	4684.52
473.625	4776.5
473.997	4856.72
474.369	4904.63
474.74	4959.32
475.112	5050.84
475.484	5111.18
475.855	5194.57
476.227	5258.75
476.598	5407.67
476.97	5386.43
477.341	5517.72
477.713	5657.38
478.084	5704.16
478.455	5815.34
478.827	5843.82
479.198	6076.35
479.569	6045.62
479.94	6232.96
480.311	6262.11
480.682	6409
481.053	6536.68
481.424	6595.43
481.795	6707.07
482.166	6807.86
482.537	6936.89
482.908	7046.95
483.279	7112.48
483.65	7225.7
484.021	7421.63
484.391	7526.71
484.762	7576.43
485.133	7584.33
485.503	7791.11
485.874	7901.61
486.244	8005.34
486.615	8131.21
486.985	8222.51
487.356	8382.96
487.726	8395.16
488.097	8649.84
488.467	8653.91
488.837	8803.96
489.207	8922.83
489.578	9176.16
489.948	9154.01
490.318	9297.51
490.688	9306.32
491.058	9525.75
491.428	9543.83
491.798	9713.32
492.168	9933.88
492.538	9936.81
492.908	9994.89
493.278	10158.5
493.648	10119.64
494.017	10309.23
494.387	10462.45
494.757	10504.48
495.126	10653.41
495.496	10657.25
495.866	10813.4
496.235	10881.42
496.605	10991.7
496.974	11045.49
497.344	11163.22
497.713	11301.3
498.082	11364.12
498.452	11520.73
498.821	11491.35
499.19	11513.72
499.559	11660.84
499.928	11828.29
500.298	11913.94
500.667	11954.84
501.036	11949.19
501.405	12087.04
501.774	12113.03
502.143	12309.18
502.512	12394.15
502.88	12510.31
503.249	12436.18
503.618	12708.04
503.987	12678.44
504.356	12806.8
504.724	12852.67
505.093	12938.32
505.462	13013.8
505.83	13084.53
506.199	13264.41
506.567	13390.06
506.936	13408.81
507.304	13620.56
507.672	13597.51
508.041	13678.19
508.409	13765.87
508.777	13951.17
509.145	14020.32
509.514	14068.01
509.882	14062.58
510.25	14227.78
510.618	14392.74
510.986	14431.39
511.354	14608.56
511.722	14695.56
512.09	14762.22
512.458	14871.15
512.826	15062.33
513.193	15081.31
513.561	15131.48
513.929	15278.82
514.297	15508.65
514.664	15558.81
515.032	15614.41
515.4	15814.85
515.767	15854.17
516.135	16007.39
516.502	15882.87
516.869	16164
517.237	16257.33
517.604	16214.16
517.972	16450.54
518.339	16530.77
518.706	16700.48
519.073	16800.59
519.44	16877.2
519.808	17077.19
520.175	17116.51
520.542	17312.21
520.909	17421.36
521.276	17530.06
521.643	17714.01
522.009	17860.45
522.376	18078.07
522.743	18084.4
523.11	18297.73
523.477	18521
523.843	18557.61
524.21	18724.83
524.577	18950.36
524.943	19128.89
525.31	19141.77
525.676	19398.04
526.043	19489.33
526.409	19564.81
526.776	19797.12
527.142	19866.05
527.508	19856.55
527.874	20041.41
528.241	20320.95
528.607	20306.26
528.973	20535.41
529.339	20568.17
529.705	20794.16
530.071	20836.87
530.437	20995.06
530.803	21110.76
531.169	21219.23
531.535	21289.96
531.901	21394.37
532.267	21463.07
532.632	21666
532.998	21763.62
533.364	21877.29
533.73	22007.46
534.095	22184.18
534.461	22243.16
534.826	22206.55
535.192	22501.46
535.557	22568.35
535.923	22540.33
536.288	22591.4
536.653	22747.1
537.019	22782.8
537.384	22840.66
537.749	23126.98
538.114	23118.16
538.479	23119.29
538.845	23376.46
539.21	23350.93
539.575	23377.82
539.94	23524.25
540.305	23708.66
540.67	23592.28
541.034	23907.3
541.399	23911.14
541.764	23835.21
542.129	24000.63
542.494	24172.82
542.858	24096.89
543.223	24300.96
543.587	24354.06
543.952	24471.57
544.316	24564
544.681	24524
545.045	24726.48
545.41	24830.43
545.774	24847.61
546.138	24894.39
546.503	24961.5
546.867	24933.26
547.231	25274.04
547.595	25328.73
547.959	25351.78
548.324	25469.51
548.688	25550.87
549.052	25603.75
549.416	25690.75
549.779	25682.84
550.143	25859.56
550.507	25931.65
550.871	26043.74
551.235	26087.35
551.599	26261.58
551.962	26252.09
552.326	26412.99
552.689	26624.06
553.053	26471.75
553.417	26569.6
553.78	26898.4
554.143	26855.69
554.507	26953.09
554.87	27156.25
555.234	27301.1
555.597	27173.42
555.96	27228.34
556.323	27462.23
556.686	27403.02
557.05	27733.41
557.413	27706.74
557.776	27818.6
558.139	28100.18
558.502	28112.83
558.865	28092.27
559.228	28282.32
559.59	28427.85
559.953	28541.75
560.316	28768.41
560.679	28671.92
561.041	28982.42
561.404	29052.24
561.767	29287.94
562.129	29228.06
562.492	29523.64
562.854	29452.69
563.217	29437.77
563.579	29615.39
563.941	29870.75
564.304	29931.32
564.666	30234.81
565.028	30215.15
565.39	30370.85
565.753	30510.29
566.115	30648.13
566.477	30760.22
566.839	30958.18
567.201	31077.28
567.563	31034.34
567.925	31289.47
568.287	31202.24
568.648	31296.93
569.01	31612.4
569.372	31766.98
569.734	31642.23
570.095	31932.17
570.457	32024.6
570.819	32015.78
571.18	32105.5
571.542	32291.26
571.903	32349.56
572.265	32524.02
572.626	32388.65
572.987	32600.85
573.349	32578.93
573.71	32809.89
574.071	32684.92
574.432	33011.91
574.794	33153.61
575.155	33148.41
575.516	33120.84
575.877	33246.71
576.238	33283.09
576.599	33294.62
576.96	33378.91
577.32	33400.15
577.681	33546.36
578.042	33617.1
578.403	33618.23
578.763	33707.49
579.124	33682.18
579.485	33738.9
579.845	33863.42
580.206	33750.2
580.566	33847.6
580.927	33912.46
581.287	34049.18
581.648	33933.25
582.008	34006.46
582.368	34002.85
582.728	34065.9
583.089	33958.33
583.449	33985.22
583.809	34129.4
584.169	34258.66
584.529	33963.75
584.889	34292.33
585.249	34003.3
585.609	33904.77
585.969	34187.7
586.329	33992.68
586.688	34192.9
587.048	34175.95
587.408	34105.9
587.768	34125.78
588.127	34139.12
588.487	33967.37
588.846	34177.53
589.206	34093.02
589.565	34063.64
589.925	34222.5
590.284	34112.45
590.643	34282.84
591.003	34366
591.362	34325.1
591.721	34228.15
592.08	34164.43
592.44	34282.84
592.799	34142.73
593.158	34207.14
593.517	34180.25
593.876	34213.24
594.235	34196.06
594.593	34262.96
594.952	34234.71
595.311	34169.4
595.67	34304.54
596.029	34370.97
596.387	34493.01
596.746	34421.59
597.104	34285.78
597.463	34273.12
597.822	34455.49
598.18	34214.82
598.538	34190.87
598.897	34406.23
599.255	34145.9
599.613	34827.69
599.972	34467.02
600.33	34487.58
600.688	34310.64
601.046	34441.03
601.404	34646.9
601.762	34522.16
602.12	34661.14
602.478	34416.85
602.836	34683.28
603.194	34450.29
603.552	34537.98
603.91	34544.53
604.268	34552.44
604.625	34457.07
604.983	34705.43
605.341	34443.29
605.698	34627.92
606.056	34771.64
606.413	34711.08
606.771	34696.16
607.128	34823.39
607.485	34640.12
607.843	34643.06
608.2	34851.64
608.557	34954.69
608.914	34618.2
609.272	34865.88
609.629	34894.58
609.986	35078.53
610.343	34882.37
610.7	35221.57
611.057	35184.96
611.414	35084.4
611.771	35061.35
612.127	35285.98
612.484	35346.99
612.841	35328.92
613.198	35271.29
613.554	35262.02
613.911	35504.05
614.267	35495.01
614.624	35413.43
614.98	35522.13
615.337	35665.18
615.693	35645.07
616.05	35533.43
616.406	35813.87
616.762	35723.48
617.118	35665.4
617.475	35708.11
617.831	35891.39
618.187	35833.54
618.543	35978.16
618.899	35900.43
619.255	36081.44
619.611	35937.49
619.967	36065.39
620.323	36072.4
620.678	36010.93
621.034	35973.19
621.39	36038.05
621.746	35880.09
622.101	36491.37
622.457	36067.43
622.812	36130.25
623.168	36274.2
623.523	36143.13
623.879	36366.63
624.234	35989.24
624.589	36137.71
624.945	36197.59
625.3	36239.63
625.655	36256.12
626.01	36198.05
626.365	36330.7
626.72	36153.75
627.075	36180.19
627.43	36117.14
627.785	35955.79
628.14	36228.78
628.495	36281.43
628.85	36173.64
629.205	35951.72
629.559	36134.54
629.914	35899.97
630.269	35959.86
630.623	36050.48
630.978	35825.4
631.332	36085.73
631.687	36019.52
632.041	35905.4
632.396	35902.91
632.75	35737.04
633.104	35953.98
633.459	35620.43
633.813	35732.97
634.167	35720.09
634.521	35608
634.875	35697.04
635.229	35506.76
635.583	35377.73
635.937	35368.01
636.291	35475.58
636.645	35366.88
636.999	35208.24
637.352	35370.04
637.706	35192.65
638.06	35267.45
638.413	35105.64
638.767	35090.73
639.121	35157.39
639.474	34915.14
639.828	34895.93
640.181	34952.65
640.534	34932.09
640.888	34820.23
641.241	34660.46
641.594	34776.61
641.947	34794.01
642.301	34596.05
642.654	34648.03
643.007	34669.95
643.36	34467.24
643.713	34434.02
644.066	34512.67
644.419	34426.79
644.771	34212.79
645.124	33757.66
645.477	33688.96
645.83	33309.53
646.182	33408.51
646.535	33327.84
646.888	33335.07
647.24	33218.46
647.593	33483.09
647.945	33256.65
648.298	33111.8
648.65	33148.41
649.002	32994.29
649.355	33115.19
649.707	32955.19
650.059	33168.29
650.411	33551.56
650.763	33622.97
651.115	33932.79
651.467	33764.44
651.819	33847.82
652.171	33692.12
652.523	33713.82
652.875	33665.46
653.227	33493.71
653.578	33838.11
653.93	33636.98
654.282	33401.73
654.633	33314.73
654.985	33497.78
655.337	33432.24
655.688	33482.41
656.039	33411.23
656.391	33213.04
656.742	33220.72
657.094	33184.11
657.445	33392.02
657.796	33289.65
658.147	33220.72
658.498	33119.48
658.849	33214.85
659.2	33107.51
659.551	32988.86
659.902	33250.55
660.253	33025.25
660.604	33013.72
660.955	32817.34
661.306	32997.68
661.656	32942.99
662.007	32862.77
662.358	32794.75
662.708	32776.67
663.059	32618.25
663.409	32328.32
663.76	32609.67
664.11	32641.98
664.461	32631.59
664.811	32523.34
665.161	32488.31
665.511	32366.51
665.862	32453.96
666.212	32447.18
666.562	32379.16
666.912	32131.49
667.262	32161.99
667.612	32095.55
667.962	32206.29
668.312	31860.98
668.662	32055.56
669.011	31884.03
669.361	31819.18
669.711	31712.97
670.06	31598.84
670.41	31473.2
670.76	31300.1
671.109	31525.17
671.459	31336.48
671.808	31247.89
672.157	31366.99
672.507	31021.23
672.856	30999.09
673.205	31071.63
673.554	31044.96
673.904	30955.25
674.253	31112.08
674.602	30988.46
674.951	30538.99
675.3	30259.44
675.649	30814.46
675.998	30745.99
676.346	30677.96
676.695	30785.31
677.044	30681.13
677.393	30673.22
677.741	30560.23
678.09	30580.34
678.438	30503.05
678.787	30546.22
679.135	30553.22
679.484	30330.4
679.832	30517.74
680.181	30320.46
680.529	30380.57
680.877	30291.99
681.225	30411.3
681.573	30597.29
681.922	30247.24
682.27	30209.95
682.618	30303.96
682.966	30143.29
683.314	30323.4
683.661	30385.32
684.009	30265.09
684.357	30292.89
684.705	30061.94
685.053	30193.46
685.4	30132.67
685.748	30129.05
686.095	30313.68
686.443	30139
686.79	30202.27
687.138	30179.22
687.485	30314.36
687.832	30166.57
688.18	30341.93
688.527	30056.96
688.874	30090.64
689.221	30131.09
689.568	29962.73
689.915	29892.45
690.262	30041.37
690.609	29894.93
690.956	29823.52
691.303	29901.71
691.65	29774.94
691.997	29896.06
692.344	29689.97
692.69	29702.17
693.037	29731.1
693.383	29452.69
693.73	29750.76
694.077	29537.88
694.423	29499.01
694.769	29504.66
695.116	29453.36
695.462	29424.89
695.808	29295.63
696.155	29508.28
696.501	29321.84
696.847	29118.23
697.193	28921.63
697.539	29134.05
697.885	28756.21
698.231	28765.02
698.577	28806.83
698.923	28825.13
699.269	28688.41
699.614	28483.22
699.96	28447.97
700.306	28484.8
700.651	28488.87
700.997	28332.04
701.342	28322.32
701.688	28287.52
702.033	28209.78
702.379	28128.43
702.724	28028.77
703.069	28108.31
703.415	27819.28
703.76	27909.22
704.105	27788.77
704.45	27749.68
704.795	27494.09
705.14	27492.06
705.485	27589.01
705.83	27405.73
706.175	27401.89
706.52	27341.56
706.865	27142.24
707.209	27113.09
707.554	27007.55
707.899	27098.4
708.243	26811.4
708.588	26892.75
708.932	26768.46
709.277	26798.74
709.621	26843.94
709.966	26578.41
710.31	26709.26
710.654	26509.94
710.998	26557.17
711.342	26574.57
711.687	26394.01
712.031	26290.51
712.375	26286.67
712.719	26271.75
713.063	26313.79
713.407	26278.98
713.75	26110.85
714.094	26093.68
714.438	25991.76
714.782	25974.59
715.125	25997.18
715.469	25944.76
715.812	25763.29
716.156	25662.73
716.499	25646.46
716.843	25617.53
717.186	25639.68
717.53	25660.7
717.873	25517.2
718.216	25542.51
718.559	25387.93
718.902	25198.11
719.246	25356.97
719.589	25195.85
719.932	25135.74
720.275	25117.43
720.617	25155.4
720.96	25210.31
721.303	25031.33
721.646	25140.26
721.989	24932.58
722.331	25023.88
722.674	24885.12
723.016	24914.73
723.359	24835.86
723.701	24899.36
724.044	24644.9
724.386	24542.53
724.729	24717.22
725.071	24500.5
725.413	24653.94
725.755	24532.82
726.097	24438.58
726.439	24399.49
726.782	24204.01
727.124	24540.95
727.465	24281.97
727.807	24307.74
728.149	24210.79
728.491	24208.76
728.833	24242.43
729.175	24150.68
729.516	24059.38
729.858	23977.12
730.199	24056.22
730.541	24011.93
730.882	23898.26
731.224	24006.95
731.565	23821.87
731.906	23863.91
732.248	23743.68
732.589	23624.59
732.93	23589.79
733.271	23529
733.612	23580.98
733.953	23624.82
734.294	23499.4
734.635	23477.25
734.976	23524.03
735.317	23337.59
735.658	23314.99
735.999	23384.37
736.339	23309.57
736.68	23301.66
737.021	23129.69
737.361	23129.46
737.702	23239.29
738.042	23088.33
738.383	23032.06
738.723	23110.03
739.063	23009.47
739.404	23039.97
739.744	23042.01
740.084	22957.49
740.424	22881.11
740.764	22863.25
741.104	22989.13
741.444	22755.46
741.784	22714.78
742.124	22817.38
742.464	22630.49
742.804	22611.51
743.143	22555.92
743.483	22563.15
743.823	22517.5
744.162	22454
744.502	22581.91
744.841	22368.13
745.181	22454.68
745.52	22273.21
745.86	22323.38
746.199	22307.79
746.538	22214.91
746.877	22216.27
747.216	22218.07
747.556	22117.06
747.895	22106.44
748.234	22032.77
748.573	22033.45
748.911	21979.66
749.25	22003.39
749.589	21938.99
749.928	21965.43
750.267	21883.17
750.605	21744.41
750.944	21830.51
751.283	21671.42
751.621	21728.6
751.96	21581.25
752.298	21607.02
752.636	21549.62
752.975	21506.91
753.313	21332
753.651	21520.01
753.989	21331.54
754.327	21258.78
