Data from white_steel_sheet_FLMS001491_057.txt Node
Date: Tue Feb 07 10:58:05 GMT 2017
User: dcchb
Spectrometer: FLMS00149
Trigger mode: 0
Integration Time (sec): 2.000000E-2
Scans to average: 10
Electric dark correction enabled: true
Nonlinearity correction enabled: false
Boxcar width: 0
XAxis mode: Wavelengths
Number of Pixels in Spectrum: 2048
>>>>>Begin Spectral Data<<<<<
341.393	-28.9
341.776	-28.9
342.16	-28.9
342.543	-65.96
342.927	-84.94
343.31	-78.61
343.693	-72.06
344.077	-68.9
344.46	-61.44
344.843	-61.67
345.226	-51.72
345.61	-18.73
345.993	-19.18
346.376	-2.23
346.759	21.27
347.142	33.25
347.525	38.9
347.908	52.68
348.291	90.42
348.674	90.87
349.057	107.14
349.44	122.96
349.823	130.42
350.206	156.63
350.588	210.87
350.971	223.98
351.354	227.82
351.737	247.03
352.119	255.39
352.502	239.12
352.884	281.38
353.267	292.22
353.65	284.09
354.032	317.76
354.414	308.04
354.797	301.49
355.179	316.4
355.562	317.99
355.944	331.09
356.326	359.34
356.709	357.53
357.091	354.14
357.473	355.73
357.855	347.82
358.238	356.18
358.62	351.21
359.002	348.04
359.384	351.88
359.766	318.66
360.148	343.3
360.53	352.11
360.912	351.43
361.294	347.36
361.676	335.39
362.057	333.13
362.439	341.26
362.821	336.06
363.203	327.25
363.584	336.52
363.966	349.62
364.348	353.92
364.729	350.53
365.111	347.14
365.493	324.31
365.874	321.6
366.256	333.58
366.637	329.51
367.019	327.93
367.4	347.59
367.781	317.76
368.163	314.82
368.544	334.93
368.925	339.91
369.306	312.34
369.688	317.53
370.069	310.75
370.45	337.19
370.831	316.86
371.212	344.43
371.593	331.54
371.974	318.66
372.355	336.52
372.736	332.45
373.117	353.69
373.498	341.26
373.879	329.51
374.26	317.99
374.641	333.8
375.021	344.43
375.402	336.97
375.783	345.56
376.163	352.79
376.544	353.24
376.925	345.1
377.305	333.8
377.686	374.26
378.066	352.56
378.447	371.09
378.827	380.81
379.208	365.67
379.588	354.82
379.968	368.38
380.349	370.87
380.729	350.75
381.109	372.22
381.489	364.76
381.87	398.66
382.25	385.55
382.63	375.39
383.01	374.71
383.39	370.41
383.77	377.65
384.15	368.15
384.53	381.49
384.91	389.85
385.29	381.71
385.67	383.97
386.049	385.1
386.429	397.76
386.809	381.04
387.189	413.12
387.568	416.06
387.948	410.64
388.328	418.55
388.707	412.22
389.087	398.89
389.466	415.84
389.846	432.56
390.225	434.14
390.605	420.36
390.984	441.6
391.363	428.72
391.743	446.57
392.122	454.93
392.501	442.5
392.881	482.73
393.26	473.01
393.639	468.94
394.018	473.69
394.397	468.26
394.776	487.25
395.155	482.28
395.534	504.65
395.913	478.21
396.292	489.96
396.671	520.01
397.05	508.49
397.429	520.01
397.808	511.88
398.186	534.48
398.565	522.27
398.944	527.25
399.323	549.84
399.701	549.39
400.08	553.46
400.458	568.6
400.837	594.36
401.215	586
401.594	600.01
401.972	590.75
402.351	620.35
402.729	588.94
403.107	633.23
403.486	632.55
403.864	642.72
404.242	628.94
404.62	679.11
404.999	688.6
405.377	681.37
405.755	701.93
406.133	727.47
406.511	717.75
406.889	747.81
407.267	750.52
407.645	747.81
408.023	757.3
408.401	793.45
408.779	790.52
409.156	809.95
409.534	792.1
409.912	808.59
410.29	843.17
410.667	850.4
411.045	846.56
411.422	862.6
411.8	869.38
412.178	887.46
412.555	918.87
412.933	940.34
413.31	940.57
413.687	954.81
414.065	942.38
414.442	969.72
414.819	974.92
415.197	977.63
415.574	1000.45
415.951	1015.14
416.328	1039.77
416.705	1041.13
417.082	1058.53
417.46	1056.27
417.837	1075.93
418.214	1087.68
418.591	1124.07
418.967	1099.43
419.344	1141.92
419.721	1119.77
420.098	1134.69
420.475	1175.59
420.852	1147.12
421.228	1190.73
421.605	1176.49
421.982	1195.48
422.358	1247
422.735	1254.23
423.111	1224.85
423.488	1258.53
423.864	1266.21
424.241	1264.85
424.617	1292.2
424.994	1291.97
425.37	1322.25
425.746	1330.61
426.123	1347.56
426.499	1364.96
426.875	1371.52
427.251	1407.22
427.627	1429.37
428.003	1436.37
428.379	1459.2
428.756	1453.1
429.132	1495.13
429.507	1526.54
429.883	1525.19
430.259	1550.95
430.635	1568.8
431.011	1552.76
431.387	1621.91
431.763	1623.04
432.138	1647.89
432.514	1675.01
432.89	1683.6
433.265	1707.78
433.641	1773.77
434.016	1739.42
434.392	1792.3
434.767	1811.51
435.143	1830.49
435.518	1853.76
435.894	1867.55
436.269	1870.26
436.644	1914.78
437.02	1952.97
437.395	1923.37
437.77	1980.32
438.145	1989.58
438.52	2023.48
438.895	1999.52
439.271	2025.06
439.646	2083.82
440.021	2115.45
440.395	2118.39
440.77	2121.1
441.145	2143.47
441.52	2182.57
441.895	2214.66
442.27	2230.48
442.645	2226.18
443.019	2265.28
443.394	2255.34
443.769	2313.87
444.143	2256.92
444.518	2328.78
444.892	2298.5
445.267	2345.05
445.641	2364.26
446.016	2410.59
446.39	2380.3
446.764	2417.14
447.139	2407.2
447.513	2456.46
447.887	2484.03
448.262	2474.09
448.636	2473.18
449.01	2514.31
449.384	2535.78
449.758	2592.73
450.132	2573.29
450.506	2609.23
450.88	2620.52
451.254	2676.79
451.628	2677.7
452.002	2701.65
452.376	2753.4
452.75	2766.06
453.123	2808.32
453.497	2820.07
453.871	2811.71
454.244	2902.78
454.618	2910.01
454.992	2936.67
455.365	2979.38
455.739	3071.13
456.112	3067.29
456.486	3121.08
456.859	3135.09
457.232	3182.09
457.606	3194.07
457.979	3237.01
458.352	3282.65
458.725	3326.49
459.099	3336.89
459.472	3445.14
459.845	3458.92
460.218	3493.72
460.591	3536.21
460.964	3540.27
461.337	3608.75
461.71	3668.63
462.083	3708.18
462.456	3721.74
462.829	3725.35
463.201	3794.28
463.574	3812.81
463.947	3867.05
464.32	3929.64
464.692	3994.95
465.065	4066.36
465.438	4107.72
465.81	4136.87
466.183	4194.27
466.555	4272.46
466.928	4283.98
467.3	4271.78
467.672	4351.55
468.045	4467.93
468.417	4503.64
468.789	4539.12
469.161	4592.22
469.534	4635.84
469.906	4771.2
470.278	4760.58
470.65	4829.96
471.022	4907.02
471.394	5029.5
471.766	5081.93
472.138	5086.45
472.51	5173.68
472.882	5361.47
473.253	5386.33
473.625	5457.74
473.997	5571.63
474.369	5641.24
474.74	5666.32
475.112	5740.44
475.484	5845.3
475.855	5995.12
476.227	6044.39
476.598	6183.14
476.97	6224.27
477.341	6360.76
477.713	6483.02
478.084	6515.11
478.455	6650.7
478.827	6675.11
479.198	6889.34
479.569	6967.75
479.94	7126.62
480.311	7160.74
480.682	7307.63
481.053	7535.65
481.424	7649.09
481.795	7704.23
482.166	7802.99
482.537	7929.09
482.908	8115.52
483.279	8167.5
483.65	8336.08
484.021	8540.37
484.391	8516.87
484.762	8703.98
485.133	8786.46
485.503	8880.47
485.874	9084.99
486.244	9182.16
486.615	9327.69
486.985	9456.28
487.356	9578.31
487.726	9743.05
488.097	9842.26
488.467	9997.96
488.837	10137.84
489.207	10256.26
489.578	10346.42
489.948	10576.93
490.318	10632.52
490.688	10745.06
491.058	10871.83
491.428	11046.52
491.798	11131.49
492.168	11312.5
492.538	11482.44
492.908	11568.31
493.278	11753.39
493.648	11785.48
494.017	11883.78
494.387	12028.19
494.757	12152.03
495.126	12238.35
495.496	12287.61
495.866	12427.05
496.235	12556.76
496.605	12660.94
496.974	12770.31
497.344	12880.37
497.713	12971.66
498.082	13065.9
498.452	13163.52
498.821	13332.33
499.19	13362.39
499.559	13515.38
499.928	13553.8
500.298	13650.52
500.667	13834.24
501.036	13753.34
501.405	13941.36
501.774	14010.96
502.143	14080.79
502.512	14207.34
502.88	14397.62
503.249	14379.76
503.618	14560.78
503.987	14568.23
504.356	14702.01
504.724	14819.75
505.093	14893.2
505.462	15016.36
505.83	15099.74
506.199	15236.46
506.567	15332.51
506.936	15459.73
507.304	15631.93
507.672	15798.03
508.041	15744.92
508.409	15930.91
508.777	15936.78
509.145	16163.67
509.514	16167.29
509.882	16335.19
510.25	16404.12
510.618	16476.88
510.986	16635.98
511.354	16775.63
511.722	17023.99
512.09	17082.97
512.458	17218.78
512.826	17202.97
513.193	17459.23
513.561	17506.91
513.929	17651.99
514.297	17813.8
514.664	17949.39
515.032	18008.14
515.4	18152.55
515.767	18288.13
516.135	18347.79
516.502	18433.44
516.869	18733.32
517.237	18775.13
517.604	18773.09
517.972	19044.5
518.339	19164.04
518.706	19197.49
519.073	19425.05
519.44	19466.86
519.808	19782.56
520.175	19671.6
520.542	20014.87
520.909	20173.74
521.276	20183.9
521.643	20426.61
522.009	20559.94
522.376	20722.65
522.743	20892.81
523.11	21106.14
523.477	21313.37
523.843	21402.4
524.21	21647.82
524.577	21761.72
524.943	21905.21
525.31	21964.2
525.676	22309.05
526.043	22438.76
526.409	22450.96
526.776	22741.35
527.142	22763.95
527.508	22963.27
527.874	23230.6
528.241	23311.05
528.607	23429.47
528.973	23546.53
529.339	23710.14
529.705	23862.23
530.071	24034.2
530.437	24207.53
530.803	24294.08
531.169	24457.24
531.535	24459.72
531.901	24626.73
532.267	24886.61
532.632	25053.61
532.998	25220.61
533.364	25170.67
533.73	25330.21
534.095	25315.52
534.461	25622.63
534.826	25647.72
535.192	25713.25
535.557	26039.12
535.923	25997.54
536.288	26193.24
536.653	26319.79
537.019	26232.33
537.384	26402.72
537.749	26556.62
538.114	26639.1
538.479	26655.15
538.845	26735.6
539.21	26777.4
539.575	26940.11
539.94	27189.14
540.305	27286.77
540.67	27225.3
541.034	27426.43
541.399	27478.63
541.764	27542.58
542.129	27684.95
542.494	27787.09
542.858	27810.82
543.223	27846.75
543.587	28242.9
543.952	28013.08
544.316	28271.6
544.681	28271.6
545.045	28521.76
545.41	28637.92
545.774	28610.58
546.138	28672.04
546.503	28622.55
546.867	28823.9
547.231	29059.38
547.595	29067.29
547.959	29188.87
548.324	29341.86
548.688	29312.48
549.052	29535.3
549.416	29526.48
549.779	29576.88
550.143	29655.52
550.507	29836.53
550.871	30019.58
551.235	29979.58
551.599	30249.63
551.962	30235.17
552.326	30310.42
552.689	30647.36
553.053	30515.84
553.417	30523.97
553.78	30879.44
554.143	30980.91
554.507	30973.9
554.87	31142.94
555.234	31505.41
555.597	31281.24
555.96	31485.3
556.323	31646.88
556.686	31681.91
557.05	31949.02
557.413	32063.37
557.776	32052.29
558.139	32252.51
558.502	32453.64
558.865	32433.98
559.228	32681.43
559.59	32824.25
559.953	32861.31
560.316	33137.01
560.679	33262.66
561.041	33411.81
561.404	33517.34
561.767	33689.54
562.129	33714.17
562.492	33963.43
562.854	34016.08
563.217	34042.52
563.579	34291.33
563.941	34334.49
564.304	34495.62
564.666	34857.87
565.028	34772.22
565.39	34931.99
565.753	35100.57
566.115	35156.62
566.477	35275.03
566.839	35404.75
567.201	35652.2
567.563	35590.73
567.925	35919.99
568.287	36021.45
568.648	36188.23
569.01	36262.35
569.372	36503.02
569.734	36448.34
570.095	36730.14
570.457	36855.33
570.819	36923.35
571.18	36864.6
571.542	37128.54
571.903	37015.55
572.265	37353.17
572.626	37373.96
572.987	37539.38
573.349	37505.48
573.71	37641.3
574.071	37807.85
574.432	37808.07
574.794	38129.87
575.155	38166.26
575.516	37984.57
575.877	38068.86
576.238	38212.13
576.599	38336.42
576.96	38460.94
577.32	38382.3
577.681	38499.35
578.042	38555.17
578.403	38600.14
578.763	38759.46
579.124	38792.23
579.485	38941.38
579.845	38993.13
580.206	38869.29
580.566	38853.92
580.927	38939.34
581.287	39024.31
581.648	38836.52
582.008	39200.58
582.368	39095.95
582.728	39235.83
583.089	39017.08
583.449	38994.71
583.809	39177.98
584.169	39224.76
584.529	39072
584.889	39332.78
585.249	39133.91
585.609	38987.93
585.969	39245.55
586.329	39146.8
586.688	39380.69
587.048	39195.38
587.408	39046.01
587.768	39257.53
588.127	39276.74
588.487	39143.86
588.846	39273.8
589.206	38999.45
589.565	39196.74
589.925	39294.14
590.284	39059.79
590.643	39278.54
591.003	39135.04
591.362	39329.39
591.721	39245.78
592.08	39284.87
592.44	39315.83
592.799	39249.62
593.158	39332.55
593.517	39251.2
593.876	39276.06
594.235	39213.01
594.593	39354.25
594.952	39508.82
595.311	39297.75
595.67	39314.7
596.029	39657.97
596.387	39565.99
596.746	39581.13
597.104	39365.77
597.463	39402.61
597.822	39557.63
598.18	39332.78
598.538	39358.77
598.897	39551.3
599.255	39307.47
599.613	39833.56
599.972	39628.36
600.33	39577.52
600.688	39514.92
601.046	39487.35
601.404	39751.07
601.762	39723.73
602.12	39787.46
602.478	39742.94
602.836	39788.59
603.194	39520.8
603.552	39785.2
603.91	39581.59
604.268	39740.45
604.625	39624.3
604.983	39677.63
605.341	39649.16
605.698	39871.75
606.056	39910.17
606.413	39737.06
606.771	39907
607.128	40004.63
607.485	39944.74
607.843	39869.26
608.2	40097.51
608.557	40213.89
608.914	40010.95
609.272	40280.33
609.629	40332.3
609.986	40376.14
610.343	40306.09
610.7	40419.3
611.057	40513.99
611.414	40355.13
611.771	40485.52
612.127	40553.76
612.484	40551.96
612.841	40770.48
613.198	40679.41
613.554	40686.87
613.911	40912.4
614.267	40852.74
614.624	40651.84
614.98	40944.26
615.337	41158.72
615.693	41036.24
616.05	40920.08
616.406	41189.45
616.762	41053.41
617.118	41043.47
617.475	41088.44
617.831	41178.38
618.187	41202.79
618.543	41141.55
618.899	41450.01
619.255	41302.9
619.611	41347.19
619.967	41540.86
620.323	41373.86
620.678	41411.37
621.034	41221.77
621.39	41316.91
621.746	41390.8
622.101	41770.68
622.457	41443.91
622.812	41580.86
623.168	41663.34
623.523	41613.4
623.879	41735.88
624.234	41301.77
624.589	41626.73
624.945	41648.42
625.3	41758.03
625.655	41545.6
626.01	41650.01
626.365	41668.99
626.72	41616.34
627.075	41524.81
627.43	41617.24
627.785	41415.66
628.14	41515.55
628.495	41579.73
628.85	41509.67
629.205	41280.52
629.559	41626.5
629.914	41346.74
630.269	41457.7
630.623	41422.67
630.978	41208.44
631.332	41499.73
631.687	41431.93
632.041	41268.77
632.396	41219.28
632.75	41079.17
633.104	41209.34
633.459	40959.86
633.813	41024.94
634.167	40899.97
634.521	41045.73
634.875	40904.94
635.229	41008.67
635.583	40775.68
635.937	40798.05
636.291	40766.64
636.645	40716.47
636.999	40546.98
637.352	40608.23
637.706	40378.18
638.06	40546.08
638.413	40578.62
638.767	40361.68
639.121	40441.68
639.474	40035.13
639.828	40116.94
640.181	40252.53
640.534	40250.27
640.888	40181.12
641.241	39822.48
641.594	40068.35
641.947	39983.16
642.301	40034.91
642.654	39867.91
643.007	39876.04
643.36	39794.24
643.713	39757.17
644.066	39828.59
644.419	39628.59
644.771	39351.31
645.124	39016.86
645.477	38895.73
645.83	38663.64
646.182	38491.67
646.535	38499.35
646.888	38535.74
647.24	38212.36
647.593	38483.99
647.945	38517.89
648.298	38236.54
648.65	38245.58
649.002	38076.32
649.355	38239.47
649.707	38035.86
650.059	38319.7
650.411	38705
650.763	38777.54
651.115	39161.94
651.467	38956.52
651.819	38935.73
652.171	38884.43
652.523	38888.27
652.875	38882.4
653.227	38516.98
653.578	38774.15
653.93	38618.45
654.282	38537.09
654.633	38442.18
654.985	38632.46
655.337	38478.34
655.688	38465.01
656.039	38653.93
656.391	38411.67
656.742	38272.24
657.094	38413.48
657.445	38633.36
657.796	38394.05
658.147	38260.49
658.498	38383.88
658.849	38442.86
659.2	38226.82
659.551	38062.53
659.902	38335.07
660.253	38076.09
660.604	38101.4
660.955	37900.27
661.306	38005.81
661.656	38023.66
662.007	37898.24
662.358	37806.49
662.708	37860.95
663.059	37724.01
663.409	37472.04
663.76	37850.78
664.11	37639.72
664.461	37669.55
664.811	37668.87
665.161	37422.77
665.511	37387.07
665.862	37272.72
666.212	37354.3
666.562	37427.97
666.912	37053.07
667.262	36982.33
667.612	37022.78
667.962	36917.02
668.312	36821.43
668.662	36849.91
669.011	36760.64
669.361	36706.18
669.711	36643.13
670.06	36461.67
670.41	36443.14
670.76	36286.98
671.109	36476.58
671.459	36322.24
671.808	36166.31
672.157	36214.9
672.507	35976.48
672.856	35899.88
673.205	35856.94
673.554	35997.73
673.904	35779.43
674.253	35976.03
674.602	35694.68
674.951	35172.66
675.3	35012.44
675.649	35676.6
675.998	35488.13
676.346	35528.13
676.695	35567.68
677.044	35335.82
677.393	35433.67
677.741	35403.39
678.09	35279.78
678.438	35332.66
678.787	35207.92
679.135	35120.46
679.484	35113
679.832	35204.3
680.181	35066
680.529	35201.36
680.877	35003.18
681.225	34969.28
681.573	35206.79
681.922	35033.23
682.27	35034.59
682.618	35020.58
682.966	35000.01
683.314	35012.67
683.661	34881.6
684.009	34774.48
684.357	34890.64
684.705	34827.81
685.053	34966.11
685.4	34840.24
685.748	34736.52
686.095	34950.52
686.443	34813.12
686.79	34656.29
687.138	34786.23
687.485	34932.22
687.832	34757.53
688.18	34745.33
688.527	34606.35
688.874	34758.21
689.221	34686.8
689.568	34678.89
689.915	34581.27
690.262	34541.72
690.609	34565.45
690.956	34490.87
691.303	34452.91
691.65	34320.71
691.997	34449.97
692.344	34252.46
692.69	34266.02
693.037	34307.83
693.383	34064.44
693.73	34165.01
694.077	34151.22
694.423	34086.82
694.769	34004.11
695.116	33874.39
695.462	33947.38
695.808	33790.78
696.155	34010.66
696.501	33800.27
696.847	33709.42
697.193	33496.1
697.539	33651.57
697.885	33387.4
698.231	33321.86
698.577	33369.77
698.923	33296.33
699.269	33104.69
699.614	32929.33
699.96	32973.62
700.306	32979.73
700.651	32836.68
700.997	32742.44
701.342	32580.41
701.688	32689.34
702.033	32498.16
702.379	32496.57
702.724	32380.65
703.069	32476.01
703.415	32093.87
703.76	32228.79
704.105	32111.27
704.45	32007.55
704.795	31885.74
705.14	31842.13
705.485	31735.69
705.83	31753.77
706.175	31795.35
706.52	31553.55
706.865	31582.47
707.209	31389.94
707.554	31442.59
707.899	31433.78
708.243	31309.71
708.588	31267.45
708.932	31071.3
709.277	30997.86
709.621	31071.75
709.966	30846.67
710.31	31034.92
710.654	30776.39
710.998	30762.38
711.342	30881.25
711.687	30636.28
712.031	30524.2
712.375	30401.26
712.719	30364.43
713.063	30222.06
713.407	30386.8
713.75	30117.65
714.094	30210.99
714.438	30210.08
714.782	30215.05
715.125	29903.42
715.469	30020.71
715.812	29914.72
716.156	29736.65
716.499	29742.75
716.843	29758.57
717.186	29485.13
717.53	29644.22
717.873	29808.28
718.216	29493.04
718.559	29416.66
718.902	29197.68
719.246	29388.86
719.589	29226.6
719.932	29149.77
720.275	29167.62
720.617	29044.69
720.96	29118.58
721.303	28954.07
721.646	29006.72
721.989	28752.04
722.331	29013.05
722.674	28871.13
723.016	28929.21
723.359	28712.49
723.701	28759.27
724.044	28527.41
724.386	28433.18
724.729	28562.44
725.071	28490.8
725.413	28536.45
725.755	28444.03
726.097	28341.43
726.439	28234.99
726.782	28265.05
727.124	28292.17
727.465	28273.86
727.807	28203.13
728.149	28072.51
728.491	28073.19
728.833	28020.99
729.175	27880.2
729.516	27884.27
729.858	27820.77
730.199	27870.71
730.541	27659.19
730.882	27630.26
731.224	27775.57
731.565	27557.95
731.906	27533.54
732.248	27599.75
732.589	27416.93
732.93	27250.84
733.271	27428.23
733.612	27450.15
733.953	27409.7
734.294	27274.11
734.635	27185.53
734.976	27261.01
735.317	27057.62
735.658	27107.34
735.999	27037.74
736.339	27093.33
736.68	27131.52
737.021	27047.23
737.361	26833
737.702	27000.67
738.042	26859.66
738.383	26765.43
738.723	26857.63
739.063	26635.49
739.404	26788.7
739.744	26656.73
740.084	26558.2
740.424	26529.95
740.764	26538.99
741.104	26589.16
741.444	26360.47
741.784	26341.71
742.124	26416.96
742.464	26394.14
742.804	26304.65
743.143	26202.5
743.483	26164.09
743.823	26089.51
744.162	26143.07
744.502	26121.15
744.841	25987.37
745.181	26098.33
745.52	25916.86
745.86	26051.77
746.199	25867.37
746.538	25678.22
746.877	25817.65
747.216	25835.28
747.556	25773.14
747.895	25810.88
748.234	25640.48
748.573	25525.23
748.911	25468.96
749.25	25422.18
749.589	25426.03
749.928	25432.13
750.267	25362.75
750.605	25296.09
750.944	25328.85
751.283	25125.47
751.621	25207.5
751.96	25136.77
752.298	25042.76
752.636	25011.12
752.975	24869.2
753.313	24856.32
753.651	24871.46
