Data from white_wall_FLMS001491_027.txt Node
Date: Tue Feb 07 11:04:01 GMT 2017
User: dcchb
Spectrometer: FLMS00149
Trigger mode: 0
Integration Time (sec): 2.000000E-2
Scans to average: 10
Electric dark correction enabled: true
Nonlinearity correction enabled: false
Boxcar width: 0
XAxis mode: Wavelengths
Number of Pixels in Spectrum: 2048
>>>>>Begin Spectral Data<<<<<
341.393	-30.61
341.776	-30.61
342.16	-30.61
342.543	-50.04
342.927	-54.33
343.31	-56.59
343.693	-74.67
344.077	-72.87
344.46	-54.56
344.843	-69.93
345.226	-41.68
345.61	-41.68
345.993	-11.85
346.376	-5.07
346.759	18.21
347.142	23.4
347.525	32.89
347.908	53.46
348.291	74.93
348.674	101.37
349.057	124.64
349.44	138.65
349.823	130.97
350.206	175.49
350.588	218.2
350.971	235.38
351.354	256.84
351.737	251.87
352.119	260.91
352.502	275.15
352.884	279.89
353.267	298.42
353.65	303.17
354.032	310.63
354.414	322.83
354.797	327.12
355.179	325.99
355.562	344.3
355.944	342.49
356.326	358.31
356.709	340.68
357.091	373.9
357.473	348.59
357.855	353.79
358.238	355.37
358.62	329.61
359.002	364.19
359.384	358.31
359.766	368.25
360.148	356.73
360.53	372.55
360.912	380.23
361.294	359.21
361.676	381.36
362.057	334.81
362.439	340.23
362.821	341.14
363.203	360.12
363.584	361.93
363.966	343.62
364.348	328.48
364.729	331.87
365.111	349.72
365.493	337.75
365.874	339.1
366.256	315.37
366.637	335.26
367.019	324.86
367.4	341.14
367.781	351.76
368.163	333.68
368.544	328.71
368.925	342.27
369.306	349.04
369.688	327.8
370.069	327.35
370.45	318.76
370.831	348.37
371.212	347.46
371.593	347.01
371.974	339.78
372.355	338.2
372.736	350.17
373.117	339.1
373.498	332.32
373.879	339.1
374.26	348.82
374.641	335.26
375.021	332.77
375.402	345.43
375.783	323.51
376.163	338.65
376.544	358.08
376.925	343.62
377.305	356.05
377.686	338.88
378.066	345.65
378.447	360.12
378.827	379.55
379.208	362.6
379.588	362.15
379.968	352.66
380.349	345.2
380.729	368.48
381.109	380.91
381.489	358.54
381.87	370.96
382.25	386.56
382.63	366.22
383.01	371.64
383.39	365.54
383.77	398.31
384.15	386.78
384.53	381.81
384.91	399.89
385.29	384.75
385.67	393.79
386.049	404.64
386.429	400.57
386.809	409.38
387.189	396.73
387.568	395.6
387.948	430.4
388.328	418.2
388.707	405.99
389.087	431.53
389.466	424.07
389.846	445.77
390.225	408.7
390.605	418.65
390.984	446.9
391.363	442.15
391.743	442.15
392.122	441.47
392.501	458.42
392.881	466.78
393.26	474.69
393.639	487.35
394.018	496.84
394.397	483.73
394.776	488.02
395.155	497.29
395.534	513.56
395.913	522.83
396.292	530.73
396.671	540.23
397.05	507.91
397.429	553.33
397.808	545.88
398.186	548.14
398.565	572.77
398.944	576.61
399.323	573.67
399.701	595.14
400.08	610.05
400.458	614.57
400.837	603.73
401.215	619.77
401.594	637.85
401.972	648.47
402.351	652.31
402.729	636.72
403.107	687.57
403.486	692.76
403.864	696.83
404.242	706.32
404.62	719.88
404.999	714.01
405.377	730.28
405.755	734.35
406.133	748.58
406.511	768.24
406.889	797.17
407.267	810.73
407.645	805.08
408.023	846.66
408.401	851.4
408.779	857.05
409.156	895.24
409.534	879.65
409.912	920.78
410.29	913.32
410.667	922.81
411.045	961.91
411.422	975.92
411.8	971.4
412.178	1003.26
412.555	1006.65
412.933	1024.96
413.31	1043.49
413.687	1052.08
414.065	1066.99
414.442	1079.87
414.819	1104.5
415.197	1071.96
415.574	1115.13
415.951	1130.94
416.328	1143.15
416.705	1148.35
417.082	1170.49
417.46	1177.5
417.837	1187.89
418.214	1206.65
418.591	1213.88
418.967	1234.9
419.344	1244.61
419.721	1245.74
420.098	1275.12
420.475	1302.24
420.852	1283.48
421.228	1337.49
421.605	1308.34
421.982	1325.74
422.358	1348.57
422.735	1335.69
423.111	1372.07
423.488	1384.27
423.864	1410.03
424.241	1446.87
424.617	1462.69
424.994	1450.94
425.37	1474.44
425.746	1466.08
426.123	1489.81
426.499	1514.89
426.875	1533.19
427.251	1539.3
427.627	1607.09
428.003	1605.06
428.379	1638.73
428.756	1645.28
429.132	1644.83
429.507	1698.39
429.883	1700.87
430.259	1747.88
430.635	1769.57
431.011	1755.11
431.387	1823.81
431.763	1845.28
432.138	1836.91
432.514	1835.56
432.89	1895.67
433.265	1911.04
433.641	1936.12
434.016	1938.16
434.392	2005.72
434.767	2049.79
435.143	2040.75
435.518	2052.5
435.894	2072.16
436.269	2083.91
436.644	2115.55
437.02	2157.36
437.395	2163.46
437.77	2201.43
438.145	2259.73
438.52	2243.91
438.895	2239.16
439.271	2266.06
439.646	2355.55
440.021	2363.45
440.395	2357.35
440.77	2366.84
441.145	2390.57
441.52	2451.36
441.895	2430.8
442.27	2460.85
442.645	2466.95
443.019	2508.08
443.394	2503.34
443.769	2546.05
444.143	2557.8
444.518	2567.29
444.892	2555.54
445.267	2586.27
445.641	2620.85
446.016	2631.24
446.39	2679.38
446.764	2671.47
447.139	2676.21
447.513	2722.09
447.887	2737
448.262	2760.51
448.636	2786.27
449.01	2851.35
449.384	2850.9
449.758	2859.49
450.132	2863.78
450.506	2916.21
450.88	2951.46
451.254	2972.93
451.628	3022.19
452.002	2996.43
452.376	3043.44
452.75	3101.97
453.123	3101.74
453.497	3178.12
453.871	3176.09
454.244	3243.43
454.618	3250.44
454.992	3297.44
455.365	3330.66
455.739	3411.56
456.112	3422.18
456.486	3517.77
456.859	3459.25
457.232	3604.33
457.606	3593.48
457.979	3612.01
458.352	3662.86
458.725	3727.94
459.099	3782.63
459.472	3846.35
459.845	3915.05
460.218	3881.16
460.591	3957.31
460.964	3934.94
461.337	4048.61
461.71	4127.25
462.083	4204.54
462.456	4143.75
462.829	4188.27
463.201	4290.18
463.574	4298.55
463.947	4367.02
464.32	4478.88
464.692	4516.39
465.065	4487.69
465.438	4609.5
465.81	4734.92
466.183	4710.29
466.555	4868.7
466.928	4877.29
467.3	4870.51
467.672	4988.24
468.045	5058.75
468.417	5128.35
468.789	5154.79
469.161	5215.13
469.534	5258.29
469.906	5418.52
470.278	5482.92
470.65	5506.87
471.022	5583.03
471.394	5762.69
471.766	5830.03
472.138	5855.34
472.51	6006.3
472.882	6124.49
473.253	6154.77
473.625	6248.78
473.997	6404.48
474.369	6407.64
474.74	6515.66
475.112	6670.01
475.484	6738.03
475.855	6850.57
476.227	6881.75
476.598	7153.39
476.97	7139.83
477.341	7363.78
477.713	7452.13
478.084	7500.49
478.455	7654.62
478.827	7714.5
479.198	8059.35
479.569	8067.94
479.94	8234.71
480.311	8346.57
480.682	8535.72
481.053	8782.72
481.424	8878.99
481.795	9000.12
482.166	9121.24
482.537	9305.65
482.908	9485.08
483.279	9569.59
483.65	9710.38
484.021	9980.66
484.391	10046.42
484.762	10135.68
485.133	10258.61
485.503	10460.42
485.874	10622.45
486.244	10695.21
486.615	10998.71
486.985	11047.97
487.356	11309.21
487.726	11430.34
488.097	11644.34
488.467	11751.68
488.837	11942.64
489.207	12084.33
489.578	12276.19
489.948	12416.07
490.318	12594.37
490.688	12644.09
491.058	12774.25
491.428	13021.93
491.798	13137.86
492.168	13414.01
492.538	13516.38
492.908	13536.72
493.278	13838.18
493.648	13824.62
494.017	14079.53
494.387	14235.46
494.757	14312.75
495.126	14406.98
495.496	14555.22
495.866	14642.23
496.235	14796.12
496.605	14994.31
496.974	15041.09
497.344	15299.16
497.713	15386.84
498.082	15459.61
498.452	15595.65
498.821	15702.54
499.19	15758.36
499.559	15982.31
499.928	16060.72
500.298	16124.9
500.667	16338.45
501.036	16363.09
501.405	16563.31
501.774	16604.66
502.143	16743.87
502.512	16880.81
502.88	17033.58
503.249	17035.61
503.618	17195.16
503.987	17328.71
504.356	17467.92
504.724	17563.96
505.093	17677.85
505.462	17758.53
505.83	17935.47
506.199	18055.92
506.567	18298.63
506.936	18273.09
507.304	18581.56
507.672	18736.36
508.041	18756.7
508.409	18979.74
508.777	19061.55
509.145	19204.37
509.514	19324.59
509.882	19479.61
510.25	19501.54
510.618	19683.68
510.986	19749.89
511.354	19916.44
511.722	20228.3
512.09	20268.75
512.458	20384.68
512.826	20560.72
513.193	20663.99
513.561	20736.53
513.929	21035.28
514.297	21096.07
514.664	21349.4
515.032	21358.89
515.4	21687.92
515.767	21770.4
516.135	21786.9
516.502	21832.1
516.869	22182.14
517.237	22312.31
517.604	22264.63
517.972	22532.19
518.339	22704.16
518.706	22827.55
519.073	22984.16
519.44	23068.22
519.808	23477.25
520.175	23352.96
520.542	23724.02
520.909	23877.01
521.276	23869.33
521.643	24164.92
522.009	24321.97
522.376	24440.84
522.743	24729.65
523.11	24885.57
523.477	25208.5
523.843	25412.79
524.21	25585.22
524.577	25758.32
524.943	25915.15
525.31	25951.54
525.676	26214.81
526.043	26478.98
526.409	26561.46
526.776	26860.89
527.142	26983.6
527.508	27143.82
527.874	27244.61
528.241	27452.74
528.607	27473.53
528.973	27788.32
529.339	27876.91
529.705	28161.19
530.071	28519.15
530.437	28440.06
530.803	28740.16
531.169	28837.11
531.535	28905.13
531.901	28965.24
532.267	29120.04
532.632	29366.13
532.998	29442.52
533.364	29647.26
533.73	29685.45
534.095	29936.52
534.461	29943.75
534.826	30193.23
535.192	30240.69
535.557	30379.89
535.923	30560
536.288	30699.66
536.653	31011.74
537.019	30657.17
537.384	31029.82
537.749	31086.77
538.114	31176.93
538.479	31336.93
538.845	31596.36
539.21	31529.69
539.575	31705.28
539.94	31922.23
540.305	32067.31
540.67	31927.2
541.034	32142.78
541.399	32148.89
541.764	32360.86
542.129	32580.29
542.494	32626.84
542.858	32707.06
543.223	32697.8
543.587	33151.12
543.952	33076.77
544.316	33133.72
544.681	33192.25
545.045	33501.85
545.41	33587.49
545.774	33702.97
546.138	33795.17
546.503	33940.03
546.867	34020.93
547.231	34214.37
547.595	34440.58
547.959	34542.27
548.324	34518.54
548.688	34582.49
549.052	34897.06
549.416	34925.76
549.779	35041.92
550.143	35105.87
550.507	35390.38
550.871	35545.63
551.235	35518.52
551.599	35811.39
551.962	35993.98
552.326	36068.78
552.689	36281.43
553.053	36250.93
553.417	36361.88
553.78	36907.86
554.143	36769.56
554.507	36964.35
554.87	37035.54
555.234	37462.64
555.597	37341.52
555.96	37508.75
556.323	37675.75
556.686	37816.76
557.05	38109.18
557.413	38183.76
557.776	38340.36
558.139	38519.57
558.502	38661.94
558.865	38853.34
559.228	38907.8
559.59	39212.66
559.953	39263.5
560.316	39627.11
560.679	39756.6
561.041	39873.43
561.404	40098.51
561.767	40306.64
562.129	40266.64
562.492	40592.28
562.854	40577.14
563.217	40809.45
563.579	41063.45
563.941	41284.69
564.304	41415.08
564.666	41684.91
565.028	41732.36
565.39	41712.25
565.753	42042.41
566.115	42250.09
566.477	42359.01
566.839	42564.21
567.201	42817.31
567.563	42736.63
567.925	43155.15
568.287	43083.74
568.648	43213.91
569.01	43445.76
569.372	43593.33
569.734	43624.06
570.095	43850.95
570.457	44050.95
570.819	44078.97
571.18	44114
571.542	44450.94
571.903	44509.69
572.265	44651.38
572.626	44765.73
572.987	44804.82
573.349	45012.28
573.71	45231.71
574.071	45200.75
574.432	45392.15
574.794	45671.24
575.155	45606.39
575.516	45456.56
575.877	45689.32
576.238	45843.44
576.599	46010.89
576.96	45938.58
577.32	46003.89
577.681	46233.49
578.042	46145.81
578.403	46222.19
578.763	46216.31
579.124	46448.85
579.485	46541.5
579.845	46651.78
580.206	46436.65
580.566	46532.69
580.927	46567.26
581.287	46826.92
581.648	46664.89
582.008	46829.86
582.368	46745.11
582.728	46805.22
583.089	46843.19
583.449	46707.15
583.809	46734.04
584.169	46890.65
584.529	46821.49
584.889	47090.41
585.249	46828.5
585.609	46864.88
585.969	47121.6
586.329	46929.74
586.688	46882.28
587.048	46998.67
587.408	46856.3
587.768	46949.85
588.127	46848.84
588.487	46972
588.846	47118.66
589.206	46962.51
589.565	47006.8
589.925	46999.8
590.284	46932
590.643	46993.24
591.003	47054.26
591.362	47263.74
591.721	47108.94
592.08	47209.51
592.44	47332.89
592.799	47239.56
593.158	47027.59
593.517	47225.33
593.876	47213.57
594.235	47225.78
594.593	47211.54
594.952	47243.86
595.311	47238.66
595.67	47258.09
596.029	47413.57
596.387	47448.6
596.746	47518.88
597.104	47320.01
597.463	47393.01
597.822	47526.79
598.18	47397.3
598.538	47411.54
598.897	47602.49
599.255	47252.9
599.613	47853.11
599.972	47549.16
600.33	47675.48
600.688	47543.51
601.046	47706.9
601.404	47758.19
601.762	47610.17
602.12	47790.51
602.478	47859.21
602.836	47869.83
603.194	47701.02
603.552	47778.53
603.91	47659.89
604.268	47848.36
604.625	47882.94
604.983	48029.37
605.341	47736.5
605.698	48042.71
606.056	48087.68
606.413	47943.05
606.771	48303.94
607.128	48209.48
607.485	48076.83
607.843	48148.24
608.2	48340.32
608.557	48442.92
608.914	48273.43
609.272	48520.66
609.629	48494.22
609.986	48584.84
610.343	48523.15
610.7	48771.73
611.057	48626.87
611.414	48658.73
611.771	48724.72
612.127	48795.91
612.484	48717.72
612.841	48894.21
613.198	48864.83
613.554	48892.4
613.911	49030.48
614.267	48974.43
614.624	48995.67
614.98	49032.51
615.337	49263.69
615.693	49201.55
616.05	49155.9
616.406	49393.4
616.762	49312.05
617.118	49302.11
617.475	49374.2
617.831	49336.46
618.187	49425.72
618.543	49459.39
618.899	49624.81
619.255	49477.92
619.611	49525.83
619.967	49700.29
620.323	49675.66
620.678	49585.04
621.034	49503.01
621.39	49439.28
621.746	49515.21
622.101	49874.52
622.457	49595.21
622.812	49586.62
623.168	49648.31
623.523	49724.47
623.879	49792.49
624.234	49552.04
624.589	49655.32
624.945	49783.68
625.3	49830.68
625.655	49743.68
626.01	49761.08
626.365	49827.07
626.72	49707.07
627.075	49687.41
627.43	49654.19
627.785	49548.88
628.14	49706.39
628.495	49725.6
628.85	49646.28
629.205	49486.51
629.559	49776.45
629.914	49668.2
630.269	49473.4
630.623	49480.18
630.978	49347.98
631.332	49616.68
631.687	49571.71
632.041	49468.43
632.396	49566.06
632.75	49330.36
633.104	49406.74
633.459	49279.28
633.813	49237.48
634.167	49260.53
634.521	49203.13
634.875	49375.78
635.229	49180.75
635.583	48914.77
635.937	49035.9
636.291	49029.57
636.645	49004.04
636.999	48933.08
637.352	48960.65
637.706	48787.09
638.06	48975.79
638.413	48875.68
638.767	48707.55
639.121	48858.28
639.474	48520.43
639.828	48523.15
640.181	48744.83
640.534	48668
640.888	48649.7
641.241	48366.31
641.594	48429.59
641.947	48532.64
642.301	48360.44
642.654	48496.71
643.007	48322.02
643.36	48345.3
643.713	48232.31
644.066	48503.26
644.419	48147.56
644.771	47811.3
645.124	47584.41
645.477	47441.37
645.83	47178.55
646.182	47113.69
646.535	46931.1
646.888	47110.07
647.24	46756.19
647.593	47048.61
647.945	46954.15
648.298	46870.76
648.65	46662.63
649.002	46583.31
649.355	46803.87
649.707	46596.19
650.059	46752.12
650.411	47203.41
650.763	47209.51
651.115	47475.04
651.467	47318.43
651.819	47487.01
652.171	47363.85
652.523	47271.65
652.875	47215.38
653.227	47080.92
653.578	47452.21
653.93	47273.01
654.282	47071.21
654.633	46891.55
654.985	47104.2
655.337	47061.26
655.688	46913.02
656.039	47239.11
656.391	46853.81
656.742	46988.72
657.094	46809.52
657.445	47073.47
657.796	46848.61
658.147	46863.75
658.498	46804.55
658.849	46910.53
659.2	46687.26
659.551	46738.56
659.902	46882.28
660.253	46704.89
660.604	46785.56
660.955	46475.52
661.306	46772.68
661.656	46758.67
662.007	46511.9
662.358	46611.78
662.708	46605
663.059	46555.97
663.409	46295.41
663.76	46426.03
664.11	46444.33
664.461	46490.66
664.811	46488.85
665.161	46570.43
665.511	46361.17
665.862	46448.4
666.212	46466.02
666.562	46337.21
666.912	46459.92
667.262	46214.73
667.612	46342.41
667.962	46320.49
668.312	46085.02
668.662	46405.01
669.011	46234.62
669.361	46270.1
669.711	46216.77
670.06	46165.01
670.41	46008.63
670.76	45922.54
671.109	46089.99
671.459	45967.96
671.808	45925.02
672.157	45913.27
672.507	45684.58
672.856	45744.24
673.205	45828.53
673.554	45969.54
673.904	45777.23
674.253	45919.6
674.602	45903.55
674.951	45153.06
675.3	45109.45
675.649	45564.58
675.998	45517.35
676.346	45546.5
676.695	45727.06
677.044	45335.88
677.393	45450.68
677.741	45425.15
678.09	45319.16
678.438	45276.9
678.787	45273.29
679.135	45212.72
679.484	44997.36
679.832	45270.12
680.181	44829
680.529	45142.22
680.877	44939.06
681.225	44794.88
681.573	44980.41
681.922	44808.89
682.27	44576.36
682.618	44629.69
682.966	44586.53
683.314	44540.65
683.661	44555.57
684.009	44168.68
684.357	44313.09
684.705	44196.93
685.053	44208.46
685.4	44103.15
685.748	43913.32
686.095	43963.72
686.443	43838.75
686.79	43617.06
687.138	43736.38
687.485	43667.45
687.832	43630.39
688.18	43632.43
688.527	43381.59
688.874	43309.72
689.221	43153.57
689.568	42990.41
689.915	42900.24
690.262	42974.59
690.609	42824.99
690.956	42853.46
691.303	42728.27
691.65	42430.2
691.997	42496.18
692.344	42242.63
692.69	42189.98
693.037	42251.22
693.383	41742.76
693.73	42001.73
694.077	41657.56
694.423	41677.68
694.769	41476.32
695.116	41530.56
695.462	41573.72
695.808	41283.34
696.155	41319.72
696.501	40980.29
696.847	41055.32
697.193	40877.7
697.539	41067.3
697.885	40672.28
698.231	40570.13
698.577	40422.12
698.923	40474.32
699.269	40211.05
699.614	40075.01
699.96	39993.2
700.306	40040.66
700.651	39787.78
700.997	39757.05
701.342	39806.54
701.688	39581.91
702.033	39545.08
702.379	39505.08
702.724	39319.55
703.069	39466.89
703.415	38970.63
703.76	39068.93
704.105	38927.24
704.45	38879.1
704.795	38728.83
705.14	38655.38
705.485	38636.4
705.83	38371.55
706.175	38515.72
706.52	38379.91
706.865	38158.67
707.209	38148.05
707.554	38023.08
707.899	38158.9
708.243	37865.35
708.588	37852.24
708.932	37555.52
709.277	37540.38
709.621	37608.4
709.966	37411.8
710.31	37347.39
710.654	37035.31
710.998	37208.19
711.342	37169.77
711.687	37094.97
712.031	36963.67
712.375	36883.23
712.719	37058.14
713.063	36809.33
713.407	36921.19
713.75	36707.64
714.094	36660.86
714.438	36563.46
714.782	36627.86
715.125	36307.87
715.469	36450.69
715.812	36127.54
716.156	36068.56
716.499	36043.7
716.843	36080.76
717.186	35709.47
717.53	36009.8
717.873	35985.85
718.216	35820.43
718.559	35674.22
718.902	35559.64
719.246	35514.45
719.589	35466.99
719.932	35185.87
720.275	35305.41
720.617	35160.78
720.96	35201.24
721.303	35061.35
721.646	35111.52
721.989	34797.86
722.331	35014.8
722.674	34949.04
723.016	34903.16
723.359	34857.29
723.701	34805.99
724.044	34666.79
724.386	34428.6
724.729	34676.28
725.071	34602.83
725.413	34406.23
725.755	34366.68
726.097	34250.53
726.439	34153.58
726.782	34145.44
727.124	34428.6
727.465	34184.76
727.807	34141.6
728.149	34014.15
728.491	33980.48
728.833	34057.31
729.175	33904.55
729.516	33867.71
729.858	33817.77
730.199	33776.87
730.541	33628.85
730.882	33643.54
731.224	33880.37
731.565	33447.16
731.906	33570.32
732.248	33497.33
732.589	33293.71
732.93	33162.19
733.271	33312.02
733.612	33323.54
733.953	33241.51
734.294	33090.78
734.635	32950.45
734.976	33256.43
735.317	32952.03
735.658	32917.91
735.999	32887.62
736.339	32776.67
736.68	32826.83
737.021	32740.96
737.361	32597.91
737.702	32710.23
738.042	32648.76
738.383	32559.27
738.723	32621.42
739.063	32433.4
739.404	32483.57
739.744	32407.41
740.084	32334.64
740.424	32298.71
740.764	32140.98
741.104	32395.89
741.444	32065.27
741.784	32087.42
742.124	32174.2
742.464	32005.39
742.804	31958.38
743.143	31913.19
743.483	31790.25
743.823	31698.5
744.162	31712.29
744.502	31767.43
744.841	31479.07
745.181	31705.73
745.52	31459.86
745.86	31515.23
746.199	31484.5
746.538	31441.11
746.877	31381.9
747.216	31338.51
747.556	31261.68
747.895	31329.7
748.234	31091.29
748.573	31173.09
748.911	31026.2
749.25	31090.84
749.589	30930.84
749.928	30924.96
750.267	30808.36
750.605	30819.2
750.944	30798.19
751.283	30529.27
751.621	30696.27
751.96	30445.88
752.298	30479.33
752.636	30458.54
752.975	30313
753.313	30153.23
