Data from White_reflection_standard_FLMS001491_013.txt Node
Date: Tue Feb 07 10:31:57 GMT 2017
User: dcchb
Spectrometer: FLMS00149
Trigger mode: 0
Integration Time (sec): 2.000000E-2
Scans to average: 10
Electric dark correction enabled: true
Nonlinearity correction enabled: false
Boxcar width: 0
XAxis mode: Wavelengths
Number of Pixels in Spectrum: 2048
>>>>>Begin Spectral Data<<<<<
341.393	-8.26
341.776	-8.26
342.16	-8.26
342.543	-68.6
342.927	-78.54
343.31	-76.06
343.693	-68.15
344.077	-69.5
344.46	-74.02
344.843	-31.76
345.226	-28.6
345.61	-26.79
345.993	-16.62
346.376	-5.55
346.759	-6
347.142	36.48
347.525	40.78
347.908	62.02
348.291	71.06
348.674	85.07
349.057	107.67
349.44	110.15
349.823	137.95
350.206	170.72
350.588	230.6
350.971	236.25
351.354	267.66
351.737	293.42
352.119	267.66
352.502	319.19
352.884	323.48
353.267	346.98
353.65	316.7
354.032	327.55
354.414	347.89
354.797	350.82
355.179	363.03
355.562	373.65
355.944	384.04
356.326	394.89
356.709	384.5
357.091	383.82
357.473	414.55
357.855	410.26
358.238	406.87
358.62	397.15
359.002	420.65
359.384	414.78
359.766	402.57
360.148	405.51
360.53	417.04
360.912	415.46
361.294	387.21
361.676	410.71
362.057	414.33
362.439	404.61
362.821	404.61
363.203	394.44
363.584	410.71
363.966	381.11
364.348	379.98
364.729	402.57
365.111	403.25
365.493	404.38
365.874	411.61
366.256	406.42
366.637	405.06
367.019	407.09
367.4	435.34
367.781	388.11
368.163	426.75
368.544	413.42
368.925	426.3
369.306	412.07
369.688	431.05
370.069	448
370.45	439.18
370.831	422.46
371.212	437.38
371.593	434.89
371.974	459.07
372.355	448
372.736	451.16
373.117	460.2
373.498	434.44
373.879	455.68
374.26	468.34
374.641	439.41
375.021	422.01
375.402	462.46
375.783	477.37
376.163	507.43
376.544	511.5
376.925	472.18
377.305	500.2
377.686	494.78
378.066	486.87
378.447	513.53
378.827	503.14
379.208	522.12
379.588	516.92
379.968	518.73
380.349	511.72
380.729	538.16
381.109	518.96
381.489	549.91
381.87	526.19
382.25	527.09
382.63	546.07
383.01	574.1
383.39	560.31
383.77	594.89
384.15	561.44
384.53	567.32
384.91	609.57
385.29	606.41
385.67	592.63
386.049	607.54
386.429	633.98
386.809	613.19
387.189	621.78
387.568	632.4
387.948	659.29
388.328	645.73
388.707	657.71
389.087	659.52
389.466	657.93
389.846	668.78
390.225	678.27
390.605	690.7
390.984	711.27
391.363	684.37
391.743	709.46
392.122	742.68
392.501	728.22
392.881	732.96
393.26	754.66
393.639	739.74
394.018	758.95
394.397	758.27
394.776	771.6
395.155	779.51
395.534	806.18
395.913	793.52
396.292	814.99
396.671	819.51
397.05	858.83
397.429	833.3
397.808	853.41
398.186	866.74
398.565	862.22
398.944	873.97
399.323	879.17
399.701	890.7
400.08	887.99
400.458	911.04
400.837	927.08
401.215	904.48
401.594	916.91
401.972	926.4
402.351	948.1
402.729	967.31
403.107	952.62
403.486	969.34
403.864	1014.31
404.242	1031.71
404.62	1003.24
404.999	1057.02
405.377	1039.39
405.755	1057.92
406.133	1055.89
406.511	1092.27
406.889	1073.07
407.267	1128.88
407.645	1128.88
408.023	1149.45
408.401	1127.75
408.779	1164.59
409.156	1190.35
409.534	1203.91
409.912	1233.06
410.29	1236.45
410.667	1249.56
411.045	1279.84
411.422	1304.02
411.8	1312.61
412.178	1324.81
412.555	1350.12
412.933	1366.84
413.31	1390.12
413.687	1399.38
414.065	1400.29
414.442	1438.03
414.819	1450.46
415.197	1451.13
415.574	1486.84
415.951	1480.74
416.328	1522.77
416.705	1542.88
417.082	1539.95
417.46	1568.19
417.837	1569.1
418.214	1573.62
418.591	1610.9
418.967	1619.49
419.344	1656.78
419.721	1657.68
420.098	1664.46
420.475	1698.81
420.852	1717.57
421.228	1721.64
421.605	1722.77
421.982	1784.01
422.358	1792.14
422.735	1791.69
423.111	1832.82
423.488	1851.58
423.864	1818.36
424.241	1905.59
424.617	1888.64
424.994	1884.8
425.37	1949.88
425.746	1938.8
426.123	1985.58
426.499	2007.5
426.875	2048.18
427.251	2066.71
427.627	2122.53
428.003	2133.6
428.379	2141.74
428.756	2195.3
429.132	2243.43
429.507	2228.97
429.883	2261.73
430.259	2317.33
430.635	2312.35
431.011	2374.05
431.387	2399.58
431.763	2444.1
432.138	2479.13
432.514	2507.6
432.89	2515.74
433.265	2574.49
433.641	2615.17
434.016	2610.2
434.392	2687.03
434.767	2706.69
435.143	2702.85
435.518	2716.64
435.894	2807.48
436.269	2836.63
436.644	2880.02
437.02	2899.46
437.395	2883.19
437.77	2955.05
438.145	2989.85
438.52	3028.49
438.895	3073.69
439.271	3075.05
439.646	3145.33
440.021	3156.85
440.395	3145.1
440.77	3151.65
441.145	3257.64
441.52	3256.96
441.895	3251.99
442.27	3336.06
442.645	3283.18
443.019	3361.14
443.394	3354.59
443.769	3399.56
444.143	3342.84
444.518	3442.27
444.892	3474.13
445.267	3516.16
445.641	3524.98
446.016	3557.52
446.39	3590.96
446.764	3596.16
447.139	3653.56
447.513	3651.75
447.887	3663.05
448.262	3707.57
448.636	3708.93
449.01	3769.04
449.384	3836.38
449.758	3787.34
450.132	3907.79
450.506	3864.18
450.88	3941.24
451.254	3950.05
451.628	4023.95
452.002	4087.45
452.376	4092.42
452.75	4134.68
453.123	4233.66
453.497	4268.24
453.871	4279.31
454.244	4393.43
454.618	4455.35
454.992	4463.03
455.365	4504.61
455.739	4604.05
456.112	4647.66
456.486	4713.87
456.859	4682.24
457.232	4793.42
457.606	4810.37
457.979	4865.73
458.352	5001.1
458.725	5051.49
459.099	5107.08
459.472	5176.23
459.845	5229.57
460.218	5277.02
460.591	5312.95
460.964	5338.26
461.337	5514.76
461.71	5545.26
462.083	5683.11
462.456	5620.06
462.829	5710.23
463.201	5822.54
463.574	5868.42
463.947	5917.23
464.32	5997.46
464.692	6100.28
465.065	6163.1
465.438	6217.11
465.81	6373.49
466.183	6365.13
466.555	6502.3
466.928	6571
467.3	6618.23
467.672	6717.44
468.045	6901.61
468.417	6897.54
468.789	6890.99
469.161	7032
469.534	7144.32
469.906	7289.4
470.278	7413.69
470.65	7454.37
471.022	7593.57
471.394	7714.02
471.766	7843.28
472.138	7930.29
472.51	8094.8
472.882	8198.75
473.253	8269.71
473.625	8481.68
473.997	8624.28
474.369	8631.74
474.74	8776.37
475.112	8954.89
475.484	9106.3
475.855	9276.69
476.227	9286.86
476.598	9590.81
476.97	9656.34
477.341	9859.5
477.713	10048.2
478.084	10140.17
478.455	10393.72
478.827	10543.1
479.198	10817.89
479.569	10860.15
479.94	11116.87
480.311	11207.94
480.682	11508.72
481.053	11747.36
481.424	11931.54
481.795	11986.68
482.166	12268.48
482.537	12327.01
482.908	12665.53
483.279	12781.46
483.65	13053.31
484.021	13264.38
484.391	13506.86
484.762	13509.35
485.133	13699.17
485.503	13945.95
485.874	14190.01
486.244	14308.2
486.615	14611.69
486.985	14792.03
487.356	15102.75
487.726	15289.64
488.097	15521.72
488.467	15560.37
488.837	15852.79
489.207	16049.39
489.578	16321.03
489.948	16457.75
490.318	16697.06
490.688	16876.94
491.058	17103.83
491.428	17267.44
491.798	17418.4
492.168	17863.13
492.538	17875.79
492.908	18063.8
493.278	18348.09
493.648	18416.56
494.017	18615.65
494.387	18725.26
494.757	18905.82
495.126	19028.3
495.496	19192.36
495.866	19376.31
496.235	19598.91
496.605	19837.54
496.974	19910.08
497.344	20121.38
497.713	20146.91
498.082	20372.22
498.452	20512.1
498.821	20674.81
499.19	20806.11
499.559	20918.42
499.928	21071.18
500.298	21223.04
500.667	21421.46
501.036	21471.17
501.405	21759.53
501.774	21810.82
502.143	22021.67
502.512	22096.92
502.88	22281.77
503.249	22298.27
503.618	22526.74
503.987	22615.1
504.356	22775.32
504.724	22859.84
505.093	23038.14
505.462	23151.13
505.83	23390.44
506.199	23580.72
506.567	23957.21
506.936	23871.11
507.304	24201.5
507.672	24411.21
508.041	24394.94
508.409	24708.83
508.777	24807.13
509.145	25027.69
509.514	25022.27
509.882	25230.85
510.25	25287.12
510.618	25450.05
510.986	25672.19
511.354	25959.64
511.722	26181.11
512.09	26370.7
512.458	26391.95
512.826	26619.06
513.193	26817.92
513.561	26932.95
513.929	27137.92
514.297	27305.37
514.664	27554.4
515.032	27688.64
515.4	28040.27
515.767	28142.86
516.135	28269.64
516.502	28160.94
516.869	28702.17
517.237	28746.91
517.604	28851.54
517.972	29234.81
518.339	29367.46
518.706	29561.58
519.073	29618.53
519.44	29766.55
519.808	30343.03
520.175	30290.6
520.542	30699.18
520.909	30931.26
521.276	30853.3
521.643	31300.52
522.009	31439.27
522.376	31723.33
522.743	31973.5
523.11	32249.42
523.477	32595.85
523.843	32673.59
524.21	32991.1
524.577	33252.11
524.943	33382.5
525.31	33596.05
525.676	33938.19
526.043	34071.29
526.409	34328.69
526.776	34649.58
527.142	34900.88
527.508	35011.16
527.874	35243.47
528.241	35392.61
528.607	35673.06
528.973	35864.24
529.339	36000.51
529.705	36447.73
530.071	36580.38
530.437	36793.26
530.803	36987.6
531.169	37172.68
531.535	37190.76
531.901	37393.47
532.267	37689.96
532.632	37823.74
532.998	38036.39
533.364	38105.99
533.73	38276.61
534.095	38592.08
534.461	38723.15
534.826	38895.35
535.192	38984.16
535.557	39385.28
535.923	39311.61
536.288	39571.04
536.653	39815.32
537.019	39765.61
537.384	39957.92
537.749	40093.51
538.114	40302.09
538.479	40226.84
538.845	40569.2
539.21	40501.41
539.575	40765.35
539.94	40827.05
540.305	41033.82
540.67	41022.52
541.034	41176.64
541.399	41578.89
541.764	41595.84
542.129	41715.39
542.494	41854.59
542.858	41971.42
543.223	42140.69
543.587	42330.74
543.952	42173.91
544.316	42420
544.681	42429.49
545.045	42762.59
545.41	42912.42
545.774	42973.66
546.138	43031.74
546.503	43198.96
546.867	43406.19
547.231	43672.17
547.595	43798.95
547.959	43798.04
548.324	44026.96
548.688	44071.26
549.052	44278.03
549.416	44333.4
549.779	44432.15
550.143	44523.67
550.507	44794.4
550.871	45045.69
551.235	44966.15
551.599	45382.18
551.962	45319.13
552.326	45358.45
552.689	45760.93
553.053	45609.97
553.417	45802.06
553.78	46220.8
554.143	46282.05
554.507	46332.89
554.87	46542.15
555.234	46792.54
555.597	46662.15
555.96	46948.02
556.323	47104.85
556.686	47231.17
557.05	47408.57
557.413	47575.35
557.776	47717.04
558.139	47877.03
558.502	48067.08
558.865	48102.11
559.228	48391.59
559.59	48501.2
559.953	48661.87
560.316	49076.77
560.679	48986.83
561.041	49254.62
561.404	49378.01
561.767	49662.3
562.129	49519.25
562.492	49969.63
562.854	49882.63
563.217	49982.29
563.579	50217.31
563.941	50471.99
564.304	50577.3
564.666	50753.57
565.028	50812.32
565.39	50875.15
565.753	51156.27
566.115	51230.16
566.477	51357.39
566.839	51449.14
567.201	51705.18
567.563	51714.22
567.925	51960.54
568.287	51959.41
568.648	51978.17
569.01	52227.65
569.372	52401.66
569.734	52286.41
570.095	52547.64
570.457	52698.37
570.819	52718.49
571.18	52784.47
571.542	53025.6
571.903	53064.47
572.265	53149.66
572.626	53240.05
572.987	53230.34
573.349	53386.72
573.71	53530.89
574.071	53508.52
574.432	53683.66
574.794	53821.96
575.155	53782.19
575.516	53802.3
575.877	53949.19
576.238	54013.82
576.599	54053.82
576.96	54171.33
577.32	54171.1
577.681	54294.72
578.042	54283.42
578.403	54295.39
578.763	54302.85
579.124	54402.28
579.485	54498.1
579.845	54562.05
580.206	54553.24
580.566	54504.2
580.927	54598.44
581.287	54625.33
581.648	54513.69
582.008	54692.67
582.368	54634.14
582.728	54690.64
583.089	54675.05
583.449	54624.88
583.809	54737.87
584.169	54753.69
584.529	54755.04
584.889	54909.16
585.249	54785.1
585.609	54638.21
585.969	54847.47
586.329	54784.65
586.688	54878.66
587.048	54837.98
587.408	54754.14
587.768	54783.97
588.127	54756.63
588.487	54808.83
588.846	54855.38
589.206	54763.18
589.565	54755.72
589.925	54958.43
590.284	54750.07
590.643	54831.43
591.003	54876.85
591.362	55057.41
591.721	54851.76
592.08	54882.27
592.44	55017.86
592.799	55019.67
593.158	54897.86
593.517	54962.95
593.876	54961.14
594.235	54922.5
594.593	55020.12
594.952	55030.97
595.311	54938.09
595.67	55068.71
596.029	55242.04
596.387	55195.03
596.746	55226.22
597.104	55028.03
597.463	55075.94
597.822	55247.01
598.18	55127.24
598.538	55028.03
598.897	55282.49
599.255	55032.78
599.613	55407
599.972	55265.99
600.33	55312.32
600.688	55313.67
601.046	55360.23
601.404	55402.71
601.762	55368.81
602.12	55470.5
602.478	55440.68
602.836	55429.83
603.194	55338.08
603.552	55405.87
603.91	55383.05
604.268	55523.38
604.625	55376.95
604.983	55554.12
605.341	55500.79
605.698	55603.61
606.056	55600.67
606.413	55643.38
606.771	55684.74
607.128	55698.97
607.485	55677.96
607.843	55609.71
608.2	55785.98
608.557	55857.39
608.914	55771.97
609.272	55909.59
609.629	55941.68
609.986	56065.52
610.343	55882.47
610.7	56098.51
611.057	56015.35
611.414	56044.73
611.771	56081.11
612.127	56141.9
612.484	56093.54
612.841	56246.53
613.198	56126.08
613.554	56127.21
613.911	56267.55
614.267	56255.57
614.624	56256.92
614.98	56308
615.337	56427.77
615.693	56310.93
616.05	56346.87
616.406	56530.59
616.762	56344.83
617.118	56338.28
617.475	56331.05
617.831	56406.53
618.187	56519.74
618.543	56579.85
618.899	56609.23
619.255	56513.42
619.611	56508.67
619.967	56572.62
620.323	56630.93
620.678	56463.25
621.034	56514.77
621.39	56472.51
621.746	56459.41
622.101	56753.18
622.457	56493.08
622.812	56599.97
623.168	56579.85
623.523	56568.33
623.879	56710.47
624.234	56496.92
624.589	56639.51
624.945	56611.04
625.3	56650.59
625.655	56624.82
626.01	56659.63
626.365	56599.51
626.72	56562.45
627.075	56531.04
627.43	56537.6
627.785	56533.3
628.14	56575.79
628.495	56641.55
628.85	56527.43
629.205	56463.02
629.559	56632.06
629.914	56449.91
630.269	56455.79
630.623	56441.55
630.978	56330.6
631.332	56483.36
631.687	56506.41
632.041	56372.18
632.396	56353.19
632.75	56279.3
633.104	56276.59
633.459	56201.33
633.813	56219.86
634.167	56174.44
634.521	56106.19
634.875	56187.32
635.229	56066.42
635.583	55904.39
635.937	56025.74
636.291	56027.1
636.645	55966.08
636.999	55912.08
637.352	56006.76
637.706	55813.55
638.06	55935.35
638.413	55782.81
638.767	55787.56
639.121	55789.37
639.474	55562.25
639.828	55640.67
640.181	55669.6
640.534	55672.99
640.888	55598.41
641.241	55421.47
641.594	55509.37
641.947	55521.8
642.301	55464.63
642.654	55450.84
643.007	55350.51
643.36	55343.95
643.713	55277.06
644.066	55346.44
644.419	55213.34
644.771	54928.15
645.124	54634.59
645.477	54699.45
645.83	54560.7
646.182	54372.68
646.535	54257.43
646.888	54405.9
647.24	54228.28
647.593	54270.31
647.945	54284.32
648.298	54140.14
648.65	54176.98
649.002	53902.86
649.355	54038.45
649.707	54013.82
650.059	54146.7
650.411	54509.63
650.763	54520.25
651.115	54746.68
651.467	54685.89
651.819	54658.55
652.171	54603.86
652.523	54573.58
652.875	54491.32
653.227	54339.91
653.578	54547.82
653.93	54416.07
654.282	54359.35
654.633	54272.34
654.985	54369.97
655.337	54355.51
655.688	54245
656.039	54377.43
656.391	54134.04
656.742	54157.32
657.094	54076.87
657.445	54201.16
657.796	54154.38
658.147	54054.5
658.498	54096.53
658.849	54087.49
659.2	53976.08
659.551	53888.85
659.902	54105.34
660.253	53979.92
660.604	53954.39
660.955	53833.26
661.306	53972.92
661.656	53954.16
662.007	53946.7
662.358	53869.19
662.708	53891.56
663.059	53856.54
663.409	53697.9
663.76	53848.4
664.11	53731.12
664.461	53786.26
664.811	53853.6
665.161	53761.17
665.511	53660.38
665.862	53761.62
666.212	53798.23
666.562	53704.9
666.912	53687.5
667.262	53680.72
667.612	53627.84
667.962	53664.9
668.312	53572.48
668.662	53698.57
669.011	53541.06
669.361	53611.57
669.711	53515.98
670.06	53372.03
670.41	53446.15
670.76	53375.64
671.109	53419.26
671.459	53312.82
671.808	53342.65
672.157	53402.76
672.507	53195.31
672.856	53214.29
673.205	53150.57
673.554	53329.54
673.904	53180.62
674.253	53326.83
674.602	53245.25
674.951	52731.37
675.3	52588.32
675.649	53111.47
675.998	53007.29
676.346	53061.98
676.695	53224.91
677.044	52891.59
677.393	52933.4
677.741	53027.41
678.09	52877.35
678.438	52842.78
678.787	52873.51
679.135	52910.35
679.484	52664.02
679.832	52797.58
680.181	52598.94
680.529	52614.31
680.877	52452.51
681.225	52494.54
681.573	52728.88
681.922	52445.27
682.27	52407.08
682.618	52251.83
682.966	52332.73
683.314	52304.71
683.661	52281.44
684.009	52085.06
684.357	51987.43
684.705	51982.01
685.053	51931.16
685.4	51938.17
685.748	51730.04
686.095	51693.88
686.443	51646.42
686.79	51591.51
687.138	51594.9
687.485	51592.87
687.832	51411.63
688.18	51497.5
688.527	51218.87
688.874	51324.4
689.221	51199.88
689.568	51079.89
689.915	50952.21
690.262	50953.11
690.609	50890.06
690.956	50789.05
691.303	50722.16
691.65	50540.24
691.997	50561.48
692.344	50300.92
692.69	50304.99
693.037	50276.29
693.383	50013.93
693.73	50198.55
694.077	49883.76
694.423	49920.37
694.769	49709.98
695.116	49622.97
695.462	49555.86
695.808	49464.33
696.155	49489.19
696.501	49235.87
696.847	49167.85
697.193	48977.57
697.539	49096.44
697.885	48794.75
698.231	48622.1
698.577	48729.67
698.923	48548.43
699.269	48417.36
699.614	48305.04
699.96	48065.73
700.306	48220.98
700.651	48144.37
700.997	47889.01
701.342	47946.18
701.688	47765.4
702.033	47606.53
702.379	47644.5
702.724	47564.5
703.069	47512.75
703.415	47096.04
703.76	47049.71
704.105	47008.13
704.45	46994.57
704.795	46783.5
705.14	46724.97
705.485	46534.24
705.83	46510.29
706.175	46569.04
706.52	46278.66
706.865	46146.23
707.209	46153.24
707.554	46083.86
707.899	45986.01
708.243	45813.81
708.588	45857.88
708.932	45525.68
709.277	45459.47
709.621	45654.94
709.966	45258.34
710.31	45383.99
710.654	45000.72
710.998	45038.69
711.342	44973.83
711.687	44878.24
712.031	44696.1
712.375	44450.46
712.719	44740.39
713.063	44504.01
713.407	44558.7
713.75	44376.79
714.094	44325.04
714.438	44204.36
714.782	44224.92
715.125	43983.58
715.469	44123.91
715.812	43859.28
716.156	43562.34
716.499	43689.57
716.843	43647.31
717.186	43588.11
717.53	43696.35
717.873	43602.12
718.216	43393.53
718.559	43181.79
718.902	42999.42
719.246	42984.73
719.589	42859.08
719.932	42738.41
720.275	42847.33
720.617	42768.24
720.96	42563.73
721.303	42538.87
721.646	42779.09
721.989	42343.39
722.331	42530.05
722.674	42345.43
723.016	42265.2
723.359	42186.11
723.701	42186.11
724.044	41976.85
724.386	41764.42
724.729	41935.72
725.071	41898.66
725.413	41797.87
725.755	41752.9
726.097	41582.06
726.439	41359.24
726.782	41394.04
727.124	41602.62
727.465	41270.65
727.807	41297.54
728.149	41296.19
728.491	41046.48
728.833	41136.87
729.175	40945.01
729.516	40844
729.858	40859.36
730.199	40860.72
730.541	40709.99
730.882	40654.85
731.224	40696.2
731.565	40534.17
731.906	40540.5
732.248	40394.52
732.589	40325.82
732.93	40206.05
733.271	40133.05
733.612	40288.98
733.953	40294.41
734.294	40076.79
734.635	39982.1
734.976	40147.29
735.317	39813.52
735.658	39869.33
735.999	39808.32
736.339	39683.35
736.68	39575.56
737.021	39628.89
737.361	39361.78
737.702	39512.51
738.042	39369.69
738.383	39267.99
738.723	39343.7
739.063	39252.85
739.404	39257.37
739.744	39050.6
740.084	39002.92
740.424	38985.74
740.764	38743.71
741.104	38913.2
741.444	38769.47
741.784	38632.53
742.124	38702.36
742.464	38706.65
742.804	38402.93
743.143	38439.54
743.483	38445.19
743.823	38264.4
744.162	38190.28
744.502	38168.13
744.841	37974.02
745.181	38153.9
745.52	37952.32
745.86	38152.54
746.199	37977.63
746.538	37841.14
746.877	37818.99
747.216	37813.12
747.556	37615.83
747.895	37764.53
748.234	37546.68
748.573	37586.68
748.911	37518.43
749.25	37367.25
749.589	37222.4
749.928	37332.9
750.267	37371.32
750.605	37175.84
750.944	36980.14
751.283	36904.21
751.621	36997.77
751.96	36718.23
752.298	36687.27
752.636	36620.38
