Data from White_reflection_standard_FLMS001491_046.txt Node
Date: Tue Feb 07 10:32:04 GMT 2017
User: dcchb
Spectrometer: FLMS00149
Trigger mode: 0
Integration Time (sec): 2.000000E-2
Scans to average: 10
Electric dark correction enabled: true
Nonlinearity correction enabled: false
Boxcar width: 0
XAxis mode: Wavelengths
Number of Pixels in Spectrum: 2048
>>>>>Begin Spectral Data<<<<<
341.393	-25.55
341.776	-25.55
342.16	-25.55
342.543	-66.23
342.927	-73.01
343.31	-82.72
343.693	-74.81
344.077	-70.29
344.46	-60.35
344.843	-48.15
345.226	-42.05
345.61	-30.07
345.993	-31.43
346.376	12.19
346.759	19.19
347.142	28.91
347.525	36.37
347.908	65.75
348.291	83.37
348.674	91.06
349.057	103.03
349.44	120.89
349.823	133.99
350.206	145.74
350.588	227.55
350.971	249.47
351.354	291.28
351.737	281.33
352.119	301.45
352.502	316.81
352.884	346.87
353.267	305.97
353.65	320.2
354.032	381.9
354.414	366.98
354.797	372.86
355.179	366.53
355.562	375.34
355.944	373.08
356.326	392.74
356.709	384.38
357.091	400.88
357.473	398.85
357.855	405.4
358.238	386.42
358.62	401.56
359.002	389.58
359.384	414.66
359.766	404.95
360.148	415.34
360.53	416.25
360.912	414.66
361.294	422.57
361.676	405.85
362.057	412.86
362.439	409.69
362.821	423.48
363.203	421.9
363.584	407.66
363.966	392.97
364.348	406.98
364.729	423.48
365.111	413.99
365.493	403.82
365.874	408.79
366.256	414.66
366.637	405.85
367.019	405.85
367.4	401.78
367.781	412.4
368.163	425.51
368.544	412.63
368.925	398.85
369.306	429.13
369.688	431.16
370.069	423.48
370.45	449.24
370.831	439.52
371.212	428
371.593	441.56
371.974	440.88
372.355	420.99
372.736	458.28
373.117	448.79
373.498	430.48
373.879	450.14
374.26	438.17
374.641	430.93
375.021	441.78
375.402	476.58
375.783	482.01
376.163	491.95
376.544	505.96
376.925	499.86
377.305	501.67
377.686	480.88
378.066	480.43
378.447	511.84
378.827	507.77
379.208	519.52
379.588	505.28
379.968	506.19
380.349	514.77
380.729	550.71
381.109	555.45
381.489	540.76
381.87	531.95
382.25	520.2
382.63	548.45
383.01	547.77
383.39	577.37
383.77	550.48
384.15	583.02
384.53	587.09
384.91	585.73
385.29	582.8
385.67	614.43
386.049	612.17
386.429	620.53
386.809	610.82
387.189	613.98
387.568	640.2
387.948	640.65
388.328	647.88
388.707	654.66
389.087	641.55
389.466	657.14
389.846	656.47
390.225	693.07
390.605	684.71
390.984	712.74
391.363	706.86
391.743	718.84
392.122	717.03
392.501	752.51
392.881	749.57
393.26	763.36
393.639	766.75
394.018	773.07
394.397	753.19
394.776	776.69
395.155	774.65
395.534	783.69
395.913	801.55
396.292	811.72
396.671	844.26
397.05	828.44
397.429	842.9
397.808	831.38
398.186	853.3
398.565	872.73
398.944	869.57
399.323	903.24
399.701	896.01
400.08	900.98
400.458	905.05
400.837	906.63
401.215	912.96
401.594	935.33
401.972	940.75
402.351	941.88
402.729	935.78
403.107	994.76
403.486	982.33
403.864	971.03
404.242	986.63
404.62	1013.74
404.999	1058.94
405.377	1049.22
405.755	1052.16
406.133	1073.18
406.511	1085.61
406.889	1098.26
407.267	1108.43
407.645	1131.03
408.023	1124.7
408.401	1157.7
408.779	1179.62
409.156	1205.15
409.534	1198.37
409.912	1217.13
410.29	1234.08
410.667	1272.72
411.045	1251.48
411.422	1278.37
411.8	1300.52
412.178	1338.26
412.555	1354.98
412.933	1363.34
413.31	1386.84
413.687	1422.1
414.065	1431.36
414.442	1397.24
414.819	1448.31
415.197	1469.33
415.574	1483.79
415.951	1489.89
416.328	1499.38
416.705	1513.17
417.082	1515.65
417.46	1577.8
417.837	1586.84
418.214	1583.67
418.591	1585.48
418.967	1619.15
419.344	1630.23
419.721	1693.05
420.098	1648.53
420.475	1695.31
420.852	1703.67
421.228	1712.48
421.605	1754.29
421.982	1789.09
422.358	1795.87
422.735	1796.55
423.111	1806.49
423.488	1874.29
423.864	1882.65
424.241	1881.07
424.617	1936.43
424.994	1918.58
425.37	1939.82
425.746	1966.71
426.123	2005.81
426.499	1984.79
426.875	2036.99
427.251	2078.35
427.627	2076.32
428.003	2131.91
428.379	2154.05
428.756	2198.35
429.132	2198.12
429.507	2199.48
429.883	2223.88
430.259	2300.04
430.635	2294.84
431.011	2330.55
431.387	2381.62
431.763	2429.53
432.138	2428.62
432.514	2507.04
432.89	2519.47
433.265	2533.48
433.641	2608.28
434.016	2610.54
434.392	2673.36
434.767	2750.42
435.143	2743.64
435.518	2782.96
435.894	2797.88
436.269	2840.14
436.644	2932.11
437.02	2913.81
437.395	2916.75
437.77	2960.59
438.145	3014.37
438.52	3024.31
438.895	3072.9
439.271	3044.43
439.646	3129.62
440.021	3172.33
440.395	3167.81
440.77	3177.08
441.145	3207.13
441.52	3237.41
441.895	3224.76
442.27	3291.88
442.645	3323.97
443.019	3356.96
443.394	3365.55
443.769	3413.91
444.143	3421.36
444.518	3450.06
444.892	3485.54
445.267	3472.21
445.641	3526.9
446.016	3588.14
446.39	3591.08
446.764	3605.31
447.139	3581.59
447.513	3649.38
447.887	3678.08
448.262	3714.69
448.636	3687.57
449.01	3801.47
449.384	3800.11
449.758	3831.75
450.132	3868.58
450.506	3927.34
450.88	3953.55
451.254	3927.34
451.628	4047.79
452.002	4073.1
452.376	4094.57
452.75	4168.92
453.123	4198.07
453.497	4240.1
453.871	4303.15
454.244	4365.97
454.618	4425.63
454.992	4472.41
455.365	4453.43
455.739	4583.37
456.112	4656.13
456.486	4702.46
456.859	4730.93
457.232	4825.17
457.606	4817.03
457.979	4866.3
458.352	4947.43
458.725	5082.56
459.099	5039.18
459.472	5238.27
459.845	5173.86
460.218	5245.27
460.591	5316
460.964	5309.68
461.337	5465.83
461.71	5587.18
462.083	5664.47
462.456	5684.13
462.829	5657.01
463.201	5762.77
463.574	5878.48
463.947	5925.25
464.32	5990.56
464.692	6118.7
465.065	6171.8
465.438	6214.51
465.81	6307.39
466.183	6362.53
466.555	6531.11
466.928	6561.4
467.3	6537.44
467.672	6681.17
468.045	6892.01
468.417	6805.23
468.789	6942.63
469.161	7037.31
469.534	7173.13
469.906	7267.59
470.278	7313.24
470.65	7410.86
471.022	7609.05
471.394	7746
471.766	7831.19
472.138	7958.42
472.51	8086.55
472.882	8195.7
473.253	8315.47
473.625	8402.7
473.997	8589.36
474.369	8671.4
474.74	8782.35
475.112	8999.07
475.484	9123.36
475.855	9318.16
476.227	9298.5
476.598	9600.86
476.97	9703.01
477.341	9869.33
477.713	10097.8
478.084	10161.98
478.455	10420.28
478.827	10463.44
479.198	10813.94
479.569	10792.24
479.94	11094.38
480.311	11235.85
480.682	11497.31
481.053	11725.1
481.424	11940.46
481.795	12091.65
482.166	12217.07
482.537	12341.13
482.908	12711.06
483.279	12760.1
483.65	13055.46
484.021	13403.25
484.391	13473.3
484.762	13590.81
485.133	13714.2
485.503	13898.83
485.874	14209.56
486.244	14334.3
486.615	14689.77
486.985	14829.88
487.356	15112.13
487.726	15154.39
488.097	15558.45
488.467	15602.97
488.837	15850.42
489.207	16146.23
489.578	16379.67
489.948	16473.68
490.318	16699.43
490.688	16840
491.058	17024.4
491.428	17378.29
491.798	17414.9
492.168	17737.6
492.538	17889.23
492.908	18096.91
493.278	18310.01
493.648	18253.29
494.017	18584.36
494.387	18717.69
494.757	19023.67
495.126	19129.2
495.496	19201.74
495.866	19331.45
496.235	19594.5
496.605	19719.69
496.974	19787.49
497.344	20104.09
497.713	20241.94
498.082	20465.89
498.452	20631.31
498.821	20601.25
499.19	20656.39
499.559	20987.91
499.928	21143.84
500.298	21227.9
500.667	21525.52
501.036	21424.06
501.405	21681.45
501.774	21833.76
502.143	21996.02
502.512	22098.84
502.88	22316.01
503.249	22367.08
503.618	22570.69
503.987	22717.13
504.356	22807.3
504.724	22995.99
505.093	23107.17
505.462	23175.65
505.83	23399.37
506.199	23550.1
506.567	23928.62
506.936	23922.52
507.304	24234.6
507.672	24261.95
508.041	24430.76
508.409	24664.42
508.777	24811.76
509.145	24947.58
509.514	25036.39
509.882	25214.69
510.25	25383.5
510.618	25578.3
510.986	25624.62
511.354	25997.95
511.722	26162.91
512.09	26235.91
512.458	26381.67
512.826	26637.03
513.193	26843.57
513.561	26977.36
513.929	27053.96
514.297	27371.47
514.664	27559.04
515.032	27575.08
515.4	27869.76
515.767	28077.67
516.135	28287.83
516.502	28134.39
516.869	28776.86
517.237	28900.69
517.604	28847.59
517.972	29110.41
518.339	29420
518.706	29571.19
519.073	29647.57
519.44	29887.34
519.808	30287.33
520.175	30203.26
520.542	30691.61
520.909	30946.06
521.276	30805.28
521.643	31107.42
522.009	31508.99
522.376	31684.12
522.743	31852.26
523.11	32239.59
523.477	32627.15
523.843	32691.78
524.21	32985.79
524.577	33249.06
524.943	33416.51
525.31	33635.26
525.676	33915.93
526.043	34075.02
526.409	34322.25
526.776	34750.71
527.142	34896.92
527.508	35001.1
527.874	35371.49
528.241	35492.61
528.607	35610.12
528.973	35997.91
529.339	35966.05
529.705	36378.24
530.071	36687.61
530.437	36798.34
530.803	36994.27
531.169	37306.35
531.535	37197.43
531.901	37358.78
532.267	37606.68
532.632	37843.51
532.998	38117.18
533.364	38326.21
533.73	38453.44
534.095	38611.4
534.461	38823.37
534.826	38958.96
535.192	39120.09
535.557	39438.04
535.923	39426.52
536.288	39665.38
536.653	39699.96
537.019	39673.07
537.384	39848.66
537.749	40179.49
538.114	40300.85
538.479	40262.2
538.845	40657.45
539.21	40506.04
539.575	40786.71
539.94	40852.02
540.305	41148.06
540.67	41098.79
541.034	41369.75
541.399	41453.81
541.764	41716.18
542.129	41797.08
542.494	41780.13
542.858	42031.65
543.223	42024.42
543.587	42428.7
543.952	42339.89
544.316	42406.33
544.681	42531.52
545.045	42701.01
545.41	43042.24
545.774	43028.46
546.138	43151.85
546.503	43214.22
546.867	43354.55
547.231	43666.18
547.595	43775.78
547.959	43792.05
548.324	43991.82
548.688	44121.99
549.052	44231.37
549.416	44356.56
549.779	44348.65
550.143	44524.24
550.507	44767.17
550.871	44938.47
551.235	45036.09
551.599	45201.96
551.962	45416.19
552.326	45595.62
552.689	45674.49
553.053	45657.99
553.417	45760.59
553.78	46199.68
554.143	46152.22
554.507	46403.96
554.87	46579.33
555.234	46867.91
555.597	46635.37
555.96	46988.13
556.323	47117.17
556.686	47210.95
557.05	47602.35
557.413	47506.99
557.776	47658.17
558.139	48001.44
558.502	48010.7
558.865	48268.55
559.228	48407.07
559.59	48584.92
559.953	48785.14
560.316	49144
560.679	48993.73
561.041	49295.86
561.404	49419.25
561.767	49635.29
562.129	49626.48
562.492	49993.93
562.854	49947.6
563.217	49946.02
563.579	50225.56
563.941	50369.96
564.304	50573.8
564.666	50590.52
565.028	50757.07
565.39	50912.77
565.753	51060.56
566.115	51252.88
566.477	51456.49
566.839	51439.31
567.201	51748.46
567.563	51715.01
567.925	51939.86
568.287	51980.77
568.648	52047.66
569.01	52230.02
569.372	52404.03
569.734	52403.81
570.095	52632.95
570.457	52778.49
570.819	52747.98
571.18	52820.29
571.542	53031.59
571.903	53098.02
572.265	53163.79
572.626	53281.97
572.987	53300.96
573.349	53381.18
573.71	53442.2
574.071	53509.99
574.432	53706.6
574.794	53913.14
575.155	53828.85
575.516	53760.83
575.877	53918.79
576.238	53999.92
576.599	54142.29
576.96	54071.33
577.32	54144.78
577.681	54295.06
578.042	54390.65
578.403	54302.51
578.763	54347.71
579.124	54448.05
579.485	54460.02
579.845	54525.33
580.206	54543.64
580.566	54554.48
580.927	54596.06
581.287	54680.58
581.648	54564.2
582.008	54728.26
582.368	54719.45
582.728	54760.58
583.089	54655.05
583.449	54742.05
583.809	54771.2
584.169	54842.16
584.529	54675.61
584.889	54915.83
585.249	54730.07
585.609	54765.1
585.969	54876.51
586.329	54768.26
586.688	54829.5
587.048	54888.03
587.408	54764.87
587.768	54752.9
588.127	54832.67
588.487	54804.42
588.846	55006.68
589.206	54797.64
589.565	54775.72
589.925	54929.84
590.284	54884.42
590.643	54839.45
591.003	54986.11
591.362	55002.83
591.721	54879.22
592.08	54871.76
592.44	55065.66
592.799	55076.96
593.158	54902.05
593.517	55026.34
593.876	55005.09
594.235	54996.73
594.593	55036.96
594.952	55029.73
595.311	55042.38
595.67	55070.85
596.029	55170.29
596.387	55175.71
596.746	55272.43
597.104	55122.83
597.463	55046.45
597.822	55241.92
598.18	55104.07
598.538	55090.51
598.897	55284.63
599.255	55067.01
599.613	55433.1
599.972	55242.83
600.33	55354.91
600.688	55225.43
601.046	55365.76
601.404	55426.33
601.762	55420.9
602.12	55461.35
602.478	55428.36
602.836	55491.18
603.194	55384.29
603.552	55456.15
603.91	55409.15
604.268	55593.1
604.625	55466.55
604.983	55532.09
605.341	55416.38
605.698	55616.38
606.056	55570.28
606.413	55582.93
606.771	55685.08
607.128	55718.29
607.485	55673.1
607.843	55659.31
608.2	55751.29
608.557	55882.13
608.914	55773.89
609.272	55973.66
609.629	55969.36
609.986	56046.2
610.343	55918.29
610.7	56013.2
611.057	56071.05
611.414	56026.76
611.771	56055.69
612.127	56175.68
612.484	56094.33
612.841	56276.92
613.198	56135.01
613.554	56144.27
613.911	56325.51
614.267	56291.61
614.624	56266.08
614.98	56230.6
615.337	56450.25
615.693	56329.35
616.05	56309.47
616.406	56483.25
616.762	56346.3
617.118	56397.15
617.475	56403.02
617.831	56427.65
618.187	56476.02
618.543	56384.94
618.899	56572.96
619.255	56561.21
619.611	56502
619.967	56665.84
620.323	56682.11
620.678	56564.6
621.034	56500.65
621.39	56520.76
621.746	56537.03
622.101	56786.97
622.457	56544.26
622.812	56624.49
623.168	56619.06
623.523	56628.55
623.879	56777.93
624.234	56530.93
624.589	56655.45
624.945	56610.02
625.3	56660.87
625.655	56600.98
626.01	56645.05
626.365	56679.63
626.72	56632.4
627.075	56635.11
627.43	56556.24
627.785	56541.55
628.14	56613.41
628.495	56590.81
628.85	56533.87
629.205	56497.03
629.559	56645.28
629.914	56462
630.269	56462.68
630.623	56409.12
630.978	56408.67
631.332	56425.39
631.687	56569.12
632.041	56348.33
632.396	56399.18
632.75	56339.97
633.104	56365.74
633.459	56226.53
633.813	56221.11
634.167	56204.38
634.521	56203.03
634.875	56202.8
635.229	56036.03
635.583	55941.11
635.937	56001.68
636.291	55902.02
636.645	55923.49
636.999	55872.64
637.352	55944.05
637.706	55774.34
638.06	55917.16
638.413	55845.98
638.767	55762.14
639.121	55834.68
639.474	55600.33
639.828	55646.21
640.181	55744.96
640.534	55667.67
640.888	55565.76
641.241	55493.22
641.594	55489.15
641.947	55546.1
642.301	55379.32
642.654	55519.66
643.007	55427.91
643.36	55268.36
643.713	55274.01
644.066	55379.09
644.419	55166.44
644.771	55020.23
645.124	54725.78
645.477	54697.76
645.83	54544.77
646.182	54399.91
646.535	54310.42
646.888	54361.27
647.24	54159.69
647.593	54288.05
647.945	54249.18
648.298	54105.23
648.65	54063.65
649.002	54018
649.355	54069.07
649.707	54066.13
650.059	54136.87
650.411	54443.98
650.763	54520.36
651.115	54841.71
651.467	54701.15
651.819	54617.76
652.171	54570.98
652.523	54536.18
652.875	54469.29
653.227	54409.4
653.578	54556.74
653.93	54384.09
654.282	54308.61
654.633	54201.05
654.985	54307.03
655.337	54282.17
655.688	54251.67
656.039	54367.14
656.391	54078.79
656.742	54104.1
657.094	54186.13
657.445	54288.5
657.796	54097.09
658.147	54106.81
658.498	54123.76
658.849	54119.01
659.2	54051.45
659.551	53944.1
659.902	54046.47
660.253	53913.14
660.604	54020.03
660.955	53913.82
661.306	53973.03
661.656	53907.49
662.007	53937.1
662.358	53898.68
662.708	53887.16
663.059	53831.56
663.409	53686.26
663.76	53936.65
664.11	53830.43
664.461	53886.7
664.811	53808.51
665.161	53810.1
665.511	53686.03
665.862	53686.94
666.212	53756.54
666.562	53730.78
666.912	53629.54
667.262	53542.76
667.612	53659.82
667.962	53669.08
668.312	53548.41
668.662	53719.93
669.011	53601.97
669.361	53509.09
669.711	53473.61
670.06	53502.08
670.41	53468.86
670.76	53361.97
671.109	53470.67
671.459	53376.89
671.808	53331.69
672.157	53329.43
672.507	53267.06
672.856	53211.69
673.205	53258.7
673.554	53306.15
673.904	53144.58
674.253	53281.75
674.602	53273.16
674.951	52718.6
675.3	52593.41
675.649	53087.63
675.998	53024.35
676.346	53072.49
676.695	53173.95
677.044	52805.38
677.393	53007.41
677.741	53016.9
678.09	52820.74
678.438	52840.18
678.787	52889.67
679.135	52853.06
679.484	52758.37
679.832	52740.97
680.181	52535.1
680.529	52669.11
680.877	52601.77
681.225	52563.8
681.573	52719.28
681.922	52406.74
682.27	52356.58
682.618	52313.86
682.966	52327.2
683.314	52297.59
683.661	52284.03
684.009	52140.99
684.357	52019.41
684.705	51972.18
685.053	52037.04
685.4	51937.83
685.748	51738.74
686.095	51818.74
686.443	51590.27
686.79	51614.22
687.138	51614.9
687.485	51609.48
687.832	51415.36
688.18	51477.28
688.527	51302.14
688.874	51226.44
689.221	51173.33
689.568	51084.97
689.915	51018.53
690.262	50943.28
690.609	50763.4
690.956	50772.21
691.303	50642.72
691.65	50578.09
691.997	50495.61
692.344	50247.25
692.69	50298.32
693.037	50340.13
693.383	49927.49
693.73	50126.58
694.077	49916.41
694.423	49888.62
694.769	49690.43
695.116	49673.93
695.462	49530.43
695.808	49387.84
696.155	49402.53
696.501	49159.37
696.847	49315.98
697.193	48859.49
697.539	49003.44
697.885	48763
698.231	48577.47
698.577	48752.6
698.923	48540.63
699.269	48278.04
699.614	48364.82
699.96	48238.27
700.306	48245.5
700.651	47994.2
700.997	47858.84
701.342	47889.8
701.688	47734.55
702.033	47612.75
702.379	47622.69
702.724	47478.74
703.069	47556.93
703.415	47036.26
703.76	47109.03
704.105	47020.67
704.45	46962.82
704.795	46840.11
705.14	46590.85
705.485	46718.08
705.83	46556.05
706.175	46494.58
706.52	46374.36
706.865	46147.7
707.209	46144.76
707.554	45971.66
707.899	46122.61
708.243	45760.59
708.588	45682.17
708.932	45555.4
709.277	45560.14
709.621	45504.1
709.966	45295.07
710.31	45426.14
710.654	44993.38
710.998	45183.66
711.342	44959.26
711.687	44779.6
712.031	44803.55
712.375	44512.26
712.719	44730.56
713.063	44684.69
713.407	44633.16
713.75	44279.05
714.094	44423
714.438	44193.4
714.782	44303.45
715.125	43955.44
715.469	44255.32
715.812	43886.29
716.156	43666.86
716.499	43750.7
716.843	43595.45
717.186	43465.96
717.53	43542.8
717.873	43687.2
718.216	43505.73
718.559	43193.65
718.902	43001.79
719.246	43093.09
719.589	42983.71
719.932	42913.21
720.275	42858.29
720.617	42795.7
720.96	42722.25
721.303	42691.74
721.646	42688.13
721.989	42216.73
722.331	42437.29
722.674	42354.8
723.016	42407.91
723.359	42273.68
723.701	42315.48
724.044	41985.55
724.386	41835.95
724.729	42108.03
725.071	41807.25
725.413	41803.63
725.755	41740.36
726.097	41543.98
726.439	41267.38
726.782	41441.61
727.124	41547.59
727.465	41261.73
727.807	41299.01
728.149	41170.88
728.491	41276.41
728.833	41059.47
729.175	40912.36
729.516	40881.85
729.858	40854.5
730.199	40906.71
730.541	40781.74
730.882	40639.37
731.224	40684.57
731.565	40551.46
731.906	40532.93
732.248	40599.6
732.589	40310.56
732.93	40288.42
733.271	40242.77
733.612	40217.91
733.953	40296.55
734.294	40091.59
734.635	39978.6
734.976	40130.23
735.317	39780.86
735.658	39635.78
735.999	39539.06
736.339	39710.58
736.68	39630.58
737.021	39437.14
737.361	39353.75
737.702	39481.66
738.042	39378.61
738.383	39172.74
738.723	39335.22
739.063	39091.61
739.404	39231.72
739.744	39171.39
740.084	39042.58
740.424	38891.62
740.764	38929.81
741.104	38994.67
741.444	38739.31
741.784	38634.68
742.124	38912.18
742.464	38612.3
742.804	38471.52
743.143	38385.64
743.483	38439.2
743.823	38282.6
744.162	38139.77
744.502	38223.84
744.841	38052.54
745.181	38212.09
745.52	37973.9
745.86	38073.79
746.199	37832.66
746.538	37934.36
746.877	37957.63
747.216	37839.67
747.556	37509.28
747.895	37669.73
748.234	37485.33
748.573	37542.95
748.911	37433.13
749.25	37349.06
749.589	37196.97
749.928	37208.5
750.267	37352.22
750.605	37121.72
750.944	37133.92
751.283	36856.87
751.621	36783.65
751.96	36711.56
752.298	36811.67
