Data from white_wall_FLMS001491_030.txt Node
Date: Tue Feb 07 11:04:02 GMT 2017
User: dcchb
Spectrometer: FLMS00149
Trigger mode: 0
Integration Time (sec): 2.000000E-2
Scans to average: 10
Electric dark correction enabled: true
Nonlinearity correction enabled: false
Boxcar width: 0
XAxis mode: Wavelengths
Number of Pixels in Spectrum: 2048
>>>>>Begin Spectral Data<<<<<
341.393	9.89
341.776	9.89
342.16	9.89
342.543	-46.38
342.927	-77.34
343.31	-54.07
343.693	-70.79
344.077	-61.07
344.46	-66.04
344.843	-53.39
345.226	-32.15
345.61	-41.19
345.993	-34.18
346.376	9.89
346.759	12.15
347.142	17.12
347.525	49.89
347.908	50.56
348.291	66.38
348.674	91.47
349.057	115.42
349.44	129.66
349.823	148.19
350.206	158.81
350.588	199.49
350.971	205.14
351.354	240.62
351.737	242.42
352.119	264.12
352.502	285.36
352.884	269.31
353.267	278.35
353.65	308.86
354.032	325.58
354.414	321.29
354.797	330.56
355.179	331.46
355.562	319.48
355.944	331.23
356.326	333.27
356.709	327.39
357.091	358.13
357.473	359.26
357.855	358.58
358.238	331.69
358.62	353.15
359.002	338.47
359.384	358.13
359.766	350.89
360.148	342.31
360.53	341.18
360.912	364.45
361.294	359.71
361.676	354.74
362.057	354.51
362.439	370.1
362.821	339.14
363.203	356.32
363.584	345.92
363.966	346.38
364.348	338.92
364.729	339.14
365.111	347.05
365.493	325.81
365.874	325.81
366.256	334.62
366.637	332.14
367.019	333.49
367.4	344.34
367.781	315.42
368.163	342.31
368.544	328.07
368.925	322.19
369.306	351.35
369.688	339.37
370.069	326.04
370.45	343.21
370.831	322.42
371.212	332.14
371.593	320.61
371.974	340.73
372.355	336.88
372.736	334.4
373.117	329.65
373.498	341.18
373.879	343.66
374.26	344.34
374.641	325.36
375.021	323.78
375.402	325.58
375.783	342.99
376.163	335.53
376.544	349.76
376.925	370.33
377.305	338.69
377.686	332.82
378.066	360.84
378.447	361.97
378.827	376.66
379.208	353.38
379.588	360.61
379.968	352.25
380.349	354.28
380.729	380.05
381.109	355.64
381.489	371.01
381.87	359.71
382.25	383.66
382.63	389.99
383.01	387.96
383.39	366.71
383.77	371.46
384.15	369.88
384.53	382.98
384.91	384.11
385.29	379.14
385.67	380.72
386.049	390.89
386.429	386.15
386.809	395.87
387.189	397.9
387.568	402.19
387.948	408.29
388.328	382.98
388.707	430.44
389.087	421.85
389.466	422.98
389.846	405.58
390.225	405.13
390.605	428.18
390.984	429.99
391.363	455.52
391.743	434.73
392.122	447.62
392.501	459.37
392.881	453.49
393.26	472.02
393.639	475.86
394.018	492.36
394.397	498.69
394.776	482.64
395.155	507.05
395.534	499.37
395.913	488.97
396.292	491.23
396.671	508.63
397.05	541.4
397.429	549.31
397.808	525.58
398.186	528.97
398.565	574.62
398.944	558.12
399.323	544.34
399.701	580.27
400.08	582.08
400.458	587.27
400.837	607.39
401.215	599.7
401.594	626.14
401.972	647.16
402.351	641.96
402.729	653.71
403.107	652.36
403.486	682.41
403.864	677.44
404.242	688.96
404.62	709.3
404.999	748.4
405.377	755.86
405.755	733.03
406.133	765.12
406.511	773.26
406.889	782.07
407.267	792.47
407.645	808.28
408.023	853.25
408.401	830.88
408.779	873.37
409.156	863.88
409.534	905.46
409.912	897.32
410.29	922.18
410.667	913.82
411.045	947.04
411.422	967.15
411.8	965.34
412.178	987.49
412.555	999.01
412.933	1016.87
413.31	1048.28
413.687	1063.64
414.065	1074.72
414.442	1086.24
414.819	1077.88
415.197	1086.47
415.574	1109.52
415.951	1137.09
416.328	1141.61
416.705	1135.05
417.082	1150.87
417.46	1199.91
417.837	1183.87
418.214	1208.27
418.591	1208.73
418.967	1224.77
419.344	1260.25
419.721	1250.53
420.098	1246.69
420.475	1294.37
420.852	1268.16
421.228	1303.64
421.605	1314.26
421.982	1356.52
422.358	1346.57
422.735	1367.37
423.111	1392.9
423.488	1413.01
423.864	1406.91
424.241	1388.16
424.617	1479.45
424.994	1461.6
425.37	1485.1
425.746	1479.9
426.123	1487.59
426.499	1494.37
426.875	1536.17
427.251	1557.87
427.627	1593.8
428.003	1603.97
428.379	1650.97
428.756	1614.36
429.132	1688.71
429.507	1699.56
429.883	1695.94
430.259	1714.25
430.635	1724.87
431.011	1740.91
431.387	1775.26
431.763	1836.96
432.138	1842.15
432.514	1855.26
432.89	1878.09
433.265	1923.28
433.641	1943.85
434.016	1967.12
434.392	1975.03
434.767	2029.72
435.143	2057.29
435.518	2028.36
435.894	2098.65
436.269	2123.96
436.644	2136.16
437.02	2193.78
437.395	2161.69
437.77	2235.82
438.145	2202.82
438.52	2257.06
438.895	2257.74
439.271	2287.79
439.646	2366.66
440.021	2326.89
440.395	2366.66
440.77	2334.57
441.145	2368.02
441.52	2459.54
441.895	2443.04
442.27	2456.15
442.645	2435.59
443.019	2523.04
443.394	2494.34
443.769	2515.36
444.143	2528.69
444.518	2573.89
444.892	2544.06
445.267	2589.25
445.641	2605.07
446.016	2625.41
446.39	2678.07
446.764	2670.83
447.139	2669.25
447.513	2772.53
447.887	2721.68
448.262	2754.9
448.636	2763.26
449.01	2796.03
449.384	2820.43
449.758	2860.89
450.132	2932.07
450.506	2920.32
450.88	2944.72
451.254	2971.84
451.628	2987.44
452.002	3021.33
452.376	3048.9
452.75	3097.04
453.123	3097.72
453.497	3122.8
453.871	3163.48
454.244	3246.19
454.618	3231.5
454.992	3294.32
455.365	3314.88
455.739	3391.72
456.112	3460.19
456.486	3462.45
456.859	3514.88
457.232	3580.41
457.606	3550.81
457.979	3601.43
458.352	3714.87
458.725	3714.87
459.099	3775.66
459.472	3891.14
459.845	3939.73
460.218	3910.35
460.591	3969.56
460.964	3976.34
461.337	4086.39
461.71	4176.1
462.083	4209.78
462.456	4181.98
462.829	4215.88
463.201	4302.66
463.574	4283.9
463.947	4398.92
464.32	4463.78
464.692	4545.36
465.065	4554.4
465.438	4628.75
465.81	4715.75
466.183	4714.85
466.555	4859.48
466.928	4858.8
467.3	4891.57
467.672	4958.23
468.045	5098.11
468.417	5111.45
468.789	5170.43
469.161	5240.26
469.534	5311.44
469.906	5414.26
470.278	5454.26
470.65	5545.56
471.022	5628.95
471.394	5756.63
471.766	5817.64
472.138	5906.45
472.51	6005.21
472.882	6101.03
473.253	6163.62
473.625	6244.07
473.997	6357.06
474.369	6354.8
474.74	6478.42
475.112	6630.73
475.484	6733.1
475.855	6882.02
476.227	6901
476.598	7127.89
476.97	7197.95
477.341	7357.04
477.713	7460.54
478.084	7522.91
478.455	7729.01
478.827	7777.59
479.198	8005.38
479.569	8029.79
479.94	8277.01
480.311	8415.77
480.682	8578.93
481.053	8769.2
481.424	8865.93
481.795	8944.34
482.166	9145.01
482.537	9249.64
482.908	9430.2
483.279	9541.84
483.65	9757.2
484.021	9918.55
484.391	10095.27
484.762	10150.64
485.133	10243.06
485.503	10436.96
485.874	10700.45
486.244	10783.61
486.615	10924.63
486.985	11028.81
487.356	11269.7
487.726	11416.14
488.097	11721.9
488.467	11671.28
488.837	11948.33
489.207	12077.59
489.578	12314.42
489.948	12367.08
490.318	12543.79
490.688	12672.38
491.058	12837.8
491.428	13080.5
491.798	13122.99
492.168	13441.85
492.538	13385.81
492.908	13603.65
493.278	13858.34
493.648	13785.57
494.017	14066.01
494.387	14154.37
494.757	14337.42
495.126	14506.23
495.496	14516.62
495.866	14662.16
496.235	14815.83
496.605	15058.98
496.974	15047.68
497.344	15272.54
497.713	15325.87
498.082	15474.79
498.452	15645.18
498.821	15639.98
499.19	15783.94
499.559	16022.12
499.928	16070.26
500.298	16234.54
500.667	16300.08
501.036	16327.2
501.405	16534.65
501.774	16610.13
502.143	16726.51
502.512	16835.89
502.88	17028.42
503.249	17049.66
503.618	17200.85
503.987	17356.78
504.356	17451.01
504.724	17595.64
505.093	17739.82
505.462	17734.17
505.83	17968.74
506.199	18155.17
506.567	18307.26
506.936	18204.44
507.304	18525.78
507.672	18710.19
508.041	18646.46
508.409	18938.88
508.777	19037.41
509.145	19130.74
509.514	19280.57
509.882	19427.91
510.25	19556.49
510.618	19725.07
510.986	19781.57
511.354	20074.22
511.722	20153.09
512.09	20427.43
512.458	20362.57
512.826	20606.41
513.193	20666.97
513.561	20800.75
513.929	20934.99
514.297	21077.58
514.664	21392.15
515.032	21491.36
515.4	21637.57
515.767	21800.05
516.135	21880.27
516.502	21765.02
516.869	22225.57
517.237	22285.01
517.604	22302.86
517.972	22605.22
518.339	22687.03
518.706	22839.12
519.073	23014.48
519.44	23107.13
519.808	23400.23
520.175	23389.84
520.542	23774.46
520.909	23887
521.276	23870.28
521.643	24186.43
522.009	24352.07
522.376	24494.21
522.743	24681.78
523.11	24934.2
523.477	25160.64
523.843	25305.94
524.21	25548.65
524.577	25699.38
524.943	25901.64
525.31	25961.75
525.676	26296.43
526.043	26377.78
526.409	26552.01
526.776	26801.95
527.142	27008.95
527.508	27164.43
527.874	27345.67
528.241	27435.15
528.607	27555.83
528.973	27904.52
529.339	27799.21
529.705	28218.86
530.071	28351.97
530.437	28515.8
530.803	28744.27
531.169	28805.29
531.535	28814.1
531.901	28958.5
532.267	29147.2
532.632	29301.55
532.998	29405.05
533.364	29637.36
533.73	29596.68
534.095	29897.46
534.461	30082.54
534.826	30136.55
535.192	30212.48
535.557	30442.76
535.923	30394.4
536.288	30710.77
536.653	30800.26
537.019	30673.49
537.384	30875.06
537.749	31207.03
538.114	31364.32
538.479	31388.04
538.845	31544.88
539.21	31427.14
539.575	31725.89
539.94	31818.99
540.305	31979.67
540.67	31997.29
541.034	32160.68
541.399	32347.57
541.764	32390.28
542.129	32591.63
542.494	32557.96
542.858	32791.4
543.223	32840.44
543.587	33117.94
543.952	32991.62
544.316	33160.65
544.681	33305.06
545.045	33441.78
545.41	33663.24
545.774	33665.72
546.138	33703.46
546.503	33928.32
546.867	33864.36
547.231	34206.73
547.595	34231.36
547.959	34358.81
548.324	34643.55
548.688	34628.19
549.052	34883.77
549.416	35002.64
549.779	35062.07
550.143	35189.53
550.507	35427.26
550.871	35599.46
551.235	35528.05
551.599	35755.61
551.962	35896.17
552.326	36039.67
552.689	36292.55
553.053	36183.17
553.417	36440.34
553.78	36812.31
554.143	36773.44
554.507	36991.06
554.87	37110.83
555.234	37540.2
555.597	37233.77
555.96	37515.12
556.323	37610.25
556.686	37812.96
557.05	38058.15
557.413	38114.2
557.776	38138.38
558.139	38779.94
558.502	38603.22
558.865	38777
559.228	39071.23
559.59	39272.13
559.953	39339.02
560.316	39688.62
560.679	39742.85
561.041	39963.41
561.404	40171.09
561.767	40318.66
562.129	40274.36
562.492	40758.65
562.854	40722.04
563.217	40944.4
563.579	40901.69
563.941	41211.52
564.304	41455.8
564.666	41665.74
565.028	41616.93
565.39	41925.39
565.753	42094.43
566.115	42177.14
566.477	42455.1
566.839	42499.39
567.201	42754.07
567.563	42797.24
567.925	43017.12
568.287	43110.9
568.648	43191.12
569.01	43390.89
569.372	43749.75
569.734	43536.65
570.095	43912.69
570.457	43940.26
570.819	44066.58
571.18	44105
571.542	44383.86
571.903	44506.12
572.265	44697.98
572.626	44690.29
572.987	44888.48
573.349	44996.5
573.71	45113.79
574.071	45328.47
574.432	45390.61
574.794	45631.06
575.155	45692.75
575.516	45608.01
575.877	45790.38
576.238	45683.26
576.599	45941.79
576.96	45866.99
577.32	46014.55
577.681	46156.02
578.042	46310.14
578.403	46311.04
578.763	46374.77
579.124	46384.71
579.485	46562.79
579.845	46496.8
580.206	46472.17
580.566	46657.93
580.927	46601.43
581.287	46788.77
581.648	46647.53
582.008	46823.57
582.368	46770.92
582.728	46935.21
583.089	46857.24
583.449	46925.04
583.809	46868.32
584.169	46948.54
584.529	46864.25
584.889	47073.06
585.249	46934.08
585.609	46733.4
585.969	47035.09
586.329	46993.28
586.688	46990.57
587.048	46935.43
587.408	46977.92
587.768	46887.07
588.127	46970.01
588.487	46812.27
588.846	47204.58
589.206	46798.71
589.565	46983.34
589.925	47072.15
590.284	46861.99
590.643	47041.87
591.003	47128.2
591.362	47154.64
591.721	47180.85
592.08	47131.59
592.44	47186.05
592.799	47188.08
593.158	47083.23
593.517	47114.18
593.876	47209.32
594.235	47089.55
594.593	47193.05
594.952	47304.91
595.311	47179.49
595.67	47334.97
596.029	47444.57
596.387	47486.6
596.746	47496.1
597.104	47315.08
597.463	47340.17
597.822	47494.06
598.18	47358.02
598.538	47414.74
598.897	47664
599.255	47223.56
599.613	47802.98
599.972	47600.5
600.33	47634.85
600.688	47522.99
601.046	47754.85
601.404	47780.16
601.762	47761.17
602.12	47792.81
602.478	47914.16
602.836	47863.09
603.194	47670.33
603.552	47730.44
603.91	47658.13
604.268	47898.35
604.625	47909.19
604.983	48090.88
605.341	47801.4
605.698	48121.16
606.056	48109.19
606.413	48060.83
606.771	48166.13
607.128	48280.71
607.485	48074.39
607.843	48088.62
608.2	48240.71
608.557	48496.75
608.914	48254.49
609.272	48495.84
609.629	48529.06
609.986	48545.79
610.343	48515.28
610.7	48739.45
611.057	48606.8
611.414	48576.75
611.771	48698.78
612.127	48832.56
612.484	48901.71
612.841	48914.36
613.198	48886.79
613.554	48871.2
613.911	49082.49
614.267	49071.87
614.624	49064.42
614.98	49029.16
615.337	49203.85
615.693	49194.58
616.05	49113.23
616.406	49432.77
616.762	49183.06
617.118	49272.32
617.475	49326.1
617.831	49479.32
618.187	49409.04
618.543	49329.72
618.899	49730.39
619.255	49568.13
619.611	49446.55
619.967	49653.33
620.323	49620.56
620.678	49545.08
621.034	49542.37
621.39	49531.75
621.746	49504.86
622.101	49889.71
622.457	49589.15
622.812	49582.59
623.168	49783.27
623.523	49748.47
623.879	49802.7
624.234	49607.68
624.589	49674.12
624.945	49678.86
625.3	49749.82
625.655	49764.51
626.01	49704.4
626.365	49711.4
626.72	49636.15
627.075	49695.13
627.43	49660.56
627.785	49665.53
628.14	49581.69
628.495	49740.33
628.85	49704.4
629.205	49571.52
629.559	49703.72
629.914	49525.87
630.269	49637.28
630.623	49428.93
630.978	49447.68
631.332	49565.65
631.687	49611.52
632.041	49430.51
632.396	49565.19
632.75	49376.5
633.104	49381.24
633.459	49294.69
633.813	49204.53
634.167	49210.18
634.521	49272.55
634.875	49280.91
635.229	49070.29
635.583	49115.71
635.937	48967.92
636.291	48954.59
636.645	48981.48
636.999	48937.87
637.352	48972.89
637.706	48836.4
638.06	48948.71
638.413	48910.07
638.767	48818.32
639.121	48906.68
639.474	48508.72
639.828	48524.09
640.181	48667.82
640.534	48608.16
640.888	48536.29
641.241	48323.64
641.594	48445.68
641.947	48643.18
642.301	48346.02
642.654	48487.93
643.007	48406.35
643.36	48318
643.713	48298.33
644.066	48393.93
644.419	48126.36
644.771	47970.21
645.124	47495.19
645.477	47493.16
645.83	47160.06
646.182	47099.04
646.535	47022.66
646.888	47041.19
647.24	46825.15
647.593	46966.17
647.945	47009.78
648.298	46718.49
648.65	46691.82
649.002	46536.57
649.355	46717.81
649.707	46659.06
650.059	46796.45
650.411	47117.8
650.763	47165.48
651.115	47706.94
651.467	47507.39
651.819	47442.76
652.171	47343.56
652.523	47145.14
652.875	47282.32
653.227	47129.33
653.578	47433.27
653.93	47333.84
654.282	47061.08
654.633	46912.38
654.985	47108.99
655.337	47105.37
655.688	47165.26
656.039	47149.21
656.391	46938.6
656.742	46821.54
657.094	46860.63
657.445	47143.56
657.796	46896.56
658.147	46809.33
658.498	46931.14
658.849	46910.35
659.2	46783.12
659.551	46715.1
659.902	46860.86
660.253	46735.44
660.604	46715.78
660.955	46630.36
661.306	46636.91
661.656	46564.37
662.007	46670.58
662.358	46602.56
662.708	46640.07
663.059	46461.32
663.409	46298.39
663.76	46560.3
664.11	46503.81
664.461	46565.05
664.811	46480.98
665.161	46389.68
665.511	46281.44
665.862	46403.24
666.212	46454.99
666.562	46398.72
666.912	46360.53
667.262	46277.37
667.612	46179.07
667.962	46354.88
668.312	46164.15
668.662	46297.71
669.011	46240.31
669.361	46244.83
669.711	46117.37
670.06	46095.68
670.41	46025.4
670.76	46081.67
671.109	46101.56
671.459	46054.78
671.808	45946.53
672.157	46068.11
672.507	45693.66
672.856	45743.37
673.205	45864.95
673.554	45989.02
673.904	45779.08
674.253	46020.88
674.602	45904.73
674.951	45193.11
675.3	45053.45
675.649	45558.52
675.998	45636.26
676.346	45419.31
676.695	45577.05
677.044	45265.65
677.393	45536.6
677.741	45458.41
678.09	45316.27
678.438	45220.22
678.787	45303.39
679.135	45178.19
679.484	45052.09
679.832	45199.43
680.181	44917.86
680.529	45245.31
680.877	44951.98
681.225	44829.95
681.573	45068.36
681.922	44770.07
682.27	44743.63
682.618	44731.42
682.966	44612.1
683.314	44669.73
683.661	44558.32
684.009	44202.62
684.357	44257.08
684.705	44217.31
685.053	44122.17
685.4	44090.54
685.748	44052.34
686.095	43883.31
686.443	43848.51
686.79	43655.29
687.138	43780.26
687.485	43739.13
687.832	43620.27
688.18	43580.72
688.527	43302.76
688.874	43322.19
689.221	43199.71
689.568	43193.84
689.915	43005.14
690.262	42847.63
690.609	42873.39
690.956	42764.02
691.303	42791.36
691.65	42577.13
691.997	42566.73
692.344	42271.37
692.69	42166.29
693.037	42244.26
693.383	41736.02
693.73	41984.38
694.077	41651.73
694.423	41824.38
694.769	41570.6
695.116	41351.4
695.462	41334.45
695.808	41219.65
696.155	41343.94
696.501	40951.64
696.847	41126.32
697.193	40832.99
697.539	40996.83
697.885	40674.35
698.231	40503.06
698.577	40440.46
698.923	40437.3
699.269	40324.76
699.614	40081.6
699.96	40002.06
700.306	40092.67
700.651	39910.76
700.997	39697.43
701.342	39787.82
701.688	39659.69
702.033	39491.79
702.379	39532.92
702.724	39396.42
703.069	39440.94
703.415	38870.79
703.76	38997.79
704.105	39023.78
704.45	38725.7
704.795	38716.67
705.14	38443.9
705.485	38603
705.83	38296.11
706.175	38446.62
706.52	38264.7
706.865	38199.17
707.209	38105.38
707.554	38157.81
707.899	38163.46
708.243	37875.33
708.588	37793.98
708.932	37667.2
709.277	37550.14
709.621	37558.05
709.966	37356.93
710.31	37346.31
710.654	37027.22
710.998	37248.91
711.342	37149.93
711.687	37163.03
712.031	37099.76
712.375	36866.09
712.719	36903.15
713.063	36878.52
713.407	36851.86
713.75	36657.28
714.094	36563.05
714.438	36420.68
714.782	36554.69
715.125	36269.27
715.469	36311.53
715.812	36118.54
716.156	36081.48
716.499	36022.73
716.843	35941.15
717.186	35804.43
717.53	36130.07
717.873	36021.37
718.216	35860.24
718.559	35727.14
718.902	35531.21
719.246	35558.78
719.589	35477.2
719.932	35264.78
720.275	35332.12
720.617	35278.11
720.96	35216.64
721.303	35217.32
721.646	35135.06
721.989	34894.62
722.331	35011.68
722.674	34830.44
723.016	34920.16
723.359	34784.34
723.701	34919.25
724.044	34564.23
724.386	34470.45
724.729	34555.65
725.071	34566.72
725.413	34525.59
725.755	34511.58
726.097	34379.6
726.439	34284.24
726.782	34272.71
727.124	34399.27
727.465	34246.73
727.807	34286.5
728.149	34056.45
728.491	33945.27
728.833	33949.56
729.175	33811.03
729.516	33850.8
729.858	33829.34
730.199	33693.29
730.541	33646.52
730.882	33668.89
731.224	33678.61
731.565	33573.75
731.906	33424.6
732.248	33637.93
732.589	33519.97
732.93	33173.08
733.271	33191.84
733.612	33233.65
733.953	33293.76
734.294	32981.68
734.635	33091.5
734.976	33075.91
735.317	32823.49
735.658	33038.17
735.999	32874.33
736.339	32757.05
736.68	32948.46
737.021	32738.29
737.361	32574.23
737.702	32777.39
738.042	32543.04
738.383	32504.63
738.723	32652.64
739.063	32332.88
739.404	32581.23
739.744	32404.74
740.084	32218.08
740.424	32333.1
740.764	32175.59
741.104	32341.24
741.444	32072.55
741.784	32049.5
742.124	32125.2
742.464	32108.7
742.804	31949.61
743.143	31853.8
743.483	31821.71
743.823	31695.16
744.162	31698.09
744.502	31797.75
744.841	31508.72
745.181	31805.21
745.52	31428.5
745.86	31505.78
746.199	31446.12
746.538	31395.95
746.877	31483.41
747.216	31419.23
747.556	31357.99
747.895	31427.14
748.234	31142.4
748.573	31184.66
748.911	30996.19
749.25	30948.06
749.589	30945.34
749.928	30939.02
750.267	30865.35
750.605	30805.46
750.944	30717.55
751.283	30591
751.621	30645.92
751.96	30587.84
752.298	30336.32
752.636	30487.5
752.975	30239.37
753.313	30183.1
