Data from whiteboard_FLMS001491_00091.txt Node
Date: Wed Feb 08 11:28:44 GMT 2017
User: dcchb
Spectrometer: FLMS00149
Trigger mode: 0
Integration Time (sec): 2.000000E-2
Scans to average: 10
Electric dark correction enabled: true
Nonlinearity correction enabled: false
Boxcar width: 0
XAxis mode: Wavelengths
Number of Pixels in Spectrum: 2048
>>>>>Begin Spectral Data<<<<<
341.393	-4.73
341.776	-4.73
342.16	-4.73
342.543	-70.04
342.927	-69.81
343.31	-73.2
343.693	-66.2
344.077	-55.35
344.46	-71.4
344.843	-56.26
345.226	-38.63
345.61	-26.88
345.993	-33.21
346.376	-3.6
346.759	0.47
347.142	14.7
347.525	53.57
347.908	73.91
348.291	57.87
348.674	93.57
349.057	130.63
349.44	135.15
349.823	150.97
350.206	163.17
350.588	221.25
350.971	244.08
351.354	255.15
351.737	271.42
352.119	269.39
352.502	294.02
352.884	307.12
353.267	316.16
353.65	327.46
354.032	329.05
354.414	321.14
354.797	335.37
355.179	362.94
355.562	354.13
355.944	352.55
356.326	366.56
356.709	371.08
357.091	370.63
357.473	378.31
357.855	382.15
358.238	383.51
358.62	366.33
359.002	375.6
359.384	383.51
359.766	366.11
360.148	373.56
360.53	374.92
360.912	396.16
361.294	378.54
361.676	381.47
362.057	371.3
362.439	379.67
362.821	393
363.203	384.64
363.584	380.8
363.966	383.96
364.348	363.62
364.729	362.26
365.111	355.26
365.493	355.94
365.874	360.46
366.256	377.86
366.637	369.72
367.019	364.75
367.4	363.39
367.781	354.13
368.163	362.04
368.544	359.33
368.925	383.05
369.306	374.24
369.688	342.38
370.069	349.84
370.45	373.56
370.831	385.09
371.212	374.24
371.593	389.16
371.974	379.21
372.355	369.04
372.736	365.65
373.117	381.7
373.498	366.56
373.879	382.6
374.26	358.65
374.641	367.69
375.021	366.56
375.402	363.85
375.783	400.23
376.163	395.94
376.544	378.54
376.925	396.61
377.305	412.88
377.686	397.97
378.066	395.48
378.447	383.73
378.827	403.62
379.208	403.62
379.588	408.36
379.968	414.01
380.349	404.3
380.729	422.6
381.109	442.26
381.489	421.25
381.87	419.89
382.25	419.44
382.63	440
383.01	438.42
383.39	450.62
383.77	443.39
384.15	444.52
384.53	453.56
384.91	456.5
385.29	458.08
385.67	453.34
386.049	465.76
386.429	457.4
386.809	439.32
387.189	458.31
387.568	484.3
387.948	484.97
388.328	468.48
388.707	496.72
389.087	497.18
389.466	506.67
389.846	505.31
390.225	492.43
390.605	521.13
390.984	513.9
391.363	535.82
391.743	528.14
392.122	543.28
392.501	560
392.881	565.42
393.26	566.1
393.639	566.55
394.018	573.56
394.397	564.52
394.776	598.42
395.155	578.76
395.534	614.69
395.913	583.5
396.292	595.03
396.671	603.84
397.05	627.79
397.429	627.57
397.808	649.49
398.186	650.62
398.565	681.58
398.944	674.57
399.323	675.02
399.701	690.84
400.08	694.23
400.458	714.35
400.837	716.83
401.215	747.11
401.594	748.92
401.972	776.04
402.351	775.81
402.729	770.62
403.107	819.43
403.486	814.91
403.864	820.11
404.242	840.44
404.62	836.83
404.999	858.97
405.377	865.3
405.755	893.32
406.133	908.69
406.511	915.7
406.889	926.09
407.267	937.39
407.645	973.32
408.023	1004.73
408.401	1012.87
408.779	1053.77
409.156	1072.98
409.534	1056.48
409.912	1096.93
410.29	1114.79
410.667	1140.78
411.045	1180.32
411.422	1201.56
411.8	1201.79
412.178	1235.69
412.555	1264.61
412.933	1261.9
413.31	1283.82
413.687	1306.42
414.065	1328.57
414.442	1372.86
414.819	1368.11
415.197	1376.25
415.574	1449.02
415.951	1443.14
416.328	1453.31
416.705	1492.18
417.082	1479.52
417.46	1492.63
417.837	1515
418.214	1512.29
418.591	1551.16
418.967	1585.96
419.344	1615.79
419.721	1648.11
420.098	1648.11
420.475	1651.04
420.852	1656.47
421.228	1703.25
421.605	1719.29
421.982	1745.5
422.358	1783.47
422.735	1781.44
423.111	1818.27
423.488	1851.72
423.864	1855.78
424.241	1847.42
424.617	1914.99
424.994	1885.61
425.37	1936.69
425.746	1923.81
426.123	1981.88
426.499	2002.67
426.875	2008.55
427.251	2081.09
427.627	2116.79
428.003	2121.99
428.379	2160.41
428.756	2191.37
429.132	2221.42
429.507	2247.86
429.883	2281.31
430.259	2305.72
430.635	2347.97
431.011	2385.94
431.387	2420.06
431.763	2482.89
432.138	2470.01
432.514	2519.27
432.89	2528.08
433.265	2599.49
433.641	2644.01
434.016	2637.23
434.392	2663.22
434.767	2753.16
435.143	2748.87
435.518	2770.56
435.894	2800.39
436.269	2857.57
436.644	2890.33
437.02	2928.07
437.395	2938.02
437.77	2969.43
438.145	3055.08
438.52	2988.41
438.895	3100.95
439.271	3117.67
439.646	3179.37
440.021	3220.72
440.395	3215.07
440.77	3204
441.145	3227.73
441.52	3316.54
441.895	3282.87
442.27	3335.52
442.645	3347.95
443.019	3414.61
443.394	3383.2
443.769	3433.14
444.143	3458.91
444.518	3511.33
444.892	3470.88
445.267	3520.37
445.641	3572.58
446.016	3553.59
446.39	3625
446.764	3637.88
447.139	3619.13
447.513	3705.23
447.887	3660.48
448.262	3728.05
448.636	3705.68
449.01	3796.52
449.384	3838.56
449.758	3842.17
450.132	3934.83
450.506	3923.98
450.88	3967.82
451.254	3974.15
451.628	4052.79
452.002	4098.89
452.376	4068.83
452.75	4206.91
453.123	4211.88
453.497	4273.57
453.871	4343.4
454.244	4344.08
454.618	4417.53
454.992	4482.16
455.365	4526.22
455.739	4615.94
456.112	4657.29
456.486	4699.33
456.859	4733.22
457.232	4856.61
457.606	4814.35
457.979	4878.76
458.352	4993.1
458.725	5052.76
459.099	5114.68
459.472	5220.44
459.845	5252.98
460.218	5299.08
460.591	5391.06
460.964	5405.3
461.337	5535.91
461.71	5638.51
462.083	5682.8
462.456	5667.21
462.829	5733.2
463.201	5849.58
463.574	5845.06
463.947	5906.98
464.32	6044.6
464.692	6154.2
465.065	6186.07
465.438	6243.69
465.81	6310.81
466.183	6420.41
466.555	6555.55
466.928	6630.8
467.3	6578.15
467.672	6776.11
468.045	6906.27
468.417	6884.13
468.789	6979.72
469.161	7111.01
469.534	7222.65
469.906	7338.13
470.278	7400.27
470.65	7492.7
471.022	7674.39
471.394	7751
471.766	7912.57
472.138	7980.37
472.51	8116.41
472.882	8182.62
473.253	8317.08
473.625	8499.68
473.997	8661.48
474.369	8603.63
474.74	8836.17
475.112	8997.07
475.484	9093.33
475.855	9251.97
476.227	9383.72
476.598	9608.12
476.97	9707.33
477.341	9901.45
477.713	10009.92
478.084	10097.6
478.455	10419.4
478.827	10460.76
479.198	10814.42
479.569	10831.59
479.94	11157.91
480.311	11199.95
480.682	11503.44
481.053	11737.11
481.424	11908.18
481.795	12049.64
482.166	12216.19
482.537	12328.05
482.908	12661.83
483.279	12786.57
483.65	13029.73
484.021	13283.96
484.391	13344.3
484.762	13547.45
485.133	13657.06
485.503	13839.2
485.874	14214.1
486.244	14247.32
486.615	14508.79
486.985	14854.76
487.356	15146.06
487.726	15135.66
488.097	15443.22
488.467	15511.7
488.837	15849.54
489.207	15920.05
489.578	16242.52
489.948	16331.34
490.318	16588.28
490.688	16739.69
491.058	16947.37
491.428	17141.48
491.798	17272.78
492.168	17686.33
492.538	17771.98
492.908	17980.56
493.278	18183.94
493.648	18187.78
494.017	18532.18
494.387	18741.44
494.757	18799.52
495.126	19050.36
495.496	19132.62
495.866	19364.7
496.235	19466.39
496.605	19704.58
496.974	19776.67
497.344	19926.04
497.713	20090.11
498.082	20206.26
498.452	20451.45
498.821	20444.9
499.19	20723.31
499.559	20721.05
499.928	20999.24
500.298	21150.42
500.667	21366.91
501.036	21314.93
501.405	21610.52
501.774	21575.72
502.143	21815.94
502.512	22012.99
502.88	22168.02
503.249	22253.89
503.618	22354.23
503.987	22496.15
504.356	22582.92
504.724	22720.77
505.093	22872.63
505.462	22942.46
505.83	23025.62
506.199	23279.4
506.567	23616.57
506.936	23600.98
507.304	23828.31
507.672	23897.24
508.041	24039.16
508.409	24214.74
508.777	24395.98
509.145	24580.61
509.514	24572.7
509.882	24842.07
510.25	24897.89
510.618	25159.58
510.986	25152.8
511.354	25518.21
511.722	25662.84
512.09	26067.8
512.458	25950.29
512.826	26293.79
513.193	26409.94
513.561	26509.6
513.929	26668.69
514.297	26883.15
514.664	27224.16
515.032	27190.94
515.4	27467.31
515.767	27606.75
516.135	27786.85
516.502	27681.32
516.869	28206.73
517.237	28306.84
517.604	28309.55
517.972	28702.76
518.339	28846.49
518.706	28950.67
519.073	29027.05
519.44	29255.74
519.808	29662.96
520.175	29608.73
520.542	29988.6
520.909	30176.62
521.276	30079.45
521.643	30593.11
522.009	30729.15
522.376	30854.57
522.743	31132.08
523.11	31320.32
523.477	31599.18
523.843	31809.35
524.21	32186.29
524.577	32283.01
524.943	32534.75
525.31	32656.78
525.676	33051.12
526.043	33162.98
526.409	33383.77
526.776	33747.83
527.142	33775.4
527.508	34075.5
527.874	34307.13
528.241	34496.96
528.607	34695.15
528.973	34965.87
529.339	34967.23
529.705	35421
530.071	35750.49
530.437	35938.28
530.803	35995
531.169	36241.1
531.535	36387.31
531.901	36547.75
532.267	36680.86
532.632	36903.68
532.998	37060.51
533.364	37132.82
533.73	37357.68
534.095	37696.42
534.461	37613.49
534.826	37813.26
535.192	37910.66
535.557	38240.36
535.923	38234.94
536.288	38497.98
536.653	38649.62
537.019	38562.62
537.384	38781.82
537.749	38993.57
538.114	39096.16
538.479	39150.17
538.845	39153.56
539.21	39232.88
539.575	39539.77
539.94	39658.41
540.305	39926.87
540.67	39577.73
541.034	39925.29
541.399	40207.54
541.764	40217.26
542.129	40350.37
542.494	40514.66
542.858	40689.34
543.223	40731.82
543.587	41027.86
543.952	41030.12
544.316	41216.56
544.681	41122.1
545.045	41451.81
545.41	41642.54
545.774	41786.71
546.138	41867.84
546.503	42024.45
546.867	42019.93
547.231	42440.93
547.595	42450.65
547.959	42623.3
548.324	42663.3
548.688	42748.95
549.052	42963.4
549.416	43050.41
549.779	43130.41
550.143	43315.03
550.507	43602.48
550.871	43863.72
551.235	43865.75
551.599	44076.14
551.962	44215.12
552.326	44196.37
552.689	44479.75
553.053	44342.58
553.417	44526.75
553.78	45055.55
554.143	44802
554.507	44943.69
554.87	45140.3
555.234	45531.25
555.597	45271.37
555.96	45634.75
556.323	45661.41
556.686	45752.71
557.05	46001.97
557.413	46067.05
557.776	46060.5
558.139	46536.87
558.502	46529.41
558.865	46589.07
559.228	46886.92
559.59	46884.43
559.953	47059.57
560.316	47491.19
560.679	47488.71
561.041	47667.24
561.404	47867.46
561.767	48036.04
562.129	48047.11
562.492	48370.27
562.854	48398.74
563.217	48415.46
563.579	48685.51
563.941	48917.82
564.304	48932.29
564.666	49255.44
565.028	49335.21
565.39	49356.91
565.753	49583.57
566.115	49683.23
566.477	49913.96
566.839	49873.51
567.201	50163.21
567.563	50196.21
567.925	50532.7
568.287	50700.38
568.648	50719.81
569.01	50953.25
569.372	51314.37
569.734	51078.67
570.095	51415.16
570.457	51500.13
570.819	51628.94
571.18	51483.63
571.542	51815.15
571.903	51794.36
572.265	51914.58
572.626	51958.65
572.987	51999.55
573.349	52199.32
573.71	52298.98
574.071	52370.84
574.432	52513.89
574.794	52666.2
575.155	52746.88
575.516	52553.21
575.877	52698.29
576.238	52887.21
576.599	52896.25
576.96	52891.73
577.32	52940.09
577.681	53048.79
578.042	53096.25
578.403	53034.33
578.763	53118.62
579.124	53195.45
579.485	53347.54
579.845	53230.93
580.206	53171.95
580.566	53286.75
580.927	53201.55
581.287	53366.07
581.648	53199.75
582.008	53439.06
582.368	53362
582.728	53450.36
583.089	53401.32
583.449	53366.97
583.809	53437.03
584.169	53444.03
584.529	53401.32
584.889	53678.38
585.249	53496.23
585.609	53360.42
585.969	53569.68
586.329	53508.66
586.688	53646.97
587.048	53625.72
587.408	53548.66
587.768	53641.54
588.127	53624.14
588.487	53581.43
588.846	53841.99
589.206	53606.74
589.565	53705.72
589.925	53794.76
590.284	53753.4
590.643	53815.55
591.003	53937.58
591.362	53969.44
591.721	53985.04
592.08	53909.56
592.44	54043.11
592.799	54045.37
593.158	54075.88
593.517	54067.75
593.876	54103.9
594.235	54050.57
594.593	54137.57
594.952	54120.4
595.311	53887.41
595.67	54026.84
596.029	54234.97
596.387	54114.75
596.746	54279.26
597.104	54102.55
597.463	54079.72
597.822	54254.86
598.18	54036.11
598.538	54059.38
598.897	54261.86
599.255	54031.36
599.613	54346.83
599.972	54189.1
600.33	54262.32
600.688	54076.33
601.046	54085.15
601.404	54346.16
601.762	54136.9
602.12	54296.21
602.478	54232.26
602.836	54129.66
603.194	54026.39
603.552	54104.58
603.91	54028.42
604.268	54199.49
604.625	54004.47
604.983	54203.56
605.341	54007.18
605.698	54177.8
606.056	54198.59
606.413	54116.78
606.771	54220.51
607.128	54236.78
607.485	54191.36
607.843	54302.54
608.2	54440.84
608.557	54519.26
608.914	54432.26
609.272	54548.64
609.629	54659.14
609.986	54706.6
610.343	54597.22
610.7	54820.49
611.057	54781.62
611.414	54746.6
611.771	54763.09
612.127	54853.49
612.484	54887.61
612.841	55046.25
613.198	54963.99
613.554	55001.96
613.911	55114.72
614.267	55093.25
614.624	55093.71
614.98	55235.17
615.337	55327.15
615.693	55312.91
616.05	55312.46
616.406	55612.11
616.762	55422.51
617.118	55394.72
617.475	55476.07
617.831	55522.4
618.187	55493.24
618.543	55522.85
618.899	55633.13
619.255	55567.37
619.611	55571.21
619.967	55591.09
620.323	55667.48
620.678	55543.86
621.034	55479.69
621.39	55498.89
621.746	55401.5
622.101	55707.7
622.457	55416.18
622.812	55389.29
623.168	55468.84
623.523	55420.25
623.879	55438.33
624.234	55162.41
624.589	55322.4
624.945	55308.62
625.3	55355.17
625.655	55357.43
626.01	55341.61
626.365	55252.35
626.72	55164.89
627.075	55150.88
627.43	55167.15
627.785	55080.83
628.14	55167.83
628.495	55141.62
628.85	55067.04
629.205	54944.78
629.559	55130.54
629.914	54959.92
630.269	55010.32
630.623	54859.36
630.978	54858.23
631.332	55027.95
631.687	55027.72
632.041	54874.73
632.396	54891.68
632.75	54787.5
633.104	54866.37
633.459	54779.59
633.813	54779.82
634.167	54824.34
634.521	54827.27
634.875	54869.76
635.229	54805.8
635.583	54700.27
635.937	54742.98
636.291	54741.17
636.645	54714.06
636.999	54758.35
637.352	54828.85
637.706	54691.23
638.06	54739.59
638.413	54765.35
638.767	54661.4
639.121	54618.47
639.474	54503.89
639.828	54575.75
640.181	54664.34
640.534	54723.55
640.888	54486.72
641.241	54390.67
641.594	54519.94
641.947	54608.07
642.301	54497.56
642.654	54503.21
643.007	54472.48
643.36	54471.12
643.713	54449.2
644.066	54534.85
644.419	54283.33
644.771	54110
645.124	53770.13
645.477	53712.05
645.83	53475.22
646.182	53360.87
646.535	53321.78
646.888	53442.9
647.24	53157.49
647.593	53405.16
647.945	53293.98
648.298	53022.12
648.65	52941.67
649.002	52798.63
649.355	52952.29
649.707	52772.86
650.059	52766.54
650.411	53183.93
650.763	53190.25
651.115	53506.86
651.467	53376.24
651.819	53183.02
652.171	53124.49
652.523	53008.79
652.875	53007.21
653.227	53007.66
653.578	53029.13
653.93	53024.16
654.282	52865.06
654.633	52825.74
654.985	52807.44
655.337	52747.55
655.688	52715.46
656.039	52894.44
656.391	52571.29
656.742	52578.74
657.094	52528.8
657.445	52793.65
657.796	52619.87
658.147	52535.58
658.498	52447
658.849	52515.47
659.2	52513.44
659.551	52512.76
659.902	52568.35
660.253	52543.94
660.604	52457.17
660.955	52401.35
661.306	52519.99
661.656	52575.35
662.007	52493.1
662.358	52612.19
662.708	52595.69
663.059	52583.26
663.409	52392.99
663.76	52600.21
664.11	52594.11
664.461	52595.69
664.811	52602.7
665.161	52576.48
665.511	52525.41
665.862	52537.16
666.212	52624.85
666.562	52706.65
666.912	52552.08
667.262	52530.16
667.612	52468.01
667.962	52610.61
668.312	52450.39
668.662	52616.48
669.011	52575.13
669.361	52535.58
669.711	52491.06
670.06	52421.01
670.41	52337.4
670.76	52277.06
671.109	52529.48
671.459	52353.21
671.808	52254.69
672.157	52289.71
672.507	52049.72
672.856	52101.02
673.205	52059.21
673.554	52156.16
673.904	52058.08
674.253	52133.56
674.602	52025.99
674.951	51581.93
675.3	51394.14
675.649	51850.85
675.998	51821.02
676.346	51827.35
676.695	51873.45
677.044	51519.56
677.393	51688.6
677.741	51684.3
678.09	51588.26
678.438	51464.88
678.787	51498.55
679.135	51311.89
679.484	51069.86
679.832	51201.83
680.181	51060.82
680.529	51040.25
680.877	51021.72
681.225	50847.04
681.573	51030.76
681.922	50669.87
682.27	50569.31
682.618	50587.61
682.966	50507.84
683.314	50520.72
683.661	50440.95
684.009	50224.23
684.357	50232.14
684.705	50104.69
685.053	50141.29
685.4	50161.41
685.748	49884.13
686.095	49781.98
686.443	49708.76
686.79	49703.57
687.138	49779.72
687.485	49571.59
687.832	49466.74
688.18	49520.52
688.527	49393.07
688.874	49410.01
689.221	49297.02
689.568	49263.35
689.915	49065.84
690.262	49097.93
690.609	48907.2
690.956	48874.66
691.303	48760.77
691.65	48734.55
691.997	48653.2
692.344	48539.98
692.69	48342.7
693.037	48438.06
693.383	48170.27
693.73	48408.91
694.077	48166.43
694.423	48175.02
694.769	48009.37
695.116	48150.61
695.462	47916.27
695.808	47810.28
696.155	47829.94
696.501	47565.77
696.847	47727.12
697.193	47440.35
697.539	47539.1
697.885	47247.59
698.231	47217.98
698.577	47170.07
698.923	47150.64
699.269	47046.69
699.614	46762.4
699.96	46576.87
700.306	46775.06
700.651	46516.53
700.997	46326.25
701.342	46326.48
701.688	46253.04
702.033	46126.71
702.379	46084.9
702.724	46046.94
703.069	46102.76
703.415	45581.64
703.76	45556.33
704.105	45629.55
704.45	45532.6
704.795	45212.61
705.14	45057.59
705.485	45102.33
705.83	44900.75
706.175	44870.7
706.52	44706.18
706.865	44605.17
707.209	44597.49
707.554	44278.62
707.899	44373.76
708.243	44255.8
708.588	44111.85
708.932	43789.15
709.277	43698.07
709.621	43803.16
709.966	43375.6
710.31	43454.46
710.654	42900.81
710.998	43039.79
711.342	43062.38
711.687	42848.38
712.031	42546.24
712.375	42447.71
712.719	42572.45
713.063	42491.78
713.407	42491.33
713.75	42177.44
714.094	42147.61
714.438	41960.72
714.782	41900.38
715.125	41635.3
715.469	41866.26
715.812	41318.93
716.156	41341.53
716.499	41406.38
716.843	41286.39
717.186	41079.39
717.53	41244.35
717.873	41166.62
718.216	41026.73
718.559	40822.22
718.902	40416.13
719.246	40551.04
719.589	40557.82
719.932	40256.81
720.275	40294.55
720.617	40303.59
720.96	40256.13
721.303	40024.5
721.646	40257.49
721.989	39970.71
722.331	40163.7
722.674	39872.86
723.016	39890.72
723.359	39891.39
723.701	39759.19
724.044	39702.02
724.386	39558.97
724.729	39707.67
725.071	39673.55
725.413	39619.99
725.755	39450.73
726.097	39283.73
726.439	39144.3
726.782	39185.42
727.124	39428.36
727.465	39188.59
727.807	39171.41
728.149	38973.45
728.491	39017.75
728.833	38963.96
729.175	38790.18
729.516	38715.83
729.858	38768.49
730.199	38730.52
730.541	38731.88
730.882	38697.3
731.224	38700.01
731.565	38391.32
731.906	38576.17
732.248	38590.41
732.589	38513.13
732.93	38307.48
733.271	38356.52
733.612	38378.21
733.953	38574.37
734.294	38297.54
734.635	38217.99
734.976	38229.74
735.317	37985.23
735.658	38135.51
735.999	38016.87
736.339	37973.93
736.68	38078.56
737.021	37879.47
737.361	37621.17
737.702	37961.73
738.042	37819.13
738.383	37618.01
738.723	37650.1
739.063	37473.38
739.404	37408.07
739.744	37422.76
740.084	37317.45
740.424	37213.5
740.764	37145.25
741.104	37282.2
741.444	36992.49
741.784	36738.94
742.124	36987.06
742.464	36742.1
742.804	36745.04
743.143	36753.4
743.483	36659.62
743.823	36344.14
744.162	36324.26
744.502	36369
744.841	36095.79
745.181	36190.7
745.52	36112.06
745.86	36112.28
746.199	35987.32
746.538	35765.63
746.877	35866.64
747.216	35740.77
747.556	35803.14
747.895	35576.93
748.234	35446.99
748.573	35531.06
748.911	35334.45
749.25	35293.32
749.589	35098.98
749.928	34990.51
750.267	35003.84
750.605	34825.09
750.944	34844.3
751.283	34607.24
751.621	34567.69
751.96	34356.85
752.298	34452.89
752.636	34421.71
752.975	34031.66
