Data from white_wall_FLMS001491_093.txt Node
Date: Tue Feb 07 11:06:15 GMT 2017
User: dcchb
Spectrometer: FLMS00149
Trigger mode: 0
Integration Time (sec): 2.000000E-2
Scans to average: 10
Electric dark correction enabled: true
Nonlinearity correction enabled: false
Boxcar width: 0
XAxis mode: Wavelengths
Number of Pixels in Spectrum: 2048
>>>>>Begin Spectral Data<<<<<
341.393	-4.93
341.776	-4.93
342.16	-4.93
342.543	-85.61
342.927	-80.18
343.31	-68.2
343.693	-70.92
344.077	-72.5
344.46	-41.09
344.843	-60.97
345.226	-55.1
345.61	-39.96
345.993	-15.78
346.376	-9.9
346.759	17.67
347.142	14.28
347.525	53.6
347.908	64.9
348.291	81.4
348.674	93.37
349.057	109.19
349.44	123.2
349.823	139.47
350.206	175.18
350.588	213.14
350.971	247.27
351.354	243.43
351.737	268.28
352.119	278.91
352.502	283.2
352.884	315.29
353.267	312.58
353.65	304.22
354.032	306.02
354.414	327.04
354.797	338.79
355.179	336.3
355.562	356.19
355.944	340.82
356.326	340.37
356.709	356.19
357.091	362.74
357.473	368.17
357.855	369.75
358.238	362.74
358.62	371.78
359.002	365.91
359.384	358.9
359.766	340.6
360.148	348.28
360.53	347.83
360.912	327.49
361.294	352.35
361.676	358.9
362.057	347.15
362.439	346.25
362.821	353.71
363.203	376.53
363.584	337.43
363.966	337.21
364.348	361.61
364.729	352.35
365.111	331.56
365.493	345.8
365.874	362.52
366.256	364.55
366.637	341.05
367.019	344.67
367.4	347.6
367.781	334.04
368.163	347.38
368.544	361.39
368.925	313.25
369.306	335.17
369.688	348.28
370.069	342.18
370.45	357.55
370.831	353.03
371.212	371.11
371.593	339.24
371.974	353.48
372.355	341.73
372.736	354.16
373.117	334.27
373.498	346.7
373.879	358.23
374.26	331.33
374.641	341.5
375.021	340.37
375.402	365.23
375.783	367.04
376.163	362.97
376.544	372.69
376.925	368.39
377.305	374.04
377.686	373.14
378.066	385.79
378.447	366.81
378.827	359.35
379.208	367.94
379.588	391.22
379.968	370.65
380.349	359.13
380.729	378.56
381.109	385.79
381.489	368.39
381.87	396.64
382.25	394.83
382.63	396.87
383.01	401.39
383.39	400.94
383.77	389.41
384.15	395.51
384.53	404.78
384.91	386.92
385.29	399.35
385.67	404.1
386.049	417.88
386.429	414.95
386.809	417.43
387.189	419.01
387.568	442.52
387.948	448.62
388.328	453.59
388.707	436.64
389.087	434.16
389.466	452.91
389.846	461.5
390.225	464.89
390.605	468.05
390.984	459.01
391.363	485.91
391.743	481.84
392.122	495.4
392.501	496.98
392.881	497.66
393.26	522.51
393.639	516.19
394.018	514.38
394.397	537.43
394.776	550.99
395.155	568.61
395.534	569.07
395.913	581.95
396.292	558.9
396.671	601.61
397.05	600.48
397.429	603.19
397.808	574.04
398.186	627.6
398.565	647.93
398.944	633.7
399.323	668.95
399.701	662.62
400.08	686.58
400.458	689.29
400.837	710.98
401.215	688.16
401.594	708.5
401.972	753.47
402.351	726.12
402.729	724.77
403.107	776.29
403.486	784.88
403.864	806.57
404.242	805.44
404.62	861.04
404.999	834.6
405.377	845.9
405.755	875.27
406.133	892.45
406.511	899.68
406.889	914.59
407.267	943.07
407.645	965.89
408.023	964.08
408.401	1011.32
408.779	1024.87
409.156	1050.64
409.534	1046.34
409.912	1065.78
410.29	1122.5
410.667	1094.93
411.045	1135.61
411.422	1156.17
411.8	1125.66
412.178	1211.08
412.555	1198.2
412.933	1204.98
413.31	1245.43
413.687	1276.84
414.065	1275.04
414.442	1295.15
414.819	1338.54
415.197	1327.69
415.574	1357.52
415.951	1364.98
416.328	1382.6
416.705	1388.25
417.082	1398.88
417.46	1437.29
417.837	1446.33
418.214	1448.14
418.591	1502.15
418.967	1488.36
419.344	1504.64
419.721	1544.86
420.098	1538.31
420.475	1583.96
420.852	1580.79
421.228	1585.99
421.605	1596.61
421.982	1621.02
422.358	1649.49
422.735	1661.69
423.111	1666.44
423.488	1698.98
423.864	1722.26
424.241	1762.26
424.617	1754.57
424.994	1799.09
425.37	1802.71
425.746	1820.33
426.123	1816.04
426.499	1863.72
426.875	1886.55
427.251	1945.08
427.627	1929.26
428.003	1960.67
428.379	2019.42
428.756	2004.51
429.132	2056.94
429.507	2091.74
429.883	2116.82
430.259	2144.84
430.635	2147.33
431.011	2180.55
431.387	2237.27
431.763	2308.23
432.138	2303.03
432.514	2304.84
432.89	2335.12
433.265	2350.94
433.641	2435.68
434.016	2450.6
434.392	2496.7
434.767	2555.68
435.143	2514.33
435.518	2564.04
435.894	2602.69
436.269	2601.78
436.644	2664.38
437.02	2706.86
437.395	2691.72
437.77	2755.45
438.145	2788.22
438.52	2782.79
438.895	2861.21
439.271	2864.37
439.646	2910.25
440.021	2931.72
440.395	2930.36
440.77	2931.04
441.145	2979.85
441.52	3049.68
441.895	3047.65
442.27	3089.23
442.645	3095.1
443.019	3115.44
443.394	3116.57
443.769	3204.25
444.143	3183.01
444.518	3227.08
444.892	3192.05
445.267	3248.77
445.641	3298.26
446.016	3315.21
446.39	3335.77
446.764	3334.19
447.139	3369.67
447.513	3413.29
447.887	3460.06
448.262	3453.74
448.636	3492.61
449.01	3523.79
449.384	3561.08
449.758	3590.68
450.132	3648.53
450.506	3639.95
450.88	3685.37
451.254	3661.64
451.628	3727.85
452.002	3829.55
452.376	3799.72
452.75	3854.86
453.123	3884.01
453.497	3971.46
453.871	4019.37
454.244	4098.92
454.618	4102.99
454.992	4160.38
455.365	4215.52
455.739	4321.74
456.112	4359.25
456.486	4376.2
456.859	4392.7
457.232	4580.03
457.606	4503.43
457.979	4594.95
458.352	4636.08
458.725	4765.11
459.099	4829.29
459.472	4856.19
459.845	4862.29
460.218	4925.79
460.591	5016.41
460.964	5037.42
461.337	5188.15
461.71	5274.71
462.083	5325.78
462.456	5332.33
462.829	5346.57
463.201	5448.26
463.574	5500.24
463.947	5544.53
464.32	5704.53
464.692	5723.73
465.065	5800.79
465.438	5907.68
465.81	5990.85
466.183	6049.6
466.555	6164.17
466.928	6187.22
467.3	6214.57
467.672	6346.32
468.045	6527.55
468.417	6472.64
468.789	6583.37
469.161	6708.11
469.534	6796.7
469.906	6913.76
470.278	6993.98
470.65	7079.86
471.022	7244.82
471.394	7381.32
471.766	7428.1
472.138	7531.37
472.51	7709.9
472.882	7834.41
473.253	7971.58
473.625	8078.47
473.997	8249.09
474.369	8250.22
474.74	8407.96
475.112	8576.99
475.484	8693.83
475.855	8898.11
476.227	8927.04
476.598	9236.18
476.97	9232.79
477.341	9468.72
477.713	9612.67
478.084	9748.26
478.455	10029.16
478.827	10069.38
479.198	10376.27
479.569	10363.39
479.94	10697.61
480.311	10828.46
480.682	10954.56
481.053	11273.64
481.424	11429.12
481.795	11560.87
482.166	11791.37
482.537	11970.35
482.908	12159.95
483.279	12382.09
483.65	12604
484.021	12761.29
484.391	12941.17
484.762	13068.4
485.133	13304.55
485.503	13413.93
485.874	13697.99
486.244	13822.96
486.615	14193.79
486.985	14324.64
487.356	14583.16
487.726	14770.73
488.097	15005.98
488.467	15082.58
488.837	15462.91
489.207	15585.17
489.578	15876.46
489.948	15975.67
490.318	16215.66
490.688	16327.75
491.058	16603.9
491.428	16833.27
491.798	16988.3
492.168	17276.88
492.538	17346.25
492.908	17563.42
493.278	17778.78
493.648	17852.45
494.017	18156.18
494.387	18401.59
494.757	18542.38
495.126	18751.19
495.496	18695.82
495.866	18981.69
496.235	19133.1
496.605	19360.21
496.974	19561.11
497.344	19733.76
497.713	19838.16
498.082	19965.17
498.452	20163.35
498.821	20292.39
499.19	20386.62
499.559	20612.83
499.928	20727.63
500.298	20895.09
500.667	21075.87
501.036	21169.2
501.405	21382.53
501.774	21429.76
502.143	21678.57
502.512	21828.85
502.88	21953.82
503.249	22027.03
503.618	22315.16
503.987	22437.19
504.356	22613.46
504.724	22683.06
505.093	22873.79
505.462	22970.51
505.83	23235.14
506.199	23404.85
506.567	23730.49
506.936	23709.48
507.304	23979.52
507.672	24038.73
508.041	24189.46
508.409	24389.68
508.777	24680.07
509.145	24771.59
509.514	24919.16
509.882	25036.45
510.25	25253.39
510.618	25334.97
510.986	25649.54
511.354	25913.71
511.722	25919.13
512.09	26232.57
512.458	26295.85
512.826	26528.84
513.193	26744.88
513.561	26807.25
513.929	27169.95
514.297	27343.73
514.664	27545.53
515.032	27568.13
515.4	27891.74
515.767	28045.18
516.135	28213.76
516.502	28110.49
516.869	28504.38
517.237	28741.21
517.604	28672.28
517.972	29197.92
518.339	29369.89
518.706	29399.27
519.073	29601.07
519.44	29838.13
519.808	30065.24
520.175	30130.55
520.542	30574.15
520.909	30719.46
521.276	30737.31
521.643	31114.7
522.009	31345.21
522.376	31603.51
522.743	31911.07
523.11	32125.53
523.477	32395.57
523.843	32579.98
524.21	32951.49
524.577	33151.49
524.943	33276.68
525.31	33448.88
525.676	33754.86
526.043	33914.18
526.409	34195.53
526.776	34455.63
527.142	34559.81
527.508	34799.81
527.874	35127.25
528.241	35323.41
528.607	35401.6
528.973	35816.95
529.339	35693.57
529.705	36248.35
530.071	36388.69
530.437	36636.37
530.803	36725.63
531.169	36884.5
531.535	37012.4
531.901	37157.26
532.267	37354.09
532.632	37669.56
532.998	37716.11
533.364	37966.05
533.73	38240.62
534.095	38443.78
534.461	38370.78
534.826	38751.57
535.192	38946.81
535.557	39125.57
535.923	39110.2
536.288	39337.77
536.653	39507.7
537.019	39457.76
537.384	39666.57
537.749	39957.86
538.114	39979.78
538.479	40127.12
538.845	40269.94
539.21	40197.63
539.575	40488.24
539.94	40727.79
540.305	40900.44
540.67	40829.48
541.034	41015.91
541.399	41252.52
541.764	41475.56
542.129	41625.84
542.494	41700.19
542.858	41857.02
543.223	41890.24
543.587	42345.37
543.952	42256.11
544.316	42454.29
544.681	42364.58
545.045	42601.63
545.41	42832.36
545.774	42998.01
546.138	43011.57
546.503	43265.57
546.867	43458.33
547.231	43645.67
547.595	43717.08
547.959	43856.29
548.324	43933.12
548.688	44222.83
549.052	44309.84
549.416	44458.76
549.779	44580.57
550.143	44705.31
550.507	44939.43
550.871	45166.99
551.235	45061.68
551.599	45537.38
551.962	45515.91
552.326	45757.26
552.689	46083.35
553.053	45883.58
553.417	46143.01
553.78	46731.02
554.143	46513.4
554.507	46775.31
554.87	46890.11
555.234	47246.94
555.597	47159.25
555.96	47322.19
556.323	47558.34
556.686	47686.25
557.05	47878.56
557.413	48146.8
557.776	48230.19
558.139	48444.19
558.502	48549.27
558.865	48642.83
559.228	48941.58
559.59	49056.15
559.953	49104.06
560.316	49529.81
560.679	49536.14
561.041	49665.18
561.404	50003.7
561.767	50143.58
562.129	50086.41
562.492	50420.19
562.854	50450.02
563.217	50546.74
563.579	50717.8
563.941	51002.32
564.304	51163.22
564.666	51342.65
565.028	51333.61
565.39	51523.89
565.753	51648.4
566.115	51721.62
566.477	51895.18
566.839	51970.43
567.201	52266.69
567.563	52154.15
567.925	52429.85
568.287	52517.98
568.648	52652.9
569.01	52807.69
569.372	52917.07
569.734	52864.42
570.095	53218.76
570.457	53219.43
570.819	53282.03
571.18	53250.62
571.542	53495.13
571.903	53460.11
572.265	53575.36
572.626	53637.95
572.987	53735.8
573.349	53757.5
573.71	53939.87
574.071	54020.77
574.432	54094.44
574.794	54224.61
575.155	54262.8
575.516	54198.17
575.877	54322.68
576.238	54442.23
576.599	54562.22
576.96	54577.82
577.32	54569.23
577.681	54599.96
578.042	54748.43
578.403	54694.42
578.763	54737.81
579.124	54845.15
579.485	54917.24
579.845	55003.12
580.206	54994.3
580.566	54958.37
580.927	54991.82
581.287	55090.8
581.648	54955.21
582.008	55148.87
582.368	55190.46
582.728	55154.52
583.089	55109.55
583.449	55200.85
583.809	55206.5
584.169	55219.61
584.529	55160.63
584.889	55348.19
585.249	55145.94
585.609	55174.64
585.969	55346.38
586.329	55276.56
586.688	55265.26
587.048	55239.49
587.408	55254.41
587.768	55268.42
588.127	55239.04
588.487	55215.99
588.846	55404.91
589.206	55250.12
589.565	55296.44
589.925	55442.65
590.284	55289.89
590.643	55366.04
591.003	55447.85
591.362	55560.84
591.721	55442.88
592.08	55468.41
592.44	55521.07
592.799	55496.89
593.158	55409.88
593.517	55451.47
593.876	55487.17
594.235	55491.24
594.593	55458.47
594.952	55506.83
595.311	55446.04
595.67	55543.21
596.029	55701.85
596.387	55648.97
596.746	55709.09
597.104	55593.16
597.463	55631.8
597.822	55636.09
598.18	55534.18
598.538	55550.9
598.897	55734.62
599.255	55552.93
599.613	55894.84
599.972	55775.3
600.33	55802.19
600.688	55739.59
601.046	55890.1
601.404	55954.96
601.762	55806.03
602.12	55845.58
602.478	55918.12
602.836	55999.02
603.194	55838.35
603.552	55963.32
603.91	55874.73
604.268	55982.98
604.625	55807.61
604.983	56006.25
605.341	55893.94
605.698	56036.08
606.056	56170.32
606.413	56044.9
606.771	56180.49
607.128	56183.42
607.485	56079.25
607.843	56118.11
608.2	56204.21
608.557	56287.83
608.914	56231.11
609.272	56336.87
609.629	56405.11
609.986	56493.02
610.343	56353.81
610.7	56571.89
611.057	56460.25
611.414	56432.23
611.771	56535.73
612.127	56570.98
612.484	56545.45
612.841	56690.3
613.198	56593.58
613.554	56559.46
613.911	56756.29
614.267	56761.26
614.624	56690.08
614.98	56773.01
615.337	56912.67
615.693	56837.19
616.05	56786.12
616.406	57000.58
616.762	56884.65
617.118	56862.28
617.475	56808.94
617.831	56916.96
618.187	56970.3
618.543	57016.17
618.899	57074.25
619.255	57121.25
619.611	57157.18
619.967	57155.38
620.323	57286.67
620.678	57160.35
621.034	57084.42
621.39	57081.25
621.746	57089.39
622.101	57366.9
622.457	57134.59
622.812	57212.32
623.168	57214.58
623.523	57249.16
623.879	57326.22
624.234	57161.48
624.589	57196.5
624.945	57289.84
625.3	57282.38
625.655	57251.42
626.01	57258.42
626.365	57245.09
626.72	57298.2
627.075	57235.83
627.43	57190.18
627.785	57174.58
628.14	57249.38
628.495	57287.35
628.85	57197.86
629.205	57144.75
629.559	57250.74
629.914	57084.87
630.269	57234.92
630.623	57153.57
630.978	57050.52
631.332	57121.7
631.687	57199.22
632.041	57066.56
632.396	57150.63
632.75	56986.57
633.104	57022.72
633.459	56939.56
633.813	56945.44
634.167	56878.55
634.521	56944.53
634.875	56857.53
635.229	56847.36
635.583	56737.99
635.937	56788.38
636.291	56765.33
636.645	56763.3
636.999	56612.34
637.352	56757.19
637.706	56601.27
638.06	56753.8
638.413	56610.76
638.767	56529.86
639.121	56676.52
639.474	56422.74
639.828	56489.4
640.181	56468.39
640.534	56532.34
640.888	56395.62
641.241	56302.97
641.594	56302.52
641.947	56417.77
642.301	56290.31
642.654	56323.53
643.007	56293.93
643.36	56234.72
643.713	56190.43
644.066	56189.75
644.419	56112.69
644.771	55994.95
645.124	55632.7
645.477	55633.83
645.83	55457.79
646.182	55408.98
646.535	55286.05
646.888	55319.04
647.24	55218.25
647.593	55397.91
647.945	55162.43
648.298	55175.09
648.65	55155.2
649.002	55010.35
649.355	55120.85
649.707	55136.45
650.059	55123.34
650.411	55458.47
650.763	55440.17
651.115	55696.43
651.467	55587.28
651.819	55645.13
652.171	55582.08
652.523	55538.92
652.875	55537.11
653.227	55344.58
653.578	55653.72
653.93	55518.36
654.282	55349.1
654.633	55385.48
654.985	55339.83
655.337	55372.15
655.688	55391.58
656.039	55392.48
656.391	55189.78
656.742	55246.5
657.094	55142.77
657.445	55287.18
657.796	55117.01
658.147	55168.08
658.498	55185.71
658.849	55224.58
659.2	55152.72
659.551	55076.56
659.902	55204.69
660.253	55115.66
660.604	55121.08
660.955	54965.83
661.306	55097.58
661.656	55022.78
662.007	54951.14
662.358	55023.68
662.708	55030.69
663.059	54934.87
663.409	54800.41
663.76	55007.86
664.11	54848.32
664.461	54969.67
664.811	54904.36
665.161	54840.18
665.511	54814.42
665.862	54851.71
666.212	54956.34
666.562	54909.11
666.912	54809.67
667.262	54781.88
667.612	54761.77
667.962	54816.91
668.312	54692.39
668.662	54910.69
669.011	54726.51
669.361	54670.7
669.711	54644.93
670.06	54600.19
670.41	54587.99
670.76	54545.27
671.109	54646.97
671.459	54607.87
671.808	54479.06
672.157	54524.71
672.507	54366.75
672.856	54389.8
673.205	54545.05
673.554	54466.86
673.904	54392.51
674.253	54504.82
674.602	54430.93
674.951	53999.75
675.3	53876.37
675.649	54251.05
675.998	54242.46
676.346	54333.53
676.695	54374.88
677.044	54144.38
677.393	54217.6
677.741	54263.93
678.09	54193.19
678.438	54050.6
678.787	54123.82
679.135	54145.74
679.484	53892.86
679.832	53975.57
680.181	53868.91
680.529	53957.49
680.877	53726.77
681.225	53748.69
681.573	53928.34
681.922	53741.23
682.27	53691.29
682.618	53589.82
682.966	53578.29
683.314	53661.68
683.661	53422.59
684.009	53374.91
684.357	53347.11
684.705	53289.26
685.053	53286.78
685.4	53243.39
685.748	53039.78
686.095	53068.03
686.443	52953.45
686.79	52846.34
687.138	52832.33
687.485	52852.21
687.832	52691.09
688.18	52649.73
688.527	52513.01
688.874	52512.33
689.221	52371.55
689.568	52453.13
689.915	52256.52
690.262	52354.15
690.609	52152.34
690.956	52137.43
691.303	52140.37
691.65	51928.85
691.997	51849.3
692.344	51708.29
692.69	51705.58
693.037	51736.54
693.383	51362.08
693.73	51559.14
694.077	51349.2
694.423	51291.58
694.769	51238.02
695.116	51156.44
695.462	51120.51
695.808	50854.07
696.155	50999.83
696.501	50715.09
696.847	50813.62
697.193	50490.47
697.539	50671.03
697.885	50344.03
698.231	50237.82
698.577	50217.03
698.923	50141.77
699.269	50115.33
699.614	49862.23
699.96	49865.17
700.306	49776.13
700.651	49643.48
700.997	49497.27
701.342	49537.95
701.688	49473.77
702.033	49339.99
702.379	49308.58
702.724	48984.52
703.069	49163.04
703.415	48818.65
703.76	48896.38
704.105	48871.75
704.45	48709.72
704.795	48516.05
705.14	48312.44
705.485	48436.51
705.83	48221.37
706.175	48303.86
706.52	48154.71
706.865	47881.5
707.209	48017.54
707.554	47825
707.899	47955.84
708.243	47636.53
708.588	47669.52
708.932	47367.16
709.277	47391.79
709.621	47420.49
709.966	47136.43
710.31	47205.13
710.654	46911.35
710.998	46941.86
711.342	46974.4
711.687	46693.05
712.031	46647.63
712.375	46535.77
712.719	46455.32
713.063	46583.68
713.407	46597.46
713.75	46271.14
714.094	46307.07
714.438	46147.3
714.782	46186.85
715.125	46051.26
715.469	46110.92
715.812	45778.95
716.156	45658.28
716.499	45724.04
716.843	45680.65
717.186	45454.89
717.53	45608.79
717.873	45544.83
718.216	45479.52
718.559	45291.05
718.902	45032.08
719.246	45040.44
719.589	44955.02
719.932	44855.81
720.275	44727.23
720.617	44831.86
720.96	44630.73
721.303	44688.13
721.646	44656.72
721.989	44359.78
722.331	44452.66
722.674	44531.98
723.016	44425.99
723.359	44322.04
723.701	44298.99
724.044	44121.59
724.386	44024.65
724.729	43974.25
725.071	43910.98
725.413	43924.31
725.755	43748.95
726.097	43740.14
726.439	43475.96
726.782	43511.67
727.124	43696.52
727.465	43557.09
727.807	43388.05
728.149	43363.87
728.491	43308.96
728.833	43107.16
729.175	43020.38
729.516	42937.22
729.858	42951.91
730.199	42913.94
730.541	42825.13
730.882	42832.14
731.224	42926.37
731.565	42512.82
731.906	42674.85
732.248	42688.64
732.589	42376.1
732.93	42273.06
733.271	42357.8
733.612	42193.06
733.953	42287.97
734.294	42101.76
734.635	42114.64
734.976	42092.95
735.317	41951.93
735.658	41857.25
735.999	41901.99
736.339	41737.25
736.68	41825.16
737.021	41636.01
737.361	41453.87
737.702	41653.64
738.042	41500.65
738.383	41529.57
738.723	41558.72
739.063	41323.48
739.404	41530.48
739.744	41330.26
740.084	41019.08
740.424	41112.86
740.764	41110.15
741.104	41255.68
741.444	40951.96
741.784	40757.84
742.124	40921
742.464	40808.46
742.804	40764.17
743.143	40583.83
743.483	40650.27
743.823	40423.61
744.162	40443.95
744.502	40532.76
744.841	40182.26
745.181	40416.61
745.52	40122.38
745.86	40335.7
746.199	40052.1
746.538	40089.16
746.877	40205.76
747.216	40089.84
747.556	40074.92
747.895	40052.1
748.234	39758.32
748.573	39711.09
748.911	39658.43
749.25	39698.43
749.589	39464.77
749.928	39585.44
750.267	39558.55
750.605	39436.07
750.944	39366.92
751.283	39162.4
751.621	39250.54
751.96	38947.04
752.298	38909.08
