Data from white_wall_FLMS001491_023.txt Node
Date: Tue Feb 07 11:04:00 GMT 2017
User: dcchb
Spectrometer: FLMS00149
Trigger mode: 0
Integration Time (sec): 2.000000E-2
Scans to average: 10
Electric dark correction enabled: true
Nonlinearity correction enabled: false
Boxcar width: 0
XAxis mode: Wavelengths
Number of Pixels in Spectrum: 2048
>>>>>Begin Spectral Data<<<<<
341.393	-14.82
341.776	-14.82
342.16	-14.82
342.543	-61.82
342.927	-64.53
343.31	-81.48
343.693	-62.05
344.077	-54.59
344.46	-69.28
344.843	-57.53
345.226	-54.14
345.61	-30.18
345.993	-25.21
346.376	-1.26
346.759	21.57
347.142	21.34
347.525	40.1
347.908	57.72
348.291	74.45
348.674	107.67
349.057	112.86
349.44	103.6
349.823	129.36
350.206	175.24
350.588	201.9
350.971	212.97
351.354	217.49
351.737	268.34
352.119	275.12
352.502	276.25
352.884	269.92
353.267	284.84
353.65	275.35
354.032	315.8
354.414	328
354.797	340.88
355.179	329.36
355.562	335.91
355.944	341.11
356.326	346.76
356.709	363.25
357.091	348.34
357.473	339.52
357.855	346.98
358.238	334.1
358.62	352.63
359.002	345.17
359.384	350.82
359.766	339.3
360.148	346.76
360.53	339.3
360.912	330.94
361.294	334.33
361.676	345.63
362.057	344.5
362.439	350.6
362.821	360.99
363.203	338.17
363.584	350.82
363.966	332.52
364.348	339.3
364.729	343.82
365.111	334.78
365.493	353.54
365.874	340.43
366.256	338.17
366.637	352.86
367.019	334.1
367.4	335.91
367.781	318.73
368.163	331.16
368.544	347.89
368.925	335.68
369.306	342.46
369.688	338.4
370.069	353.08
370.45	326.87
370.831	335.91
371.212	321.9
371.593	351.73
371.974	332.52
372.355	327.77
372.736	341.11
373.117	337.04
373.498	324.61
373.879	346.08
374.26	331.62
374.641	329.81
375.021	336.59
375.402	334.1
375.783	350.37
376.163	332.07
376.544	328.9
376.925	356.93
377.305	348.79
377.686	332.75
378.066	358.96
378.447	360.09
378.827	359.19
379.208	348.34
379.588	349.92
379.968	370.26
380.349	362.8
380.729	353.08
381.109	365.51
381.489	372.97
381.87	352.18
382.25	377.49
382.63	386.08
383.01	366.42
383.39	345.85
383.77	361.45
384.15	388.56
384.53	375.68
384.91	400.31
385.29	392.18
385.67	384.27
386.049	375.91
386.429	401.22
386.809	423.14
387.189	408.45
387.568	405.29
387.948	393.08
388.328	391.73
388.707	401.44
389.087	401.9
389.466	434.21
389.846	429.69
390.225	444.83
390.605	455
390.984	431.73
391.363	416.13
391.743	445.28
392.122	432.86
392.501	463.36
392.881	427.66
393.26	476.02
393.639	464.27
394.018	467.43
394.397	476.92
394.776	480.09
395.155	499.97
395.534	494.1
395.913	504.04
396.292	508.79
396.671	540.2
397.05	516.47
397.429	539.07
397.808	557.82
398.186	517.83
398.565	542.01
398.944	560.54
399.323	567.54
399.701	566.64
400.08	594.21
400.458	608.67
400.837	624.04
401.215	626.07
401.594	639.4
401.972	637.37
402.351	627.88
402.729	658.16
403.107	662.68
403.486	682.11
403.864	683.47
404.242	713.3
404.62	699.52
404.999	725.5
405.377	737.03
405.755	756.24
406.133	754.88
406.511	766.63
406.889	770.02
407.267	807.31
407.645	810.93
408.023	816.12
408.401	833.75
408.779	869.23
409.156	893.18
409.534	883.01
409.912	924.82
410.29	942.67
410.667	918.49
411.045	959.85
411.422	946.06
411.8	958.72
412.178	991.26
412.555	999.85
412.933	997.81
413.31	1029.68
413.687	1030.35
414.065	1074.19
414.442	1058.15
414.819	1089.56
415.197	1083.69
415.574	1149
415.951	1118.26
416.328	1137.24
416.705	1156.9
417.082	1163.91
417.46	1184.02
417.837	1188.77
418.214	1198.26
418.591	1192.61
418.967	1229.67
419.344	1233.74
419.721	1271.25
420.098	1248.88
420.475	1295.66
420.852	1280.07
421.228	1285.26
421.605	1333.85
421.982	1306.51
422.358	1337.46
422.735	1360.06
423.111	1368.65
423.488	1385.37
423.864	1396.67
424.241	1446.16
424.617	1417.69
424.994	1445.71
425.37	1434.64
425.746	1448.42
426.123	1496.33
426.499	1487.52
426.875	1539.49
427.251	1521.64
427.627	1602.99
428.003	1592.83
428.379	1612.03
428.756	1628.98
429.132	1634.63
429.507	1678.92
429.883	1706.49
430.259	1743.1
430.635	1700.17
431.011	1764.12
431.387	1786.94
431.763	1815.19
432.138	1813.84
432.514	1868.3
432.89	1875.53
433.265	1927.05
433.641	1937.45
434.016	1968.86
434.392	1987.84
434.767	2041.18
435.143	1993.04
435.518	2065.13
435.894	2101.96
436.269	2131.12
436.644	2145.13
437.02	2165.24
437.395	2127.27
437.77	2203.43
438.145	2203.2
438.52	2241.4
438.895	2257.67
439.271	2270.1
439.646	2345.35
440.021	2337.89
440.395	2348.06
440.77	2342.64
441.145	2340.15
441.52	2410.2
441.895	2452.92
442.27	2442.29
442.645	2431.9
443.019	2502.41
443.394	2511.45
443.769	2541.5
444.143	2516.42
444.518	2593.25
444.892	2566.36
445.267	2618.79
445.641	2628.96
446.016	2647.71
446.39	2667.15
446.764	2689.07
447.139	2680.25
447.513	2712.34
447.887	2734.04
448.262	2742.85
448.636	2736.52
449.01	2811.32
449.384	2828.05
449.758	2849.97
450.132	2859.68
450.506	2877.76
450.88	2873.7
451.254	2934.94
451.628	2973.13
452.002	3022.62
452.376	3069.4
452.75	3096.51
453.123	3083.41
453.497	3104.42
453.871	3167.47
454.244	3202.27
454.618	3307.13
454.992	3278.66
455.365	3314.81
455.739	3380.35
456.112	3428.94
456.486	3437.52
456.859	3526.11
457.232	3557.97
457.606	3563.62
457.979	3635.26
458.352	3710.74
458.725	3714.35
459.099	3753.9
459.472	3847.46
459.845	3882.03
460.218	3893.56
460.591	3936.49
460.964	3963.38
461.337	4064.85
461.71	4113.66
462.083	4178.07
462.456	4208.35
462.829	4197.73
463.201	4311.4
463.574	4304.62
463.947	4389.59
464.32	4486.99
464.692	4507.32
465.065	4544.84
465.438	4595.91
465.81	4710.03
466.183	4722.46
466.555	4860.08
466.928	4852.63
467.3	4878.39
467.672	4955.67
468.045	5096.01
468.417	5082.45
468.789	5115.44
469.161	5231.6
469.534	5263.24
469.906	5432.72
470.278	5488.32
470.65	5536.9
471.022	5599.05
471.394	5743.22
471.766	5798.82
472.138	5831.13
472.51	6008.3
472.882	6119.03
473.253	6130.33
473.625	6229.09
473.997	6385.24
474.369	6446.03
474.74	6477.89
475.112	6627.04
475.484	6741.62
475.855	6823.2
476.227	6908.17
476.598	7110.65
476.97	7136.86
477.341	7352.67
477.713	7400.13
478.084	7527.58
478.455	7727.81
478.827	7782.27
479.198	8049.15
479.569	7994.92
479.94	8280.33
480.311	8335.02
480.682	8539.31
481.053	8769.36
481.424	8869.47
481.795	9021.56
482.166	9149.24
482.537	9238.5
482.908	9446.86
483.279	9534.31
483.65	9757.58
484.021	9943.34
484.391	10010.68
484.762	10159.61
485.133	10205.03
485.503	10388.3
485.874	10599.37
486.244	10725.92
486.615	10970.21
486.985	11027.38
487.356	11300.14
487.726	11345.79
488.097	11580.81
488.467	11649.74
488.837	11886.57
489.207	12048.14
489.578	12197.07
489.948	12383.5
490.318	12480.9
490.688	12576.72
491.058	12816.49
491.428	13001.34
491.798	13087.89
492.168	13345.96
492.538	13396.81
492.908	13572.4
493.278	13818.04
493.648	13866.63
494.017	14017.36
494.387	14071.37
494.757	14304.13
495.126	14475.2
495.496	14511.13
495.866	14625.7
496.235	14773.72
496.605	14959.93
496.974	15012.81
497.344	15164.45
497.713	15276.99
498.082	15393.82
498.452	15570.99
498.821	15651.21
499.19	15672
499.559	15911.32
499.928	15991.99
500.298	16118.77
500.667	16378.88
501.036	16324.19
501.405	16511.98
501.774	16554.47
502.143	16657.06
502.512	16883.5
502.88	16946.09
503.249	17086.2
503.618	17130.5
503.987	17309.25
504.356	17371.17
504.724	17540.43
505.093	17661.33
505.462	17755.79
505.83	17820.87
506.199	18079.62
506.567	18252.95
506.936	18276.68
507.304	18562.55
507.672	18593.96
508.041	18683
508.409	18911.47
508.777	19074.63
509.145	19117.34
509.514	19200.5
509.882	19372.02
510.25	19413.6
510.618	19635.74
510.986	19662.18
511.354	19981.72
511.722	20107.37
512.09	20310.75
512.458	20290.41
512.826	20560.91
513.193	20493.57
513.561	20772.43
513.929	20916.39
514.297	21131.52
514.664	21328.35
515.032	21404.51
515.4	21607.89
515.767	21743.93
516.135	21855.8
516.502	21713.88
516.869	22172.4
517.237	22218.72
517.604	22209.01
517.972	22461.43
518.339	22726.05
518.706	22775.55
519.073	22917.91
519.44	23160.62
519.808	23419.82
520.175	23439.48
520.542	23690.78
520.909	23788.63
521.276	23865.46
521.643	24163.31
522.009	24278.1
522.376	24460.25
522.743	24686
523.11	24875.38
523.477	25045.77
523.843	25280.11
524.21	25521.46
524.577	25607.79
524.943	25877.38
525.31	26026.99
525.676	26163.7
526.043	26383.81
526.409	26559.63
526.776	26829
527.142	26812.5
527.508	27050.01
527.874	27153.06
528.241	27345.37
528.607	27567.28
528.973	27687.96
529.339	27792.59
529.705	27946.71
530.071	28342.86
530.437	28448.16
530.803	28508.05
531.169	28749.4
531.535	28793.69
531.901	28864.65
532.267	29053.12
532.632	29134.93
532.998	29408.82
533.364	29502.83
533.73	29641.81
534.095	29815.59
534.461	29926.32
534.826	30081.12
535.192	30165.41
535.557	30465.74
535.923	30473.42
536.288	30572.85
536.653	30779.18
537.019	30837.93
537.384	30902.11
537.749	31114.99
538.114	31126.06
538.479	31228.43
538.845	31506.62
539.21	31437.24
539.575	31646.05
539.94	31841.97
540.305	31974.85
540.67	31867.28
541.034	32101.85
541.399	32200.83
541.764	32371
542.129	32488.28
542.494	32489.19
542.858	32738.22
543.223	32839.46
543.587	32909.29
543.952	32955.62
544.316	33142.5
544.681	33149.28
545.045	33397.86
545.41	33557.86
545.774	33634.02
546.138	33733.22
546.503	33842.82
546.867	34001.24
547.231	34109.26
547.595	34183.61
547.959	34360.33
548.324	34546.31
548.688	34631.73
549.052	34778.39
549.416	34840.31
549.779	34992.85
550.143	35130.93
550.507	35422.44
550.871	35358.04
551.235	35331.6
551.599	35707.41
551.962	36016.33
552.326	36036.89
552.689	36147.4
553.053	36074.4
553.417	36260.84
553.78	36747.83
554.143	36668.97
554.507	36905.12
554.87	37034.38
555.234	37333.81
555.597	37181.49
555.96	37480.47
556.323	37460.36
556.686	37759.33
557.05	37903.28
557.413	37960.46
557.776	38192.09
558.139	38447
558.502	38478.64
558.865	38716.37
559.228	38904.39
559.59	39110.26
559.953	39046.98
560.316	39572.62
560.679	39684.71
561.041	39882.21
561.404	40063.45
561.767	40141.19
562.129	40186.84
562.492	40645.13
562.854	40600.61
563.217	40706.37
563.579	40990.43
563.941	41185.91
564.304	41362.63
564.666	41610.53
565.028	41551.32
565.39	41719.91
565.753	42001.48
566.115	42131.87
566.477	42352.66
566.839	42452.32
567.201	42633.55
567.563	42814.11
567.925	42953.32
568.287	42989.03
568.648	43177.72
569.01	43386.98
569.372	43647.31
569.734	43534.77
570.095	43727.76
570.457	44015.66
570.819	44119.84
571.18	44109
571.542	44253.4
571.903	44314.87
572.265	44448.2
572.626	44619.94
572.987	44767.51
573.349	44900.39
573.71	45132.47
574.071	45188.74
574.432	45305.12
574.794	45488.85
575.155	45494.04
575.516	45418.11
575.877	45606.81
576.238	45678.22
576.599	45850.42
576.96	45943.07
577.32	45857.65
577.681	46097.87
578.042	46163.86
578.403	46194.59
578.763	46317.75
579.124	46278.43
579.485	46408.37
579.845	46419.44
580.206	46458.76
580.566	46404.3
580.927	46621.02
581.287	46701.92
581.648	46518.2
582.008	46731.53
582.368	46614.69
582.728	46783.28
583.089	46682.49
583.449	46647.46
583.809	46628.93
584.169	46833.44
584.529	46712.32
584.889	47033.44
585.249	46863.05
585.609	46765.65
585.969	47022.82
586.329	46781.92
586.688	46816.72
587.048	47012.42
587.408	46853.56
587.768	46802.48
588.127	46885.19
588.487	46752.32
588.846	46990.5
589.206	46783.5
589.565	46859.43
589.925	47144.85
590.284	46885.65
590.643	46931.07
591.003	47067.11
591.362	47040.44
591.721	46985.76
592.08	47031.18
592.44	47120.89
592.799	47149.59
593.158	47019.65
593.517	47070.05
593.876	47170.16
594.235	46977.62
594.593	47070.05
594.952	47144.62
595.311	47073.89
595.67	47132.64
596.029	47441.34
596.387	47441.11
596.746	47460.55
597.104	47303.71
597.463	47261.23
597.822	47462.58
598.18	47331.28
598.538	47285.86
598.897	47540.54
599.255	47258.74
599.613	47820.31
599.972	47484.73
600.33	47608.79
600.688	47373.09
601.046	47593.65
601.404	47703.03
601.762	47677.26
602.12	47811.27
602.478	47827.54
602.836	47821.89
603.194	47654.89
603.552	47723.36
603.91	47641.11
604.268	47774.44
604.625	47753.65
604.983	47907.31
605.341	47762.01
605.698	47938.05
606.056	48044.94
606.413	47941.21
606.771	48154.54
607.128	48160.41
607.485	48018.5
607.843	48053.3
608.2	48216.46
608.557	48406.74
608.914	48265.04
609.272	48432.05
609.629	48496.9
609.986	48497.58
610.343	48295.55
610.7	48670.91
611.057	48530.8
611.414	48671.14
611.771	48662.32
612.127	48796.78
612.484	48718.37
612.841	48897.34
613.198	48752.94
613.554	48826.84
613.911	48940.96
614.267	48963.56
614.624	48964.69
614.98	48992.93
615.337	49116.55
615.693	49065.02
616.05	49207.39
616.406	49480.83
616.762	49278.13
617.118	49187.96
617.475	49104.57
617.831	49325.13
618.187	49360.61
618.543	49447.39
618.899	49520.83
619.255	49504.79
619.611	49397.67
619.967	49586.37
620.323	49660.04
620.678	49531
621.034	49419.36
621.39	49439.25
621.746	49299.37
622.101	49797.66
622.457	49392.7
622.812	49470.44
623.168	49650.09
623.523	49684.22
623.879	49627.49
624.234	49477.22
624.589	49615.74
624.945	49699.13
625.3	49733.25
625.655	49632.24
626.01	49622.75
626.365	49666.36
626.72	49546.37
627.075	49585.69
627.43	49539.59
627.785	49495.29
628.14	49557.89
628.495	49619.59
628.85	49647.83
629.205	49465.24
629.559	49596.76
629.914	49429.31
630.269	49501.17
630.623	49279.48
630.978	49283.1
631.332	49549.53
631.687	49509.53
632.041	49428.18
632.396	49480.61
632.75	49204
633.104	49350.89
633.459	49260.5
633.813	49155.87
634.167	49078.13
634.521	49199.26
634.875	49152.25
635.229	49031.35
635.583	48944.35
635.937	48960.85
636.291	48885.14
636.645	48880.85
636.999	48785.71
637.352	48883.11
637.706	48710.46
638.06	48913.39
638.413	48699.84
638.767	48654.41
639.121	48818.25
639.474	48515.43
639.828	48582.78
640.181	48521.08
640.534	48599.95
640.888	48511.37
641.241	48294.87
641.594	48383.69
641.947	48473.17
642.301	48315.44
642.654	48390.69
643.007	48306.85
643.36	48190.02
643.713	48218.27
644.066	48312.73
644.419	47992.28
644.771	47764.94
645.124	47456.7
645.477	47419.42
645.83	47129.93
646.182	47067.56
646.535	46901.46
646.888	46966.77
647.24	46741.47
647.593	47080.22
647.945	46892.2
648.298	46737.85
648.65	46600
649.002	46593.45
649.355	46721.36
649.707	46561.36
650.059	46660.79
650.411	47091.52
650.763	47103.04
651.115	47467.1
651.467	47243.38
651.819	47510.71
652.171	47233.89
652.523	47209.71
652.875	47277.95
653.227	47144.4
653.578	47304.62
653.93	47189.82
654.282	47037.05
654.633	46981.01
654.985	47037.28
655.337	46947.34
655.688	46920.9
656.039	47122.02
656.391	46745.76
656.742	46786.21
657.094	46935.59
657.445	46937.4
657.796	46758.19
658.147	46786.21
658.498	46682.04
658.849	46774.91
659.2	46680.91
659.551	46576.95
659.902	46686.78
660.253	46602.94
660.604	46684.07
660.955	46517.75
661.306	46683.62
661.656	46695.37
662.007	46406.79
662.358	46512.32
662.708	46391.87
663.059	46485.43
663.409	46128.15
663.76	46442.95
664.11	46330.18
664.461	46566.11
664.811	46353.46
665.161	46505.54
665.511	46236.62
665.862	46229.17
666.212	46478.88
666.562	46269.62
666.912	46261.93
667.262	46142.84
667.612	46166.12
667.962	46291.54
668.312	46075.72
668.662	46190.52
669.011	46213.35
669.361	46145.78
669.711	46088.6
670.06	46182.84
670.41	45902.39
670.76	45781.95
671.109	46036.4
671.459	45917.08
671.808	45857.65
672.157	45777.88
672.507	45614.27
672.856	45664.89
673.205	45645.9
673.554	45842.51
673.904	45704.21
674.253	45920.7
674.602	45716.18
674.951	45177.44
675.3	44929.99
675.649	45590.09
675.998	45426.02
676.346	45523.42
676.695	45584.44
677.044	45182.19
677.393	45482.07
677.741	45349.19
678.09	45292.24
678.438	45106.48
678.787	45151.45
679.135	45092.92
679.484	44874.63
679.832	44997.79
680.181	44828.3
680.529	44947.39
680.877	44892.93
681.225	44838.69
681.573	44950.33
681.922	44716.66
682.27	44653.61
682.618	44545.59
682.966	44435.09
683.314	44533.62
683.661	44343.79
684.009	44264.25
684.357	44131.59
684.705	44201.2
685.053	44049.79
685.4	44028.09
685.748	43798.5
686.095	43862.9
686.443	43752.85
686.79	43752.62
687.138	43679.4
687.485	43643.25
687.832	43427.43
688.18	43448.9
688.527	43104.5
688.874	43216.59
689.221	43027.44
689.568	42961.68
689.915	42914.9
690.262	42867.9
690.609	42745.64
690.956	42686.21
691.303	42798.3
691.65	42406.67
691.997	42508.13
692.344	42225.66
692.69	42195.83
693.037	42052.33
693.383	41683.52
693.73	41892.56
694.077	41720.58
694.423	41714.03
694.769	41528.5
695.116	41344.77
695.462	41247.6
695.808	41271.78
696.155	41253.25
696.501	40913.6
696.847	41055.06
697.193	40640.84
697.539	40812.36
697.885	40427.06
698.231	40405.36
698.577	40386.83
698.923	40401.3
699.269	40075.43
699.614	39982.32
699.96	39905.94
700.306	39938.71
700.651	39747.53
700.997	39733.52
701.342	39696.68
701.688	39437.25
702.033	39517.93
702.379	39528.78
702.724	39345.73
703.069	39380.76
703.415	38913.88
703.76	38955.23
704.105	38878.17
704.45	38710.27
704.795	38501.69
705.14	38395.02
705.485	38457.62
705.83	38143.73
706.175	38435.92
706.52	38201.13
706.865	38059.66
707.209	38154.58
707.554	38025.31
707.899	37941.02
708.243	37715.94
708.588	37758.88
708.932	37560.47
709.277	37632.33
709.621	37578.77
709.966	37343.52
710.31	37314.15
710.654	36999.13
710.998	37130.65
711.342	37123.64
711.687	37076.19
712.031	36843.2
712.375	36749.64
712.719	36900.37
713.063	36854.72
713.407	36878.68
713.75	36516.88
714.094	36574.28
714.438	36536.09
714.782	36445.02
715.125	36335.87
715.469	36352.82
715.812	36155.31
716.156	35901.3
716.499	35978.81
716.843	35955.31
717.186	35756.67
717.53	35809.78
717.873	35938.14
718.216	35741.31
718.559	35558.49
718.902	35384.71
719.246	35488.21
719.589	35388.09
719.932	35071.49
720.275	35259.28
720.617	35174.09
720.96	35154.2
721.303	35129.8
721.646	35047.99
721.989	34817.71
722.331	35031.49
722.674	34865.4
723.016	34854.1
723.359	34796.02
723.701	34759.18
724.044	34526.87
724.386	34403.49
724.729	34601.22
725.071	34522.58
725.413	34388.35
725.755	34370.72
726.097	34322.81
726.439	34096.6
726.782	34118.07
727.124	34294.34
727.465	34052.54
727.807	34045.08
728.149	33901.35
728.491	33914.24
728.833	33951.97
729.175	33712.21
729.516	33675.37
729.858	33728.25
730.199	33649.84
730.541	33619.33
730.882	33672.89
731.224	33685.54
731.565	33374.59
731.906	33403.74
732.248	33417.75
732.589	33208.49
732.93	33269.51
733.271	33140.47
733.612	33241.26
733.953	33203.07
734.294	33018.89
734.635	32862.06
734.976	33015.5
735.317	32847.82
735.658	32658.9
735.999	32813.7
736.339	32505.01
736.68	32684.21
737.021	32688.28
737.361	32603.54
737.702	32750.42
738.042	32545.23
738.383	32524.67
738.723	32468.85
739.063	32430.66
739.404	32526.02
739.744	32384.56
740.084	32143.66
740.424	32206.26
740.764	32080.39
741.104	32201.51
741.444	31994.74
741.784	31964.91
742.124	32059.82
742.464	31867.28
742.804	31905.02
743.143	31756.78
743.483	31815.08
743.823	31595.43
744.162	31666.61
744.502	31743.22
744.841	31402.21
745.181	31491.47
745.52	31484.69
745.86	31481.98
746.199	31339.39
746.538	31353.17
746.877	31492.15
747.216	31364.02
747.556	31357.92
747.895	31237.02
748.234	31026.18
748.573	30999.96
748.911	30938.04
749.25	30997.93
749.589	30854.65
749.928	30889.68
750.267	30870.47
750.605	30646.3
750.944	30675.22
751.283	30458.51
751.621	30489.47
751.96	30348.23
752.298	30299.19
752.636	30325.86
752.975	30184.62
753.313	30253.99
753.651	30219.64
