Data from white_steel_sheet_FLMS001491_087.txt Node
Date: Tue Feb 07 10:58:37 GMT 2017
User: dcchb
Spectrometer: FLMS00149
Trigger mode: 0
Integration Time (sec): 2.000000E-2
Scans to average: 10
Electric dark correction enabled: true
Nonlinearity correction enabled: false
Boxcar width: 0
XAxis mode: Wavelengths
Number of Pixels in Spectrum: 2048
>>>>>Begin Spectral Data<<<<<
341.393	-5.28
341.776	-5.28
342.16	-5.28
342.543	-54.09
342.927	-50.93
343.31	-78.95
343.693	-76.92
344.077	-64.04
344.46	-61.33
344.843	-63.13
345.226	-16.36
345.61	-28.56
345.993	-44.38
346.376	-1.89
346.759	2.4
347.142	43.76
347.525	40.14
347.908	71.55
348.291	65.22
348.674	99.12
349.057	113.36
349.44	141.83
349.823	136.63
350.206	149.29
350.588	241.26
350.971	222.28
351.354	242.85
351.737	254.6
352.119	252.79
352.502	276.07
352.884	270.64
353.267	289.85
353.65	306.57
354.032	308.83
354.414	316.07
354.797	316.29
355.179	328.27
355.562	330.3
355.944	340.7
356.326	342.96
356.709	330.08
357.091	337.31
357.473	332.34
357.855	335.05
358.238	338.44
358.62	353.13
359.002	358.32
359.384	368.49
359.766	346.57
360.148	312
360.53	347.7
360.912	323.75
361.294	365.33
361.676	350.64
362.057	356.74
362.439	343.64
362.821	351.54
363.203	340.92
363.584	346.57
363.966	343.18
364.348	314.03
364.729	322.39
365.111	347.25
365.493	316.52
365.874	334.6
366.256	328.95
366.637	323.3
367.019	328.95
367.4	334.14
367.781	323.3
368.163	310.19
368.544	339.57
368.925	316.74
369.306	326.01
369.688	308.16
370.069	335.5
370.45	328.04
370.831	346.57
371.212	331.66
371.593	317.65
371.974	326.91
372.355	338.21
372.736	347.7
373.117	321.49
373.498	351.09
373.879	330.98
374.26	336.63
374.641	337.31
375.021	323.52
375.402	344.09
375.783	345.44
376.163	364.65
376.544	365.33
376.925	344.31
377.305	367.59
377.686	364.65
378.066	347.7
378.447	355.39
378.827	345.44
379.208	366.91
379.588	359
379.968	351.54
380.349	359.45
380.729	353.13
381.109	358.55
381.489	372.33
381.87	363.07
382.25	397.19
382.63	369.85
383.01	373.01
383.39	390.64
383.77	401.94
384.15	385.89
384.53	364.65
384.91	401.71
385.29	401.49
385.67	401.03
386.049	387.93
386.429	412.33
386.809	397.19
387.189	425.44
387.568	420.02
387.948	424.76
388.328	406.01
388.707	404.65
389.087	416.18
389.466	415.05
389.846	431.32
390.225	433.8
390.605	437.19
390.984	443.07
391.363	428.38
391.743	450.3
392.122	446.91
392.501	439
392.881	450.75
393.26	473.8
393.639	471.99
394.018	472.45
394.397	468.38
394.776	473.58
395.155	505.44
395.534	496.63
395.913	511.54
396.292	500.24
396.671	488.94
397.05	512.9
397.429	518.77
397.808	509.73
398.186	516.06
398.565	517.42
398.944	543.63
399.323	563.52
399.701	563.97
400.08	566.23
400.458	567.81
400.837	558.32
401.215	604.19
401.594	576.4
401.972	600.58
402.351	621.82
402.729	603.29
403.107	607.58
403.486	641.71
403.864	645.55
404.242	639.45
404.62	655.94
404.999	665.66
405.377	687.35
405.755	681.03
406.133	718.54
406.511	686.45
406.889	706.79
407.267	728.03
407.645	739.78
408.023	760.57
408.401	757.86
408.779	783.85
409.156	782.04
409.534	804.41
409.912	815.71
410.29	812.78
410.667	832.44
411.045	856.16
411.422	836.73
411.8	884.41
412.178	880.12
412.555	890.97
412.933	926.22
413.31	937.52
413.687	938.2
414.065	947.01
414.442	958.08
414.819	978.42
415.197	999.21
415.574	1016.39
415.951	1030.4
416.328	1023.17
416.705	1031.3
417.082	1046.44
417.46	1065.42
417.837	1076.05
418.214	1089.38
418.591	1070.17
418.967	1121.69
419.344	1104.29
419.721	1139.77
420.098	1104.52
420.475	1166.89
420.852	1154.69
421.228	1179.77
421.605	1179.09
421.982	1194.69
422.358	1212.54
422.735	1255.7
423.111	1215.7
423.488	1251.63
423.864	1256.83
424.241	1290.73
424.617	1281.24
424.994	1274.46
425.37	1271.07
425.746	1309.94
426.123	1325.53
426.499	1311.52
426.875	1354.68
427.251	1377.05
427.627	1389.26
428.003	1427.67
428.379	1435.36
428.756	1445.07
429.132	1459.76
429.507	1473.1
429.883	1512.64
430.259	1596.94
430.635	1558.07
431.011	1573.89
431.387	1598.29
431.763	1609.59
432.138	1624.05
432.514	1689.81
432.89	1672.41
433.265	1678.06
433.641	1703.15
434.016	1767.78
434.392	1789.25
434.767	1803.48
435.143	1819.98
435.518	1843.48
435.894	1842.13
436.269	1846.87
436.644	1902.24
437.02	1933.65
437.395	1899.98
437.77	1942.24
438.145	1955.8
438.52	1982.91
438.895	2012.97
439.271	2026.3
439.646	2040.09
440.021	2056.81
440.395	2116.47
440.77	2069.24
441.145	2106.07
441.52	2151.5
441.895	2161.89
442.27	2186.52
442.645	2199.18
443.019	2242.57
443.394	2232.4
443.769	2294.54
444.143	2260.87
444.518	2290.25
444.892	2264.26
445.267	2308.33
445.641	2302.45
446.016	2339.51
446.39	2384.49
446.764	2414.09
447.139	2376.58
447.513	2413.86
447.887	2401.89
448.262	2447.31
448.636	2456.12
449.01	2519.85
449.384	2534.54
449.758	2518.04
450.132	2564.37
450.506	2565.72
450.88	2605.27
451.254	2585.84
451.628	2652.73
452.002	2647.53
452.376	2696.57
452.75	2739.73
453.123	2759.16
453.497	2780.86
453.871	2858.6
454.244	2868.77
454.618	2888.65
454.992	2953.96
455.365	2935.88
455.739	2978.82
456.112	3040.29
456.486	3073.51
456.859	3053.62
457.232	3160.51
457.606	3160.51
457.979	3224.69
458.352	3212.26
458.725	3271.24
459.099	3288.42
459.472	3364.12
459.845	3377.68
460.218	3434.18
460.591	3465.13
460.964	3478.02
461.337	3583.55
461.71	3624.9
462.083	3689.31
462.456	3675.52
462.829	3680.04
463.201	3770.21
463.574	3769.53
463.947	3853.6
464.32	3907.61
464.692	3914.16
465.065	3986.93
465.438	3986.7
465.81	4035.74
466.183	4126.59
466.555	4179.47
466.928	4227.6
467.3	4243.87
467.672	4300.37
468.045	4440.7
468.417	4417.2
468.789	4484.09
469.161	4514.15
469.534	4597.99
469.906	4616.07
470.278	4700.58
470.65	4752.11
471.022	4882.95
471.394	4925.44
471.766	4983.29
472.138	5065.54
472.51	5174.92
472.882	5215.6
473.253	5264.86
473.625	5405.87
473.997	5491.3
474.369	5478.64
474.74	5585.98
475.112	5657.39
475.484	5789.82
475.855	5894.22
476.227	5925.41
476.598	6102.13
476.97	6157.27
477.341	6279.75
477.713	6333.76
478.084	6400.65
478.455	6593.41
478.827	6608.56
479.198	6813.97
479.569	6807.19
479.94	7001.99
480.311	7093.51
480.682	7248.99
481.053	7403.11
481.424	7493.5
481.795	7587.06
482.166	7729.88
482.537	7824.34
482.908	8014.85
483.279	8038.35
483.65	8208.29
484.021	8396.98
484.391	8450.31
484.762	8552.01
485.133	8627.03
485.503	8768.5
485.874	9007.81
486.244	9053.01
486.615	9252.1
486.985	9337.07
487.356	9517.63
487.726	9580.68
488.097	9828.58
488.467	9814.12
488.837	10004.4
489.207	10101.12
489.578	10274.45
489.948	10363.03
490.318	10531.62
490.688	10610.26
491.058	10745.17
491.428	10878.05
491.798	10994.2
492.168	11211.6
492.538	11260.41
492.908	11392.84
493.278	11577.92
493.648	11565.26
494.017	11671.7
494.387	11881.41
494.757	11976.55
495.126	12145.36
495.496	12201.63
495.866	12258.12
496.235	12397.56
496.605	12510.77
496.974	12580.15
497.344	12630.54
497.713	12812.01
498.082	12904.21
498.452	12989.63
498.821	13042.74
499.19	13097.2
499.559	13310.07
499.928	13420.81
500.298	13511.42
500.667	13621.7
501.036	13619.44
501.405	13728.59
501.774	13787.35
502.143	13895.6
502.512	14033.22
502.88	14171.29
503.249	14215.13
503.618	14333.32
503.987	14405.86
504.356	14490.83
504.724	14659.87
505.093	14665.97
505.462	14756.82
505.83	14915
506.199	14995.23
506.567	15181.21
506.936	15235.9
507.304	15378.49
507.672	15472.05
508.041	15570.81
508.409	15644.02
508.777	15874.98
509.145	15880.85
509.514	15934.64
509.882	16150.23
510.25	16186.61
510.618	16324.01
510.986	16384.8
511.354	16618.69
511.722	16692.81
512.09	16960.37
512.458	16851.45
512.826	17034.27
513.193	17163.98
513.561	17253.92
513.929	17361.04
514.297	17494.37
514.664	17725.1
515.032	17755.83
515.4	17945.66
515.767	17999.22
516.135	18193.79
516.502	18132.09
516.869	18443.5
517.237	18414.35
517.604	18457.28
517.972	18693.21
518.339	18824.51
518.706	18973.65
519.073	19090.49
519.44	19232.86
519.808	19401.44
520.175	19421.55
520.542	19729.57
520.909	19883.46
521.276	19798.49
521.643	20041.2
522.009	20280.51
522.376	20379.94
522.743	20618.81
523.11	20765.24
523.477	20971.34
523.843	21067.61
524.21	21231
524.577	21449.07
524.943	21521.61
525.31	21611.1
525.676	21925.44
526.043	22005.44
526.409	22150.97
526.776	22391.87
527.142	22520.91
527.508	22630.05
527.874	22929.71
528.241	23033.21
528.607	23057.84
528.973	23266.87
529.339	23243.6
529.705	23574.66
530.071	23610.82
530.437	23800.65
530.803	23923.35
531.169	24078.15
531.535	24085.84
531.901	24290.35
532.267	24308.65
532.632	24577.35
532.998	24670.23
533.364	24760.85
533.73	24942.54
534.095	25132.14
534.461	25121.29
534.826	25371.45
535.192	25455.29
535.557	25664.78
535.923	25602.41
536.288	25639.69
536.653	25901.38
537.019	25847.82
537.384	25970.98
537.749	26144.09
538.114	26359.9
538.479	26272.44
538.845	26437.41
539.21	26434.02
539.575	26641.93
539.94	26671.76
540.305	26881.02
540.67	26737.97
541.034	26866.78
541.399	27049.37
541.764	27093.89
542.129	27317.16
542.494	27305.64
542.858	27443.71
543.223	27452.3
543.587	27629.25
543.952	27652.07
544.316	27760.09
544.681	27855.23
545.045	27985.62
545.41	28193.98
545.774	28237.36
546.138	28172.28
546.503	28446.62
546.867	28440.75
547.231	28595.77
547.595	28576.11
547.959	28751.93
548.324	28817.24
548.688	28836.9
549.052	29062.88
549.416	29020.85
549.779	29159.6
550.143	29244.12
550.507	29505.58
550.871	29539.93
551.235	29624.9
551.599	29811.56
551.962	29815.63
552.326	29873.93
552.689	30101.72
553.053	30015.4
553.417	30104.43
553.78	30530.86
554.143	30432.11
554.507	30618.32
554.87	30690.18
555.234	30955.94
555.597	30783.51
555.96	30985.09
556.323	31240.22
556.686	31261.47
557.05	31278.64
557.413	31559.99
557.776	31609.48
558.139	31940.77
558.502	31863.26
558.865	31923.82
559.228	32197.26
559.59	32319.07
559.953	32304.15
560.316	32797.7
560.679	32722.22
561.041	32874.08
561.404	33025.94
561.767	33170.79
562.129	33164.24
562.492	33507.73
562.854	33678.35
563.217	33465.25
563.579	33710.89
563.941	33836.09
564.304	34102.97
564.666	34247.38
565.028	34347.71
565.39	34399.69
565.753	34576.18
566.115	34665.67
566.477	34951.31
566.839	34925.32
567.201	35167.13
567.563	35249.84
567.925	35345.65
568.287	35490.73
568.648	35514.01
569.01	35748.13
569.372	35986.77
569.734	35878.52
570.095	36201.45
570.457	36269.7
570.819	36301.79
571.18	36347.43
571.542	36562.8
571.903	36618.61
572.265	36754.66
572.626	36829.68
572.987	36978.83
573.349	37087.98
573.71	37109.22
574.071	37275.09
574.432	37257.47
574.794	37680.96
575.155	37615.88
575.516	37401.64
575.877	37625.14
576.238	37704.23
576.599	37785.81
576.96	37784.46
577.32	37827.4
577.681	37979.26
578.042	37989.42
578.403	38144.45
578.763	38000.95
579.124	38046.37
579.485	38319.13
579.845	38380.38
580.206	38235.75
580.566	38357.1
580.927	38359.58
581.287	38555.06
581.648	38261.28
582.008	38438
582.368	38543.99
582.728	38517.32
583.089	38505.12
583.449	38547.15
583.809	38509.41
584.169	38552.35
584.529	38534.04
584.889	38803.64
585.249	38505.8
585.609	38487.04
585.969	38682.06
586.329	38642.74
586.688	38628.05
587.048	38577.88
587.408	38646.36
587.768	38615.17
588.127	38662.85
588.487	38480.71
588.846	38705.79
589.206	38610.65
589.565	38513.7
589.925	38754.83
590.284	38652.68
590.643	38675.73
591.003	38742.17
591.362	38705.79
591.721	38655.4
592.08	38654.94
592.44	38704.89
592.799	38701.27
593.158	38614.95
593.517	38693.59
593.876	38765.45
594.235	38629.86
594.593	38645.68
594.952	38845.67
595.311	38694.94
595.67	38792.34
596.029	39080.47
596.387	38916.18
596.746	38965.44
597.104	38914.82
597.463	38828.27
597.822	39009.29
598.18	38769.07
598.538	38750.76
598.897	39115.72
599.255	38819.91
599.613	39150.07
599.972	39034.37
600.33	39002.73
600.688	38922.51
601.046	39003.41
601.404	39199.79
601.762	39124.76
602.12	39149.17
602.478	39202.5
602.836	39228.94
603.194	38998.66
603.552	39146.68
603.91	38947.37
604.268	39120.47
604.625	38998.21
604.983	39206.79
605.341	39061.71
605.698	39268.94
606.056	39271.88
606.413	39246.11
606.771	39405.66
607.128	39561.59
607.485	39350.07
607.843	39313.68
608.2	39410.63
608.557	39681.36
608.914	39444.98
609.272	39638.65
609.629	39687.69
609.986	39743.73
610.343	39744.86
610.7	40038.41
611.057	39908.47
611.414	39847.23
611.771	39970.84
612.127	39996.83
612.484	39984.17
612.841	40037.28
613.198	39848.36
613.554	39945.53
613.911	40331.96
614.267	40171.51
614.624	40270.27
614.98	40123.15
615.337	40435.01
615.693	40383.71
616.05	40312.98
616.406	40590.03
616.762	40393.2
617.118	40383.26
617.475	40419.64
617.831	40518.62
618.187	40550.71
618.543	40524.05
618.899	40771.95
619.255	40705.06
619.611	40668.45
619.967	40878.61
620.323	40915.9
620.678	40777.15
621.034	40624.61
621.39	40794.1
621.746	40621.22
622.101	41205.61
622.457	40739.86
622.812	41042.45
623.168	40974.66
623.523	40943.02
623.879	41111.15
624.234	40844.94
624.589	41054.2
624.945	40865.51
625.3	41046.07
625.655	40999.29
626.01	40894.43
626.365	40971.95
626.72	40905.73
627.075	41016.01
627.43	40943.7
627.785	40816.02
628.14	40804.94
628.495	40928.33
628.85	40866.19
629.205	40594.33
629.559	40940.31
629.914	40752.97
630.269	40848.11
630.623	40692.18
630.978	40588.68
631.332	40748
631.687	40778.5
632.041	40701.67
632.396	40576.48
632.75	40469.13
633.104	40561.56
633.459	40240.89
633.813	40326.54
634.167	40331.51
634.521	40327.44
634.875	40242.02
635.229	40196.6
635.583	40047.9
635.937	40128.13
636.291	40045.87
636.645	40087.9
636.999	39958.64
637.352	40076.83
637.706	39810.17
638.06	39901.01
638.413	39834.35
638.767	39634.35
639.121	39772.2
639.474	39593.9
639.828	39576.73
640.181	39523.17
640.534	39568.37
640.888	39382.83
641.241	39254.7
641.594	39396.62
641.947	39393.68
642.301	39403.4
642.654	39317.75
643.007	39345.55
643.36	39227.58
643.713	39058.78
644.066	39292.22
644.419	39009.74
644.771	38920.02
645.124	38445.23
645.477	38267.61
645.83	38093.6
646.182	37947.62
646.535	37754.4
646.888	37933.83
647.24	37698.36
647.593	37910.56
647.945	37771.58
648.298	37706.72
648.65	37697.91
649.002	37514.41
649.355	37662.2
649.707	37574.07
650.059	37694.29
650.411	38123.88
650.763	37994.17
651.115	38444.1
651.467	38331.11
651.819	38304.44
652.171	38307.16
652.523	38105.58
652.875	38156.65
653.227	37979.03
653.578	38223.77
653.93	38296.31
654.282	38020.84
654.633	37867.17
654.985	37934.06
655.337	37883.89
655.688	37885.02
656.039	37901.07
656.391	37615.88
656.742	37721.86
657.094	37727.96
657.445	37863.78
657.796	37789.66
658.147	37620.85
658.498	37800.28
658.849	37598.02
659.2	37751.46
659.551	37447.29
659.902	37633.28
660.253	37358.93
660.604	37501.3
660.955	37305.15
661.306	37304.02
661.656	37240.07
662.007	37219.05
662.358	37242.33
662.708	37084.82
663.059	37072.39
663.409	36852.05
663.76	37154.19
664.11	37003.24
664.461	36918.27
664.811	36885.73
665.161	36885.05
665.511	36624.49
665.862	36657.93
666.212	36765.73
666.562	36618.16
666.912	36511.95
667.262	36439.18
667.612	36382.69
667.962	36351.28
668.312	36200.77
668.662	36368.22
669.011	36097.27
669.361	36083.03
669.711	35955.35
670.06	35802.59
670.41	35774.57
670.76	35615.48
671.109	35643.5
671.459	35651.63
671.808	35522.15
672.157	35511.07
672.507	35246.45
672.856	35150.86
673.205	35406.44
673.554	35409.61
673.904	35110.4
674.253	35409.61
674.602	35077.41
674.951	34517.2
675.3	34354.72
675.649	34951.09
675.998	34827.7
676.346	34912.44
676.695	35011.88
677.044	34659.57
677.393	34787.02
677.741	34769.17
678.09	34738.66
678.438	34577.09
678.787	34733.01
679.135	34690.53
679.484	34537.09
679.832	34588.38
680.181	34409.63
680.529	34542.06
680.877	34413.7
681.225	34436.98
681.573	34753.13
681.922	34428.39
682.27	34335.28
682.618	34417.32
682.966	34310.43
683.314	34581.38
683.661	34383.19
684.009	34342.06
684.357	34348.62
684.705	34258.9
685.053	34271.78
685.4	34366.02
685.748	34154.95
686.095	34326.92
686.443	34198.34
686.79	34174.61
687.138	34276.75
687.485	34321.72
687.832	34179.13
688.18	34354.27
688.527	34092.35
688.874	34190.88
689.221	34144.55
689.568	34180.03
689.915	34166.25
690.262	33970.55
690.609	34111.11
690.956	33960.83
691.303	33926.93
691.65	33801.51
691.997	33812.36
692.344	33514.51
692.69	33652.59
693.037	33724.45
693.383	33491.92
693.73	33755.86
694.077	33401.52
694.423	33537.79
694.769	33418.25
695.116	33301.64
695.462	33289.44
695.808	33239.49
696.155	33293.73
696.501	33064.81
696.847	33218.48
697.193	32940.97
697.539	33183.45
697.885	32841.54
698.231	32651.03
698.577	32688.1
698.923	32627.53
699.269	32504.82
699.614	32463.92
699.96	32327.88
700.306	32572.84
700.651	32237.03
700.997	32232.29
701.342	32195.45
701.688	32038.62
702.033	32030.49
702.379	31988.68
702.724	31927.21
703.069	31877.27
703.415	31456.04
703.76	31688.35
704.105	31651.96
704.45	31432.54
704.795	31255.36
705.14	31269.83
705.485	31232.54
705.83	31175.82
706.175	31211.75
706.52	31186.21
706.865	30901.48
707.209	30926.11
707.554	30876.39
707.899	30814.25
708.243	30695.15
708.588	30697.19
708.932	30519.34
709.277	30395.5
709.621	30567.93
709.966	30255.16
710.31	30426.01
710.654	30059.69
710.998	30291.77
711.342	30164.32
711.687	30093.81
712.031	30014.04
712.375	29868.51
712.719	29884.1
713.063	29781.51
713.407	29993.7
713.75	29783.76
714.094	29649.98
714.438	29570.66
714.782	29726.59
715.125	29499.03
715.469	29540.38
715.812	29420.61
716.156	29280.73
716.499	29208.86
716.843	29207.28
717.186	29012.03
717.53	29197.57
717.873	29203.44
718.216	29057
718.559	28845.71
718.902	28690.69
719.246	28708.09
719.589	28647.52
719.932	28680.97
720.275	28689.78
720.617	28575.66
720.96	28542.89
721.303	28524.36
721.646	28442.11
721.989	28250.47
722.331	28464.93
722.674	28317.81
723.016	28339.96
723.359	28197.59
723.701	28131.15
724.044	28113.75
724.386	27922.8
724.729	28085.28
725.071	27995.56
725.413	27923.02
725.755	27897.26
726.097	27744.5
726.439	27794.21
726.782	27757.38
727.124	27878.73
727.465	27603.48
727.807	27655.01
728.149	27578.4
728.491	27644.61
728.833	27543.15
729.175	27405.97
729.516	27413.88
729.858	27233.32
730.199	27306.77
730.541	27331.63
730.882	27295.24
731.224	27253.44
731.565	27057.51
731.906	26976.83
732.248	27221.57
732.589	26989.71
732.93	26911.52
733.271	26895.03
733.612	26923.28
733.953	26854.8
734.294	26698.2
734.635	26691.64
734.976	26799.66
735.317	26629.05
735.658	26643.96
735.999	26663.17
736.339	26570.74
736.68	26526
737.021	26526.45
737.361	26394.93
737.702	26521.03
738.042	26396.96
738.383	26362.61
738.723	26401.03
739.063	26283.29
739.404	26342.05
739.744	26124.2
740.084	26160.58
740.424	26094.82
740.764	26041.94
741.104	26148.38
741.444	25966.92
741.784	25923.53
742.124	25946.13
742.464	25857.77
742.804	25816.64
743.143	25785.23
743.483	25870.42
743.823	25578.45
744.162	25617.32
744.502	25693.48
744.841	25555.4
745.181	25628.17
745.52	25475.63
745.86	25483.31
746.199	25482.41
746.538	25413.26
746.877	25538.45
747.216	25417.78
747.556	25230.21
747.895	25260.72
748.234	25183.89
748.573	25042.42
748.911	25117.9
749.25	25110.67
749.589	24940.95
749.928	24931.46
750.267	24978.47
750.605	24735.54
750.944	24816.44
751.283	24731.47
751.621	24725.37
751.96	24601.98
752.298	24618.48
752.636	24623.9
752.975	24537.12
753.313	24316.34
753.651	24487.18
