Data from white_steel_sheet_FLMS001491_053.txt Node
Date: Tue Feb 07 10:58:05 GMT 2017
User: dcchb
Spectrometer: FLMS00149
Trigger mode: 0
Integration Time (sec): 2.000000E-2
Scans to average: 10
Electric dark correction enabled: true
Nonlinearity correction enabled: false
Boxcar width: 0
XAxis mode: Wavelengths
Number of Pixels in Spectrum: 2048
>>>>>Begin Spectral Data<<<<<
341.393	-25.32
341.776	-25.32
342.16	-25.32
342.543	-59.22
342.927	-78.88
343.31	-77.3
343.693	-58.09
344.077	-75.49
344.46	-47.02
344.843	-34.59
345.226	-27.36
345.61	-16.51
345.993	-12.44
346.376	-17.19
346.759	6.09
347.142	27.78
347.525	31.4
347.908	49.93
348.291	51.06
348.674	90.6
349.057	109.14
349.44	126.99
349.823	147.78
350.206	164.73
350.588	195.46
350.971	212.18
351.354	222.35
351.737	259.19
352.119	267.1
352.502	253.09
352.884	283.59
353.267	300.77
353.65	323.14
354.032	299.19
354.414	307.1
354.797	328.56
355.179	300.32
355.562	343.25
355.944	319.53
356.326	346.87
356.709	336.7
357.091	322.01
357.473	334.67
357.855	347.32
358.238	349.36
358.62	347.77
359.002	342.12
359.384	349.36
359.766	355.23
360.148	339.64
360.53	329.02
360.912	361.33
361.294	367.21
361.676	346.64
362.057	343.25
362.439	338.51
362.821	327.89
363.203	359.98
363.584	324.05
363.966	319.3
364.348	348.68
364.729	328.79
365.111	334.44
365.493	353.87
365.874	342.35
366.256	352.07
366.637	322.69
367.019	340.54
367.4	330.82
367.781	315.23
368.163	335.8
368.544	332.63
368.925	315.68
369.306	320.88
369.688	346.42
370.069	345.97
370.45	322.46
370.831	319.07
371.212	301.9
371.593	350.49
371.974	347.32
372.355	312.52
372.736	340.54
373.117	331.73
373.498	341.67
373.879	345.74
374.26	341.45
374.641	319.75
375.021	322.46
375.402	336.47
375.783	332.41
376.163	348.45
376.544	338.51
376.925	343.25
377.305	341.9
377.686	327.89
378.066	344.38
378.447	356.81
378.827	380.54
379.208	370.15
379.588	365.63
379.968	344.16
380.349	362.01
380.729	365.63
381.109	361.33
381.489	384.61
381.87	358.39
382.25	371.95
382.63	355.23
383.01	368.34
383.39	399.52
383.77	385.29
384.15	360.43
384.53	374.67
384.91	380.09
385.29	377.6
385.67	395.91
386.049	418.96
386.429	391.39
386.809	369.92
387.189	394.1
387.568	402.91
387.948	410.82
388.328	396.81
388.707	404.27
389.087	432.29
389.466	420.54
389.846	402.01
390.225	422.35
390.605	439.3
390.984	433.65
391.363	423.7
391.743	447.21
392.122	460.99
392.501	459.63
392.881	462.12
393.26	468.67
393.639	463.02
394.018	481.56
394.397	468
394.776	489.46
395.155	495.34
395.534	499.63
395.913	481.78
396.292	510.25
396.671	525.4
397.05	518.16
397.429	525.62
397.808	527.43
398.186	523.14
398.565	534.89
398.944	549.12
399.323	550.25
399.701	543.93
400.08	555
400.458	558.16
400.837	584.38
401.215	597.26
401.594	571.95
401.972	617.37
402.351	596.35
402.729	620.53
403.107	617.82
403.486	627.77
403.864	666.41
404.242	634.77
404.62	662.34
404.999	657.82
405.377	695.11
405.755	704.83
406.133	713.19
406.511	705.28
406.889	716.8
407.267	739.63
407.645	740.98
408.023	758.16
408.401	759.97
408.779	791.83
409.156	787.76
409.534	777.37
409.912	818.5
410.29	826.86
410.667	863.01
411.045	873.64
411.422	867.53
411.8	861.43
412.178	906.63
412.555	901.66
412.933	934.65
413.31	892.39
413.687	950.02
414.065	943.46
414.442	972.16
414.819	970.36
415.197	994.31
415.574	1033.63
415.951	1021.2
416.328	1039.51
416.705	1045.61
417.082	1039.51
417.46	1086.96
417.837	1066.62
418.214	1057.36
418.591	1107.3
418.967	1090.13
419.344	1127.87
419.721	1115.66
420.098	1155.21
420.475	1166.73
420.852	1169.67
421.228	1191.59
421.605	1170.58
421.982	1193.85
422.358	1201.31
422.735	1219.84
423.111	1225.49
423.488	1259.16
423.864	1258.94
424.241	1253.74
424.617	1306.39
424.994	1307.07
425.37	1294.87
425.746	1328.54
426.123	1346.84
426.499	1329.22
426.875	1355.2
427.251	1388.2
427.627	1432.94
428.003	1433.62
428.379	1443.79
428.756	1480.85
429.132	1475.65
429.507	1500.06
429.883	1540.74
430.259	1558.36
430.635	1553.39
431.011	1554.52
431.387	1587.06
431.763	1629.1
432.138	1661.41
432.514	1679.49
432.89	1653.28
433.265	1727.4
433.641	1731.69
434.016	1756.1
434.392	1786.83
434.767	1835.64
435.143	1813.05
435.518	1825.02
435.894	1865.25
436.269	1883.78
436.644	1915.19
437.02	1945.02
437.395	1912.48
437.77	1967.39
438.145	2014.4
438.52	2037.22
438.895	2039.48
439.271	2088.52
439.646	2076.32
440.021	2105.69
440.395	2110.21
440.77	2086.26
441.145	2105.69
441.52	2164.22
441.895	2176.65
442.27	2249.42
442.645	2201.06
443.019	2230.66
443.394	2235.63
443.769	2263.43
444.143	2308.17
444.518	2314.95
444.892	2302.75
445.267	2342.07
445.641	2358.34
446.016	2362.86
446.39	2370.09
446.764	2412.35
447.139	2412.58
447.513	2449.86
447.887	2434.27
448.262	2466.36
448.636	2465.68
449.01	2545.23
449.384	2563.31
449.758	2557.66
450.132	2583.19
450.506	2628.84
450.88	2622.29
451.254	2631.33
451.628	2641.27
452.002	2710.65
452.376	2726.69
452.75	2753.36
453.123	2759.01
453.497	2810.08
453.871	2817.31
454.244	2878.33
454.618	2892.79
454.992	2968.04
455.365	2935.73
455.739	3005.56
456.112	3082.84
456.486	3057.76
456.859	3130.53
457.232	3170.52
457.606	3175.5
457.979	3221.6
458.352	3303.63
458.725	3339.79
459.099	3346.11
459.472	3396.05
459.845	3417.3
460.218	3443.06
460.591	3496.17
460.964	3507.01
461.337	3584.75
461.71	3608.48
462.083	3702.49
462.456	3660.68
462.829	3738.87
463.201	3762.6
463.574	3812.99
463.947	3851.18
464.32	3929.15
464.692	3988.81
465.065	4022.48
465.438	4046.21
465.81	4108.35
466.183	4135.47
466.555	4259.31
466.928	4285.52
467.3	4305.86
467.672	4350.61
468.045	4426.99
468.417	4484.39
468.789	4485.74
469.161	4605.06
469.534	4648
469.906	4728.45
470.278	4777.26
470.65	4794.66
471.022	4877.6
471.394	5040.98
471.766	5069.91
472.138	5130.7
472.51	5220.64
472.882	5261.99
473.253	5290.02
473.625	5449.11
473.997	5563.68
474.369	5553.51
474.74	5626.96
475.112	5777.69
475.484	5813.39
475.855	5940.85
476.227	5970.68
476.598	6137.45
476.97	6153.72
477.341	6335.86
477.713	6428.52
478.084	6499.93
478.455	6685.23
478.827	6641.17
479.198	6890.43
479.569	6876.64
479.94	7072.57
480.311	7141.27
480.682	7311.88
481.053	7430.52
481.424	7577.19
481.795	7663.51
482.166	7787.8
482.537	7882.49
482.908	8049.94
483.279	8146.66
483.65	8307.79
484.021	8438.63
484.391	8529.71
484.762	8634.11
485.133	8793.65
485.503	8848.34
485.874	9044.04
486.244	9131.27
486.615	9302.57
486.985	9366.52
487.356	9549.79
487.726	9650.81
488.097	9826.17
488.467	9833.17
488.837	10103.9
489.207	10213.28
489.578	10300.73
489.948	10499.82
490.318	10557.45
490.688	10636.54
491.058	10811.68
491.428	11022.75
491.798	11011.45
492.168	11246.47
492.538	11335.73
492.908	11508.61
493.278	11634.93
493.648	11697.53
494.017	11821.37
494.387	11955.15
494.757	12041.93
495.126	12112.66
495.496	12285.09
495.866	12351.3
496.235	12556.27
496.605	12585.19
496.974	12713.32
497.344	12817.28
497.713	12842.13
498.082	12978.85
498.452	13207.32
498.821	13243.25
499.19	13256.81
499.559	13494.32
499.928	13517.82
500.298	13636.92
500.667	13682.34
501.036	13717.37
501.405	13983.35
501.774	13931.82
502.143	14068.99
502.512	14089.56
502.88	14166.17
503.249	14317.8
503.618	14415.65
503.987	14466.05
504.356	14596.66
504.724	14689.54
505.093	14834.17
505.462	14940.61
505.83	15005.69
506.199	15160.27
506.567	15278.45
506.936	15362.75
507.304	15512.57
507.672	15642.74
508.041	15705.79
508.409	15865.56
508.777	15881.38
509.145	16134.7
509.514	16141.48
509.882	16247.92
510.25	16303.51
510.618	16487.46
510.986	16532.43
511.354	16746.66
511.722	16899.43
512.09	17011.97
512.458	17011.74
512.826	17263.49
513.193	17246.99
513.561	17364.28
513.929	17538.06
514.297	17643.82
514.664	17899.18
515.032	17828.44
515.4	18067.31
515.767	18104.14
516.135	18216.23
516.502	18289.45
516.869	18648.31
517.237	18729.21
517.604	18721.3
517.972	18899.15
518.339	19100.5
518.706	19030.9
519.073	19193.15
519.44	19404.22
519.808	19547.95
520.175	19648.06
520.542	19939.35
520.909	19992.23
521.276	20081.04
521.643	20200.81
522.009	20459.56
522.376	20588.15
522.743	20702.27
523.11	21008.7
523.477	21192.42
523.843	21191.29
524.21	21393.55
524.577	21681.22
524.943	21770.49
525.31	21893.87
525.676	22141.32
526.043	22260.87
526.409	22370.47
526.776	22647.3
527.142	22750.12
527.508	22822.66
527.874	22994.41
528.241	23189.43
528.607	23235.31
528.973	23522.31
529.339	23505.13
529.705	23703.32
530.071	24012.69
530.437	24152.35
530.803	24299.91
531.169	24399.57
531.535	24343.07
531.901	24517.53
532.267	24687.25
532.632	24795.72
532.998	24856.28
533.364	25059.89
533.73	25180.11
534.095	25435.93
534.461	25502.14
534.826	25588.01
535.192	25685.64
535.557	25807.22
535.923	25917.27
536.288	26033.43
536.653	26164.95
537.019	26017.61
537.384	26319.75
537.749	26335.11
538.114	26501.66
538.479	26465.05
538.845	26663.01
539.21	26743.46
539.575	26754.31
539.94	26886.06
540.305	27073.62
540.67	27197.01
541.034	27292.83
541.399	27455.99
541.764	27578.02
542.129	27591.12
542.494	27661.63
542.858	27714.96
543.223	27887.16
543.587	28048.74
543.952	27973.04
544.316	28184.1
544.681	28150.21
545.045	28347.04
545.41	28491.89
545.774	28407.37
546.138	28521.5
546.503	28494.6
546.867	28672.23
547.231	28973.91
547.595	28884.88
547.959	29065.89
548.324	29226.79
548.688	29078.09
549.052	29277.18
549.416	29358.54
549.779	29462.49
550.143	29466.1
550.507	29842.59
550.871	29833.1
551.235	29740.45
551.599	30015.02
551.962	30096.14
552.326	30177.5
552.689	30319.64
553.053	30338.17
553.417	30330.26
553.78	30794.43
554.143	30624.49
554.507	30921.43
554.87	30972.05
555.234	31241.88
555.597	31007.98
555.96	31184.02
556.323	31394.41
556.686	31539.95
557.05	31759.6
557.413	31784.01
557.776	31814.29
558.139	32130.89
558.502	32256.09
558.865	32252.02
559.228	32504.22
559.59	32602.97
559.953	32660.14
560.316	33049.29
560.679	32967.03
561.041	33207.25
561.404	33366.57
561.767	33699.44
562.129	33567.92
562.492	33978.08
562.854	33846.55
563.217	33818.08
563.579	34108.02
563.941	34138.07
564.304	34396.82
564.666	34629.81
565.028	34513.43
565.39	34671.84
565.753	34822.8
566.115	35030.93
566.477	35157.93
566.839	35217.59
567.201	35495.78
567.563	35412.84
567.925	35771.02
568.287	35695.54
568.648	35858.93
569.01	36021.19
569.372	36275.87
569.734	36152.26
570.095	36479.7
570.457	36618.91
570.819	36722.64
571.18	36753.37
571.542	36941.84
571.903	36976.87
572.265	37081.5
572.626	37220.25
572.987	37187.71
573.349	37362.17
573.71	37406.23
574.071	37462.73
574.432	37740.91
574.794	37901.36
575.155	37868.37
575.516	37817.97
575.877	37830.4
576.238	37916.05
576.599	38150.62
576.96	38058.65
577.32	38246.89
577.681	38446.21
578.042	38384.06
578.403	38469.26
578.763	38429.03
579.124	38448.69
579.485	38544.06
579.845	38575.69
580.206	38650.04
580.566	38725.52
580.927	38658.4
581.287	38926.19
581.648	38615.02
582.008	38817.04
582.368	38877.38
582.728	38970.26
583.089	38820.21
583.449	38881.22
583.809	38974.55
584.169	38912.41
584.529	38965.06
584.889	39149.46
585.249	38916.25
585.609	38818.17
585.969	39065.85
586.329	38904.05
586.688	38989.47
587.048	38980.43
587.408	38969.36
587.768	39057.94
588.127	38900.66
588.487	38860.88
588.846	39248.45
589.206	38922.58
589.565	39008.23
589.925	39094.33
590.284	38998.06
590.643	39056.81
591.003	39061.33
591.362	39240.08
591.721	39141.56
592.08	39080.77
592.44	39116.25
592.799	39077.6
593.158	39008.23
593.517	39059.52
593.876	39147.21
594.235	38933.43
594.593	39063.14
594.952	39144.04
595.311	39000.09
595.67	39090.48
596.029	39340.87
596.387	39346.97
596.746	39306.52
597.104	39100.88
597.463	39196.02
597.822	39406.63
598.18	39166.64
598.538	39185.85
598.897	39405.73
599.255	39103.14
599.613	39640.07
599.972	39326.64
600.33	39440.08
600.688	39337.71
601.046	39394.66
601.404	39593.07
601.762	39336.58
602.12	39641.43
602.478	39560.3
602.836	39705.83
603.194	39513.98
603.552	39522.11
603.91	39366.63
604.268	39590.81
604.625	39499.29
604.983	39576.12
605.341	39387.65
605.698	39679.39
606.056	39661.32
606.413	39596.23
606.771	39722.56
607.128	39775.66
607.485	39634.88
607.843	39784.02
608.2	39966.39
608.557	40011.36
608.914	39993.06
609.272	40035.09
609.629	40195.09
609.986	40187.18
610.343	40038.26
610.7	40348.98
611.057	40193.05
611.414	40303.56
611.771	40221.75
612.127	40358.47
612.484	40486.15
612.841	40580.61
613.198	40563.44
613.554	40472.59
613.911	40653.83
614.267	40590.56
614.624	40567.51
614.98	40751.68
615.337	40844.56
615.693	40814.51
616.05	40787.84
616.406	41041.84
616.762	40809.31
617.118	40837.1
617.475	40809.31
617.831	41036.2
618.187	40997.1
618.543	41099.47
618.899	41220.82
619.255	41245.23
619.611	41167.27
619.967	41327.94
620.323	41516.41
620.678	41205
621.034	40980.15
621.39	41244.33
621.746	41103.76
622.101	41557.09
622.457	41238
622.812	41360.25
623.168	41431.44
623.523	41285.23
623.879	41525
624.234	41203.42
624.589	41459.23
624.945	41333.81
625.3	41574.49
625.655	41320.71
626.01	41446.35
626.365	41525.9
626.72	41325
627.075	41418.78
627.43	41370.42
627.785	41236.19
628.14	41220.82
628.495	41387.82
628.85	41255.4
629.205	41227.6
629.559	41385.34
629.914	41103.99
630.269	41225.79
630.623	41041.17
630.978	40877.78
631.332	41080.04
631.687	41199.81
632.041	41032.58
632.396	41045.46
632.75	40797.33
633.104	40855.18
633.459	40716.2
633.813	40863.77
634.167	40804.34
634.521	40863.09
634.875	40772.93
635.229	40734.06
635.583	40453.61
635.937	40447.06
636.291	40519.15
636.645	40517.79
636.999	40294.29
637.352	40530.45
637.706	40166.84
638.06	40368.87
638.413	40344.24
638.767	40105.15
639.121	40253.39
639.474	39945.83
639.828	40012.95
640.181	40035.09
640.534	40010.69
640.888	39752.61
641.241	39767.53
641.594	39750.58
641.947	39881.88
642.301	39731.6
642.654	39821.09
643.007	39768.88
643.36	39480.3
643.713	39442.79
644.066	39785.61
644.419	39397.59
644.771	39110.6
645.124	38735.92
645.477	38670.61
645.83	38427.22
646.182	38331.41
646.535	38170.28
646.888	38302.26
647.24	38113.33
647.593	38409.6
647.945	38335.48
648.298	38021.59
648.65	37934.13
649.002	37980.23
649.355	37989.04
649.707	37846.9
650.059	37963.73
650.411	38424.51
650.763	38549.71
651.115	38923.03
651.467	38761.68
651.819	38816.82
652.171	38662.7
652.523	38615.69
652.875	38681
653.227	38342.48
653.578	38664.05
653.93	38444.85
654.282	38385.64
654.633	38368.69
654.985	38264.74
655.337	38332.54
655.688	38266.55
656.039	38442.14
656.391	38054.35
656.742	38182.26
657.094	38252.77
657.445	38180.9
657.796	38214.12
658.147	38210.51
658.498	38050.28
658.849	38191.07
659.2	38013.68
659.551	37907.01
659.902	37971.64
660.253	37802.61
660.604	37990.4
660.955	37767.58
661.306	37775.94
661.656	37712.89
662.007	37633.8
662.358	37638.32
662.708	37623.86
663.059	37601.26
663.409	37320.81
663.76	37508.6
664.11	37435.84
664.461	37337.76
664.811	37465.89
665.161	37287.82
665.511	37162.4
665.862	37258.67
666.212	37230.87
666.562	37173.02
666.912	37029.52
667.262	36921.73
667.612	36880.82
667.962	36697.55
668.312	36629.08
668.662	36807.15
669.011	36573.71
669.361	36558.8
669.711	36470.21
670.06	36295.98
670.41	36227.51
670.76	36093.27
671.109	36368.75
671.459	36135.31
671.808	35902.09
672.157	35946.61
672.507	35748.65
672.856	35628.43
673.205	35760.18
673.554	35803.79
673.904	35565.83
674.253	35751.81
674.602	35620.52
674.951	35047.88
675.3	34762.01
675.649	35337.36
675.998	35296.68
676.346	35287.87
676.695	35361.09
677.044	34992.51
677.393	35136.24
677.741	35125.39
678.09	35149.12
678.438	34999.52
678.787	35055.11
679.135	35132.85
679.484	34889.69
679.832	35034.32
680.181	34867.32
680.529	34996.58
680.877	34914.77
681.225	34746.42
681.573	35005.62
681.922	34762.91
682.27	34822.12
682.618	34825.96
682.966	34740.09
683.314	34816.25
683.661	34776.02
684.009	34610.6
684.357	34669.36
684.705	34622.13
685.053	34811.73
685.4	34645.85
685.748	34511.17
686.095	34579.42
686.443	34591.17
686.79	34500.55
687.138	34712.07
687.485	34703.48
687.832	34601.56
688.18	34689.7
688.527	34550.04
688.874	34537.83
689.221	34442.24
689.568	34461.68
689.915	34437.95
690.262	34375.58
690.609	34313.21
690.956	34269.59
691.303	34303.26
691.65	34211.97
691.997	34252.42
692.344	34083.61
692.69	34083.38
693.037	34165.19
693.383	33812.88
693.73	34017.85
694.077	33868.7
694.423	33893.33
694.769	33825.99
695.116	33800.23
695.462	33807.01
695.808	33590.52
696.155	33782.15
696.501	33570.4
696.847	33439.11
697.193	33287.7
697.539	33402.72
697.885	33272.78
698.231	33026.01
698.577	33205.44
698.923	33191.2
699.269	33067.82
699.614	32876.18
699.96	32738.33
700.306	32834.83
700.651	32622.63
700.997	32600.03
701.342	32465.35
701.688	32556.19
702.033	32377.67
702.379	32285.69
702.724	32327.27
703.069	32382.64
703.415	31886.38
703.76	32092.48
704.105	32024.45
704.45	31940.61
704.795	31751.24
705.14	31572.72
705.485	31597.12
705.83	31477.8
706.175	31526.39
706.52	31501.08
706.865	31313.96
707.209	31335.21
707.554	31307.86
707.899	31261.99
708.243	31114.42
708.588	31054.31
708.932	30998.04
709.277	30991.94
709.621	30955.78
709.966	30682.12
710.31	30667.65
710.654	30550.37
710.998	30606.19
711.342	30642.34
711.687	30563.25
712.031	30342.92
712.375	30186.08
712.719	30257.72
713.063	30171.62
713.407	30269.7
713.75	30081
714.094	30022.25
714.438	29956.26
714.782	30007.11
715.125	29831.52
715.469	29907.22
715.812	29675.59
716.156	29586.78
716.499	29581.35
716.843	29680.79
717.186	29502.71
717.53	29565.08
717.873	29477.63
718.216	29438.08
718.559	29253.68
718.902	29090.97
719.246	29174.36
719.589	29074.93
719.932	28868.83
720.275	28994.7
720.617	28926
720.96	28901.6
721.303	28907.93
721.646	28864.31
721.989	28683.53
722.331	28796.52
722.674	28713.13
723.016	28606.69
723.359	28540.7
723.701	28702.06
724.044	28391.33
724.386	28216.19
724.729	28407.15
725.071	28297.77
725.413	28349.07
725.755	28287.83
726.097	28187.04
726.439	28052.58
726.782	28061.62
727.124	28216.65
727.465	27918.35
727.807	28030.44
728.149	27968.97
728.491	27916.99
728.833	28022.53
729.175	27811.68
729.516	27703.21
729.858	27701.4
730.199	27760.16
730.541	27565.59
730.882	27608.53
731.224	27637.68
731.565	27484.46
731.906	27447.17
732.248	27491.69
732.589	27204.02
732.93	27178.25
733.271	27256.44
733.612	27240.63
733.953	27236.11
734.294	27060.52
734.635	26932.61
734.976	27036.34
735.317	26958.15
735.658	26960.86
735.999	26912.05
736.339	26855.32
736.68	26935.1
737.021	26813.07
737.361	26735.1
737.702	26790.47
738.042	26708.89
738.383	26598.16
738.723	26758.83
739.063	26683.13
739.404	26585.28
739.744	26553.64
740.084	26355.45
740.424	26328.11
740.764	26417.37
741.104	26429.8
741.444	26247.21
741.784	26289.01
742.124	26305.73
742.464	26291.05
742.804	26137.6
743.143	26074.33
743.483	26108.9
743.823	25900.77
744.162	25901.9
744.502	26041.56
744.841	25982.81
745.181	25966.53
745.52	25842.47
745.86	25795.69
746.199	25664.17
746.538	25603.61
746.877	25686.09
747.216	25629.37
747.556	25657.84
747.895	25555.25
748.234	25389.6
748.573	25412.2
748.911	25394.35
749.25	25392.99
749.589	25174.92
749.928	25218.98
750.267	25186.44
750.605	25129.49
750.944	25109.16
751.283	25119.55
751.621	25088.14
751.96	24971.76
752.298	24927.69
752.636	24823.06
752.975	24763.63
753.313	24616.51
