Data from White_paper_FLMS001491_004.txt Node
Date: Tue Feb 07 10:34:34 GMT 2017
User: dcchb
Spectrometer: FLMS00149
Trigger mode: 0
Integration Time (sec): 2.000000E-2
Scans to average: 10
Electric dark correction enabled: true
Nonlinearity correction enabled: false
Boxcar width: 0
XAxis mode: Wavelengths
Number of Pixels in Spectrum: 2048
>>>>>Begin Spectral Data<<<<<
341.393	9.76
341.776	9.76
342.16	9.76
342.543	-59.84
342.927	-57.36
343.31	-70.24
343.693	-80.63
344.077	-90.12
344.46	-49.67
344.843	-56
345.226	-55.55
345.61	-8.09
345.993	-20.75
346.376	-9.9
346.759	29.87
347.142	25.35
347.525	41.17
347.908	58.12
348.291	87.72
348.674	106.48
349.057	92.24
349.44	109.87
349.823	139.02
350.206	173.15
350.588	225.12
350.971	249.98
351.354	249.98
351.737	265.35
352.119	295.63
352.502	302.63
352.884	291.79
353.267	300.37
353.65	304.89
354.032	334.95
354.414	323.65
354.797	334.5
355.179	342.18
355.562	343.99
355.944	344.44
356.326	344.67
356.709	360.71
357.091	374.04
357.473	369.52
357.855	378.34
358.238	367.04
358.62	381.05
359.002	374.27
359.384	377.66
359.766	392.8
360.148	372.01
360.53	383.31
360.912	364.55
361.294	374.5
361.676	377.21
362.057	371.11
362.439	368.17
362.821	373.59
363.203	362.74
363.584	353.93
363.966	383.31
364.348	385.57
364.729	355.51
365.111	360.26
365.493	364.1
365.874	371.56
366.256	367.04
366.637	350.09
367.019	360.48
367.4	376.08
367.781	356.87
368.163	348.06
368.544	373.82
368.925	356.87
369.306	363.65
369.688	354.61
370.069	341.5
370.45	362.29
370.831	369.75
371.212	365.23
371.593	384.44
371.974	357.77
372.355	365.46
372.736	377.21
373.117	378.56
373.498	373.82
373.879	366.81
374.26	359.58
374.641	377.43
375.021	367.04
375.402	370.43
375.783	367.49
376.163	388.73
376.544	390.31
376.925	373.82
377.305	381.95
377.686	384.89
378.066	412.91
378.447	404.55
378.827	385.57
379.208	404.33
379.588	388.96
379.968	389.18
380.349	407.94
380.729	411.56
381.109	408.62
381.489	401.84
381.87	407.04
382.25	417.66
382.63	422.18
383.01	446.13
383.39	416.98
383.77	440.71
384.15	438.45
384.53	436.19
384.91	456.08
385.29	447.49
385.67	448.39
386.049	455.17
386.429	458.11
386.809	464.66
387.189	451.78
387.568	468.73
387.948	468.05
388.328	450.65
388.707	464.21
389.087	483.19
389.466	485.91
389.846	473.93
390.225	489.97
390.605	484.1
390.984	497.2
391.363	499.69
391.743	526.36
392.122	538.79
392.501	526.13
392.881	523.64
393.26	549.63
393.639	537.88
394.018	558.22
394.397	553.7
394.776	545.79
395.155	566.81
395.534	584.21
395.913	553.47
396.292	583.3
396.671	571.55
397.05	585.34
397.429	587.37
397.808	613.36
398.186	603.64
398.565	598.44
398.944	622.4
399.323	598.22
399.701	634.38
400.08	621.72
400.458	647.71
400.837	647.93
401.215	645
401.594	660.82
401.972	652.23
402.351	670.08
402.729	675.28
403.107	713.92
403.486	714.15
403.864	699.46
404.242	741.72
404.62	714.83
404.999	748.95
405.377	787.14
405.755	776.07
406.133	802.96
406.511	828.72
406.889	856.74
407.267	860.58
407.645	873.24
408.023	885.22
408.401	899.68
408.779	916.85
409.156	943.75
409.534	952.56
409.912	1003.41
410.29	1034.37
410.667	1048.38
411.045	1081.14
411.422	1074.14
411.8	1108.94
412.178	1140.58
412.555	1155.94
412.933	1188.03
413.31	1246.79
413.687	1240.01
414.065	1278.43
414.442	1267.13
414.819	1322.95
415.197	1351.19
415.574	1379.22
415.951	1398.2
416.328	1425.99
416.705	1494.92
417.082	1502.15
417.46	1522.94
417.837	1544.86
418.214	1545.09
418.591	1589.38
418.967	1590.96
419.344	1646.55
419.721	1675.03
420.098	1700.34
420.475	1693.33
420.852	1742.37
421.228	1785.31
421.605	1795.25
421.982	1814.23
422.358	1850.39
422.735	1869.37
423.111	1879.09
423.488	1938.97
423.864	1961.57
424.241	1995.24
424.617	2009.71
424.994	2039.31
425.37	2028.01
425.746	2056.26
426.123	2114.56
426.499	2123.38
426.875	2159.53
427.251	2225.07
427.627	2284.5
428.003	2247.44
428.379	2317.27
428.756	2312.07
429.132	2366.99
429.507	2402.24
429.883	2416.02
430.259	2505.74
430.635	2484.04
431.011	2530.15
431.387	2587.77
431.763	2622.8
432.138	2626.87
432.514	2698.73
432.89	2709.35
433.265	2777.37
433.641	2811.95
434.016	2842
434.392	2929.91
434.767	2944.15
435.143	2973.3
435.518	3013.97
435.894	3048.32
436.269	3070.02
436.644	3124.48
437.02	3177.36
437.395	3181.65
437.77	3225.72
438.145	3297.58
438.52	3279.96
438.895	3329.67
439.271	3355.66
439.646	3461.42
440.021	3444.92
440.395	3449.9
440.77	3452.83
441.145	3512.04
441.52	3561.08
441.895	3583
442.27	3591.13
442.645	3587.07
443.019	3667.06
443.394	3635.88
443.769	3693.5
444.143	3651.7
444.518	3740.51
444.892	3738.93
445.267	3766.05
445.641	3818.7
446.016	3822.77
446.39	3844.01
446.764	3885.82
447.139	3882.43
447.513	3933.27
447.887	3898.02
448.262	3941.63
448.636	3997.45
449.01	4060.95
449.384	4066.6
449.758	4098.01
450.132	4115.64
450.506	4211.46
450.88	4211.23
451.254	4228.63
451.628	4253.04
452.002	4307.95
452.376	4323.09
452.75	4398.34
453.123	4443.54
453.497	4488.51
453.871	4499.36
454.244	4644.67
454.618	4665
454.992	4700.71
455.365	4685.12
455.739	4818.67
456.112	4833.36
456.486	4867.26
456.859	4935.05
457.232	5027.03
457.606	5036.97
457.979	5126.91
458.352	5229.74
458.725	5259.34
459.099	5292.78
459.472	5439.9
459.845	5411.43
460.218	5509.95
460.591	5533.46
460.964	5570.74
461.337	5700.68
461.71	5779.33
462.083	5896.61
462.456	5858.87
462.829	5941.81
463.201	6034.46
463.574	6066.55
463.947	6125.98
464.32	6313.77
464.692	6344.28
465.065	6351.74
465.438	6457.05
465.81	6556.48
466.183	6683.48
466.555	6762.12
466.928	6832.41
467.3	6832.86
467.672	6908.79
468.045	7085.28
468.417	7143.13
468.789	7112.62
469.161	7282.79
469.534	7377.93
469.906	7562.78
470.278	7589.45
470.65	7709.22
471.022	7804.36
471.394	8010.68
471.766	8026.72
472.138	8146.04
472.51	8314.85
472.882	8444.34
473.253	8538.35
473.625	8715.75
473.997	8754.39
474.369	8862.63
474.74	8997.32
475.112	9169.29
475.484	9366.35
475.855	9530.87
476.227	9566.12
476.598	9863.06
476.97	9956.39
477.341	10159.78
477.713	10308.25
478.084	10369.49
478.455	10693.77
478.827	10750.04
479.198	11059.41
479.569	11048.34
479.94	11350.03
480.311	11466.86
480.682	11643.58
481.053	11964.93
481.424	12068.43
481.795	12258.25
482.166	12419.15
482.537	12606.49
482.908	12900.04
483.279	12964.22
483.65	13212.58
484.021	13481.04
484.391	13606.01
484.762	13736.63
485.133	13947.02
485.503	14037.87
485.874	14300.68
486.244	14414.58
486.615	14696.38
486.985	14935.92
487.356	15155.58
487.726	15321.45
488.097	15676.24
488.467	15664.49
488.837	15968.89
489.207	16149.9
489.578	16456.56
489.948	16612.03
490.318	16720.05
490.688	16781.75
491.058	17035.53
491.428	17331.56
491.798	17529.07
492.168	17811.33
492.538	17861.27
492.908	17972.23
493.278	18191.65
493.648	18325.66
494.017	18572.66
494.387	18763.16
494.757	18794.58
495.126	19216.49
495.496	19042.48
495.866	19223.94
496.235	19582.35
496.605	19665.51
496.974	19836.58
497.344	19900.08
497.713	20071.15
498.082	20132.39
498.452	20383.01
498.821	20471.14
499.19	20545.04
499.559	20807.18
499.928	20933.05
500.298	20963.78
500.667	21200.84
501.036	21253.04
501.405	21391.34
501.774	21392.7
502.143	21677.44
502.512	21841.95
502.88	21943.19
503.249	21982.52
503.618	22214.15
503.987	22289.63
504.356	22355.84
504.724	22491.43
505.093	22743.17
505.462	22738.43
505.83	23022.04
506.199	23191.52
506.567	23420.22
506.936	23525.3
507.304	23633.32
507.672	23715.35
508.041	23964.61
508.409	24136.13
508.777	24238.5
509.145	24382.23
509.514	24344.26
509.882	24664.48
510.25	24832.84
510.618	24939.5
510.986	24942.21
511.354	25198.02
511.722	25551.23
512.09	25737.9
512.458	25542.87
512.826	25920.49
513.193	25998.68
513.561	26158.68
513.929	26283.65
514.297	26508.72
514.664	26714.59
515.032	26881.37
515.4	27137.63
515.767	27102.61
516.135	27326.33
516.502	27294.92
516.869	27684.51
517.237	27760.22
517.604	27694
517.972	27991.85
518.339	28261.45
518.706	28423.7
519.073	28517.03
519.44	28647.88
519.808	28896.23
520.175	29001.09
520.542	29451.92
520.909	29575.76
521.276	29416.67
521.643	29897.34
522.009	29941.63
522.376	30304.1
522.743	30350.43
523.11	30718.56
523.477	30978.89
523.843	31196.28
524.21	31509.95
524.577	31718.98
524.943	31782.48
525.31	31937.73
525.676	32221.12
526.043	32348.12
526.409	32504.95
526.776	32905.17
527.142	32984.49
527.508	33122.34
527.874	33433.51
528.241	33730.68
528.607	33627.63
528.973	34081.63
529.339	34048.19
529.705	34406.14
530.071	34696.76
530.437	34864.44
530.803	34947.15
531.169	35307.14
531.535	35210.87
531.901	35411.77
532.267	35529.05
532.632	35829.83
532.998	35926.78
533.364	36072.54
533.73	36155.02
534.095	36459.42
534.461	36582.58
534.826	36755.01
535.192	36835.23
535.557	37126.75
535.923	37136.69
536.288	37339.63
536.653	37530.81
537.019	37393.41
537.384	37752.04
537.749	37816.22
538.114	37939.84
538.479	38181.64
538.845	38321.75
539.21	38249.66
539.575	38587.73
539.94	38479.48
540.305	38833.37
540.67	38697.56
541.034	39160.37
541.399	39121.5
541.764	39365.56
542.129	39411.66
542.494	39532.34
542.858	39686.91
543.223	39727.13
543.587	39991.76
543.952	39999.67
544.316	40209.15
544.681	40081.25
545.045	40462.71
545.41	40681.68
545.774	40716.03
546.138	40736.15
546.503	40852.08
546.867	40833.09
547.231	41228.11
547.595	41352.4
547.959	41458.39
548.324	41552.17
548.688	41581.77
549.052	41903.8
549.416	41877.59
549.779	42043.68
550.143	42116.45
550.507	42317.12
550.871	42563.44
551.235	42520.96
551.599	42826.26
551.962	42875.75
552.326	42982.19
552.689	43172.69
553.053	43073.03
553.417	43317.1
553.78	43736.52
554.143	43675.28
554.507	43749.85
554.87	43790.08
555.234	44235.49
555.597	44062.61
555.96	44302.38
556.323	44480.68
556.686	44512.09
557.05	44860.56
557.413	44780.33
557.776	45071.4
558.139	45234.33
558.502	45178.74
558.865	45458.73
559.228	45613.31
559.59	45840.87
559.953	45755.22
560.316	46399.05
560.679	46220.07
561.041	46493.06
561.404	46647.86
561.767	46908.87
562.129	46758.81
562.492	47254.17
562.854	47193.6
563.217	47253.26
563.579	47522.86
563.941	47699.81
564.304	47696.19
564.666	48054.15
565.028	48112.68
565.39	48232.45
565.753	48400.8
566.115	48665.88
566.477	48711.3
566.839	48895.03
567.201	49149.71
567.563	49122.82
567.925	49412.08
568.287	49423.15
568.648	49410.72
569.01	49643.26
569.372	50019.74
569.734	49753.76
570.095	50050.7
570.457	50328.89
570.819	50415.44
571.18	50399.17
571.542	50698.14
571.903	50599.39
572.265	50687.52
572.626	50861.76
572.987	50996.44
573.349	51105.37
573.71	51280.95
574.071	51353.27
574.432	51457.45
574.794	51620.61
575.155	51629.19
575.516	51479.14
575.877	51657.89
576.238	51860.83
576.599	51871.22
576.96	52003.42
577.32	52008.62
577.681	52123.42
578.042	52236.63
578.403	52247.26
578.763	52332.23
579.124	52330.87
579.485	52547.81
579.845	52550.98
580.206	52591.2
580.566	52613.35
580.927	52619.9
581.287	52769.95
581.648	52661.48
582.008	52818.31
582.368	52809.95
582.728	52910.97
583.089	52802.95
583.449	52869.16
583.809	52982.83
584.169	52929.95
584.529	52877.52
584.889	53219.66
585.249	53110.96
585.609	53005.2
585.969	53164.29
586.329	53030.06
586.688	53178.76
587.048	53170.85
587.408	53066.22
587.768	53083.39
588.127	53176.95
588.487	53187.34
588.846	53375.14
589.206	53147.8
589.565	53136.05
589.925	53307.57
590.284	53291.07
590.643	53342.37
591.003	53450.39
591.362	53582.36
591.721	53437.73
592.08	53512.31
592.44	53550.95
592.799	53486.55
593.158	53486.32
593.517	53528.8
593.876	53660.78
594.235	53525.41
594.593	53526.77
594.952	53673.43
595.311	53572.87
595.67	53699.87
596.029	53862.81
596.387	53898.74
596.746	53879.53
597.104	53692.42
597.463	53872.3
597.822	53919.75
598.18	53742.81
598.538	53785.97
598.897	53964.73
599.255	53665.3
599.613	54223.25
599.972	53973.31
600.33	54060.32
600.688	53910.49
601.046	53964.05
601.404	54202.01
601.762	54176.47
602.12	54258.73
602.478	54181.44
602.836	54164.04
603.194	54119.3
603.552	54188.45
603.91	54141.9
604.268	54269.8
604.625	54154.32
604.983	54313.64
605.341	54218.96
605.698	54246.3
606.056	54420.53
606.413	54433.41
606.771	54400.65
607.128	54480.19
607.485	54414.66
607.843	54344.83
608.2	54564.94
608.557	54719.96
608.914	54494.65
609.272	54665.95
609.629	54767.64
609.986	54782.33
610.343	54642.9
610.7	54831.37
611.057	54826.4
611.414	54757.7
611.771	54890.35
612.127	54914.76
612.484	54863.46
612.841	54991.14
613.198	54812.39
613.554	54870.24
613.911	55060.06
614.267	55004.02
614.624	54967.86
614.98	55074.3
615.337	55183.9
615.693	55056.9
616.05	55104.81
616.406	55270.23
616.762	55125.6
617.118	55212.83
617.475	55178.48
617.831	55210.57
618.187	55230.68
618.543	55262.32
618.899	55399.49
619.255	55382.99
619.611	55282.43
619.967	55472.71
620.323	55420.96
620.678	55360.39
621.034	55393.61
621.39	55380.73
621.746	55390
622.101	55582.76
622.457	55451.24
622.812	55357.91
623.168	55516.77
623.523	55513.61
623.879	55597.45
624.234	55364.91
624.589	55455.76
624.945	55535.76
625.3	55484.23
625.655	55460.73
626.01	55529.2
626.365	55527.4
626.72	55511.35
627.075	55440.39
627.43	55480.84
627.785	55468.41
628.14	55492.37
628.495	55524.23
628.85	55467.96
629.205	55490.56
629.559	55532.37
629.914	55402.65
630.269	55396.1
630.623	55364.91
630.978	55368.53
631.332	55503.22
631.687	55514.06
632.041	55412.37
632.396	55425.93
632.75	55342.09
633.104	55372.15
633.459	55295.31
633.813	55273.84
634.167	55316.78
634.521	55217.57
634.875	55374.63
635.229	55303.9
635.583	55138.93
635.937	55188.65
636.291	55139.84
636.645	55218.48
636.999	55095.54
637.352	55233.39
637.706	55121.08
638.06	55156.56
638.413	55051.02
638.767	55068.2
639.121	55124.47
639.474	54895.77
639.828	55024.58
640.181	55080.63
640.534	55011.25
640.888	54979.39
641.241	54811.71
641.594	54941.87
641.947	54960.63
642.301	54965.38
642.654	54943.68
643.007	54896.45
643.36	54879.05
643.713	54898.71
644.066	54923.8
644.419	54795.44
644.771	54585.27
645.124	54324.49
645.477	54307.99
645.83	54126.53
646.182	54056.25
646.535	53922.24
646.888	54010.83
647.24	53821.23
647.593	54087.89
647.945	53949.36
648.298	53856.48
648.65	53820.55
649.002	53717.5
649.355	53878.17
649.707	53814.45
650.059	53956.14
650.411	54335.79
650.763	54392.74
651.115	54613.75
651.467	54511.38
651.819	54526.29
652.171	54463.24
652.523	54394.77
652.875	54405.84
653.227	54358.16
653.578	54488.55
653.93	54429.12
654.282	54391.61
654.633	54122.91
654.985	54337.6
655.337	54322.91
655.688	54369.69
656.039	54461.89
656.391	54177.37
656.742	54205.62
657.094	54186.64
657.445	54368.56
657.796	54291.5
658.147	54256.47
658.498	54214.44
658.849	54194.32
659.2	54182.8
659.551	54080.65
659.902	54172.63
660.253	54133.76
660.604	54191.39
660.955	53955.46
661.306	54244.27
661.656	54094.67
662.007	54095.34
662.358	54095.34
662.708	54006.98
663.059	54056.93
663.409	53864.39
663.76	54119.3
664.11	54047.43
664.461	54058.73
664.811	54045.17
665.161	53970.6
665.511	53905.07
665.862	54005.18
666.212	54067.77
666.562	54105.74
666.912	53950.26
667.262	53884.28
667.612	53930.38
667.962	53988.45
668.312	53887.44
668.662	53943.26
669.011	53834.79
669.361	53825.07
669.711	53831.17
670.06	53705.52
670.41	53719.76
670.76	53674.56
671.109	53825.97
671.459	53680.66
671.808	53675.92
672.157	53632.08
672.507	53520.89
672.856	53446.77
673.205	53596.83
673.554	53590.27
673.904	53576.03
674.253	53681.34
674.602	53540.1
674.951	53097.4
675.3	52970.4
675.649	53394.12
675.998	53435.93
676.346	53423.95
676.695	53470.27
677.044	53243.39
677.393	53350.05
677.741	53324.74
678.09	53256.95
678.438	53185.31
678.787	53145.99
679.135	53238.64
679.484	52946.9
679.832	53059.44
680.181	52859.9
680.529	52993.45
680.877	52906.22
681.225	52861.7
681.573	52943.74
681.922	52749.84
682.27	52604.76
682.618	52718.2
682.966	52639.11
683.314	52642.27
683.661	52512.56
684.009	52364.54
684.357	52350.53
684.705	52335.84
685.053	52240.7
685.4	52247.71
685.748	52032.12
686.095	52063.53
686.443	51949.18
686.79	51897.66
687.138	51895.85
687.485	51804.56
687.832	51593.26
688.18	51796.19
688.527	51515.07
688.874	51563.43
689.221	51488.41
689.568	51280.95
689.915	51241.41
690.262	51157.12
690.609	51052.26
690.956	51068.08
691.303	51025.14
691.65	50847.74
691.997	50800.29
692.344	50576.79
692.69	50567.75
693.037	50601.88
693.383	50250.02
693.73	50443.01
694.077	50257.03
694.423	50105.62
694.769	50132.96
695.116	49971.16
695.462	49954.66
695.808	49828.56
696.155	49891.39
696.501	49583.37
696.847	49573.88
697.193	49446.88
697.539	49418.63
697.885	49081.69
698.231	49076.27
698.577	49096.83
698.923	49131.86
699.269	48787.23
699.614	48632.21
699.96	48529.84
700.306	48636.28
700.651	48284.87
700.997	48427.7
701.342	48270.41
701.688	48197.19
702.033	48003.07
702.379	48062.96
702.724	48008.5
703.069	48136.18
703.415	47573.71
703.76	47626.13
704.105	47569.19
704.45	47440.38
704.795	47295.3
705.14	47188.63
705.485	47094.85
705.83	46974.17
706.175	47053.27
706.52	46904.57
706.865	46873.61
707.209	46688.08
707.554	46476.56
707.899	46581.87
708.243	46297.81
708.588	46267.75
708.932	46089.45
709.277	46017.36
709.621	46056.46
709.966	45818.05
710.31	45964.26
710.654	45458.51
710.998	45716.13
711.342	45791.38
711.687	45579.18
712.031	45263.48
712.375	45193.88
712.719	45354.78
713.063	45169.25
713.407	45388.45
713.75	45129.48
714.094	45099.42
714.438	44867.34
714.782	44926.77
715.125	44712.99
715.469	44689.26
715.812	44499.89
716.156	44334.7
716.499	44401.81
716.843	44367.01
717.186	44107.58
717.53	44268.03
717.873	44186.23
718.216	44179.67
718.559	44073.69
718.902	43852.67
719.246	43811.32
719.589	43724.32
719.932	43505.79
720.275	43525.45
720.617	43455.85
720.96	43396.19
721.303	43389.86
721.646	43415.17
721.989	43176.76
722.331	43337.43
722.674	43128.85
723.016	43166.36
723.359	43079.81
723.701	42999.59
724.044	42862.19
724.386	42665.14
724.729	42830.33
725.071	42641.63
725.413	42667.4
725.755	42711.91
726.097	42442.77
726.439	42280.96
726.782	42471.24
727.124	42562.09
727.465	42234.19
727.807	42221.53
728.149	42113.29
728.491	41974.76
728.833	42022.44
729.175	41948.77
729.516	41874.87
729.858	41840.75
730.199	41822.9
730.541	41668.55
730.882	41683.92
731.224	41668.1
731.565	41467.88
731.906	41602.79
732.248	41504.71
732.589	41452.96
732.93	41193.54
733.271	41201.67
733.612	41207.09
733.953	41330.03
734.294	41177.49
734.635	41005.52
734.976	41085.74
735.317	40872.41
735.658	40899.76
735.999	40912.86
736.339	40839.87
736.68	40902.92
737.021	40710.84
737.361	40558.98
737.702	40906.76
738.042	40578.18
738.383	40434.69
738.723	40471.07
739.063	40401.69
739.404	40376.16
739.744	40355.82
740.084	40074.02
740.424	40147.46
740.764	40003.74
741.104	40174.35
741.444	39966.9
741.784	39897.52
742.124	40024.75
742.464	39953.12
742.804	39705.21
743.143	39808.26
743.483	39833.8
743.823	39583.63
744.162	39631.54
744.502	39492.34
744.841	39442.85
745.181	39415.73
745.52	39356.97
745.86	39396.52
746.199	39152.46
746.538	39210.99
746.877	39357.43
747.216	39243.3
747.556	39144.32
747.895	39077.43
748.234	38951.33
748.573	38924.22
748.911	38805.12
749.25	38579.82
749.589	38582.98
749.928	38605.81
750.267	38781.17
750.605	38532.36
750.944	38520.61
751.283	38471.8
751.621	38456.43
751.96	38255.53
752.298	38276.32
752.636	38210.34
