Data from White_paper_FLMS001491_095.txt Node
Date: Tue Feb 07 10:35:49 GMT 2017
User: dcchb
Spectrometer: FLMS00149
Trigger mode: 0
Integration Time (sec): 2.000000E-2
Scans to average: 10
Electric dark correction enabled: true
Nonlinearity correction enabled: false
Boxcar width: 0
XAxis mode: Wavelengths
Number of Pixels in Spectrum: 2048
>>>>>Begin Spectral Data<<<<<
341.393	-12.64
341.776	-12.64
342.16	-12.64
342.543	-48.57
342.927	-63.49
343.31	-58.52
343.693	-65.52
344.077	-65.75
344.46	-63.04
344.843	-40.66
345.226	-54.45
345.61	-32.98
345.993	-30.27
346.376	11.31
346.759	10.41
347.142	25.78
347.525	34.82
347.908	61.48
348.291	75.72
348.674	96.51
349.057	95.15
349.44	108.49
349.823	127.69
350.206	171.76
350.588	224.87
350.971	220.35
351.354	261.7
351.737	267.35
352.119	273.68
352.502	282.94
352.884	303.28
353.267	308.25
353.65	307.35
354.032	323.4
354.414	339.89
354.797	324.3
355.179	336.28
355.562	362.94
355.944	349.38
356.326	360.68
356.709	364.52
357.091	343.73
357.473	388.03
357.855	346.45
358.238	367.46
358.62	367.69
359.002	367.24
359.384	359.33
359.766	367.91
360.148	381.92
360.53	367.91
360.912	376.05
361.294	354.13
361.676	377.18
362.057	384.18
362.439	353.23
362.821	362.49
363.203	373.56
363.584	364.07
363.966	352.55
364.348	355.49
364.729	338.99
365.111	345.54
365.493	354.58
365.874	336.95
366.256	377.41
366.637	366.33
367.019	363.85
367.4	352.1
367.781	362.04
368.163	358.65
368.544	360.91
368.925	338.54
369.306	364.3
369.688	360.46
370.069	369.5
370.45	369.72
370.831	365.65
371.212	355.94
371.593	367.69
371.974	355.71
372.355	350.29
372.736	371.08
373.117	375.82
373.498	372.66
373.879	364.3
374.26	375.37
374.641	364.98
375.021	368.82
375.402	374.92
375.783	384.18
376.163	397.07
376.544	393
376.925	392.09
377.305	382.38
377.686	382.6
378.066	389.16
378.447	392.09
378.827	406.33
379.208	411.08
379.588	400.46
379.968	414.24
380.349	408.14
380.729	384.86
381.109	373.11
381.489	408.82
381.87	405.2
382.25	392.32
382.63	429.83
383.01	420.34
383.39	389.61
383.77	418.99
384.15	435.48
384.53	451.75
384.91	420.34
385.29	446.78
385.67	433.22
386.049	456.95
386.429	444.52
386.809	455.37
387.189	436.84
387.568	441.36
387.948	464.86
388.328	446.33
388.707	448.59
389.087	479.32
389.466	482.26
389.846	460.79
390.225	473.22
390.605	486.1
390.984	497.4
391.363	487.46
391.743	482.26
392.122	495.37
392.501	529.04
392.881	505.99
393.26	505.31
393.639	508.48
394.018	535.14
394.397	535.59
394.776	528.36
395.155	552.32
395.534	536.72
395.913	555.03
396.292	553.67
396.671	565.42
397.05	569.94
397.429	575.37
397.808	593.22
398.186	610.17
398.565	572.43
398.944	588.25
399.323	610.17
399.701	618.08
400.08	604.07
400.458	623.05
400.837	647.68
401.215	640.22
401.594	635.93
401.972	648.81
402.351	653.33
402.729	655.82
403.107	700.11
403.486	691.52
403.864	703.95
404.242	731.75
404.62	724.51
404.999	722.48
405.377	759.32
405.755	747.11
406.133	738.75
406.511	787.34
406.889	767.23
407.267	815.81
407.645	843.38
408.023	870.5
408.401	888.13
408.779	921.8
409.156	915.47
409.534	917.96
409.912	927.67
410.29	960.21
410.667	1004.73
411.045	1008.35
411.422	1026.65
411.8	1077.27
412.178	1092.64
412.555	1126.31
412.933	1125.86
413.31	1155.69
413.687	1188.68
414.065	1254.22
414.442	1251.96
414.819	1273.65
415.197	1301.9
415.574	1336.25
415.951	1359.07
416.328	1361.11
416.705	1393.88
417.082	1422.12
417.46	1473.2
417.837	1497.38
418.214	1505.96
418.591	1517.71
418.967	1554.78
419.344	1595.68
419.721	1599.07
420.098	1632.29
420.475	1663.02
420.852	1682.46
421.228	1690.14
421.605	1713.64
421.982	1743.7
422.358	1767.65
422.735	1796.13
423.111	1821.44
423.488	1883.13
423.864	1869.12
424.241	1870.25
424.617	1914.54
424.994	1973.52
425.37	1959.96
425.746	2006.74
426.123	1991.83
426.499	2037.25
426.875	2077.47
427.251	2084.03
427.627	2154.76
428.003	2192.05
428.379	2204.02
428.756	2246.28
429.132	2260.97
429.507	2319.05
429.883	2331.7
430.259	2387.52
430.635	2400.18
431.011	2429.55
431.387	2488.99
431.763	2541.19
432.138	2580.06
432.514	2558.14
432.89	2605.82
433.265	2666.16
433.641	2701.19
434.016	2763.78
434.392	2792.94
434.767	2848.3
435.143	2841.3
435.518	2888.98
435.894	2882.65
436.269	2944.8
436.644	3034.28
437.02	3035.19
437.395	3039.71
437.77	3115.19
438.145	3146.6
438.52	3171.46
438.895	3235.41
439.271	3208.29
439.646	3289.65
440.021	3299.36
440.395	3355.41
440.77	3299.81
441.145	3392.92
441.52	3397.66
441.895	3383.65
442.27	3460.94
442.645	3456.42
443.019	3529.64
443.394	3471.34
443.769	3547.27
444.143	3551.56
444.518	3608.05
444.892	3545.91
445.267	3639.92
445.641	3655.06
446.016	3650.54
446.39	3699.58
446.764	3704.55
447.139	3713.81
447.513	3808.5
447.887	3801.27
448.262	3821.61
448.636	3849.63
449.01	3902.51
449.384	3914.04
449.758	3902.06
450.132	3994.26
450.506	4000.13
450.88	3986.8
451.254	4074.03
451.628	4108.83
452.002	4150.87
452.376	4128.49
452.75	4205.33
453.123	4255.27
453.497	4320.13
453.871	4338.88
454.244	4450.29
454.618	4447.81
454.992	4538.88
455.365	4504.3
455.739	4625.43
456.112	4648.48
456.486	4687.12
456.859	4753.79
457.232	4830.62
457.606	4824.97
457.979	4862.71
458.352	5055.25
458.725	5083.95
459.099	5051.41
459.472	5159.88
459.845	5247.56
460.218	5281.23
460.591	5318.52
460.964	5360.1
461.337	5480.55
461.71	5595.8
462.083	5657.04
462.456	5611.39
462.829	5678.73
463.201	5762.8
463.574	5776.36
463.947	5893.64
464.32	6052.96
464.692	6024.94
465.065	6069.91
465.438	6183.81
465.81	6313.52
466.183	6359.17
466.555	6506.06
466.928	6535.89
467.3	6574.98
467.672	6681.65
468.045	6809.33
468.417	6847.97
468.789	6856.33
469.161	6970.68
469.534	7073.27
469.906	7269.2
470.278	7349.88
470.65	7371.35
471.022	7491.57
471.394	7668.06
471.766	7701.96
472.138	7803.88
472.51	8030.99
472.882	8126.81
473.253	8200.48
473.625	8390.53
473.997	8508.94
474.369	8572.9
474.74	8651.09
475.112	8832.32
475.484	8991.19
475.855	9158.87
476.227	9204.74
476.598	9458.3
476.97	9470.73
477.341	9714.11
477.713	9829.13
478.084	9906.42
478.455	10185.96
478.827	10277.03
479.198	10544.37
479.569	10603.13
479.94	10949.1
480.311	10936.22
480.682	11296.44
481.053	11485.36
481.424	11670.44
481.795	11768.97
482.166	11924.45
482.537	12064.33
482.908	12343.42
483.279	12412.57
483.65	12704.09
484.021	12931.88
484.391	13087.58
484.762	13193.57
485.133	13342.04
485.503	13490.28
485.874	13782.93
486.244	13856.37
486.615	14143.37
486.985	14355.79
487.356	14505.17
487.726	14661.78
488.097	14968.66
488.467	15021.09
488.837	15315.77
489.207	15567.29
489.578	15726.38
489.948	15875.08
490.318	16063.09
490.688	16226.71
491.058	16406.36
491.428	16692.91
491.798	16776.3
492.168	17167.02
492.538	17113.91
492.908	17316.62
493.278	17546.9
493.648	17565.65
494.017	17800.22
494.387	18007.22
494.757	18159.99
495.126	18316.14
495.496	18396.59
495.866	18491.73
496.235	18704.61
496.605	18823.7
496.974	18984.83
497.344	19092.17
497.713	19269.34
498.082	19397.7
498.452	19596.79
498.821	19674.07
499.19	19692.83
499.559	19877.23
499.928	20172.59
500.298	20225.02
500.667	20318.35
501.036	20412.36
501.405	20545.24
501.774	20647.38
502.143	20833.36
502.512	20967.82
502.88	21207.59
503.249	21140.48
503.618	21425.21
503.987	21501.37
504.356	21511.99
504.724	21646.9
505.093	21773.45
505.462	21876.28
505.83	22138.19
506.199	22281.24
506.567	22535.24
506.936	22487.78
507.304	22891.16
507.672	22899.53
508.041	22879.86
508.409	23201.44
508.777	23338.61
509.145	23492.96
509.514	23516.91
509.882	23700.63
510.25	23779.5
510.618	23991.7
510.986	24059.27
511.354	24357.57
511.722	24588.75
512.09	24682.75
512.458	24612.7
512.826	24956.42
513.193	25117.55
513.561	25188.96
513.929	25400.93
514.297	25602.73
514.664	25863.29
515.032	25815.61
515.4	26026.67
515.767	26125.88
516.135	26430.28
516.502	26215.6
516.869	26634.57
517.237	26762.93
517.604	26722.02
517.972	27067.33
518.339	27222.35
518.706	27362.68
519.073	27519.06
519.44	27602
519.808	27982.56
520.175	27985.94
520.542	28368.76
520.909	28347.97
521.276	28410.57
521.643	28836.32
522.009	28986.14
522.376	29175.07
522.743	29356.53
523.11	29615.73
523.477	29910.64
523.843	30116.28
524.21	30429.04
524.577	30576.39
524.943	30675.59
525.31	30826.32
525.676	31174.56
526.043	31178.63
526.409	31349.92
526.776	31723.25
527.142	31791.95
527.508	31969.34
527.874	32267.87
528.241	32419.5
528.607	32505.6
528.973	32876.66
529.339	32879.83
529.705	33273.04
530.071	33497.89
530.437	33632.8
530.803	33860.37
531.169	34089.97
531.535	33983.08
531.901	34286.12
532.267	34387.13
532.632	34592.1
532.998	34567.01
533.364	34890.4
533.73	34847.69
534.095	35235.25
534.461	35368.35
534.826	35431.85
535.192	35576.48
535.557	36049.91
535.923	35845.85
536.288	36185.96
536.653	36246.52
537.019	36128.78
537.384	36439.51
537.749	36688.31
538.114	36672.27
538.479	36639.95
538.845	36910
539.21	36989.32
539.575	37127.17
539.94	37133.05
540.305	37505.69
540.67	37454.17
541.034	37594.73
541.399	37892.13
541.764	37847.38
542.129	38032.23
542.494	38203.53
542.858	38393.81
543.223	38323.53
543.587	38733.91
543.952	38629.51
544.316	38740.46
544.681	38769.62
545.045	39045.77
545.41	39228.81
545.774	39300.45
546.138	39348.81
546.503	39493.44
546.867	39468.58
547.231	39913.77
547.595	39897.27
547.959	40163.7
548.324	40221.1
548.688	40335.9
549.052	40349.91
549.416	40470.36
549.779	40620.41
550.143	40694.54
550.507	40996.45
550.871	41055.21
551.235	41038.71
551.599	41360.06
551.962	41371.81
552.326	41660.61
552.689	41782.87
553.053	41840.72
553.417	41812.93
553.78	42328.17
554.143	42176.76
554.507	42342.18
554.87	42489.74
555.234	42887.02
555.597	42548.27
555.96	42921.37
556.323	43030.75
556.686	43143.06
557.05	43396.39
557.413	43604.97
557.776	43654.23
558.139	43755.93
558.502	43989.37
558.865	44108.68
559.228	44307.78
559.59	44517.49
559.953	44540.99
560.316	44931.26
560.679	44827.54
561.041	45070.24
561.404	45122.44
561.767	45491.02
562.129	45397.01
562.492	45831.58
562.854	45777.12
563.217	45845.36
563.579	46029.09
563.941	46195.86
564.304	46453.93
564.666	46639.69
565.028	46848.5
565.39	46897.09
565.753	47155.38
566.115	47184.99
566.477	47362.61
566.839	47457.98
567.201	47856.38
567.563	47762.6
567.925	48184.74
568.287	48141.35
568.648	48234.68
569.01	48435.35
569.372	48747.21
569.734	48516.7
570.095	48859.29
570.457	48998.95
570.819	49133.19
571.18	49081.21
571.542	49360.07
571.903	49349.9
572.265	49508.09
572.626	49613.62
572.987	49624.02
573.349	49896.33
573.71	49968.42
574.071	50111.01
574.432	50140.62
574.794	50372.7
575.155	50379.48
575.516	50226.94
575.877	50470.1
576.238	50649.3
576.599	50812.92
576.96	50690.88
577.32	50731.11
577.681	51068.95
578.042	51155.28
578.403	51033.7
578.763	51176.97
579.124	51310.76
579.485	51343.75
579.845	51500.81
580.206	51433.01
580.566	51400.7
580.927	51524.76
581.287	51694.02
581.648	51520.47
582.008	51740.35
582.368	51548.26
582.728	51793.68
583.089	51646.57
583.449	51679.11
583.809	51720.91
584.169	51836.84
584.529	51799.1
584.889	52157.06
585.249	51897.41
585.609	51795.94
585.969	52008.82
586.329	51946.9
586.688	52145.08
587.048	51979.66
587.408	51962.04
587.768	52050.4
588.127	52079.32
588.487	52031.64
588.846	52253.1
589.206	52055.82
589.565	52097.18
589.925	52208.81
590.284	52107.34
590.643	52155.7
591.003	52308.92
591.362	52407.45
591.721	52302.82
592.08	52279.32
592.44	52415.59
592.799	52361.12
593.158	52409.94
593.517	52462.82
593.876	52472.31
594.235	52455.81
594.593	52439.99
594.952	52555.24
595.311	52523.15
595.67	52503.72
596.029	52697.61
596.387	52636.37
596.746	52750.94
597.104	52633.21
597.463	52642.25
597.822	52813.54
598.18	52667.1
598.538	52664.17
598.897	52851.28
599.255	52580.33
599.613	52977.83
599.972	52860.77
600.33	52932.41
600.688	52856.03
601.046	52951.39
601.404	53071.84
601.762	52875.01
602.12	53143.7
602.478	53097.15
602.836	53170.37
603.194	52930.15
603.552	53015.57
603.91	52926.98
604.268	53131.95
604.625	53108.22
604.983	53251.72
605.341	53098.73
605.698	53237.71
606.056	53332.4
606.413	53228.67
606.771	53418.04
607.128	53412.4
607.485	53237.48
607.843	53322.91
608.2	53445.84
608.557	53592.96
608.914	53498.04
609.272	53584.37
609.629	53621.66
609.986	53714.08
610.343	53573.75
610.7	53729.45
611.057	53746.62
611.414	53735.78
611.771	53770.13
612.127	53913.85
612.484	53766.74
612.841	53865.94
613.198	53743.91
613.554	53904.36
613.911	54068.42
614.267	54016.9
614.624	53946.62
614.98	53983.68
615.337	54068.87
615.693	54071.59
616.05	54048.31
616.406	54167.86
616.762	54080.17
617.118	54070.23
617.475	54119.04
617.831	54185.71
618.187	54164.24
618.543	54162.88
618.899	54419.37
619.255	54293.5
619.611	54268.87
619.967	54418.02
620.323	54427.28
620.678	54270.23
621.034	54258.47
621.39	54271.81
621.746	54253.95
622.101	54674.73
622.457	54266.38
622.812	54347.74
623.168	54394.06
623.523	54399.71
623.879	54575.3
624.234	54324.46
624.589	54352.03
624.945	54430.9
625.3	54433.84
625.655	54347.74
626.01	54429.32
626.365	54463.67
626.72	54385.48
627.075	54371.01
627.43	54410.56
627.785	54300.96
628.14	54460.96
628.495	54462.76
628.85	54458.7
629.205	54373.73
629.559	54549.99
629.914	54420.73
630.269	54432.93
630.623	54383.89
630.978	54281.52
631.332	54447.85
631.687	54486.49
632.041	54405.82
632.396	54420.5
632.75	54276.78
633.104	54296.44
633.459	54259.15
633.813	54288.08
634.167	54246.72
634.521	54251.92
634.875	54243.56
635.229	54158.82
635.583	54055.99
635.937	54045.15
636.291	54135.31
636.645	54094.86
636.999	54039.27
637.352	54268.87
637.706	54018.93
638.06	54071.36
638.413	54006.96
638.767	53868.88
639.121	54061.42
639.474	53773.97
639.828	53919.5
640.181	53946.84
640.534	53907.75
640.888	53838.15
641.241	53758.6
641.594	53894.64
641.947	53858.94
642.301	53811.03
642.654	53853.74
643.007	53755.66
643.36	53810.8
643.713	53718.38
644.066	53752.73
644.419	53574.65
644.771	53494.65
645.124	53160.88
645.477	53164.72
645.83	52897.61
646.182	52825.97
646.535	52751.17
646.888	52812.18
647.24	52631.62
647.593	52819.87
647.945	52786.65
648.298	52589.82
648.65	52633.21
649.002	52562.02
649.355	52663.94
649.707	52627.78
650.059	52752.98
650.411	53149.13
650.763	53239.52
651.115	53530.58
651.467	53333.08
651.819	53281.1
652.171	53253.08
652.523	53275.45
652.875	53220.54
653.227	53213.53
653.578	53362.23
653.93	53235.22
654.282	53110.03
654.633	53022.8
654.985	53103.25
655.337	53113.65
655.688	53228.67
656.039	53319.97
656.391	53053.08
656.742	53011.5
657.094	53000.2
657.445	53167.43
657.796	53012.63
658.147	52976.02
658.498	52994.1
658.849	53037.94
659.2	52922.92
659.551	52972.18
659.902	53065.29
660.253	53013.08
660.604	52927.44
660.955	52761.34
661.306	52917.94
661.656	52871.62
662.007	52866.87
662.358	52881.79
662.708	52883.14
663.059	52777.84
663.409	52681.79
663.76	52824.16
664.11	52799.53
664.461	52891.5
664.811	52847.66
665.161	52827.1
665.511	52655.13
665.862	52730.15
666.212	52844.95
666.562	52708.23
666.912	52692.19
667.262	52703.49
667.612	52689.93
667.962	52644.73
668.312	52569.48
668.662	52815.12
669.011	52721.57
669.361	52609.03
669.711	52548.01
670.06	52497.16
670.41	52407
670.76	52461.01
671.109	52524.06
671.459	52405.19
671.808	52440.22
672.157	52467.79
672.507	52348.02
672.856	52292.42
673.205	52297.4
673.554	52377.85
673.904	52308.47
674.253	52339.65
674.602	52321.8
674.951	51790.74
675.3	51525.66
675.649	52145.08
675.998	52090.17
676.346	52210.17
676.695	52244.52
677.044	51923.39
677.393	52042.49
677.741	52040.91
678.09	51924.98
678.438	51812.66
678.787	51920.68
679.135	51853.11
679.484	51633.01
679.832	51743.06
680.181	51595.27
680.529	51644.31
680.877	51534.03
681.225	51435.05
681.573	51630.52
681.922	51367.48
682.27	51271.43
682.618	51350.3
682.966	51162.06
683.314	51189.18
683.661	51186.69
684.009	50984.21
684.357	50925.23
684.705	50843.42
685.053	50869.19
685.4	50849.07
685.748	50618.57
686.095	50665.12
686.443	50561.4
686.79	50438.01
687.138	50495.64
687.485	50480.95
687.832	50342.42
688.18	50369.31
688.527	50139.94
688.874	50115.08
689.221	49999.38
689.568	49912.6
689.915	49767.75
690.262	49749.21
690.609	49715.54
690.956	49524.59
691.303	49516.45
691.65	49384.25
691.997	49223.13
692.344	49071.04
692.69	49054.77
693.037	48976.13
693.383	48790.82
693.73	48971.16
694.077	48780.43
694.423	48718.51
694.769	48576.36
695.116	48513.99
695.462	48549.92
695.808	48169.37
696.155	48286.43
696.501	47956.27
696.847	47989.49
697.193	47746.56
697.539	47877.4
697.885	47595.82
698.231	47550.4
698.577	47524.64
698.923	47474.92
699.269	47201.03
699.614	47044.2
699.96	47012.34
700.306	46899.57
700.651	46780.03
700.997	46741.38
701.342	46679.01
701.688	46583.2
702.033	46515.85
702.379	46474.5
702.724	46361.51
703.069	46422.3
703.415	46029.31
703.76	45954.74
704.105	46075.86
704.45	45952.25
704.795	45670
705.14	45511.36
705.485	45606.05
705.83	45326.28
706.175	45400.63
706.52	45229.79
706.865	45063.24
707.209	45125.16
707.554	44879.51
707.899	44941.21
708.243	44583.47
708.588	44722.23
708.932	44434.55
709.277	44420.32
709.621	44493.76
709.966	44246.76
710.31	44377.38
710.654	43963.15
710.998	44042.7
711.342	44113.2
711.687	43902.36
712.031	43638.41
712.375	43498.53
712.719	43751.63
713.063	43538.3
713.407	43749.15
713.75	43489.49
714.094	43539.89
714.438	43278.88
714.782	43212.21
715.125	42999.11
715.469	43238.65
715.812	42960.47
716.156	42784.88
716.499	42703.52
716.843	42697.2
717.186	42509.86
717.53	42759.34
717.873	42783.97
718.216	42510.53
718.559	42399.13
718.902	42169.98
719.246	42272.57
719.589	42180.83
719.932	41893.15
720.275	41976.09
720.617	41878.46
720.96	41715.75
721.303	41785.58
721.646	41723.89
721.989	41634.85
722.331	41732.93
722.674	41629.88
723.016	41723.66
723.359	41407.74
723.701	41532.48
724.044	41202.09
724.386	41089.33
724.729	41251.13
725.071	41051.36
725.413	41129.33
725.755	41086.17
726.097	40849.56
726.439	40601.66
726.782	40678.94
727.124	40988.31
727.465	40793.74
727.807	40639.4
728.149	40607.76
728.491	40401.44
728.833	40433.08
729.175	40369.57
729.516	40218.62
729.858	40102.24
730.199	40238.96
730.541	40180.88
730.882	40145.63
731.224	40243.25
731.565	39913.99
731.906	40008.23
732.248	39967.55
732.589	39769.14
732.93	39706.31
733.271	39688.01
733.612	39742.92
733.953	39871.28
734.294	39510.39
734.635	39452.99
734.976	39534.34
735.317	39366.44
735.658	39292.54
735.999	39250.06
736.339	39111.53
736.68	39297.51
737.021	39230.85
737.361	38902.95
737.702	39034.02
738.042	39009.38
738.383	38826.11
738.723	38987.69
739.063	38810.07
739.404	39023.62
739.744	38721.26
740.084	38674.93
740.424	38561.71
740.764	38601.26
741.104	38592.45
741.444	38318.1
741.784	38410.76
742.124	38452.11
742.464	38315.62
742.804	38205.34
743.143	38174.38
743.483	38133.25
743.823	38027.04
744.162	38050.09
744.502	38090.99
744.841	37785.91
745.181	38131.89
745.52	37873.82
745.86	37779.36
746.199	37793.6
746.538	37804.67
746.877	37823.2
747.216	37696.88
747.556	37621.17
747.895	37588.18
748.234	37466.83
748.573	37309.99
748.911	37310.22
749.25	37308.19
749.589	37049.66
749.928	37148.64
750.267	37135.08
750.605	37123.78
750.944	36927.18
751.283	36900.06
751.621	36891.7
751.96	36607.64
752.298	36546.17
752.636	36771.02
