Data from White_paper_FLMS001491_094.txt Node
Date: Tue Feb 07 10:35:49 GMT 2017
User: dcchb
Spectrometer: FLMS00149
Trigger mode: 0
Integration Time (sec): 2.000000E-2
Scans to average: 10
Electric dark correction enabled: true
Nonlinearity correction enabled: false
Boxcar width: 0
XAxis mode: Wavelengths
Number of Pixels in Spectrum: 2048
>>>>>Begin Spectral Data<<<<<
341.393	-38.18
341.776	-38.18
342.16	-38.18
342.543	-62.36
342.927	-48.12
343.31	-84.96
343.693	-75.01
344.077	-75.46
344.46	-27.56
344.843	-63.71
345.226	-55.13
345.61	-24.17
345.993	-9.03
346.376	-4.96
346.759	-10.16
347.142	26.68
347.525	47.92
347.908	71.2
348.291	73.91
348.674	85.44
349.057	124.98
349.44	135.15
349.823	148.48
350.206	167.69
350.588	219.9
350.971	227.13
351.354	245.43
351.737	256.5
352.119	257.18
352.502	289.05
352.884	287.92
353.267	301.93
353.65	311.87
354.032	335.15
354.414	344.86
354.797	326.79
355.179	327.24
355.562	347.58
355.944	351.19
356.326	331.76
356.709	378.54
357.091	391.87
357.473	363.85
357.855	364.98
358.238	350.51
358.62	381.7
359.002	374.02
359.384	361.59
359.766	372.89
360.148	353
360.53	344.64
360.912	381.7
361.294	374.02
361.676	366.56
362.057	371.3
362.439	363.62
362.821	362.49
363.203	362.94
363.584	361.81
363.966	356.16
364.348	365.2
364.729	361.59
365.111	374.02
365.493	344.41
365.874	342.6
366.256	345.32
366.637	355.94
367.019	347.8
367.4	355.71
367.781	340.57
368.163	357.29
368.544	375.82
368.925	376.28
369.306	368.14
369.688	336.95
370.069	363.17
370.45	344.41
370.831	361.13
371.212	362.94
371.593	341.02
371.974	352.55
372.355	380.12
372.736	355.26
373.117	362.72
373.498	387.12
373.879	363.85
374.26	365.65
374.641	358.65
375.021	370.4
375.402	368.14
375.783	381.47
376.163	370.63
376.544	383.73
376.925	395.71
377.305	380.57
377.686	373.79
378.066	390.96
378.447	377.86
378.827	411.53
379.208	384.86
379.588	410.62
379.968	400.23
380.349	400.91
380.729	407.24
381.109	412.43
381.489	389.38
381.87	410.17
382.25	414.47
382.63	418.76
383.01	434.35
383.39	419.21
383.77	418.76
384.15	423.73
384.53	424.18
384.91	428.25
385.29	437.29
385.67	445.65
386.049	457.4
386.429	450.4
386.809	429.83
387.189	445.43
387.568	431.87
387.948	477.97
388.328	418.08
388.707	466.22
389.087	458.08
389.466	485.88
389.846	469.83
390.225	496.95
390.605	504.18
390.984	502.15
391.363	485.65
391.743	513.22
392.122	508.02
392.501	501.02
392.881	512.54
393.26	511.64
393.639	520.23
394.018	502.37
394.397	529.04
394.776	529.27
395.155	534.24
395.534	552.54
395.913	533.79
396.292	539.43
396.671	550.28
397.05	578.98
397.429	583.95
397.808	587.12
398.186	576.27
398.565	602.48
398.944	586.89
399.323	603.61
399.701	603.84
400.08	607.46
400.458	615.59
400.837	621.47
401.215	613.11
401.594	637.29
401.972	668.25
402.351	661.47
402.729	659.21
403.107	673.44
403.486	676.83
403.864	697.85
404.242	696.49
404.62	730.16
404.999	735.36
405.377	741.69
405.755	741.46
406.133	769.03
406.511	802.7
406.889	812.2
407.267	820.11
407.645	843.16
408.023	877.73
408.401	890.61
408.779	908.69
409.156	906.2
409.534	941.23
409.912	955.02
410.29	961.57
410.667	965.86
411.045	1003.15
411.422	1036.6
411.8	1047.67
412.178	1087.22
412.555	1136.26
412.933	1143.03
413.31	1181.9
413.687	1225.74
414.065	1209.93
414.442	1241.34
414.819	1279.98
415.197	1306.42
415.574	1334.67
415.951	1379.64
416.328	1382.58
416.705	1399.75
417.082	1435.46
417.46	1482.01
417.837	1494.21
418.214	1524.72
418.591	1526.53
418.967	1567.2
419.344	1610.14
419.721	1624.83
420.098	1613.53
420.475	1642
420.852	1659.41
421.228	1722
421.605	1746.18
421.982	1739.63
422.358	1786.18
422.735	1765.17
423.111	1830.93
423.488	1871.38
423.864	1885.39
424.241	1904.82
424.617	1919.74
424.994	1952.51
425.37	1936.46
425.746	1961.54
426.123	2031.6
426.499	2003.8
426.875	2065.72
427.251	2116.34
427.627	2157.7
428.003	2146.17
428.379	2204.48
428.756	2239.28
429.132	2297.13
429.507	2282.44
429.883	2317.02
430.259	2376.22
430.635	2396.34
431.011	2438.37
431.387	2476.79
431.763	2523.56
432.138	2496.67
432.514	2614.86
432.89	2607.86
433.265	2684.01
433.641	2641.3
434.016	2717.91
434.392	2761.07
434.767	2834.29
435.143	2820.5
435.518	2880.16
435.894	2876.1
436.269	2965.81
436.644	3009.2
437.02	3018.01
437.395	3095.53
437.77	3070.44
438.145	3172.81
438.52	3188.18
438.895	3187.73
439.271	3198.8
439.646	3317.22
440.021	3286.93
440.395	3288.52
440.77	3302.3
441.145	3363.32
441.52	3411.68
441.895	3403.09
442.27	3463.65
442.645	3465.91
443.019	3508.17
443.394	3508.62
443.769	3559.47
444.143	3512.46
444.518	3616.87
444.892	3604.67
445.267	3629.3
445.641	3669.97
446.016	3668.39
446.39	3737.99
446.764	3743.64
447.139	3732.12
447.513	3777.77
447.887	3771.44
448.262	3774.15
448.636	3811.21
449.01	3862.51
449.384	3910.42
449.758	3926.01
450.132	3954.26
450.506	3961.49
450.88	4001.26
451.254	4057.08
451.628	4090.98
452.002	4116.97
452.376	4144.31
452.75	4207.59
453.123	4228.6
453.497	4283.07
453.871	4327.81
454.244	4422.95
454.618	4435.83
454.992	4488.94
455.365	4494.81
455.739	4593.34
456.112	4674.02
456.486	4704.07
456.859	4740.68
457.232	4852.99
457.606	4871.98
457.979	4902.94
458.352	5052.99
458.725	5078.3
459.099	5059.09
459.472	5197.39
459.845	5235.36
460.218	5291.17
460.591	5357.16
460.964	5358.97
461.337	5479.19
461.71	5547.89
462.083	5655.01
462.456	5679.86
462.829	5671.28
463.201	5775.91
463.574	5813.65
463.947	5908.79
464.32	5960.31
464.692	6058.61
465.065	6117.82
465.438	6193.75
465.81	6326.4
466.183	6344.25
466.555	6477.81
466.928	6532.05
467.3	6546.06
467.672	6614.3
468.045	6813.62
468.417	6807.29
468.789	6879.16
469.161	7009.32
469.534	7131.13
469.906	7292.03
470.278	7295.64
470.65	7412.25
471.022	7554.17
471.394	7652.92
471.766	7814.05
472.138	7780.37
472.51	8086.13
472.882	8111.89
473.253	8255.39
473.625	8356.18
473.997	8482.73
474.369	8484.76
474.74	8715.94
475.112	8863.51
475.484	8916.62
475.855	9084.07
476.227	9194.35
476.598	9511.18
476.97	9600.21
477.341	9697.84
477.713	9877.04
478.084	9935.35
478.455	10309.12
478.827	10279.97
479.198	10564.26
479.569	10558.15
479.94	10909.56
480.311	10948.65
480.682	11238.36
481.053	11560.39
481.424	11670.22
481.795	11740.5
482.166	11957.89
482.537	12103.88
482.908	12348.62
483.279	12465.45
483.65	12639.91
484.021	12963.97
484.391	13035.15
484.762	13145.21
485.133	13391.75
485.503	13527.79
485.874	13741.8
486.244	13923.49
486.615	14197.83
486.985	14323.03
487.356	14541.78
487.726	14684.83
488.097	14955.55
488.467	15093.63
488.837	15357.8
489.207	15622.2
489.578	15733.16
489.948	15922.31
490.318	16053.15
490.688	16178.8
491.058	16384.89
491.428	16612.91
491.798	16837.09
492.168	17112.56
492.538	17170.86
492.908	17355.94
493.278	17513.9
493.648	17581.02
494.017	17764.97
494.387	17979.88
494.757	18166.54
495.126	18262.58
495.496	18307.78
495.866	18549.36
496.235	18745.96
496.605	18821.21
496.974	18955.45
497.344	19105.95
497.713	19304.82
498.082	19310.69
498.452	19697.8
498.821	19627.07
499.19	19736.22
499.559	19954.52
499.928	20070.22
500.298	20212.82
500.667	20380.27
501.036	20407.16
501.405	20629.08
501.774	20677.21
502.143	20883.08
502.512	20971.21
502.88	21105.67
503.249	21203.07
503.618	21194.26
503.987	21462.05
504.356	21623.63
504.724	21594.93
505.093	21809.38
505.462	21911.98
505.83	21985.88
506.199	22236.72
506.567	22501.34
506.936	22628.57
507.304	22753.09
507.672	22878.96
508.041	22993.53
508.409	23147.65
508.777	23341.77
509.145	23422.9
509.514	23546.97
509.882	23659.05
510.25	23784.25
510.618	23761.65
510.986	24004.35
511.354	24282.31
511.722	24425.36
512.09	24684.34
512.458	24721.85
512.826	24856.54
513.193	25131.78
513.561	25216.07
513.929	25416.75
514.297	25531.32
514.664	25744.87
515.032	25902.61
515.4	25969.73
515.767	26224.64
516.135	26307.35
516.502	26195.94
516.869	26767.22
517.237	26827.33
517.604	26724.96
517.972	27121.11
518.339	27277.26
518.706	27242.24
519.073	27443.81
519.44	27494.43
519.808	27908.66
520.175	27910.47
520.542	28416.67
520.909	28373.96
521.276	28430.45
521.643	28851.91
522.009	28957.22
522.376	29147.27
522.743	29286.48
523.11	29554.49
523.477	29817.08
523.843	30074.48
524.21	30383.17
524.577	30577.52
524.943	30655.25
525.31	30916.49
525.676	31128.46
526.043	31279.64
526.409	31420.43
526.776	31788.33
527.142	31982.45
527.508	31909.46
527.874	32312.61
528.241	32393.51
528.607	32619.95
528.973	32920.05
529.339	32872.6
529.705	33190.1
530.071	33546.48
530.437	33600.03
530.803	33791.89
531.169	33947.82
531.535	33921.83
531.901	34108.27
532.267	34522.27
532.632	34504.64
532.998	34699.21
533.364	34841.13
533.73	35125.87
534.095	35345.3
534.461	35261.46
534.826	35689.47
535.192	35620.77
535.557	35882.01
535.923	35907.32
536.288	36095.56
536.653	36186.18
537.019	36148.22
537.384	36402.22
537.749	36553.86
538.114	36773.28
538.479	36711.14
538.845	36926.73
539.21	36957.23
539.575	37161.97
539.94	37082.43
540.305	37549.76
540.67	37386.38
541.034	37611
541.399	37870.88
541.764	37909.75
542.129	38053.48
542.494	38283.3
542.858	38414.37
543.223	38574.14
543.587	38538.66
543.952	38618.66
544.316	38855.72
544.681	38789.05
545.045	39078.31
545.41	39295.48
545.774	39242.15
546.138	39523.49
546.503	39439.66
546.867	39595.81
547.231	40019.75
547.595	39928.23
547.959	40102.24
548.324	40195.57
548.688	40338.61
549.052	40375.22
549.416	40421.32
549.779	40562.11
550.143	40716.68
550.507	40928.88
550.871	41177.46
551.235	41064.25
551.599	41480.51
551.962	41396.89
552.326	41571.8
552.689	41975.41
553.053	41638.24
553.417	41776.99
553.78	42218.79
554.143	42059.02
554.507	42353.7
554.87	42467.82
555.234	42899.68
555.597	42644.77
555.96	42879.56
556.323	43111.65
556.686	43080.01
557.05	43351.19
557.413	43494.69
557.776	43536.27
558.139	43867.11
558.502	43990.27
558.865	44126.99
559.228	44287.21
559.59	44432.97
559.953	44475
560.316	44924.03
560.679	44919.51
561.041	45076.34
561.404	45329.44
561.767	45549.78
562.129	45386.39
562.492	45885.36
562.854	45832.93
563.217	45877.23
563.579	45972.14
563.941	46421.84
564.304	46458.45
564.666	46692.57
565.028	46822.06
565.39	46806.24
565.753	47172.33
566.115	47273.12
566.477	47367.13
566.839	47527.8
567.201	47749.95
567.563	47688.93
567.925	48083.72
568.287	48189.48
568.648	48188.8
569.01	48338.4
569.372	48598.51
569.734	48663.82
570.095	48813.19
570.457	49007.54
570.819	49012.28
571.18	49182.45
571.542	49345.16
571.903	49397.13
572.265	49505.61
572.626	49624.92
572.987	49707.41
573.349	49867.4
573.71	49949.66
574.071	50113.05
574.432	50242.31
574.794	50458.12
575.155	50381.06
575.516	50255.42
575.877	50444.79
576.238	50650.66
576.599	50730.88
576.96	50765.91
577.32	50886.81
577.681	50916.64
578.042	51136.97
578.403	51040.93
578.763	51096.52
579.124	51144.43
579.485	51339.68
579.845	51433.92
580.206	51397.53
580.566	51463.07
580.927	51501.71
581.287	51645.44
581.648	51517.53
582.008	51669.39
582.368	51612.44
582.728	51795.71
583.089	51716.17
583.449	51735.15
583.809	51706.9
584.169	51892.21
584.529	51812.44
584.889	52053.11
585.249	51857.41
585.609	51869.84
585.969	51902.83
586.329	51987.8
586.688	51996.84
587.048	52036.84
587.408	52008.14
587.768	52037.74
588.127	52075.93
588.487	51978.31
588.846	52214.69
589.206	52069.38
589.565	52085.2
589.925	52198.42
590.284	52193.9
590.643	52219.43
591.003	52251.07
591.362	52398.86
591.721	52279.09
592.08	52344.63
592.44	52415.81
592.799	52396.83
593.158	52356.15
593.517	52348.02
593.876	52491.97
594.235	52397.05
594.593	52426.21
594.952	52503.27
595.311	52435.25
595.67	52627.56
596.029	52645.64
596.387	52773.32
596.746	52843.14
597.104	52661.45
597.463	52717.05
597.822	52806.31
598.18	52645.18
598.538	52645.86
598.897	52882.92
599.255	52644.28
599.613	53074.32
599.972	52823.03
600.33	52886.99
600.688	52807.89
601.046	52994.1
601.404	53086.08
601.762	52983.25
602.12	53155.45
602.478	53176.02
602.836	53159.75
603.194	52961.11
603.552	53093.53
603.91	53057.15
604.268	53232.06
604.625	53110.93
604.983	53179.63
605.341	53050.6
605.698	53298.27
606.056	53345.05
606.413	53229.57
606.771	53346.18
607.128	53412.4
607.485	53281.33
607.843	53357.03
608.2	53516.8
608.557	53563.58
608.914	53480.42
609.272	53613.29
609.629	53615.78
609.986	53642.45
610.343	53569.23
610.7	53866.39
611.057	53707.98
611.414	53728.09
611.771	53840.86
612.127	53868.2
612.484	53840.18
612.841	53898.26
613.198	53778.26
613.554	53797.7
613.911	54065.94
614.267	53983.23
614.624	53966.05
614.98	53999.5
615.337	54239.27
615.693	54088.99
616.05	53957.01
616.406	54166.95
616.762	54057.8
617.118	54071.59
617.475	54114.52
617.831	54214.86
618.187	54180.06
618.543	54263.22
618.899	54354.29
619.255	54363.56
619.611	54256.89
619.967	54464.34
620.323	54439.26
620.678	54300.51
621.034	54216.89
621.39	54275.65
621.746	54247.18
622.101	54549.31
622.457	54237.01
622.812	54368.3
623.168	54422.31
623.523	54436.55
623.879	54401.75
624.234	54342.54
624.589	54478.13
624.945	54483.78
625.3	54464.12
625.655	54486.49
626.01	54494.4
626.365	54524.23
626.72	54488.75
627.075	54411.69
627.43	54452.37
627.785	54382.54
628.14	54471.12
628.495	54477.9
628.85	54437.68
629.205	54411.24
629.559	54552.25
629.914	54398.81
630.269	54505.93
630.623	54391.35
630.978	54270.23
631.332	54496.43
631.687	54456.89
632.041	54443.1
632.396	54429.77
632.75	54235.65
633.104	54417.57
633.459	54212.15
633.813	54223.45
634.167	54254.41
634.521	54303.67
634.875	54222.77
635.229	54183.9
635.583	54113.39
635.937	54133.96
636.291	54083.34
636.645	54115.2
636.999	54051.7
637.352	54140.29
637.706	53971.48
638.06	54046.28
638.413	53938.93
638.767	53973.96
639.121	53954.3
639.474	53806.06
639.828	53852.38
640.181	53950.91
640.534	53903
640.888	53838.82
641.241	53671.6
641.594	53823.23
641.947	53920.4
642.301	53784.14
642.654	53860.97
643.007	53738.26
643.36	53768.54
643.713	53768.32
644.066	53861.87
644.419	53664.14
644.771	53456.69
645.124	53175.57
645.477	53202.68
645.83	52937.38
646.182	52810.15
646.535	52790.72
646.888	52839.53
647.24	52635.01
647.593	52832.98
647.945	52849.02
648.298	52626.2
648.65	52584.85
649.002	52492.19
649.355	52708.91
649.707	52697.61
650.059	52737.61
650.411	53075.45
650.763	53172.85
651.115	53466.4
651.467	53380.31
651.819	53384.6
652.171	53283.58
652.523	53214.21
652.875	53288.78
653.227	53119.52
653.578	53350.93
653.93	53268.44
654.282	53175.34
654.633	53078.17
654.985	53128.79
655.337	53120.65
655.688	53060.31
656.039	53141.44
656.391	52950.94
656.742	52974.67
657.094	53059.86
657.445	53162.68
657.796	53043.59
658.147	52944.61
658.498	52985.06
658.849	53110.71
659.2	52999.52
659.551	52885.18
659.902	52998.17
660.253	52939.87
660.604	52986.64
660.955	52829.81
661.306	52917.27
661.656	52841.56
662.007	52863.93
662.358	52944.38
662.708	52836.59
663.059	52869.58
663.409	52707.55
663.76	52911.17
664.11	52893.76
664.461	52922.24
664.811	52906.42
665.161	52879.75
665.511	52581
665.862	52694.22
666.212	52804.5
666.562	52804.28
666.912	52731.96
667.262	52696.03
667.612	52611.51
667.962	52726.76
668.312	52713.43
668.662	52778.97
669.011	52653.09
669.361	52542.36
669.711	52497.39
670.06	52588.46
670.41	52493.1
670.76	52381.69
671.109	52595.69
671.459	52489.93
671.808	52432.31
672.157	52514.34
672.507	52233.44
672.856	52195.25
673.205	52287.9
673.554	52383.5
673.904	52220.79
674.253	52449.71
674.602	52313.44
674.951	51849.95
675.3	51560.01
675.649	52204.07
675.998	52185.53
676.346	52098.76
676.695	52208.36
677.044	51964.98
677.393	52020.79
677.741	52036.16
678.09	51945.77
678.438	51911.87
678.787	51903.73
679.135	51893.34
679.484	51652.44
679.832	51776.28
680.181	51517.98
680.529	51680.24
680.877	51520.02
681.225	51442.73
681.573	51679.33
681.922	51369.06
682.27	51265.11
682.618	51351.66
682.966	51215.62
683.314	51251.55
683.661	51125.68
684.009	50879.13
684.357	50915.06
684.705	50878.68
685.053	50954.83
685.4	50772.92
685.748	50656.54
686.095	50654.95
686.443	50522.08
686.79	50458.35
687.138	50541.06
687.485	50485.47
687.832	50328.86
688.18	50440.5
688.527	50202.54
688.874	50036.89
689.221	50087.28
689.568	49947.63
689.915	49837.8
690.262	49811.59
690.609	49833.96
690.956	49647.52
691.303	49595.09
691.65	49331.37
691.997	49402.33
692.344	49160.98
692.69	49113.07
693.037	49230.13
693.383	48829.69
693.73	48804.83
694.077	48650.49
694.423	48758.28
694.769	48645.06
695.116	48403.26
695.462	48458.18
695.808	48322.13
696.155	48351.29
696.501	48123.95
696.847	48028.36
697.193	47904.74
697.539	47905.42
697.885	47585.66
698.231	47434.02
698.577	47549.05
698.923	47408.49
699.269	47306.79
699.614	47086.91
699.96	46927.37
700.306	47087.14
700.651	46834.94
700.997	46796.07
701.342	46619.81
701.688	46597.88
702.033	46511.33
702.379	46470.43
702.724	46238.35
703.069	46409.19
703.415	45977.34
703.76	46058.92
704.105	46037.9
704.45	45845.59
704.795	45587.52
705.14	45604.01
705.485	45537.57
705.83	45403.79
706.175	45279.05
706.52	45226.4
706.865	45072.95
707.209	45016.46
707.554	44930.58
707.899	45000.41
708.243	44714.54
708.588	44812.17
708.932	44508.22
709.277	44540.99
709.621	44592.74
709.966	44306.42
710.31	44366.98
710.654	43928.8
710.998	43966.77
711.342	44049.03
711.687	43995.92
712.031	43701.24
712.375	43672.99
712.719	43691.97
713.063	43562.03
713.407	43792.53
713.75	43407.69
714.094	43410.17
714.438	43135.6
714.782	43339.89
715.125	43167.47
715.469	43222.61
715.812	42863.07
716.156	42728.38
716.499	42711.21
716.843	42771.32
717.186	42500.82
717.53	42809.06
717.873	42715.73
718.216	42633.47
718.559	42387.83
718.902	42151.9
719.246	42256.3
719.589	42000.49
719.932	42033.26
720.275	41942.64
720.617	42039.13
720.96	41776.32
721.303	41820.38
721.646	41843.89
721.989	41619.03
722.331	41739.93
722.674	41644.12
723.016	41730.22
723.359	41504.91
723.701	41627.17
724.044	41092.04
724.386	40929.56
724.729	41217.24
725.071	41206.39
725.413	41054.3
725.755	41141.76
726.097	40838.71
726.439	40745.84
726.782	40735.44
727.124	40952.61
727.465	40759.39
727.807	40571.15
728.149	40603.01
728.491	40399.18
728.833	40544.71
729.175	40404.38
729.516	40351.95
729.858	40207.77
730.199	40264.27
730.541	40201.89
730.882	40025.18
731.224	40142.91
731.565	39931.17
731.906	39922.58
732.248	39985.86
732.589	39805.97
732.93	39608.92
733.271	39725.52
733.612	39797.61
733.953	39559.88
734.294	39614.34
734.635	39448.02
734.976	39504.51
735.317	39251.19
735.658	39334.8
735.999	39364.4
736.339	39043.73
736.68	39319.43
737.021	39049.61
737.361	38956.05
737.702	39153.79
738.042	38860.91
738.383	38816.17
738.723	39047.8
739.063	38884.87
739.404	38924.64
739.744	38644.65
740.084	38705.44
740.424	38684.19
740.764	38605.55
741.104	38637.87
741.444	38347.71
741.784	38494.82
742.124	38428.16
742.464	38298.89
742.804	38345.45
743.143	38175.96
743.483	38096.64
743.823	38094.83
744.162	38024.78
744.502	38196.3
744.841	37941.16
745.181	38031.78
745.52	37931.45
745.86	37808.51
746.199	37940.49
746.538	37805.12
746.877	37803.77
747.216	37691.23
747.556	37578.69
747.895	37497.33
748.234	37396.32
748.573	37361.97
748.911	37293.72
749.25	37328.3
749.589	37089.66
749.928	37195.42
750.267	37212.37
750.605	36975.31
750.944	36910.46
751.283	36792.49
751.621	36980.51
751.96	36660.52
752.298	36689.22
752.636	36730.12
