Data from white_steel_sheet_FLMS001491_069.txt Node
Date: Tue Feb 07 10:58:17 GMT 2017
User: dcchb
Spectrometer: FLMS00149
Trigger mode: 0
Integration Time (sec): 2.000000E-2
Scans to average: 10
Electric dark correction enabled: true
Nonlinearity correction enabled: false
Boxcar width: 0
XAxis mode: Wavelengths
Number of Pixels in Spectrum: 2048
>>>>>Begin Spectral Data<<<<<
341.393	-10.34
341.776	-10.34
342.16	-10.34
342.543	-51.92
342.927	-68.42
343.31	-67.74
343.693	-67.06
344.077	-70.68
344.46	-64.8
344.843	-69.77
345.226	-42.2
345.61	-26.61
345.993	-25.25
346.376	-2.66
346.759	8.19
347.142	28.98
347.525	49.55
347.908	69.21
348.291	68.76
348.674	101.75
349.057	110.34
349.44	133.61
349.823	150.79
350.206	183.55
350.588	181.29
350.971	215.87
351.354	226.72
351.737	213.38
352.119	249.99
352.502	265.13
352.884	276.66
353.267	290.44
353.65	302.2
354.032	293.38
354.414	312.82
354.797	330.44
355.179	319.37
355.562	314.85
355.944	348.07
356.326	332.48
356.709	335.64
357.091	337.67
357.473	355.53
357.855	355.75
358.238	349.43
358.62	364.11
359.002	335.41
359.384	350.56
359.766	339.48
360.148	343.32
360.53	341.74
360.912	328.86
361.294	338.8
361.676	335.41
362.057	355.53
362.439	337.9
362.821	347.62
363.203	309.2
363.584	341.29
363.966	332.25
364.348	327.51
364.729	341.06
365.111	337.9
365.493	318.92
365.874	330.22
366.256	314.17
366.637	296.77
367.019	327.51
367.4	327.05
367.781	325.47
368.163	329.09
368.544	340.39
368.925	311.91
369.306	313.72
369.688	329.77
370.069	323.44
370.45	326.6
370.831	329.77
371.212	315.3
371.593	324.12
371.974	325.92
372.355	327.96
372.736	311.01
373.117	325.47
373.498	327.73
373.879	320.73
374.26	311.23
374.641	324.57
375.021	336.54
375.402	330.67
375.783	337.67
376.163	357.56
376.544	339.03
376.925	340.84
377.305	322.53
377.686	354.62
378.066	325.02
378.447	338.13
378.827	329.54
379.208	351.91
379.588	348.75
379.968	351.23
380.349	358.47
380.729	352.36
381.109	373.15
381.489	356.43
381.87	339.03
382.25	351.23
382.63	346.26
383.01	359.6
383.39	378.13
383.77	366.37
384.15	377.22
384.53	367.5
384.91	388.75
385.29	362.76
385.67	386.94
386.049	380.16
386.429	403.89
386.809	383.78
387.189	397.33
387.568	398.24
387.948	387.39
388.328	384
388.707	419.03
389.087	408.86
389.466	403.21
389.846	389.65
390.225	407.28
390.605	400.5
390.984	410.44
391.363	438.01
391.743	422.64
392.122	424.9
392.501	427.39
392.881	450.67
393.26	444.79
393.639	450.44
394.018	455.86
394.397	464.9
394.776	489.76
395.155	478.46
395.534	474.85
395.913	461.97
396.292	473.94
396.671	473.72
397.05	481.63
397.429	494.51
397.808	508.97
398.186	476.65
398.565	510.33
398.944	534.51
399.323	497.44
399.701	525.47
400.08	538.57
400.458	549.87
400.837	551
401.215	557.56
401.594	571.11
401.972	571.11
402.351	562.75
402.729	590.78
403.107	609.53
403.486	592.81
403.864	611.79
404.242	627.38
404.62	611.79
404.999	635.07
405.377	624.22
405.755	659.93
406.133	657.89
406.511	663.77
406.889	660.6
407.267	710.55
407.645	704.9
408.023	715.07
408.401	718.46
408.779	731.56
409.156	759.81
409.534	751.45
409.912	756.42
410.29	776.08
410.667	793.26
411.045	786.93
411.422	814.27
411.8	811.79
412.178	841.62
412.555	843.42
412.933	844.1
413.31	872.35
413.687	882.97
414.065	926.13
414.442	915.74
414.819	887.26
415.197	912.12
415.574	928.85
415.951	948.51
416.328	960.03
416.705	998.45
417.082	965.68
417.46	992.35
417.837	968.39
418.214	989.63
418.591	1022.63
418.967	1007.04
419.344	1026.92
419.721	1044.1
420.098	1036.64
420.475	1076.41
420.852	1078.45
421.228	1083.42
421.605	1099.01
421.982	1107.37
422.358	1115.51
422.735	1140.59
423.111	1110.99
423.488	1146.47
423.864	1163.64
424.241	1203.64
424.617	1179.46
424.994	1209.29
425.37	1220.14
425.746	1228.05
426.123	1222.17
426.499	1245
426.875	1256.75
427.251	1259.68
427.627	1293.58
428.003	1279.57
428.379	1320.7
428.756	1351.43
429.132	1355.28
429.507	1352.79
429.883	1404.09
430.259	1412.67
430.635	1420.36
431.011	1450.64
431.387	1494.93
431.763	1463.97
432.138	1508.94
432.514	1536.51
432.89	1518.89
433.265	1566.34
433.641	1623.52
434.016	1606.79
434.392	1640.69
434.767	1648.6
435.143	1662.84
435.518	1665.32
435.894	1691.76
436.269	1713.91
436.644	1746.23
437.02	1762.95
437.395	1791.65
437.77	1794.13
438.145	1793.91
438.52	1839.78
438.895	1852.21
439.271	1888.14
439.646	1908.03
440.021	1937.63
440.395	1901.25
440.77	1930.63
441.145	1957.52
441.52	1972.66
441.895	1957.97
442.27	1986.9
442.645	2018.99
443.019	2041.13
443.394	2043.17
443.769	2083.62
444.143	2071.41
444.518	2142.15
444.892	2088.36
445.267	2116.16
445.641	2141.24
446.016	2134.92
446.39	2174.01
446.764	2187.12
447.139	2184.86
447.513	2211.07
447.887	2247
448.262	2236.61
448.636	2247
449.01	2284.06
449.384	2324.74
449.758	2327
450.132	2354.34
450.506	2387.56
450.88	2375.14
451.254	2416.04
451.628	2415.81
452.002	2506.43
452.376	2499.65
452.75	2490.61
453.123	2540.55
453.497	2603.15
453.871	2595.47
454.244	2650.61
454.618	2677.27
454.992	2658.97
455.365	2676.14
455.739	2741
456.112	2774.22
456.486	2789.14
456.859	2819.42
457.232	2879.75
457.606	2895.12
457.979	2916.36
458.352	2955.91
458.725	3009.02
459.099	3028.23
459.472	3068.9
459.845	3105.06
460.218	3144.38
460.591	3169.92
460.964	3176.92
461.337	3289.46
461.71	3300.99
462.083	3323.58
462.456	3341.44
462.829	3355.67
463.201	3406.52
463.574	3421.89
463.947	3506.63
464.32	3534.65
464.692	3572.62
465.065	3624.82
465.438	3673.18
465.81	3719.28
466.183	3730.58
466.555	3843.57
466.928	3850.12
467.3	3896.45
467.672	3941.87
468.045	4045.6
468.417	4012.38
468.789	4034.75
469.161	4103.23
469.534	4164.24
469.906	4301.19
470.278	4335.76
470.65	4304.8
471.022	4405.59
471.394	4528.75
471.766	4518.13
472.138	4596.32
472.51	4705.47
472.882	4774.62
473.253	4780.5
473.625	4863.21
473.997	5011.9
474.369	5025.69
474.74	5070.88
475.112	5178.23
475.484	5219.58
475.855	5330.54
476.227	5402.85
476.598	5545.22
476.97	5573.7
477.341	5716.52
477.713	5770.07
478.084	5808.27
478.455	5975.04
478.827	6026.79
479.198	6146.11
479.569	6184.98
479.94	6370.28
480.311	6405.99
480.682	6559.66
481.053	6675.59
481.424	6794
481.795	6876.03
482.166	7011.17
482.537	7018.18
482.908	7208.91
483.279	7247.1
483.65	7455
484.021	7527.09
484.391	7678.72
484.762	7759.85
485.133	7865.84
485.503	7951.26
485.874	8114.19
486.244	8188.09
486.615	8339.5
486.985	8426.28
487.356	8599.15
487.726	8619.49
488.097	8831.69
488.467	8785.14
488.837	9098.35
489.207	9157.78
489.578	9300.6
489.948	9347.83
490.318	9474.16
490.688	9584.66
491.058	9732.68
491.428	9851.32
491.798	9878.21
492.168	10154.14
492.538	10172.22
492.908	10238.88
493.278	10440.46
493.648	10374.7
494.017	10634.13
494.387	10699.66
494.757	10743.05
495.126	10936.27
495.496	10956.15
495.866	11004.96
496.235	11153.44
496.605	11320.89
496.974	11309.59
497.344	11435.24
497.713	11546.87
498.082	11609.92
498.452	11794.77
498.821	11821.67
499.19	11940.53
499.559	12025.95
499.928	12122.68
500.298	12219.4
500.667	12344.36
501.036	12311.37
501.405	12528.99
501.774	12497.58
502.143	12706.16
502.512	12690.8
502.88	12793.17
503.249	12800.17
503.618	12952.48
503.987	12956.55
504.356	13065.93
504.724	13146.6
505.093	13333.27
505.462	13242.19
505.83	13373.04
506.199	13492.58
506.567	13754.72
506.936	13684.89
507.304	13899.35
507.672	13960.82
508.041	14102.51
508.409	14155.84
508.777	14219.34
509.145	14380.7
509.514	14432.9
509.882	14553.57
510.25	14543.85
510.618	14624.08
510.986	14706.34
511.354	14934.13
511.722	15077.85
512.09	15225.42
512.458	15250.95
512.826	15351.07
513.193	15507.45
513.561	15569.14
513.929	15676.25
514.297	15877.61
514.664	15951.05
515.032	16023.36
515.4	16290.48
515.767	16255.22
516.135	16363.69
516.502	16299.74
516.869	16563.46
517.237	16685.72
517.604	16727.98
517.972	16936.56
518.339	16971.14
518.706	17123.9
519.073	17257.68
519.44	17331.58
519.808	17588.52
520.175	17630.78
520.542	17816.31
520.909	17964.78
521.276	17932.01
521.643	18122.74
522.009	18201.61
522.376	18396.18
522.743	18529.96
523.11	18783.07
523.477	18929.28
523.843	18978.77
524.21	19212.88
524.577	19389.83
524.943	19512.54
525.31	19616.72
525.676	19788.46
526.043	19995.46
526.409	19930.38
526.776	20184.61
527.142	20334.44
527.508	20480.87
527.874	20664.15
528.241	20749.79
528.607	20861.43
528.973	21063.46
529.339	21054.42
529.705	21339.38
530.071	21500.28
530.437	21601.07
530.803	21703.67
531.169	21734.63
531.535	21796.55
531.901	22027.27
532.267	22154.28
532.632	22218.46
532.998	22365.34
533.364	22534.15
533.73	22570.99
534.095	22742.06
534.461	22709.74
534.826	22826.57
535.192	23029.73
535.557	23204.64
535.923	23179.33
536.288	23307.69
536.653	23363.74
537.019	23425.43
537.384	23611.41
537.749	23594.46
538.114	23848.02
538.479	23774.35
538.845	23858.64
539.21	23923.5
539.575	24007.56
539.94	24218.4
540.305	24314.9
540.67	24281.9
541.034	24398.74
541.399	24533.65
541.764	24611.61
542.129	24758.28
542.494	24794.88
542.858	24846.86
543.223	24869.46
543.587	25160.75
543.952	25094.09
544.316	25200.52
544.681	25207.3
545.045	25408.2
545.41	25507.41
545.774	25513.06
546.138	25649.33
546.503	25650.91
546.867	25731.81
547.231	25911.47
547.595	26005.47
547.959	26085.02
548.324	26171.35
548.688	26063.78
549.052	26332.25
549.416	26325.01
549.779	26403.88
550.143	26459.02
550.507	26634.61
550.871	26738.79
551.235	26610.66
551.599	27106.24
551.962	27060.81
552.326	27110.76
552.689	27216.74
553.053	27133.58
553.417	27209.96
553.78	27649.95
554.143	27450.18
554.507	27695.6
554.87	27779.89
555.234	28062.37
555.597	27947.34
555.96	28035.93
556.323	28169.03
556.686	28236.83
557.05	28388.24
557.413	28552.3
557.776	28573.32
558.139	28903.25
558.502	28887.21
558.865	28993.87
559.228	29203.36
559.59	29144.6
559.953	29267.08
560.316	29500.3
560.679	29496.23
561.041	29706.17
561.404	29997.91
561.767	30100.06
562.129	29915.2
562.492	30396.09
562.854	30350.44
563.217	30371.24
563.579	30536.88
563.941	30760.83
564.304	30835.18
564.666	31083.53
565.028	31045.57
565.39	31225.22
565.753	31362.85
566.115	31441.94
566.477	31651.88
566.839	31634.48
567.201	31918.99
567.563	31838.77
567.925	32165.99
568.287	32175.26
568.648	32182.04
569.01	32356.72
569.372	32496.6
569.734	32383.16
570.095	32768.46
570.457	32833.32
570.819	32966.2
571.18	32964.84
571.542	33088.45
571.903	33168.68
572.265	33258.39
572.626	33338.84
572.987	33396.92
573.349	33391.95
573.71	33591.72
574.071	33663.13
574.432	33861.54
574.794	34096.56
575.155	33917.81
575.516	33961.2
575.877	33977.69
576.238	34216.78
576.599	34351.7
576.96	34208.65
577.32	34339.27
577.681	34418.36
578.042	34604.57
578.403	34462.65
578.763	34473.05
579.124	34665.81
579.485	34750.33
579.845	34859.03
580.206	34723.21
580.566	34791.23
580.927	34708.97
581.287	34969.53
581.648	34787.84
582.008	34937.22
582.368	34792.59
582.728	34901.06
583.089	34894.96
583.449	34907.61
583.809	34947.16
584.169	35167.04
584.529	35047.5
584.889	35150.09
585.249	34934.51
585.609	34966.37
585.969	35188.51
586.329	34903.77
586.688	35012.7
587.048	34972.24
587.408	35004.33
587.768	35019.02
588.127	34961.62
588.487	34894.51
588.846	35298.34
589.206	34902.87
589.565	34993.94
589.925	35212.92
590.284	35161.62
590.643	35096.53
591.003	35150.77
591.362	35243.42
591.721	35127.49
592.08	35134.73
592.44	35174.27
592.799	35166.36
593.158	35133.14
593.517	35023.32
593.876	35207.04
594.235	35122.97
594.593	35075.74
594.952	35183.31
595.311	34922.98
595.67	35202.52
596.029	35448.62
596.387	35264.89
596.746	35322.29
597.104	35086.37
597.463	35156.42
597.822	35274.38
598.18	35347.38
598.538	35207.04
598.897	35433.25
599.255	35196.65
599.613	35569.29
599.972	35416.98
600.33	35458.33
600.688	35326.81
601.046	35518.22
601.404	35475.96
601.762	35480.48
602.12	35518.67
602.478	35606.58
602.836	35610.87
603.194	35413.36
603.552	35594.15
603.91	35460.59
604.268	35471.21
604.625	35391.89
604.983	35552.12
605.341	35302.86
605.698	35647.25
606.056	35699
606.413	35630.08
606.771	35775.39
607.128	35834.14
607.485	35756.4
607.843	35742.17
608.2	35872.79
608.557	35887.93
608.914	35760.25
609.272	35922.05
609.629	35910.75
609.986	36016.96
610.343	35919.79
610.7	36242.72
611.057	36111.88
611.414	36176.28
611.771	36165.89
612.127	36298.09
612.484	36124.3
612.841	36411.3
613.198	36268.48
613.554	36339.21
613.911	36528.59
614.267	36420.12
614.624	36431.64
614.98	36505.99
615.337	36821.24
615.693	36677.51
616.05	36546.44
616.406	36803.83
616.762	36661.47
617.118	36605.87
617.475	36479.1
617.831	36818.75
618.187	36659.66
618.543	36801.35
618.899	36928.13
619.255	36900.33
619.611	36953.89
619.967	37000.89
620.323	37060.1
620.678	36913.21
621.034	36873.21
621.39	36842.03
621.746	36864.62
622.101	37261
622.457	37025.07
622.812	36966.99
623.168	37143.49
623.523	37164.95
623.879	37173.32
624.234	37049.93
624.589	37176.48
624.945	37119.08
625.3	37158.4
625.655	37192.52
626.01	37234.56
626.365	37087.67
626.72	36994.56
627.075	37129.02
627.43	37091.96
627.785	37042.47
628.14	37054.45
628.495	37050.16
628.85	37020.1
629.205	36816.26
629.559	37034.56
629.914	36953.89
630.269	36992.3
630.623	36793.67
630.978	36759.99
631.332	36931.51
631.687	37001.57
632.041	36716.61
632.396	36853.78
632.75	36786.66
633.104	36835.02
633.459	36536.95
633.813	36592.09
634.167	36616.95
634.521	36571.52
634.875	36486.78
635.229	36621.47
635.583	36275.03
635.937	36318.42
636.291	36255.83
636.645	36324.07
636.999	36283.17
637.352	36322.27
637.706	36022.61
638.06	36210.18
638.413	36056.74
638.767	35969.05
639.121	36035.72
639.474	35846.12
639.828	35917.08
640.181	35930.64
640.534	35892.45
640.888	35773.35
641.241	35410.88
641.594	35594.15
641.947	35685.9
642.301	35585.11
642.654	35541.49
643.007	35519.8
643.36	35459.24
643.713	35344.21
644.066	35469.63
644.419	35281.39
644.771	35111.68
645.124	34682.76
645.477	34628.98
645.83	34332.71
646.182	34388.76
646.535	34129.78
646.888	34216.78
647.24	34111.48
647.593	34363.22
647.945	34221.98
648.298	34067.41
648.65	33879.62
649.002	33805.5
649.355	34065.38
649.707	33894.76
650.059	33977.92
650.411	34428.08
650.763	34435.31
651.115	34777
651.467	34664.91
651.819	34634.85
652.171	34636.89
652.523	34494.06
652.875	34392.6
653.227	34429.89
653.578	34539.26
653.93	34459.72
654.282	34316.44
654.633	34246.84
654.985	34215.65
655.337	34296.56
655.688	34260.4
656.039	34397.34
656.391	33909.9
656.742	34142.44
657.094	34175.88
657.445	34213.85
657.796	34054.75
658.147	33975.66
658.498	33956.9
658.849	33992.16
659.2	33988.99
659.551	33821.99
659.902	33798.72
660.253	33793.74
660.604	33845.27
660.955	33667.65
661.306	33729.11
661.656	33719.4
662.007	33622.9
662.358	33505.84
662.708	33531.6
663.059	33456.13
663.409	33283.02
663.76	33500.87
664.11	33403.02
664.461	33417.71
664.811	33435.79
665.161	33364.6
665.511	33022.24
665.862	33039.41
666.212	33130.94
666.562	33045.06
666.912	32885.52
667.262	33106.53
667.612	32930.49
667.962	32850.49
668.312	32808.69
668.662	32808.46
669.011	32764.17
669.361	32592.65
669.711	32424.74
670.06	32302.71
670.41	32224.75
670.76	32203.73
671.109	32290.05
671.459	32224.52
671.808	32117.18
672.157	32175.26
672.507	31727.81
672.856	31830.86
673.205	31959.22
673.554	32049.16
673.904	31829.05
674.253	31881.25
674.602	31674.25
674.951	31299.35
675.3	31020.71
675.649	31618.66
675.998	31464.77
676.346	31570.98
676.695	31627.47
677.044	31270.87
677.393	31428.61
677.741	31388.84
678.09	31294.83
678.438	31237.43
678.787	31317.88
679.135	31337.09
679.484	31086.7
679.832	31296.18
680.181	31091.44
680.529	31162.17
680.877	31114.49
681.225	31146.13
681.573	31347.71
681.922	31104.32
682.27	31138.67
682.618	31233.81
682.966	31053.03
683.314	31206.24
683.661	31219.8
684.009	31012.57
684.357	30944.78
684.705	30921.96
685.053	31053.93
685.4	30902.52
685.748	30992.46
686.095	30998.34
686.443	30720.83
686.79	30841.28
687.138	31003.08
687.485	30930.99
687.832	30883.76
688.18	30933.25
688.527	30747.5
688.874	30822.97
689.221	30915.4
689.568	30692.58
689.915	30763.54
690.262	30625.01
690.609	30691.68
690.956	30530.78
691.303	30524.23
691.65	30534.39
691.997	30497.33
692.344	30355.19
692.69	30365.81
693.037	30468.86
693.383	30113.84
693.73	30209.21
694.077	30137.8
694.423	30260.96
694.769	30138.02
695.116	30126.95
695.462	30136.44
695.808	29942.32
696.155	30046.05
696.501	29761.08
696.847	29916.11
697.193	29617.81
697.539	29714.08
697.885	29580.75
698.231	29457.14
698.577	29461.65
698.923	29459.85
699.269	29354.09
699.614	29315.22
699.96	29128.1
700.306	29196.8
700.651	29073.87
700.997	29001.1
701.342	28967.88
701.688	28888.34
702.033	28727.44
702.379	28672.75
702.724	28654.9
703.069	28820.54
703.415	28440.21
703.76	28393.21
704.105	28450.38
704.45	28324.51
704.795	28201.35
705.14	28128.81
705.485	28000.9
705.83	27889.94
706.175	28034.12
706.52	27919.32
706.865	27774.47
707.209	27870.74
707.554	27684.98
707.899	27717.97
708.243	27592.33
708.588	27553.91
708.932	27432.1
709.277	27341.26
709.621	27452.89
709.966	27181.49
710.31	27306.01
710.654	26990.31
710.998	27111.66
711.342	27003.41
711.687	27135.84
712.031	26844.77
712.375	26863.08
712.719	26892
713.063	26750.77
713.407	26816.3
713.75	26725.68
714.094	26707.15
714.438	26492.92
714.782	26587.83
715.125	26479.36
715.469	26602.97
715.812	26455.63
716.156	26197.56
716.499	26266.03
716.843	26322.53
717.186	26116.43
717.53	26106.94
717.873	26256.77
718.216	26049.54
718.559	26048.64
718.902	25829.89
719.246	25878.92
719.589	25783.33
719.932	25742.2
720.275	25693.39
720.617	25726.61
720.96	25680.74
721.303	25613.17
721.646	25592.6
721.989	25471.03
722.331	25488.43
722.674	25474.87
723.016	25360.75
723.359	25350.35
723.701	25280.3
724.044	25253.63
724.386	25136.12
724.729	25306.96
725.071	25088.44
725.413	25161.88
725.755	25124.59
726.097	24991.26
726.439	24906.97
726.782	24848.22
727.124	24948.78
727.465	24740.42
727.807	24783.59
728.149	24714.89
728.491	24657.26
728.833	24633.99
729.175	24602.35
729.516	24528
729.858	24490.03
730.199	24525.51
730.541	24504.95
730.882	24476.25
731.224	24505.17
731.565	24274.45
731.906	24375.69
732.248	24376.59
732.589	24156.26
732.93	24191.28
733.271	24201.91
733.612	24128.91
733.953	24170.95
734.294	24058.18
734.635	23882.14
734.976	24037.39
735.317	23999.65
735.658	23858.41
735.999	23739.32
736.339	23735.25
736.68	23847.34
737.021	23749.26
737.361	23665.87
737.702	23707.23
738.042	23577.06
738.383	23412.77
738.723	23548.14
739.063	23594.24
739.404	23475.6
739.744	23410.97
740.084	23344.08
740.424	23361.93
740.764	23353.57
741.104	23394.24
741.444	23240.35
741.784	23128.26
742.124	23202.84
742.464	23185.44
742.804	23028.15
743.143	23022.28
743.483	23003.75
743.823	22922.62
744.162	22967.59
744.502	22965.1
744.841	22844.2
745.181	22880.58
745.52	22867.48
745.86	22823.19
746.199	22684.88
746.538	22677.65
746.877	22623.42
747.216	22659.35
747.556	22659.8
747.895	22631.33
748.234	22524.44
748.573	22477.43
748.911	22491.44
749.25	22424.78
749.589	22258
749.928	22309.98
750.267	22303.2
750.605	22171.22
750.944	22227.49
751.283	22062.75
751.621	22129.42
751.96	21916.32
752.298	21843.55
752.636	21968.74
752.975	21811.69
753.313	21800.16
753.651	21729.43
753.989	21872.7
