Data from White_reflection_standard_FLMS001491_015.txt Node
Date: Tue Feb 07 10:31:58 GMT 2017
User: dcchb
Spectrometer: FLMS00149
Trigger mode: 0
Integration Time (sec): 2.000000E-2
Scans to average: 10
Electric dark correction enabled: true
Nonlinearity correction enabled: false
Boxcar width: 0
XAxis mode: Wavelengths
Number of Pixels in Spectrum: 2048
>>>>>Begin Spectral Data<<<<<
341.393	-6.82
341.776	-6.82
342.16	-6.82
342.543	-54.96
342.927	-47.5
343.31	-66.26
343.693	-48.85
344.077	-64.45
344.46	-47.27
344.843	-49.08
345.226	-35.75
345.61	-45.24
345.993	-43.88
346.376	-2.75
346.759	0.18
347.142	12.16
347.525	51.26
347.908	55.78
348.291	65.49
348.674	99.16
349.057	119.5
349.44	161.76
349.823	152.27
350.206	180.97
350.588	229.78
350.971	267.75
351.354	266.62
351.737	285.37
352.119	304.36
352.502	331.02
352.884	324.02
353.267	316.11
353.65	334.64
354.032	342.32
354.414	342.32
354.797	352.94
355.179	370.34
355.562	397.24
355.944	375.77
356.326	375.99
356.709	376.9
357.091	399.5
357.473	404.01
357.855	401.75
358.238	410.57
358.62	406.73
359.002	404.69
359.384	422.77
359.766	400.17
360.148	413.96
360.53	413.05
360.912	406.5
361.294	410.12
361.676	404.92
362.057	397.69
362.439	429.55
362.821	399.5
363.203	413.73
363.584	426.61
363.966	415.54
364.348	402.88
364.729	418.25
365.111	415.77
365.493	411.47
365.874	418.93
366.256	411.25
366.637	396.11
367.019	434.3
367.4	402.43
367.781	409.44
368.163	448.53
368.544	431.81
368.925	409.21
369.306	411.25
369.688	414.64
370.069	428.42
370.45	444.92
370.831	432.49
371.212	433.84
371.593	442.21
371.974	458.02
372.355	435.43
372.736	439.27
373.117	442.21
373.498	436.78
373.879	461.41
374.26	434.07
374.641	439.27
375.021	453.28
375.402	465.93
375.783	487.4
376.163	482.88
376.544	505.48
376.925	493.96
377.305	488.31
377.686	486.95
378.066	498.48
378.447	499.15
378.827	512.26
379.208	502.77
379.588	512.03
379.968	516.1
380.349	526.27
380.729	539.83
381.109	536.67
381.489	544.58
381.87	543.67
382.25	553.62
382.63	568.98
383.01	562.43
383.39	558.59
383.77	575.08
384.15	580.51
384.53	598.59
384.91	597.68
385.29	602.65
385.67	610.56
386.049	623.22
386.429	639.49
386.809	621.41
387.189	614.63
387.568	635.2
387.948	639.71
388.328	653.73
388.707	647.17
389.087	647.4
389.466	671.35
389.846	687.17
390.225	668.19
390.605	695.76
390.984	667.96
391.363	709.32
391.743	708.64
392.122	735.08
392.501	746.6
392.881	723.78
393.26	767.4
393.639	760.62
394.018	758.58
394.397	761.29
394.776	792.93
395.155	784.57
395.534	787.73
395.913	813.27
396.292	812.37
396.671	837.68
397.05	832.7
397.429	832.93
397.808	834.74
398.186	872.48
398.565	873.61
398.944	851.91
399.323	880.61
399.701	877.22
400.08	896.88
400.458	895.98
400.837	937.11
401.215	927.62
401.594	938.46
401.972	943.66
402.351	972.14
402.729	970.1
403.107	980.95
403.486	970.55
403.864	978.69
404.242	1003.77
404.62	1018.01
404.999	1027.95
405.377	1040.83
405.755	1090.78
406.133	1070.89
406.511	1063.88
406.889	1085.13
407.267	1122.19
407.645	1153.83
408.023	1138.46
408.401	1154.5
408.779	1195.41
409.156	1195.63
409.534	1186.82
409.912	1224.33
410.29	1248.96
410.667	1252.13
411.045	1280.38
411.422	1277.44
411.8	1331.22
412.178	1325.57
412.555	1356.98
412.933	1370.32
413.31	1401.05
413.687	1387.04
414.065	1427.26
414.442	1437.21
414.819	1462.97
415.197	1461.84
415.574	1482.18
415.951	1507.26
416.328	1498.22
416.705	1526.92
417.082	1540.71
417.46	1570.31
417.837	1578.45
418.214	1608.05
418.591	1619.8
418.967	1603.31
419.344	1636.98
419.721	1638.78
420.098	1652.8
420.475	1688.95
420.852	1691.21
421.228	1757.43
421.605	1734.6
421.982	1767.82
422.358	1793.81
422.735	1800.14
423.111	1778.44
423.488	1883.52
423.864	1846.46
424.241	1857.99
424.617	1923.3
424.994	1902.73
425.37	1936.18
425.746	1943.18
426.123	1981.37
426.499	1996.74
426.875	2029.96
427.251	2048.72
427.627	2099.34
428.003	2127.81
428.379	2189.05
428.756	2173.91
429.132	2192.44
429.507	2260.92
429.883	2290.97
430.259	2293.91
430.635	2322.83
431.011	2340.24
431.387	2401.48
431.763	2443.51
432.138	2465.66
432.514	2462.72
432.89	2516.05
433.265	2549.72
433.641	2614.58
434.016	2613.67
434.392	2667.91
434.767	2716.72
435.143	2713.11
435.518	2773.67
435.894	2797.62
436.269	2822.71
436.644	2885.98
437.02	2867.68
437.395	2893.89
437.77	2955.81
438.145	2988.81
438.52	3045.98
438.895	3033.55
439.271	3049.37
439.646	3137.05
440.021	3158.74
440.395	3226.77
440.77	3183.83
441.145	3220.44
441.52	3296.14
441.895	3292.98
442.27	3283.04
442.645	3330.72
443.019	3339.08
443.394	3357.16
443.769	3398.29
444.143	3395.12
444.518	3482.58
444.892	3461.34
445.267	3518.96
445.641	3516.02
446.016	3551.28
446.39	3598.96
446.764	3594.67
447.139	3620.2
447.513	3680.76
447.887	3669.69
448.262	3756.7
448.636	3723.93
449.01	3788.56
449.384	3828.33
449.758	3843.25
450.132	3884.83
450.506	3936.8
450.88	3930.02
451.254	3971.38
451.628	3995.78
452.002	4085.5
452.376	4111.49
452.75	4144.26
453.123	4193.52
453.497	4205.5
453.871	4307.19
454.244	4388.54
454.618	4396.23
454.992	4483.46
455.365	4448.88
455.739	4614.53
456.112	4641.64
456.486	4713.51
456.859	4678.03
457.232	4870.79
457.606	4833.05
457.979	4866.27
458.352	4995.53
458.725	5038.02
459.099	5097.68
459.472	5188.75
459.845	5245.7
460.218	5287.05
460.591	5354.85
460.964	5352.81
461.337	5472.81
461.71	5546.93
462.083	5662.86
462.456	5605.01
462.829	5712.8
463.201	5802.29
463.574	5807.94
463.947	5910.31
464.32	6054.94
464.692	6108.5
465.065	6155.05
465.438	6308.04
465.81	6323.18
466.183	6396.85
466.555	6492.44
466.928	6560.92
467.3	6545.77
467.672	6697.86
468.045	6873.68
468.417	6917.74
468.789	6922.94
469.161	7036.61
469.534	7190.73
469.906	7324.51
470.278	7352.08
470.65	7473.89
471.022	7551.4
471.394	7778.06
471.766	7832.97
472.138	7949.13
472.51	8160.2
472.882	8224.83
473.253	8315.45
473.625	8507.3
473.997	8620.3
474.369	8689.45
474.74	8767.64
475.112	8938.93
475.484	9193.61
475.855	9202.65
476.227	9344.8
476.598	9603.77
476.97	9645.81
477.341	9874.27
477.713	10108.17
478.084	10141.84
478.455	10360.36
478.827	10474.48
479.198	10803.74
479.569	10821.14
479.94	11164.18
480.311	11283.28
480.682	11471.07
481.053	11755.13
481.424	11885.52
481.795	12023.14
482.166	12223.82
482.537	12398.05
482.908	12668.55
483.279	12807.76
483.65	13091.36
484.021	13243.68
484.391	13392.15
484.762	13572.26
485.133	13697
485.503	13875.98
485.874	14293.37
486.244	14363.2
486.615	14659.23
486.985	14827.36
487.356	15071.43
487.726	15119.33
488.097	15449.04
488.467	15441.81
488.837	15920.44
489.207	16020.1
489.578	16311.17
489.948	16435.46
490.318	16751.16
490.688	16745.28
491.058	17053.07
491.428	17138.49
491.798	17408.31
492.168	17792.71
492.538	17857.12
492.908	18163.1
493.278	18329.87
493.648	18349.08
494.017	18594.04
494.387	18738.9
494.757	18888.95
495.126	19056.41
495.496	19219.79
495.866	19332.33
496.235	19542.27
496.605	19798.53
496.974	19882.6
497.344	19974.35
497.713	20191.29
498.082	20438.97
498.452	20628.79
498.821	20626.53
499.19	20777.04
499.559	20975.23
499.928	21139.29
500.298	21208.67
500.667	21551.93
501.036	21472.84
501.405	21636.22
501.774	21796.67
502.143	21897.01
502.512	22026.95
502.88	22333.61
503.249	22411.57
503.618	22556.2
503.987	22648.85
504.356	22792.13
504.724	22997.09
505.093	23063.53
505.462	23159.12
505.83	23434.82
506.199	23645.44
506.567	23914.36
506.936	23831.65
507.304	24139.89
507.672	24245.87
508.041	24524.28
508.409	24711.17
508.777	24814.22
509.145	25030.26
509.514	25086.3
509.882	25174.21
510.25	25357.71
510.618	25563.35
510.986	25689.23
511.354	26023.45
511.722	26209.89
512.09	26455.53
512.458	26485.14
512.826	26618.24
513.193	26790.89
513.561	26847.61
513.929	27022.3
514.297	27514.49
514.664	27587.03
515.032	27733.92
515.4	27937.3
515.767	28083.96
516.135	28257.07
516.502	28218.88
516.869	28738.41
517.237	28805.75
517.604	28852.98
517.972	29281.22
518.339	29329.13
518.706	29403.25
519.073	29598.5
519.44	30140.18
519.808	30196.45
520.175	30281.42
520.542	30739.26
520.909	30882.54
521.276	30917.11
521.643	31349.19
522.009	31533.59
522.376	31692.23
522.743	31825.11
523.11	32242.95
523.477	32415.6
523.843	32707.57
524.21	32995.93
524.577	33253.32
524.943	33348.69
525.31	33578.74
525.676	33855.34
526.043	34123.81
526.409	34345.72
526.776	34698.48
527.142	34828.42
527.508	35058.7
527.874	35281.29
528.241	35428.18
528.607	35587.04
528.973	35985
529.339	35992.91
529.705	36298.89
530.071	36568.26
530.437	36848.71
530.803	37113.56
531.169	37247.11
531.535	37273.78
531.901	37441.91
532.267	37540.21
532.632	37741.11
532.998	37931.39
533.364	38076.02
533.73	38331.15
534.095	38596.91
534.461	38776.34
534.826	39015.2
535.192	39087.29
535.557	39259.72
535.923	39333.39
536.288	39569.09
536.653	39799.14
537.019	39718.24
537.384	39934.5
537.749	40167.49
538.114	40318.22
538.479	40398.67
538.845	40480.93
539.21	40556.63
539.575	40795.5
539.94	40917.53
540.305	41183.73
540.67	41122.04
541.034	41165.43
541.399	41514.57
541.764	41616.72
542.129	41863.04
542.494	41967.89
542.858	42042.02
543.223	42059.42
543.587	42327.66
543.952	42176.93
544.316	42457.6
544.681	42601.1
545.045	42862.33
545.41	43031.82
545.774	43031.14
546.138	43089.67
546.503	43251.25
546.867	43419.15
547.231	43756.77
547.595	43727.17
547.959	43987.95
548.324	43944.79
548.688	44063.21
549.052	44335.29
549.416	44432.24
549.779	44382.29
550.143	44530.54
550.507	44845.78
550.871	45030.64
551.235	44893.47
551.599	45370.06
551.962	45461.59
552.326	45577.06
552.689	45798.53
553.053	45627.46
553.417	45712.43
553.78	46367.33
554.143	46124.39
554.507	46373.65
554.87	46502.92
555.234	46808.67
555.597	46677.15
555.96	46984.26
556.323	47094.76
556.686	47053.86
557.05	47442.1
557.413	47487.3
557.776	47667.86
558.139	47913.27
558.502	48044.34
558.865	48104.23
559.228	48616.53
559.59	48557.32
559.953	48660.6
560.316	49087.25
560.679	49017.43
561.041	49174.71
561.404	49308.72
561.767	49628.71
562.129	49499.9
562.492	49890.62
562.854	49925.88
563.217	49956.61
563.579	50204.51
563.941	50461.91
564.304	50582.13
564.666	50696.7
565.028	50789.13
565.39	50962.01
565.753	51122.46
566.115	51162.23
566.477	51527.42
566.839	51526.06
567.201	51635.21
567.563	51711.14
567.925	51968.76
568.287	52001.98
568.648	52092.15
569.01	52205.82
569.372	52499.37
569.734	52440.39
570.095	52619.37
570.457	52677.22
570.819	52761.73
571.18	52827.72
571.542	53042.4
571.903	53128.5
572.265	53217.09
572.626	53310.19
572.987	53283.08
573.349	53401.27
573.71	53508.61
574.071	53525.56
574.432	53659.56
574.794	53820.46
575.155	53817.53
575.516	53775.49
575.877	53939.56
576.238	54027.69
576.599	54098.87
576.96	54072.89
577.32	54127.57
577.681	54278.53
578.042	54347.46
578.403	54296.61
578.763	54356.95
579.124	54480.79
579.485	54429.26
579.845	54572.76
580.206	54529.37
580.566	54481.01
580.927	54595.58
581.287	54674
581.648	54598.75
582.008	54815.92
582.368	54623.83
582.728	54753.77
583.089	54670.61
583.449	54720.55
583.809	54735.47
584.169	54856.37
584.529	54692.08
584.889	54878.06
585.249	54771.85
585.609	54739.08
585.969	54838.97
586.329	54701.8
586.688	54800.1
587.048	54815.24
587.408	54730.95
587.768	54812.3
588.127	54838.52
588.487	54747.67
588.846	55002.58
589.206	54710.84
589.565	54740.89
589.925	54903.6
590.284	54836.48
590.643	54873.09
591.003	54867.44
591.362	54968
591.721	54953.31
592.08	54908.34
592.44	55038.96
592.799	55028.34
593.158	54982.92
593.517	54916.03
593.876	55048.23
594.235	54937.27
594.593	54952.64
594.952	55043.26
595.311	55013.43
595.67	55025.4
596.029	55184.27
596.387	55212.97
596.746	55276.24
597.104	55038.74
597.463	55061.56
597.822	55210.26
598.18	55104.5
598.538	55122.8
598.897	55194.44
599.255	55101.79
599.613	55405.28
599.972	55223.59
600.33	55345.85
600.688	55236.47
601.046	55397.37
601.404	55384.26
601.762	55307.88
602.12	55539.29
602.478	55470.59
602.836	55421.33
603.194	55288.67
603.552	55452.51
603.91	55358.5
604.268	55508.33
604.625	55494.54
604.983	55585.39
605.341	55459.74
605.698	55640.08
606.056	55709.91
606.413	55599.63
606.771	55702.45
607.128	55719.62
607.485	55618.38
607.843	55635.33
608.2	55753.52
608.557	55908.32
608.914	55789
609.272	55919.39
609.629	55971.82
609.986	56099.27
610.343	55891.82
610.7	56068.99
611.057	55971.59
611.414	56004.36
611.771	56065.83
612.127	56204.58
612.484	56158.48
612.841	56271.92
613.198	56108.99
613.554	56131.82
613.911	56365.26
614.267	56268.99
614.624	56179.27
614.98	56297.01
615.337	56361.64
615.693	56349.44
616.05	56328.42
616.406	56456.55
616.762	56385.37
617.118	56420.62
617.475	56361.64
617.831	56454.29
618.187	56483.9
618.543	56525.93
618.899	56612.48
619.255	56540.39
619.611	56532.26
619.967	56572.71
620.323	56604.57
620.678	56523.22
621.034	56462.88
621.39	56558.47
621.746	56468.76
622.101	56811.12
622.457	56565.7
622.812	56590.56
623.168	56645.25
623.523	56632.82
623.879	56727.28
624.234	56549.43
624.589	56624.68
624.945	56647.96
625.3	56672.37
625.655	56658.58
626.01	56622.2
626.365	56717.79
626.72	56624.91
627.075	56555.31
627.43	56640.28
627.785	56512.37
628.14	56571.58
628.495	56632.59
628.85	56571.58
629.205	56513.27
629.559	56627.85
629.914	56502.2
630.269	56496.1
630.623	56469.21
630.978	56411.13
631.332	56486.38
631.687	56508.98
632.041	56322.54
632.396	56437.8
632.75	56315.99
633.104	56388.98
633.459	56272.83
633.813	56261.08
634.167	56182.66
634.521	56150.12
634.875	56227.18
635.229	56130.23
635.583	55953.29
635.937	55966.4
636.291	55941.54
636.645	55999.84
636.999	55846.17
637.352	55946.28
637.706	55783.12
638.06	55895.89
638.413	55808.21
638.767	55708.1
639.121	55791.26
639.474	55579.97
639.828	55644.14
640.181	55642.11
640.534	55669
640.888	55521.21
641.241	55457.93
641.594	55490.25
641.947	55483.92
642.301	55440.08
642.654	55443.02
643.007	55473.3
643.36	55377.71
643.713	55244.61
644.066	55378.16
644.419	55172.29
644.771	54931.85
645.124	54671.29
645.477	54639.2
645.83	54494.34
646.182	54360.79
646.535	54317.63
646.888	54389.26
647.24	54192.43
647.593	54348.13
647.945	54288.7
648.298	54114.24
648.65	54064.52
649.002	54009.16
649.355	54057.97
649.707	54032.66
650.059	54157.86
650.411	54527.11
650.763	54510.39
651.115	54785.41
651.467	54693.21
651.819	54645.98
652.171	54461.58
652.523	54527.34
652.875	54476.27
653.227	54356.27
653.578	54580.67
653.93	54388.58
654.282	54299.32
654.633	54262.71
654.985	54337.74
655.337	54251.41
655.688	54329.6
656.039	54365.53
656.391	54101.36
656.742	54151.53
657.094	54147.01
657.445	54266.33
657.796	54122.38
658.147	54088.03
658.498	54060.01
658.849	54137.52
659.2	54116.27
659.551	53988.14
659.902	54055.26
660.253	53913.57
660.604	53980.69
660.955	53898.65
661.306	53989.05
661.656	53874.25
662.007	53996.28
662.358	53897.52
662.708	53878.09
663.059	53848.49
663.409	53679
663.76	53889.39
664.11	53787.02
664.461	53843.06
664.811	53741.6
665.161	53759.9
665.511	53672.9
665.862	53634.93
666.212	53742.05
666.562	53767.36
666.912	53638.55
667.262	53652.78
667.612	53630.64
667.962	53599.68
668.312	53527.36
668.662	53695.49
669.011	53573.24
669.361	53506.57
669.711	53448.5
670.06	53392.68
670.41	53428.38
670.76	53345.45
671.109	53423.86
671.459	53447.59
671.808	53303.41
672.157	53319.69
672.507	53152.46
672.856	53167.83
673.205	53251.21
673.554	53343.64
673.904	53227.71
674.253	53163.31
674.602	53184.55
674.951	52800.15
675.3	52580.95
675.649	53038.11
675.998	53015.74
676.346	53040.6
676.695	53196.98
677.044	52898.45
677.393	53009.41
677.741	52990.88
678.09	52905.69
678.438	52889.87
678.787	52881.73
679.135	52900.49
679.484	52603.32
679.832	52843.99
680.181	52609.65
680.529	52634.05
680.877	52627.05
681.225	52535.98
681.573	52628.4
681.922	52490.55
682.27	52355.19
682.618	52300.96
682.966	52303.44
683.314	52276.55
683.661	52273.39
684.009	52034.75
684.357	51985.26
684.705	51954.07
685.053	52039.72
685.4	51887.86
685.748	51839.95
686.095	51696
686.443	51591.14
686.79	51512.05
687.138	51603.57
687.485	51545.04
687.832	51401.32
688.18	51425.95
688.527	51221.21
688.874	51314.31
689.221	51136.92
689.568	51038.16
689.915	50933.31
690.262	50949.8
690.609	50776.93
690.956	50811.73
691.303	50682.47
691.65	50475.24
691.997	50477.05
692.344	50309.82
692.69	50225.53
693.037	50248.35
693.383	49998.87
693.73	50111.86
694.077	49880.45
694.423	49922.49
694.769	49797.74
695.116	49627.13
695.462	49535.83
695.808	49542.61
696.155	49433.01
696.501	49240.02
696.847	49257.19
697.193	48927.03
697.539	49130.42
697.885	48828.05
698.231	48708.73
698.577	48666.7
698.923	48590.09
699.269	48430.55
699.614	48259.25
699.96	48166.6
700.306	48183.78
700.651	47943.56
700.997	47881.18
701.342	47844.35
701.688	47742.43
702.033	47683.22
702.379	47698.59
702.724	47538.37
703.069	47549.67
703.415	47110.81
703.76	47116.68
704.105	47082.34
704.45	47122.11
704.795	46740.65
705.14	46684.15
705.485	46641.67
705.83	46381.56
706.175	46507.66
706.52	46328.01
706.865	46137.28
707.209	46218.63
707.554	45909.71
707.899	46052.53
708.243	45778.87
708.588	45755.82
708.932	45536.84
709.277	45533.22
709.621	45651.19
709.966	45184.98
710.31	45272.21
710.654	45032.67
710.998	45054.82
711.342	44989.51
711.687	45034.25
712.031	44716.97
712.375	44490.09
712.719	44720.14
713.063	44492.8
713.407	44632.68
713.75	44390.43
714.094	44418.68
714.438	44136.88
714.782	44102.53
715.125	43979.59
715.469	44052.36
715.812	43908.86
716.156	43678.58
716.499	43680.17
716.843	43655.98
717.186	43301.64
717.53	43558.81
717.873	43548.42
718.216	43452.6
718.559	43284.24
718.902	43075.21
719.246	43219.39
719.589	42962.67
719.932	42684.94
720.275	42737.82
720.617	42780.75
720.96	42715.9
721.303	42536.47
721.646	42612.62
721.989	42317.94
722.331	42488.33
722.674	42265.29
723.016	42304.38
723.359	42174.89
723.701	42261.9
724.044	42097.61
724.386	41812.42
724.729	42038.17
725.071	41840.89
725.413	41748.46
725.755	41654.46
726.097	41606.32
726.439	41473.67
726.782	41264.41
727.124	41491.97
727.465	41378.53
727.807	41421.47
728.149	41153.9
728.491	41138.08
728.833	41096.05
729.175	40939.9
729.516	40798.21
729.858	40866.45
730.199	40881.37
730.541	40641.15
730.882	40602.05
731.224	40765.67
731.565	40577.2
731.906	40426.92
732.248	40513.69
732.589	40296.75
732.93	40177.66
733.271	40270.54
733.612	40095.17
733.953	40186.02
734.294	40027.83
734.635	40143.99
734.976	40071.45
735.317	39843.2
735.658	39795.52
735.999	39737.22
736.339	39605.7
736.68	39713.94
737.021	39557.34
737.361	39320.05
737.702	39393.5
738.042	39455.42
738.383	39305.59
738.723	39346.72
739.063	39026.05
739.404	39181.53
739.744	39150.34
740.084	38989.89
740.424	39059.5
740.764	38856.34
741.104	38917.8
741.444	38623.35
741.784	38600.07
742.124	38775.44
742.464	38612.95
742.804	38452.96
743.143	38498.83
743.483	38447.08
743.823	38310.59
744.162	38118.5
744.502	38319.4
744.841	38024.72
745.181	38216.81
745.52	38062.46
745.86	38069.92
746.199	38034.89
746.538	37824.5
746.877	37907.89
747.216	37676.03
747.556	37741.34
747.895	37836.25
748.234	37453.66
748.573	37514.23
748.911	37508.58
749.25	37333.67
749.589	37366.21
749.928	37323.72
750.267	37248.47
750.605	37178.19
750.944	36936.39
751.283	36835.15
751.621	36963.28
751.96	36697.98
752.298	36585.89
