Data from white_steel_sheet_FLMS001491_058.txt Node
Date: Tue Feb 07 10:58:06 GMT 2017
User: dcchb
Spectrometer: FLMS00149
Trigger mode: 0
Integration Time (sec): 2.000000E-2
Scans to average: 10
Electric dark correction enabled: true
Nonlinearity correction enabled: false
Boxcar width: 0
XAxis mode: Wavelengths
Number of Pixels in Spectrum: 2048
>>>>>Begin Spectral Data<<<<<
341.393	-23.11
341.776	-23.11
342.16	-23.11
342.543	-50.9
342.927	-82.54
343.31	-74.63
343.693	-70.34
344.077	-69.21
344.46	-45.48
344.843	-45.03
345.226	-28.76
345.61	-37.34
345.993	-27.63
346.376	-1.41
346.759	5.59
347.142	31.13
347.525	36.1
347.908	63.22
348.291	62.54
348.674	99.38
349.057	101.86
349.44	125.59
349.823	126.95
350.206	161.07
350.588	190.67
350.971	216.21
351.354	255.98
351.737	234.74
352.119	257.11
352.502	270.9
352.884	272.25
353.267	282.87
353.65	299.82
354.032	325.36
354.414	308.86
354.797	343.21
355.179	320.84
355.562	368.75
355.944	342.53
356.326	359.03
356.709	349.54
357.091	342.08
357.473	349.09
357.855	351.8
358.238	371.46
358.62	339.82
359.002	356.54
359.384	354.51
359.766	351.12
360.148	348.18
360.53	335.08
360.912	358.35
361.294	352.93
361.676	338.47
362.057	348.41
362.439	326.94
362.821	319.26
363.203	342.99
363.584	340.27
363.966	353.15
364.348	361.29
364.729	346.83
365.111	328.75
365.493	341.63
365.874	324
366.256	319.48
366.637	329.88
367.019	346.38
367.4	345.02
367.781	341.86
368.163	316.32
368.544	321.97
368.925	329.43
369.306	346.6
369.688	335.53
370.069	332.36
370.45	342.53
370.831	319.26
371.212	319.71
371.593	325.81
371.974	340.5
372.355	333.49
372.736	321.07
373.117	347.28
373.498	337.11
373.879	333.27
374.26	336.88
374.641	333.27
375.021	326.26
375.402	361.74
375.783	341.86
376.163	366.71
376.544	359.48
376.925	365.58
377.305	339.14
377.686	355.64
378.066	353.83
378.447	354.51
378.827	361.06
379.208	362.42
379.588	352.02
379.968	350.67
380.349	345.7
380.729	345.92
381.109	378.92
381.489	370.1
381.87	389.09
382.25	374.17
382.63	371.01
383.01	397
383.39	379.82
383.77	391.35
384.15	383.66
384.53	384.79
384.91	395.41
385.29	391.57
385.67	377.33
386.049	396.09
386.429	397.67
386.809	403.55
387.189	415.3
387.568	427.05
387.948	406.94
388.328	421.63
388.707	417.11
389.087	423.21
389.466	409.65
389.846	445.13
390.225	439.03
390.605	419.59
390.984	422.98
391.363	425.47
391.743	442.64
392.122	443.77
392.501	446.71
392.881	462.76
393.26	441.51
393.639	481.51
394.018	498.69
394.397	478.8
394.776	476.99
395.155	467.73
395.534	489.2
395.913	496.65
396.292	510.89
396.671	516.09
397.05	526.94
397.429	533.26
397.808	522.64
398.186	546.37
398.565	554.51
398.944	559.02
399.323	528.29
399.701	557.67
400.08	566.26
400.458	574.84
400.837	577.56
401.215	594.05
401.594	597.89
401.972	607.84
402.351	593.15
402.729	616.2
403.107	641.28
403.486	639.25
403.864	657.55
404.242	676.76
404.62	675.41
404.999	663.65
405.377	691
405.755	694.84
406.133	696.65
406.511	733.94
406.889	704.56
407.267	721.96
407.645	738.91
408.023	742.52
408.401	806.25
408.779	785.46
409.156	799.92
409.534	803.76
409.912	821.16
410.29	846.47
410.667	839.7
411.045	871.11
411.422	869.98
411.8	887.15
412.178	914.5
412.555	919.47
412.933	921.5
413.31	957.88
413.687	962.86
414.065	968.96
414.442	1010.09
414.819	995.62
415.197	1008.05
415.574	1018.22
415.951	1002.85
416.328	1024.1
416.705	1018
417.082	1040.82
417.46	1065.68
417.837	1098.45
418.214	1087.37
418.591	1100.48
418.967	1091.67
419.344	1105.68
419.721	1149.29
420.098	1148.39
420.475	1164.66
420.852	1160.82
421.228	1172.34
421.605	1189.06
421.982	1185.45
422.358	1227.03
422.735	1247.59
423.111	1236.75
423.488	1264.32
423.864	1273.58
424.241	1283.07
424.617	1292.34
424.994	1311.77
425.37	1320.59
425.746	1322.39
426.123	1344.99
426.499	1375.73
426.875	1351.77
427.251	1394.26
427.627	1434.26
428.003	1412.79
428.379	1471.32
428.756	1466.35
429.132	1510.19
429.507	1530.3
429.883	1536.17
430.259	1560.35
430.635	1588.15
431.011	1594.25
431.387	1638.54
431.763	1627.7
432.138	1636.28
432.514	1673.35
432.89	1687.13
433.265	1721.71
433.641	1778.43
434.016	1777.75
434.392	1789.05
434.767	1849.39
435.143	1833.12
435.518	1808.71
435.894	1854.58
436.269	1898.65
436.644	1938.2
437.02	1933.45
437.395	1952.21
437.77	1958.99
438.145	1992.89
438.52	2022.94
438.895	2070.4
439.271	2037.63
439.646	2107.91
440.021	2123.05
440.395	2116.5
440.77	2102.94
441.145	2132.54
441.52	2208.25
441.895	2180.45
442.27	2227.46
442.645	2209.6
443.019	2245.76
443.394	2255.03
443.769	2266.32
444.143	2248.25
444.518	2317.62
444.892	2308.36
445.267	2347.23
445.641	2381.12
446.016	2386.32
446.39	2381.12
446.764	2414.57
447.139	2414.57
447.513	2435.13
447.887	2481.23
448.262	2482.36
448.636	2503.15
449.01	2524.62
449.384	2561.68
449.758	2603.26
450.132	2598.07
450.506	2616.82
450.88	2650.72
451.254	2625.19
451.628	2674.22
452.002	2744.05
452.376	2772.53
452.75	2755.8
453.123	2777.72
453.497	2797.61
453.871	2850.72
454.244	2940.21
454.618	2917.38
454.992	2949.47
455.365	3008
455.739	3057.26
456.112	3059.07
456.486	3115.79
456.859	3161.22
457.232	3182.68
457.606	3182.91
457.979	3206.86
458.352	3274.66
458.725	3365.28
459.099	3341.32
459.472	3389.68
459.845	3474.2
460.218	3515.11
460.591	3557.36
460.964	3552.17
461.337	3594.2
461.71	3651.6
462.083	3696.57
462.456	3704.93
462.829	3728.21
463.201	3773.18
463.574	3847.98
463.947	3884.81
464.32	3944.02
464.692	3997.35
465.065	4033.74
465.438	4110.8
465.81	4088.65
466.183	4167.07
466.555	4256.33
466.928	4267.63
467.3	4302.43
467.672	4367.96
468.045	4519.15
468.417	4508.07
468.789	4521.86
469.161	4606.6
469.534	4663.32
469.906	4774.73
470.278	4857.44
470.65	4855.86
471.022	4910.77
471.394	4983.99
471.766	5088.85
472.138	5129.07
472.51	5190.32
472.882	5350.99
473.253	5348.73
473.625	5442.51
473.997	5533.36
474.369	5645.9
474.74	5677.53
475.112	5787.81
475.484	5850.41
475.855	5968.15
476.227	5996.85
476.598	6218.99
476.97	6235.94
477.341	6372.88
477.713	6500.79
478.084	6524.74
478.455	6633.44
478.827	6788.01
479.198	6894.68
479.569	6942.13
479.94	7205.86
480.311	7194.78
480.682	7317.04
481.053	7499.86
481.424	7652.62
481.795	7701.89
482.166	7791.6
482.537	7953.41
482.908	8093.74
483.279	8213.51
483.65	8361.08
484.021	8584.12
484.391	8584.35
484.762	8683.78
485.133	8724.91
485.503	8831.8
485.874	9054.85
486.244	9196.09
486.615	9321.96
486.985	9453.48
487.356	9646.92
487.726	9666.13
488.097	9919
488.467	9956.29
488.837	10168.49
489.207	10276.51
489.578	10376.62
489.948	10536.84
490.318	10688.7
490.688	10713.11
491.058	10864.74
491.428	11021.35
491.798	11214.56
492.168	11361.45
492.538	11471.96
492.908	11552.63
493.278	11651.84
493.648	11817.26
494.017	11968.44
494.387	12010.7
494.757	12185.16
495.126	12236.01
495.496	12372.27
495.866	12468.09
496.235	12468.32
496.605	12706.28
496.974	12744.69
497.344	12883.67
497.713	12941.07
498.082	13118.69
498.452	13169.77
498.821	13260.39
499.19	13348.52
499.559	13448.18
499.928	13682.07
500.298	13717.1
500.667	13841.84
501.036	13769.98
501.405	14021.5
501.774	13957.54
502.143	14130.19
502.512	14174.49
502.88	14356.18
503.249	14414.93
503.618	14525.21
503.987	14616.96
504.356	14706.45
504.724	14785.09
505.093	14821.25
505.462	14979.44
505.83	15082.26
506.199	15215.59
506.567	15369.93
506.936	15366.09
507.304	15612.87
507.672	15608.12
508.041	15791.62
508.409	15881.79
508.777	16070.48
509.145	16147.09
509.514	16200.87
509.882	16339.85
510.25	16403.58
510.618	16538.49
510.986	16627.75
511.354	16774.19
511.722	16976.67
512.09	17136.67
512.458	17200.4
512.826	17393.38
513.193	17397.45
513.561	17455.3
513.929	17695.07
514.297	17751.12
514.664	17954.27
515.032	18015.74
515.4	18135.51
515.767	18255.73
516.135	18493.24
516.502	18283.3
516.869	18747.93
517.237	18723.74
517.604	18727.13
517.972	19088.26
518.339	19180.68
518.706	19211.19
519.073	19313.79
519.44	19451.64
519.808	19667.9
520.175	19680.78
520.542	20028.34
520.909	20123.71
521.276	20240.32
521.643	20481.66
522.009	20592.17
522.376	20746.74
522.743	20784.03
523.11	20940.18
523.477	21242.55
523.843	21487.29
524.21	21628.98
524.577	21788.75
524.943	21861.97
525.31	21991.68
525.676	22267.38
526.043	22389.86
526.409	22524.55
526.776	22793.02
527.142	22838.21
527.508	22948.72
527.874	23104.19
528.241	23254.93
528.607	23406.79
528.973	23666.44
529.339	23583.96
529.705	23939.2
530.071	24088.12
530.437	24244.05
530.803	24320.66
531.169	24460.32
531.535	24579.64
531.901	24689.46
532.267	24791.61
532.632	24891.27
532.998	24971.49
533.364	25238.83
533.73	25310.92
534.095	25517.46
534.461	25564.02
534.826	25710.91
535.192	25835.2
535.557	26067.28
535.923	26085.81
536.288	26173.27
536.653	26297.33
537.019	26247.84
537.384	26509.08
537.749	26550.66
538.114	26704.78
538.479	26662.07
538.845	26931.66
539.21	26925.11
539.575	27088.72
539.94	27143.18
540.305	27367.36
540.67	27260.02
541.034	27417.53
541.399	27515.38
541.764	27570.07
542.129	27700.01
542.494	27818.2
542.858	27880.79
543.223	27958.08
543.587	28050.05
543.952	28212.76
544.316	28237.85
544.681	28305.64
545.045	28451.4
545.41	28687.55
545.774	28690.94
546.138	28688
546.503	28829.69
546.867	28787.89
547.231	29016.81
547.595	29128.22
547.959	29225.84
548.324	29312.39
548.688	29316.23
549.052	29496.12
549.416	29443.01
549.779	29655.66
550.143	29786.73
550.507	29991.02
550.871	29876.45
551.235	30008.65
551.599	30257.23
551.962	30325.25
552.326	30400.95
552.689	30467.62
553.053	30550.1
553.417	30599.36
553.78	30958.45
554.143	30795.74
554.507	31039.35
554.87	31104.44
555.234	31480.47
555.597	31254.49
555.96	31431.89
556.323	31603.18
556.686	31691.31
557.05	31896.05
557.413	32019.89
557.776	32083.62
558.139	32128.82
558.502	32228.47
558.865	32447.23
559.228	32709.14
559.59	32736.71
559.953	32851.06
560.316	33145.74
560.679	33069.58
561.041	33371.04
561.404	33529.01
561.767	33707.53
562.129	33660.75
562.492	33983.91
562.854	33965.15
563.217	34051.03
563.579	34193.39
563.941	34424.12
564.304	34462.54
564.666	34759.93
565.028	34845.58
565.39	34906.6
565.753	35077.44
566.115	35217.1
566.477	35372.35
566.839	35423.87
567.201	35695.73
567.563	35659.34
567.925	35991.99
568.287	36027.92
568.648	36032.67
569.01	36169.61
569.372	36462.71
569.734	36382.04
570.095	36643.5
570.457	36831.74
570.819	36775.93
571.18	36967.79
571.542	37178.85
571.903	37052.75
572.265	37239.87
572.626	37236.7
572.987	37357.83
573.349	37565.28
573.71	37736.13
574.071	37749.01
574.432	37868.1
574.794	38063.35
575.155	38221.31
575.516	37970.47
575.877	38177.47
576.238	38369.1
576.599	38379.05
576.96	38398.03
577.32	38451.36
577.681	38480.29
578.042	38628.76
578.403	38693.39
578.763	38717.8
579.124	38766.16
579.485	38812.03
579.845	38870.56
580.206	38826.49
580.566	38943.55
580.927	38879.83
581.287	39146.03
581.648	39014.06
582.008	39120.95
582.368	39113.94
582.728	39136.99
583.089	38975.19
583.449	39052.7
583.809	39152.59
584.169	39166.37
584.529	39175.41
584.889	39460.15
585.249	39175.41
585.609	39164.56
585.969	39284.56
586.329	39234.39
586.688	39280.04
587.048	39218.8
587.408	39111.91
587.768	39229.65
588.127	39134.96
588.487	39216.99
588.846	39365.91
589.206	39136.99
589.565	39151.46
589.925	39278.23
590.284	39221.96
590.643	39245.01
591.003	39177.44
591.362	39318.91
591.721	39350.1
592.08	39247.27
592.44	39314.84
592.799	39418.34
593.158	39224.67
593.517	39198.01
593.876	39442.75
594.235	39339.25
594.593	39375.41
594.952	39454.95
595.311	39399.59
595.67	39338.34
596.029	39525.91
596.387	39469.41
596.746	39601.84
597.104	39344.67
597.463	39607.94
597.822	39523.88
598.18	39437.55
598.538	39391
598.897	39581.28
599.255	39273.71
599.613	39706.7
599.972	39586.02
600.33	39580.82
600.688	39441.17
601.046	39602.07
601.404	39910.08
601.762	39564.55
602.12	39801.61
602.478	39742.85
602.836	39798.67
603.194	39608.62
603.552	39650.43
603.91	39498.11
604.268	39807.48
604.625	39420.38
604.983	39932
605.341	39642.07
605.698	39736.07
606.056	39977.88
606.413	39913.92
606.771	40002.96
607.128	39997.76
607.485	39874.38
607.843	39956.63
608.2	40169.51
608.557	40335.83
608.914	40123.41
609.272	40252.67
609.629	40302.16
609.986	40411.76
610.343	40255.16
610.7	40591.42
611.057	40375.38
611.414	40497.18
611.771	40549.84
612.127	40634.36
612.484	40613.11
612.841	40726.56
613.198	40642.49
613.554	40730.4
613.911	40844.75
614.267	40798.19
614.624	40906.21
614.98	40874.35
615.337	41138.07
615.693	41044.06
616.05	41012.2
616.406	41167.22
616.762	41173.55
617.118	41250.38
617.475	41060.78
617.831	41185.75
618.187	41297.16
618.543	41209.71
618.899	41483.82
619.255	41509.13
619.611	41313.66
619.967	41562.69
620.323	41580.09
620.678	41429.81
621.034	41388.23
621.39	41382.13
621.746	41276.82
622.101	41794.78
622.457	41531.51
622.812	41494.67
623.168	41634.1
623.523	41550.49
623.879	41740.31
624.234	41378.52
624.589	41604.95
624.945	41672.52
625.3	41688.11
625.655	41621.9
626.01	41550.72
626.365	41649.24
626.72	41632.52
627.075	41625.06
627.43	41587.55
627.785	41437.72
628.14	41566.76
628.495	41602.92
628.85	41479.53
629.205	41274.34
629.559	41612.18
629.914	41374.9
630.269	41468.46
630.623	41368.8
630.978	41157.96
631.332	41484.05
631.687	41361.79
632.041	41275.47
632.396	41167.45
632.75	41133.33
633.104	41162.7
633.459	41107.79
633.813	41114.57
634.167	40946.66
634.521	40947.79
634.875	40898.98
635.229	40964.52
635.583	40743.28
635.937	40766.33
636.291	40689.95
636.645	40677.97
636.999	40510.52
637.352	40843.39
637.706	40442.5
638.06	40535.15
638.413	40371.09
638.767	40377.19
639.121	40489.95
639.474	40266.68
639.828	40219
640.181	40283.86
640.534	40272.1
640.888	40167.25
641.241	39847.48
641.594	39978.33
641.947	40047.25
642.301	39969.51
642.654	39921.61
643.007	39906.01
643.36	39848.61
643.713	39738.33
644.066	39917.76
644.419	39595.51
644.771	39330.43
645.124	38918.92
645.477	38938.13
645.83	38679.38
646.182	38435.09
646.535	38311.48
646.888	38525.48
647.24	38347.86
647.593	38532.72
647.945	38448.2
648.298	38243.46
648.65	38172.73
649.002	38156
649.355	38128.66
649.707	38165.49
650.059	38318.03
650.411	38717.34
650.763	38637.8
651.115	39046.37
651.467	38952.37
651.819	38986.94
652.171	38809.32
652.523	38722.32
652.875	38796.66
653.227	38612.04
653.578	38794.63
653.93	38810.45
654.282	38504.02
654.633	38616.1
654.985	38584.24
655.337	38657.68
655.688	38444.13
656.039	38653.39
656.391	38276.23
656.742	38344.92
657.094	38388.99
657.445	38454.98
657.796	38428.99
658.147	38467.41
658.498	38332.95
658.849	38314.19
659.2	38247.98
659.551	38195.78
659.902	38241.42
660.253	38170.24
660.604	38116
660.955	37816.12
661.306	38041.88
661.656	37941.77
662.007	37865.16
662.358	37922.11
662.708	37878.5
663.059	37809.57
663.409	37537.71
663.76	37809.57
664.11	37666.3
664.461	37625.39
664.811	37579.07
665.161	37445.96
665.511	37399.64
665.862	37275.12
666.212	37223.82
666.562	37343.59
666.912	37193.32
667.262	37024.73
667.612	37084.17
667.962	36989.25
668.312	36874.68
668.662	36886.66
669.011	36785.87
669.361	36673.1
669.711	36709.26
670.06	36526.44
670.41	36396.73
670.76	36204.64
671.109	36490.06
671.459	36307.92
671.808	36282.83
672.157	36179.78
672.507	35892.33
672.856	35958.09
673.205	35908.38
673.554	35963.07
673.904	35719.46
674.253	36021.14
674.602	35810.98
674.951	35222.75
675.3	35089.19
675.649	35559.01
675.998	35540.7
676.346	35546.58
676.695	35579.12
677.044	35274.95
677.393	35404.89
677.741	35437.2
678.09	35316.3
678.438	35211.45
678.787	35343.87
679.135	35212.8
679.484	35121.28
679.832	35186.59
680.181	34919.93
680.529	35085.8
680.877	35101.17
681.225	35076.31
681.573	35336.87
681.922	34971
682.27	34972.81
682.618	35099.13
682.966	34979.36
683.314	34942.53
683.661	34988.63
684.009	34932.36
684.357	34793.83
684.705	34866.37
685.053	34875.64
685.4	34883.09
685.748	34709.77
686.095	34861.4
686.443	34656.89
686.79	34846.48
687.138	34887.39
687.485	34880.83
687.832	34846.48
688.18	34891
688.527	34762.42
688.874	34573.05
689.221	34782.53
689.568	34718.58
689.915	34578.02
690.262	34632.25
690.609	34489.21
690.956	34418.02
691.303	34515.87
691.65	34389.55
691.997	34479.94
692.344	34191.81
692.69	34182.77
693.037	34431.35
693.383	33922.44
693.73	34246.5
694.077	34122.21
694.423	34151.59
694.769	34000.63
695.116	33981.65
695.462	34016.22
695.808	33772.16
696.155	33906.4
696.501	33652.39
696.847	33730.13
697.193	33459.85
697.539	33738.72
697.885	33385.05
698.231	33310.93
698.577	33364.49
698.923	33277.03
699.269	33079.53
699.614	33070.26
699.96	32945.07
700.306	32942.58
700.651	32835.92
700.997	32752.53
701.342	32748.46
701.688	32706.43
702.033	32508.92
702.379	32553.66
702.724	32390.05
703.069	32487
703.415	32068.03
703.76	32082.49
704.105	32182.15
704.45	32109.38
704.795	31935.83
705.14	31773.12
705.485	31797.3
705.83	31670.3
706.175	31739.67
706.52	31642.05
706.865	31584.2
707.209	31482.05
707.554	31321.83
707.899	31350.53
708.243	31210.2
708.588	31177.43
708.932	31105.79
709.277	31065.12
709.621	30957.32
709.966	30866.48
710.31	31034.61
710.654	30643.88
710.998	30785.35
711.342	30742.86
711.687	30721.62
712.031	30450.44
712.375	30438.69
712.719	30321.41
713.063	30289.54
713.407	30387.17
713.75	30258.58
714.094	30230.79
714.438	30144.91
714.782	30119.83
715.125	29834.87
715.469	30009.1
715.812	29897.24
716.156	29795.54
716.499	29866.95
716.843	29596.91
717.186	29603.23
717.53	29686.62
717.873	29571.37
718.216	29599.39
718.559	29505.83
718.902	29299.29
719.246	29291.38
719.589	29314.43
719.932	29165.28
720.275	29097.26
720.617	29154.43
720.96	28930.26
721.303	29090.7
721.646	29001.21
721.989	28779.3
722.331	28963.7
722.674	28833.99
723.016	28680.55
723.359	28765.51
723.701	28843.03
724.044	28604.62
724.386	28450.49
724.729	28533.2
725.071	28535.24
725.413	28394
725.755	28469.03
726.097	28249.6
726.439	28163.27
726.782	28248.47
727.124	28392.19
727.465	28153.55
727.807	28054.12
728.149	28058.87
728.491	27990.62
728.833	28047.34
729.175	27898.87
729.516	27858.19
729.858	27923.28
730.199	27811.19
730.541	27707.01
730.882	27781.59
731.224	27825.2
731.565	27610.52
731.906	27498.88
732.248	27512.21
732.589	27495.94
732.93	27398.55
733.271	27517.86
733.612	27358.77
733.953	27490.52
734.294	27197.87
734.635	27109.06
734.976	27240.58
735.317	27215.95
735.658	27081.94
735.999	26974.83
736.339	27000.82
736.68	27043.3
737.021	27059.12
737.361	26824.77
737.702	26920.82
738.042	26825.23
738.383	26820.26
738.723	26754.95
739.063	26743.87
739.404	26736.19
739.744	26727.15
740.084	26515.18
740.424	26581.84
740.764	26546.36
741.104	26662.52
741.444	26414.39
741.784	26268.18
742.124	26434.73
742.464	26364
742.804	26338.23
743.143	26307.95
743.483	26253.26
743.823	26103.21
744.162	26142.76
744.502	26131.46
744.841	25971.92
745.181	26048.07
745.52	25985.02
745.86	26047.17
746.199	25946.38
746.538	25724.92
746.877	25855.99
747.216	25751.36
747.556	25741.64
747.895	25761.3
748.234	25610.12
748.573	25554.07
748.911	25573.73
749.25	25526.28
749.589	25406.73
749.928	25372.16
750.267	25291.93
750.605	25268.21
750.944	25204.7
751.283	25182.56
751.621	25138.04
751.96	25011.94
752.298	25069.79
752.636	25031.83
752.975	24897.82
753.313	24827.99
753.651	25026.18
