Data from hue_26_FLMS001491_00008.txt Node
Date: Tue Feb 07 17:13:29 GMT 2017
User: dcchb
Spectrometer: FLMS00149
Trigger mode: 0
Integration Time (sec): 2.000000E-2
Scans to average: 10
Electric dark correction enabled: true
Nonlinearity correction enabled: false
Boxcar width: 0
XAxis mode: Wavelengths
Number of Pixels in Spectrum: 2048
>>>>>Begin Spectral Data<<<<<
341.393	-29.25
341.776	-29.25
342.16	-29.25
342.543	-62.7
342.927	-43.71
343.31	-78.06
343.693	-64.96
344.077	-75.8
344.46	-47.78
344.843	-40.32
345.226	-44.39
345.61	-28.57
345.993	-26.54
346.376	-9.59
346.759	8.26
347.142	31.99
347.525	35.15
347.908	69.28
348.291	74.7
348.674	95.94
349.057	100.69
349.44	117.64
349.823	144.3
350.206	164.87
350.588	207.58
350.971	220.69
351.354	241.02
351.737	257.3
352.119	259.56
352.502	274.92
352.884	276.28
353.267	278.31
353.65	308.14
354.032	316.73
354.414	316.73
354.797	326.45
355.179	321.7
355.562	335.71
355.944	340.46
356.326	332.32
356.709	351.53
357.091	350.17
357.473	351.08
357.855	368.48
358.238	342.72
358.62	340.46
359.002	340.91
359.384	354.02
359.766	358.76
360.148	349.04
360.53	319.67
360.912	346.33
361.294	343.17
361.676	332.55
362.057	338.88
362.439	341.59
362.821	353.56
363.203	337.52
363.584	337.75
363.966	325.54
364.348	333.68
364.729	329.38
365.111	316.95
365.493	337.97
365.874	323.51
366.256	328.48
366.637	353.79
367.019	342.04
367.4	330.06
367.781	327.8
368.163	333
368.544	329.61
368.925	315.6
369.306	318.99
369.688	324.64
370.069	324.41
370.45	317.18
370.831	323.06
371.212	337.52
371.593	320.12
371.974	318.99
372.355	319.67
372.736	319.44
373.117	319.89
373.498	311.98
373.879	307.24
374.26	311.98
374.641	331.19
375.021	318.76
375.402	340.46
375.783	331.64
376.163	314.92
376.544	341.36
376.925	346.78
377.305	332.32
377.686	326.9
378.066	334.58
378.447	348.82
378.827	336.39
379.208	352.89
379.588	331.42
379.968	343.39
380.349	347.24
380.729	339.33
381.109	343.39
381.489	334.58
381.87	317.86
382.25	350.4
382.63	358.76
383.01	351.08
383.39	337.52
383.77	339.55
384.15	336.84
384.53	343.85
384.91	347.24
385.29	355.15
385.67	340.68
386.049	351.3
386.429	357.18
386.809	360.12
387.189	364.41
387.568	362.83
387.948	355.6
388.328	355.6
388.707	375.94
389.087	358.76
389.466	373.9
389.846	389.72
390.225	342.04
390.605	380
390.984	373.68
391.363	365.99
391.743	360.12
392.122	360.57
392.501	389.04
392.881	371.64
393.26	372.55
393.639	382.72
394.018	377.52
394.397	368.48
394.776	370.06
395.155	373.45
395.534	383.39
395.913	376.84
396.292	395.6
396.671	414.81
397.05	376.61
397.429	376.61
397.808	392.21
398.186	402.6
398.565	411.87
398.944	403.96
399.323	395.37
399.701	410.96
400.08	393.34
400.458	418.65
400.837	408.7
401.215	401.25
401.594	402.6
401.972	401.02
402.351	403.28
402.729	426.78
403.107	406.9
403.486	415.03
403.864	415.94
404.242	412.32
404.62	418.2
404.999	416.61
405.377	440.12
405.755	429.04
406.133	443.51
406.511	443.28
406.889	438.53
407.267	468.82
407.645	431.75
408.023	440.34
408.401	448.7
408.779	443.28
409.156	458.42
409.534	465.88
409.912	427.46
410.29	462.49
410.667	455.48
411.045	485.76
411.422	471.53
411.8	471.08
412.178	452.09
412.555	491.87
412.933	493.22
413.31	464.07
413.687	485.31
414.065	490.51
414.442	474.92
414.819	483.28
415.197	477.4
415.574	503.16
415.951	502.03
416.328	490.06
416.705	494.8
417.082	499.32
417.46	495.48
417.837	514.01
418.214	500
418.591	524.86
418.967	515.37
419.344	513.56
419.721	516.27
420.098	532.77
420.475	550.4
420.852	532.54
421.228	530.28
421.605	528.7
421.982	526.44
422.358	537.06
422.735	555.59
423.111	541.81
423.488	538.87
423.864	552.2
424.241	558.98
424.617	557.85
424.994	543.16
425.37	536.61
425.746	563.28
426.123	562.6
426.499	564.86
426.875	589.04
427.251	566.44
427.627	601.69
428.003	597.17
428.379	596.95
428.756	602.37
429.132	603.05
429.507	615.03
429.883	618.42
430.259	605.08
430.635	620.22
431.011	655.25
431.387	627.91
431.763	628.81
432.138	644.86
432.514	653.67
432.89	653.22
433.265	666.32
433.641	663.84
434.016	684.4
434.392	678.08
434.767	664.29
435.143	679.43
435.518	678.3
435.894	690.05
436.269	697.96
436.644	701.35
437.02	731.18
437.395	712.42
437.77	717.4
438.145	731.63
438.52	723.5
438.895	728.47
439.271	735.7
439.646	749.71
440.021	758.07
440.395	770.28
440.77	782.93
441.145	730.5
441.52	756.94
441.895	747.45
442.27	768.47
442.645	765.76
443.019	785.64
443.394	746.77
443.769	775.47
444.143	782.03
444.518	782.48
444.892	819.09
445.267	788.35
445.641	818.18
446.016	803.5
446.39	805.53
446.764	817.51
447.139	795.36
447.513	820.9
447.887	834.46
448.262	827
448.636	820.67
449.01	862.25
449.384	832.65
449.758	846.43
450.132	844.62
450.506	852.99
450.88	868.13
451.254	849.14
451.628	905.41
452.002	877.62
452.376	881.46
452.75	898.18
453.123	920.1
453.497	901.8
453.871	896.37
454.244	931.4
454.618	932.08
454.992	935.02
455.365	941.57
455.739	946.99
456.112	973.89
456.486	990.84
456.859	976.15
457.232	1013.21
457.606	1023.15
457.979	1010.72
458.352	998.52
458.725	1028.35
459.099	1045.07
459.472	1037.84
459.845	1067.67
460.218	1078.52
460.591	1072.42
460.964	1089.36
461.337	1105.63
461.71	1121.91
462.083	1149.02
462.456	1137.72
462.829	1132.3
463.201	1161
463.574	1172.3
463.947	1195.58
464.32	1208.68
464.692	1200.55
465.065	1204.84
465.438	1209.13
465.81	1240.09
466.183	1252.3
466.555	1287.1
466.928	1276.25
467.3	1274.22
467.672	1323.48
468.045	1338.85
468.417	1328.91
468.789	1336.36
469.161	1380.43
469.534	1381.79
469.906	1422.24
470.278	1435.12
470.65	1447.32
471.022	1470.82
471.394	1501.33
471.766	1508.11
472.138	1540.43
472.51	1556.02
472.882	1592.18
473.253	1592.18
473.625	1626.3
473.997	1650.93
474.369	1652.97
474.74	1664.49
475.112	1727.09
475.484	1782.45
475.855	1777.03
476.227	1805.5
476.598	1831.49
476.97	1853.86
477.341	1921.43
477.713	1953.52
478.084	1970.24
478.455	2027.19
478.827	2031.71
479.198	2065.84
479.569	2091.6
479.94	2187.41
480.311	2180.41
480.682	2193.97
481.053	2278.49
481.424	2318.03
481.795	2321.65
482.166	2390.12
482.537	2448.2
482.908	2497.46
483.279	2519.61
483.65	2567.97
484.021	2607.97
484.391	2657.46
484.762	2705.37
485.133	2721.41
485.503	2752.82
485.874	2864.68
486.244	2849.09
486.615	2934.74
486.985	2973.61
487.356	3034.85
487.726	3053.38
488.097	3125.69
488.467	3179.93
488.837	3227.39
489.207	3265.35
489.578	3310.55
489.948	3347.61
490.318	3404.33
490.688	3434.61
491.058	3487.49
491.428	3570.43
491.798	3591.9
492.168	3669.86
492.538	3682.74
492.908	3767.71
493.278	3799.8
493.648	3778.11
494.017	3880.93
494.387	3922.06
494.757	3979.01
495.126	4005.9
495.496	4049.29
495.866	4055.39
496.235	4131.77
496.605	4179
496.974	4198.43
497.344	4218.32
497.713	4290.64
498.082	4339
498.452	4347.81
498.821	4335.15
499.19	4402.5
499.559	4424.64
499.928	4465.55
500.298	4486.11
500.667	4497.41
501.036	4551.87
501.405	4645.65
501.774	4602.04
502.143	4673.68
502.512	4637.52
502.88	4711.64
503.249	4778.98
503.618	4774.92
503.987	4828.93
504.356	4800.68
504.724	4905.31
505.093	4935.82
505.462	4914.12
505.83	4922.03
506.199	4992.09
506.567	5100.33
506.936	5054.23
507.304	5106.66
507.672	5119.09
508.041	5128.81
508.409	5178.75
508.777	5243.83
509.145	5208.58
509.514	5247.45
509.882	5268.92
510.25	5313.66
510.618	5309.82
510.986	5347.11
511.354	5411.96
511.722	5463.49
512.09	5513.43
512.458	5487.44
512.826	5504.39
513.193	5488.12
513.561	5514.56
513.929	5579.64
514.297	5625.06
514.664	5634.78
515.032	5604.73
515.4	5711.84
515.767	5727.21
516.135	5739.19
516.502	5714.55
516.869	5780.77
517.237	5839.3
517.604	5833.19
517.972	5912.97
518.339	5905.28
518.706	5834.1
519.073	5907.77
519.44	5945.96
519.808	6025.28
520.175	5983.25
520.542	5993.64
520.909	6104.6
521.276	6122.9
521.643	6164.94
522.009	6133.07
522.376	6159.06
522.743	6190.7
523.11	6237.48
523.477	6262.11
523.843	6311.6
524.21	6383.91
524.577	6390.92
524.943	6418.26
525.31	6449
525.676	6528.54
526.043	6528.54
526.409	6554.53
526.776	6649.44
527.142	6605.38
527.508	6656.68
527.874	6688.76
528.241	6772.83
528.607	6750.01
528.973	6900.51
529.339	6858.7
529.705	6889.44
530.071	6968.08
530.437	6999.27
530.803	7023.67
531.169	7049.89
531.535	7072.03
531.901	7106.61
532.267	7145.25
532.632	7168.3
532.998	7170.11
533.364	7175.08
533.73	7262.08
534.095	7325.13
534.461	7312.7
534.826	7334.85
535.192	7375.3
535.557	7506.37
535.923	7437.22
536.288	7435.64
536.653	7518.8
537.019	7476.77
537.384	7525.8
537.749	7590.21
538.114	7507.95
538.479	7617.55
538.845	7686.7
539.21	7676.76
539.575	7755.4
539.94	7802.63
540.305	7768.06
540.67	7744.56
541.034	7861.84
541.399	7898.68
541.764	7905.23
542.129	7884.67
542.494	7953.59
542.858	7930.31
543.223	7988.62
543.587	8084.66
543.952	8009.18
544.316	8079.24
544.681	8129.4
545.045	8189.52
545.41	8235.62
545.774	8190.19
546.138	8238.1
546.503	8325.33
546.867	8269.51
547.231	8386.12
547.595	8382.28
547.959	8438.1
548.324	8419.79
548.688	8484.42
549.052	8526.46
549.416	8520.13
549.779	8584.53
550.143	8637.87
550.507	8672.22
550.871	8615.72
551.235	8657.07
551.599	8729.84
551.962	8752.67
552.326	8790.18
552.689	8841.02
553.053	8774.13
553.417	8829.73
553.78	8986.78
554.143	8869.72
554.507	8956.05
554.87	8970.96
555.234	9010.29
555.597	8985.65
555.96	9004.18
556.323	9055.93
556.686	9091.87
557.05	9126.44
557.413	9107.23
557.776	9187.91
558.139	9268.36
558.502	9210.96
558.865	9260.45
559.228	9289.6
559.59	9292.31
559.953	9336.83
560.316	9542.25
560.679	9489.6
561.041	9509.26
561.404	9583.38
561.767	9600.1
562.129	9596.48
562.492	9648.46
562.854	9662.7
563.217	9680.32
563.579	9662.02
563.941	9803.49
564.304	9782.47
564.666	9791.51
565.028	9791.28
565.39	9887.55
565.753	9960.77
566.115	9917.61
566.477	10081.9
566.839	10070.6
567.201	10094.32
567.563	10094.78
567.925	10181.55
568.287	10174.32
568.648	10222.46
569.01	10330.48
569.372	10359.18
569.734	10296.58
570.095	10389.91
570.457	10493.41
570.819	10499.06
571.18	10490.47
571.542	10616.35
571.903	10564.6
572.265	10665.16
572.626	10718.72
572.987	10764.14
573.349	10831.25
573.71	10841.65
574.071	10955.55
574.432	11012.72
574.794	11095.43
575.155	11069.67
575.516	11151.25
575.877	11228.53
576.238	11275.76
576.599	11308.98
576.96	11390.79
577.32	11535.64
577.681	11559.6
578.042	11637.11
578.403	11757.56
578.763	11754.85
579.124	11923.66
579.485	12064.44
579.845	12167.49
580.206	12260.37
580.566	12396.41
580.927	12502.62
581.287	12706.01
581.648	12764.54
582.008	12959.56
582.368	13055.83
582.728	13307.57
583.089	13302.6
583.449	13492.43
583.809	13713.89
584.169	13839.31
584.529	13978.52
584.889	14373.53
585.249	14367.66
585.609	14628.22
585.969	14833.18
586.329	14932.62
586.688	15281.08
587.048	15410.34
587.408	15605.14
587.768	15832.93
588.127	16060.72
588.487	16297.33
588.846	16639.01
589.206	16791.1
589.565	17048.49
589.925	17365.55
590.284	17617.29
590.643	17921.24
591.003	18225.64
591.362	18524.84
591.721	18706.08
592.08	19117.14
592.44	19346.29
592.799	19520.74
593.158	19902.88
593.517	20101.52
593.876	20345.81
594.235	20725.01
594.593	20958.45
594.952	21317.53
595.311	21516.4
595.67	21913.68
596.029	22383.27
596.387	22598.18
596.746	22984.16
597.104	23119.07
597.463	23392.05
597.822	23941.42
598.18	24085.37
598.538	24291.01
598.897	24808.97
599.255	24843.32
599.613	25464.99
599.972	25612.34
600.33	25912.89
600.688	26167.8
601.046	26586.77
601.404	26823.38
601.762	27125.06
602.12	27618.84
602.478	27786.97
602.836	28121.87
603.194	28275.99
603.552	28508.53
603.91	28688.19
604.268	29172.92
604.625	29219.02
604.983	29761.6
605.341	29825.11
605.698	30158.88
606.056	30542.6
606.413	30623.5
606.771	31130.83
607.128	31320.43
607.485	31402.92
607.843	31733.76
608.2	32084.48
608.557	32411.93
608.914	32523.57
609.272	32898.02
609.629	33059.14
609.986	33376.65
610.343	33413.49
610.7	33860.25
611.057	33889.41
611.414	34144.09
611.771	34395.61
612.127	34615.94
612.484	34809.16
612.841	35118.3
613.198	35011.64
613.554	35323.72
613.911	35799.86
614.267	35719.64
614.624	36001.67
614.98	36276.24
615.337	36528.66
615.693	36526.62
616.05	36647.07
616.406	37021.75
616.762	37133.39
617.118	37187.85
617.475	37347.85
617.831	37532.47
618.187	37723.2
618.543	37868.74
618.899	38120.48
619.255	38179.69
619.611	38408.83
619.967	38542.16
620.323	38667.36
620.678	38626.46
621.034	38797.53
621.39	38793.91
621.746	38882.27
622.101	39566.32
622.457	39218.53
622.812	39402.93
623.168	39631.63
623.523	39576.71
623.879	39828.01
624.234	39604.06
624.589	39876.37
624.945	40079.3
625.3	40115.91
625.655	40082.24
626.01	40264.15
626.365	40461.21
626.72	40385.96
627.075	40430.7
627.43	40624.6
627.785	40498.95
628.14	40677.48
628.495	40786.17
628.85	40770.58
629.205	40710.47
629.559	40919.28
629.914	40933.29
630.269	40987.75
630.623	40927.86
630.978	40944.81
631.332	41106.16
631.687	41252.15
632.041	41061.65
632.396	41135.32
632.75	40963.57
633.104	41179.38
633.459	41023.46
633.813	41114.07
634.167	41142.1
634.521	41372.15
634.875	41239.95
635.229	41120.63
635.583	41081.53
635.937	41180.97
636.291	41112.49
636.645	41073.85
636.999	41075.66
637.352	41138.71
637.706	41074.3
638.06	41233.17
638.413	41257.35
638.767	41126.96
639.121	41357.68
639.474	41030.69
639.828	41107.52
640.181	41337.57
640.534	41267.97
640.888	41003.12
641.241	40853.97
641.594	41045.38
641.947	41228.2
642.301	41061.42
642.654	41140.97
643.007	41151.36
643.36	41118.14
643.713	41022.55
644.066	41135.32
644.419	40902.1
644.771	40677.02
645.124	40345.28
645.477	40306.86
645.83	40103.71
646.182	40030.49
646.535	39844.73
646.888	39928.79
647.24	39757.95
647.593	40061.45
647.945	39971.73
648.298	39774.9
648.65	39726.54
649.002	39567
649.355	39742.13
649.707	39813.32
650.059	39904.61
650.411	40482
650.763	40399.97
651.115	40689.9
651.467	40723.12
651.819	40716.57
652.171	40600.19
652.523	40577.37
652.875	40533.75
653.227	40444.26
653.578	40649.68
653.93	40549.8
654.282	40416.92
654.633	40446.52
654.985	40499.4
655.337	40544.82
655.688	40441.55
656.039	40684.48
656.391	40354.77
656.742	40373.98
657.094	40502.79
657.445	40599.74
657.796	40465.5
658.147	40442.91
658.498	40518.84
658.849	40498.72
659.2	40455.79
659.551	40417.82
659.902	40517.25
660.253	40427.76
660.604	40466.18
660.955	40197.94
661.306	40411.72
661.656	40290.82
662.007	40374.43
662.358	40295.79
662.708	40281.33
663.059	40216.47
663.409	40030.26
663.76	40484.71
664.11	40144.83
664.461	40416.47
664.811	40125.63
665.161	40281.1
665.511	40228.45
665.862	40235.23
666.212	40343.93
666.562	40416.47
666.912	40265.06
667.262	40132.63
667.612	40218.73
667.962	40206.53
668.312	40220.09
668.662	40395.68
669.011	40307.54
669.361	40148.68
669.711	40127.21
670.06	40173.31
670.41	39950.26
670.76	39968.57
671.109	40201.78
671.459	40226.41
671.808	40023.26
672.157	40068
672.507	39865.97
672.856	39809.02
673.205	40087.21
673.554	40011.05
673.904	39882.92
674.253	40054.67
674.602	39969.7
674.951	39430.73
675.3	39191.19
675.649	39828.91
675.998	39841.57
676.346	39697.84
676.695	39992.07
677.044	39498.3
677.393	39780.32
677.741	39786.65
678.09	39586.88
678.438	39559.76
678.787	39500.56
679.135	39596.37
679.484	39278.19
679.832	39561.12
680.181	39271.64
680.529	39503.27
680.877	39482.25
681.225	39263.28
681.573	39513.89
681.922	39262.37
682.27	39324.52
682.618	39217.85
682.966	39050.63
683.314	39061.02
683.661	39165.2
684.009	38793.68
684.357	38848.37
684.705	38766.79
685.053	38946.67
685.4	38884.3
685.748	38666.68
686.095	38777.86
686.443	38588.94
686.79	38637.76
687.138	38662.61
687.485	38475.05
687.832	38280.02
688.18	38395.5
688.527	37979.02
688.874	38108.73
689.221	38054.95
689.568	37982.18
689.915	37866.48
690.262	37921.84
690.609	37783.77
690.956	37595.52
691.303	37598.46
691.65	37397.34
691.997	37445.7
692.344	37207.96
692.69	37236.89
693.037	37389.65
693.383	36915.99
693.73	37011.36
694.077	36868.08
694.423	36794.64
694.769	36849.33
695.116	36651.37
695.462	36613.63
695.808	36528.88
696.155	36550.35
696.501	36271.72
696.847	36242.11
697.193	36032.17
697.539	36266.74
697.885	35938.39
698.231	35969.35
698.577	35833.99
698.923	35853.42
699.269	35764.61
699.614	35604.84
699.96	35503.83
700.306	35445.07
700.651	35318.97
700.997	35211.86
701.342	35154.46
701.688	35151.29
702.033	35017.29
702.379	34907.91
702.724	34840.57
703.069	34979.77
703.415	34585.43
703.76	34553.57
704.105	34547.24
704.45	34492.55
704.795	34368.26
705.14	34206.23
705.485	34226.57
705.83	34095.95
706.175	34166.23
706.52	34053.02
706.865	33966.69
707.209	33892.57
707.554	33840.37
707.899	33885.34
708.243	33587.27
708.588	33541.39
708.932	33459.13
709.277	33431.11
709.621	33462.07
709.966	33200.38
710.31	33178.69
710.654	33006.26
710.998	32917
711.342	32966.94
711.687	32828.64
712.031	32728.08
712.375	32583.23
712.719	32669.78
713.063	32587.07
713.407	32661.64
713.75	32510.23
714.094	32584.58
714.438	32331.03
714.782	32381.42
715.125	32199.73
715.469	32364.02
715.812	32174.87
716.156	31987.76
716.499	32009.23
716.843	32018.04
717.186	31866.18
717.53	31938.04
717.873	31938.95
718.216	31760.42
718.559	31745.28
718.902	31576.02
719.246	31635.45
719.589	31501.67
719.932	31369.7
720.275	31380.77
720.617	31265.29
720.96	31185.52
721.303	31195.69
721.646	31335.12
721.989	31021.46
722.331	31089.93
722.674	30961.35
723.016	31132.87
723.359	31052.87
723.701	31012.19
724.044	30919.99
724.386	30689.04
724.729	30899.2
725.071	30709.15
725.413	30680.9
725.755	30710.73
726.097	30508.03
726.439	30277.3
726.782	30554.58
727.124	30636.61
727.465	30392.32
727.807	30307.8
728.149	30143.06
728.491	30291.99
728.833	30321.36
729.175	30183.06
729.516	30096.06
729.858	29972.22
730.199	30138.09
730.541	29971.09
730.882	29957.31
731.224	30055.16
731.565	29788.27
731.906	29756.63
732.248	29860.13
732.589	29675.05
732.93	29515.74
733.271	29615.62
733.612	29644.55
733.953	29634.6
734.294	29443.65
734.635	29387.6
734.976	29465.34
735.317	29312.8
735.658	29343.99
735.999	29395.51
736.339	29363.42
736.68	29506.92
737.021	29231.67
737.361	29089.76
737.702	29277.78
738.042	29267.38
738.383	29029.42
738.723	29107.84
739.063	29054.5
739.404	29001.4
739.744	28918.46
740.084	28753.95
740.424	28841.85
740.764	28774.96
741.104	28839.82
741.444	28771.8
741.784	28735.87
742.124	28641.41
742.464	28560.05
742.804	28469.21
743.143	28508.98
743.483	28523.44
743.823	28407.06
744.162	28391.47
744.502	28406.84
744.841	28179.05
745.181	28401.64
745.52	28286.39
745.86	28271.25
746.199	28320.29
746.538	28097.02
746.877	28258.82
747.216	28107.41
747.556	28162.1
747.895	28099.73
748.234	27941.77
748.573	27921.65
748.911	27892.28
749.25	27907.87
749.589	27653.19
749.928	27769.11
750.267	27849.34
750.605	27678.5
750.944	27643.69
751.283	27584.26
751.621	27740.41
751.96	27400.54
752.298	27383.59
752.636	27527.31
752.975	27290.93
753.313	27274.89
753.651	27418.16
753.989	27241.44
754.327	27233.54
754.666	27092.3
755.004	27174.1
755.342	27142.92
755.679	27119.64
756.017	26813.43
756.355	27032.18
756.693	26820.21
757.031	26842.81
757.368	26621.57
757.706	26575.47
758.044	26605.53
758.381	26711.06
758.719	26343.62
759.056	26479.43
759.394	26317.63
759.731	26241.7
760.068	26128.93
760.405	26147.46
