Data from hue_200_FLMS001491_00032.txt Node
Date: Tue Feb 07 16:43:11 GMT 2017
User: dcchb
Spectrometer: FLMS00149
Trigger mode: 0
Integration Time (sec): 2.000000E-2
Scans to average: 10
Electric dark correction enabled: true
Nonlinearity correction enabled: false
Boxcar width: 0
XAxis mode: Wavelengths
Number of Pixels in Spectrum: 2048
>>>>>Begin Spectral Data<<<<<
341.393	-14.32
341.776	-14.32
342.16	-14.32
342.543	-57.48
342.927	-85.28
343.31	-78.27
343.693	-57.26
344.077	-74.66
344.46	-58.39
344.843	-50.25
345.226	-40.31
345.61	-24.49
345.993	-16.36
346.376	-12.51
346.759	16.19
347.142	16.64
347.525	52.8
347.908	60.48
348.291	73.81
348.674	90.08
349.057	102.51
349.44	116.75
349.823	137.99
350.206	166.01
350.588	185.67
350.971	205.33
351.354	206.69
351.737	234.03
352.119	263.19
352.502	253.69
352.884	275.61
353.267	288.95
353.65	295.5
354.032	290.53
354.414	316.74
354.797	307.93
355.179	302.73
355.562	322.62
355.944	310.64
356.326	327.59
356.709	353.13
357.091	341.83
357.473	341.6
357.855	332.11
358.238	345.22
358.62	353.13
359.002	345.44
359.384	346.12
359.766	330.75
360.148	342.51
360.53	348.38
360.912	336.63
361.294	338.89
361.676	348.38
362.057	338.66
362.439	336.18
362.821	330.98
363.203	333.24
363.584	317.65
363.966	325.33
364.348	341.6
364.729	331.66
365.111	319.23
365.493	290.98
365.874	310.87
366.256	337.31
366.637	316.07
367.019	317.42
367.4	318.78
367.781	321.71
368.163	321.94
368.544	297.53
368.925	307.25
369.306	318.55
369.688	315.84
370.069	315.39
370.45	323.75
370.831	299.57
371.212	309.29
371.593	312.68
371.974	303.64
372.355	323.3
372.736	308.38
373.117	305.9
373.498	326.01
373.879	318.1
374.26	340.7
374.641	301.38
375.021	311.55
375.402	331.88
375.783	320.81
376.163	325.56
376.544	338.44
376.925	328.95
377.305	361.49
377.686	340.47
378.066	337.31
378.447	332.11
378.827	333.24
379.208	339.79
379.588	326.01
379.968	338.21
380.349	352.9
380.729	344.76
381.109	360.36
381.489	349.28
381.87	350.64
382.25	326.01
382.63	342.96
383.01	342.73
383.39	341.83
383.77	357.19
384.15	337.99
384.53	354.71
384.91	344.09
385.29	375.5
385.67	363.07
386.049	364.88
386.429	354.03
386.809	355.16
387.189	342.05
387.568	365.78
387.948	370.3
388.328	378.21
388.707	366.01
389.087	377.08
389.466	382.73
389.846	378.66
390.225	375.95
390.605	391.32
390.984	379.57
391.363	373.46
391.743	381.37
392.122	401.03
392.501	382.96
392.881	406.46
393.26	403.07
393.639	398.55
394.018	376.18
394.397	395.39
394.776	387.48
395.155	410.07
395.534	403.29
395.913	413.92
396.292	421.37
396.671	404.88
397.05	431.32
397.429	424.31
397.808	421.15
398.186	399.9
398.565	397.87
398.944	429.28
399.323	405.78
399.701	435.38
400.08	437.42
400.458	434.48
400.837	435.16
401.215	455.72
401.594	449.39
401.972	451.65
402.351	468.15
402.729	453.24
403.107	452.11
403.486	465.44
403.864	465.21
404.242	481.03
404.62	456.4
404.999	478.77
405.377	504.08
405.755	498.21
406.133	495.72
406.511	504.99
406.889	505.44
407.267	478.55
407.645	513.35
408.023	484.87
408.401	538.21
408.779	524.87
409.156	567.36
409.534	560.58
409.912	543.63
410.29	551.54
410.667	565.1
411.045	581.37
411.422	610.52
411.8	588.83
412.178	599.9
412.555	616.85
412.933	616.4
413.31	636.28
413.687	636.73
414.065	657.75
414.442	653.23
414.819	671.99
415.197	675.6
415.574	706.79
415.951	723.29
416.328	726.9
416.705	724.42
417.082	756.28
417.46	745.43
417.837	740.46
418.214	752.66
418.591	784.98
418.967	770.06
419.344	809.16
419.721	815.94
420.098	812.32
420.475	841.93
420.852	827.92
421.228	863.62
421.605	914.92
421.982	907.91
422.358	915.82
422.735	924.41
423.111	958.08
423.488	971.87
423.864	978.65
424.241	973.67
424.617	1009.83
424.994	1009.61
425.37	1038.98
425.746	1049.38
426.123	1083.05
426.499	1064.75
426.875	1133.22
427.251	1102.03
427.627	1157.85
428.003	1180.68
428.379	1193.78
428.756	1175.7
429.132	1190.17
429.507	1244.85
429.883	1224.52
430.259	1255.48
430.635	1246.66
431.011	1292.08
431.387	1312.42
431.763	1325.08
432.138	1302.93
432.514	1356.49
432.89	1360.33
433.265	1438.75
433.641	1454.57
434.016	1465.41
434.392	1487.56
434.767	1525.75
435.143	1563.49
435.518	1599.42
435.894	1579.08
436.269	1619.31
436.644	1657.27
437.02	1668.35
437.395	1691.17
437.77	1725.97
438.145	1772.98
438.52	1776.82
438.895	1817.27
439.271	1833.77
439.646	1899.98
440.021	1927.77
440.395	1941.56
440.77	1922.35
441.145	1970.94
441.52	1983.37
441.895	2035.12
442.27	2041.67
442.645	2061.33
443.019	2076.92
443.394	2086.64
443.769	2118.5
444.143	2166.19
444.518	2200.76
444.892	2178.39
445.267	2193.08
445.641	2249.35
446.016	2228.56
446.39	2280.31
446.764	2296.58
447.139	2294.54
447.513	2362.56
447.887	2341.77
448.262	2340.87
448.636	2405.5
449.01	2408.67
449.384	2450.7
449.758	2461.09
450.132	2513.97
450.506	2519.4
450.88	2548.32
451.254	2536.57
451.628	2551.03
452.002	2590.36
452.376	2616.57
452.75	2659.96
453.123	2649.11
453.497	2707.41
453.871	2736.79
454.244	2806.17
454.618	2784.93
454.992	2830.8
455.365	2850.91
455.739	2887.07
456.112	2932.27
456.486	2962.78
456.859	2990.12
457.232	3069.67
457.606	3043
457.979	3089.1
458.352	3134.75
458.725	3161.41
459.099	3175.42
459.472	3268.08
459.845	3310.56
460.218	3312.37
460.591	3358.47
460.964	3411.35
461.337	3466.04
461.71	3460.62
462.083	3550.1
462.456	3553.95
462.829	3555.75
463.201	3663.55
463.574	3655.41
463.947	3698.8
464.32	3759.59
464.692	3826.93
465.065	3841.17
465.438	3904.9
465.81	3939.02
466.183	4004.78
466.555	4076.19
466.928	4060.83
467.3	4097.89
467.672	4148.05
468.045	4302.63
468.417	4270.09
468.789	4278.22
469.161	4348.28
469.534	4453.13
469.906	4505.56
470.278	4567.93
470.65	4631.88
471.022	4712.79
471.394	4733.8
471.766	4821.26
472.138	4866.45
472.51	4927.92
472.882	5001.59
473.253	5103.51
473.625	5125.43
473.997	5229.16
474.369	5283.84
474.74	5362.49
475.112	5390.28
475.484	5483.61
475.855	5626.43
476.227	5600.67
476.598	5802.7
476.97	5823.94
477.341	5926.54
477.713	5989.81
478.084	6107.33
478.455	6224.84
478.827	6273.87
479.198	6369.24
479.569	6433.19
479.94	6616.69
480.311	6668.67
480.682	6769.68
481.053	6989.56
481.424	6971.26
481.795	7073.18
482.166	7177.81
482.537	7300.06
482.908	7401.98
483.279	7488.31
483.65	7577.12
484.021	7733.95
484.391	7789.77
484.762	7918.35
485.133	7979.82
485.503	8022.3
485.874	8226.14
486.244	8244.67
486.615	8411.45
486.985	8525.11
487.356	8609.63
487.726	8666.35
488.097	8895.27
488.467	8886.24
488.837	8997.42
489.207	9109.73
489.578	9262.72
489.948	9369.84
490.318	9419.55
490.688	9449.84
491.058	9587.23
491.428	9665.65
491.798	9771.86
492.168	9958.3
492.538	9994.68
492.908	10063.38
493.278	10161
493.648	10186.99
494.017	10376.14
494.387	10396.03
494.757	10541.56
495.126	10516.93
495.496	10610.03
495.866	10711.5
496.235	10702.01
496.605	10827.65
496.974	10912.4
497.344	10958.05
497.713	10973.19
498.082	11004.82
498.452	11087.76
498.821	11185.61
499.19	11144.03
499.559	11227.87
499.928	11252.27
500.298	11388.09
500.667	11434.64
501.036	11407.52
501.405	11509.9
501.774	11512.15
502.143	11481.2
502.512	11632.15
502.88	11668.53
503.249	11695.2
503.618	11687.97
503.987	11676.9
504.356	11801.86
504.724	11835.31
505.093	11865.59
505.462	11796.89
505.83	11890.68
506.199	11988.07
506.567	12089.09
506.936	12051.12
507.304	12204.79
507.672	12252.7
508.041	12167.5
508.409	12269.88
508.777	12355.07
509.145	12295.86
509.514	12324.79
509.882	12444.56
510.25	12405.46
510.618	12443.66
510.986	12383.32
511.354	12539.47
511.722	12590.54
512.09	12613.14
512.458	12547.38
512.826	12639.13
513.193	12641.62
513.561	12651.79
513.929	12694.04
514.297	12742.18
514.664	12861.27
515.032	12851.55
515.4	12919.12
515.767	12838.9
516.135	12845.91
516.502	12781.95
516.869	12959.35
517.237	12923.42
517.604	12988.27
517.972	12988.5
518.339	13004.55
518.706	12949.63
519.073	12995.51
519.44	12996.86
519.808	13166.57
520.175	12995.05
520.542	13179
520.909	13099.91
521.276	13057.65
521.643	13184.65
522.009	13214.26
522.376	13192.11
522.743	13328.6
523.11	13290.19
523.477	13442.05
523.843	13333.58
524.21	13394.14
524.577	13512.55
524.943	13448.83
525.31	13557.75
525.676	13522.5
526.043	13556.85
526.409	13495.83
526.776	13576.28
527.142	13461.48
527.508	13629.39
527.874	13529.05
528.241	13553.01
528.607	13498.32
528.973	13553.23
529.339	13497.19
529.705	13600.24
530.071	13587.81
530.437	13532.89
530.803	13642.27
531.169	13572.89
531.535	13573.8
531.901	13510.52
532.267	13479.79
532.632	13546.23
532.998	13407.47
533.364	13614.02
533.73	13356.4
534.095	13525.89
534.461	13417.42
534.826	13350.52
535.192	13393.91
535.557	13432.1
535.923	13314.14
536.288	13331.77
536.653	13358.66
537.019	13212.45
537.384	13273.01
537.749	13125.67
538.114	13198.89
538.479	13092.45
538.845	13109.63
539.21	13061.72
539.575	12979.23
539.94	12937.65
540.305	13038.22
540.67	12917.09
541.034	12908.5
541.399	12932.46
541.764	12868.28
542.129	12802.29
542.494	12743.08
542.858	12687.94
543.223	12676.19
543.587	12750.09
543.952	12552.13
544.316	12602.3
544.681	12512.35
545.045	12552.35
545.41	12496.31
545.774	12439.14
546.138	12405.46
546.503	12341.96
546.867	12299.03
547.231	12328.86
547.595	12285.92
547.959	12300.83
548.324	12145.13
548.688	12014.29
549.052	12155.3
549.416	11967.51
549.779	11981.52
550.143	11960.28
550.507	11992.82
550.871	11930.9
551.235	11908.3
551.599	11846.16
551.962	11844.35
552.326	11730.91
552.689	11787.18
553.053	11667.63
553.417	11598.48
553.78	11723.45
554.143	11643.45
554.507	11645.03
554.87	11596.9
555.234	11660.4
555.597	11575.66
555.96	11509.67
556.323	11572.72
556.686	11491.59
557.05	11512.38
557.413	11447.3
557.776	11489.1
558.139	11470.12
558.502	11419.28
558.865	11409.78
559.228	11401.65
559.59	11356.68
559.953	11390.58
560.316	11430.8
560.679	11359.84
561.041	11490.69
561.404	11384.93
561.767	11421.08
562.129	11326.85
562.492	11429.67
562.854	11379.96
563.217	11360.29
563.579	11362.1
563.941	11312.61
564.304	11371.82
564.666	11328.43
565.028	11265.61
565.39	11422.21
565.753	11383.8
566.115	11373.85
566.477	11414.3
566.839	11397.81
567.201	11498.6
567.563	11406.39
567.925	11474.64
568.287	11501.31
568.648	11424.25
569.01	11443
569.372	11493.62
569.734	11419.95
570.095	11473.29
570.457	11529.56
570.819	11506.51
571.18	11525.94
571.542	11538.82
571.903	11562.55
572.265	11518.03
572.626	11553.28
572.987	11570.68
573.349	11551.93
573.71	11546.05
574.071	11649.1
574.432	11616.56
574.794	11671.02
575.155	11609.1
575.516	11583.57
575.877	11626.73
576.238	11635.77
576.599	11595.77
576.96	11592.83
577.32	11619.95
577.681	11671.25
578.042	11704.47
578.403	11684.35
578.763	11630.12
579.124	11673.51
579.485	11705.14
579.845	11732.04
580.206	11729.1
580.566	11644.35
580.927	11623.11
581.287	11699.49
581.648	11631.7
582.008	11632.38
582.368	11609.55
582.728	11673.96
583.089	11658.59
583.449	11683.22
583.809	11668.76
584.169	11630.8
584.529	11718.48
584.889	11700.4
585.249	11675.54
585.609	11603.23
585.969	11661.53
586.329	11660.85
586.688	11619.04
587.048	11640.97
587.408	11662.89
587.768	11632.83
588.127	11598.71
588.487	11541.98
588.846	11636.22
589.206	11575.43
589.565	11523.68
589.925	11608.88
590.284	11528.2
590.643	11575.88
591.003	11631.25
591.362	11636.67
591.721	11570.01
592.08	11550.57
592.44	11647.07
592.799	11605.94
593.158	11473.51
593.517	11440.97
593.876	11501.08
594.235	11461.53
594.593	11532.27
594.952	11466.05
595.311	11460.18
595.67	11458.37
596.029	11495.88
596.387	11522.1
596.746	11541.98
597.104	11380.63
597.463	11437.13
597.822	11493.62
598.18	11357.13
598.538	11452.04
598.897	11481.42
599.255	11378.15
599.613	11533.62
599.972	11519.39
600.33	11482.1
600.688	11455.66
601.046	11488.2
601.404	11517.35
601.762	11510.12
602.12	11458.82
602.478	11472.16
602.836	11504.47
603.194	11384.93
603.552	11451.59
603.91	11409.78
604.268	11453.17
604.625	11402.55
604.983	11455.89
605.341	11376.34
605.698	11505.6
606.056	11441.42
606.413	11452.27
606.771	11549.44
607.128	11484.13
607.485	11419.05
607.843	11486.62
608.2	11406.17
608.557	11540.63
608.914	11477.13
609.272	11491.59
609.629	11514.41
609.986	11527.3
610.343	11517.8
610.7	11541.98
611.057	11565.94
611.414	11561.42
611.771	11618.82
612.127	11640.29
612.484	11594.86
612.841	11602.32
613.198	11573.4
613.554	11577.46
613.911	11655.2
614.267	11570.68
614.624	11663.34
614.98	11668.53
615.337	11664.02
615.693	11717.12
616.05	11700.17
616.406	11699.04
616.762	11623.11
617.118	11718.03
617.475	11657.01
617.831	11705.82
618.187	11711.7
618.543	11745.6
618.899	11799.15
619.255	11760.28
619.611	11832.82
619.967	11788.76
620.323	11831.02
620.678	11688.87
621.034	11751.02
621.39	11712.38
621.746	11747.85
622.101	11852.26
622.457	11692.72
622.812	11742.21
623.168	11818.14
623.523	11736.56
623.879	11774.97
624.234	11713.73
624.589	11791.7
624.945	11749.89
625.3	11767.29
625.655	11741.53
626.01	11754.18
626.365	11722.54
626.72	11755.31
627.075	11682.09
627.43	11697.23
627.785	11721.64
628.14	11698.82
628.495	11668.53
628.85	11706.95
629.205	11652.72
629.559	11721.41
629.914	11646.16
630.269	11580.85
630.623	11661.76
630.978	11643.68
631.332	11609.1
631.687	11691.59
632.041	11606.39
632.396	11657.01
632.75	11510.8
633.104	11581.31
633.459	11481.65
633.813	11551.02
634.167	11516.45
634.521	11451.59
634.875	11456.56
635.229	11468.09
635.583	11372.5
635.937	11413.85
636.291	11420.86
636.645	11354.42
636.999	11352.84
637.352	11374.53
637.706	11269
638.06	11288.21
638.413	11365.49
638.767	11288.43
639.121	11287.98
639.474	11179.28
639.828	11257.25
640.181	11219.96
640.534	11209.56
640.888	11193.07
641.241	11169.34
641.594	11173.86
641.947	11312.39
642.301	11186.74
642.654	11236.68
643.007	11155.33
643.36	11189.23
643.713	11170.47
644.066	11240.52
644.419	11058.16
644.771	11031.94
645.124	11003.69
645.477	10967.31
645.83	10899.52
646.182	10886.86
646.535	10790.59
646.888	10836.47
647.24	10774.77
647.593	10798.28
647.945	10799.86
648.298	10696.13
648.65	10711.95
649.002	10645.06
649.355	10832.62
649.707	10741.33
650.059	10825.62
650.411	10914.88
650.763	10918.72
651.115	11102.67
651.467	11035.33
651.819	10998.27
652.171	10977.71
652.523	10963.02
652.875	10942
653.227	10837.6
653.578	11053.18
653.93	10915.56
654.282	10891.38
654.633	10892.96
654.985	10902.23
655.337	10966.41
655.688	10913.07
656.039	11050.47
656.391	10902.68
656.742	10997.82
657.094	10937.93
657.445	10975.45
657.796	10991.94
658.147	10946.52
658.498	10957.14
658.849	10987.2
659.2	11022.22
659.551	10911.27
659.902	11000.08
660.253	10974.09
660.604	11014.09
660.955	10895.45
661.306	11005.05
661.656	10967.54
662.007	10884.6
662.358	10975.22
662.708	11100.87
663.059	11028.33
663.409	10920.53
663.76	11063.58
664.11	11014.77
664.461	11004.15
664.811	11025.16
665.161	11051.38
665.511	11008.44
665.862	11031.94
666.212	11065.16
666.562	11068.78
666.912	11014.99
667.262	11032.17
667.612	11086.86
667.962	11047.99
668.312	11009.12
668.662	11125.72
669.011	11021.32
669.361	10965.05
669.711	10991.26
670.06	10994.43
670.41	10993.52
670.76	10968.67
671.109	10963.69
671.459	11074.65
671.808	10947.88
672.157	11012.06
672.507	10833.98
672.856	10933.41
673.205	10898.84
673.554	10912.62
673.904	10899.74
674.253	10988.33
674.602	10904.71
674.951	10741.78
675.3	10737.71
675.649	10809.57
675.998	10847.09
676.346	10800.99
676.695	10889.57
677.044	10818.84
677.393	10826.98
677.741	10821.1
678.09	10810.03
678.438	10800.99
678.787	10738.16
679.135	10687.77
679.484	10673.98
679.832	10702.46
680.181	10680.09
680.529	10678.5
680.877	10671.5
681.225	10642.8
681.573	10677.83
681.922	10591.73
682.27	10538.62
682.618	10543.14
682.966	10553.99
683.314	10538.17
683.661	10427.21
684.009	10469.24
684.357	10438.06
684.705	10408
685.053	10422.92
685.4	10375.46
685.748	10309.02
686.095	10378.63
686.443	10326.65
686.79	10283.71
687.138	10260.89
687.485	10230.61
687.832	10268.57
688.18	10222.47
688.527	10078.52
688.874	10135.47
689.221	10121.01
689.568	10108.35
689.915	10061.35
690.262	10092.31
690.609	9972.76
690.956	9981.12
691.303	9958.3
691.65	9954.68
691.997	9909.94
692.344	9924.85
692.69	9797.4
693.037	9781.13
693.383	9735.25
693.73	9709.49
694.077	9657.51
694.423	9579.32
694.769	9588.14
695.116	9558.76
695.462	9567.35
695.808	9601.02
696.155	9531.19
696.501	9453.9
696.847	9504.52
697.193	9398.99
697.539	9393.11
697.885	9382.04
698.231	9304.08
698.577	9369.39
698.923	9244.64
699.269	9162.61
699.614	9110.86
699.96	9130.97
700.306	9082.61
700.651	9062.73
700.997	9011.88
701.342	8985.22
701.688	9010.53
702.033	8922.17
702.379	8892.56
702.724	8893.47
703.069	8893.92
703.415	8836.07
703.76	8782.51
704.105	8746.8
704.45	8723.53
704.795	8667.48
705.14	8680.14
705.485	8656.86
705.83	8662.29
706.175	8565.79
706.52	8556.98
706.865	8520.37
707.209	8523.98
707.554	8546.36
707.899	8520.82
708.243	8459.13
708.588	8444.21
708.932	8443.76
709.277	8396.3
709.621	8413.48
709.966	8247.83
710.31	8347.72
710.654	8221.39
710.998	8221.62
711.342	8251.22
711.687	8241.28
712.031	8222.07
712.375	8135.97
712.719	8198.8
713.063	8120.61
713.407	8210.09
713.75	8137.1
714.094	8135.75
714.438	8126.26
714.782	8099.36
715.125	8055.97
715.469	8106.37
715.812	8042.42
716.156	7965.81
716.499	7987.73
716.843	7956.32
717.186	7935.98
717.53	7969.2
717.873	7990.44
718.216	7954.06
718.559	7851.46
718.902	7881.06
719.246	7850.56
719.589	7892.14
719.932	7788.64
720.275	7831.12
720.617	7811.91
720.96	7855.98
721.303	7878.35
721.646	7793.38
721.989	7749.09
722.331	7798.81
722.674	7730.11
723.016	7822.99
723.359	7762.42
723.701	7793.83
724.044	7707.06
724.386	7645.14
724.729	7760.16
725.071	7685.59
725.413	7737.79
725.755	7672.93
726.097	7669.09
726.439	7642.65
726.782	7691.92
727.124	7642.2
727.465	7698.92
727.807	7640.84
728.149	7578.7
728.491	7628.19
728.833	7630.22
729.175	7645.82
729.516	7620.73
729.858	7611.47
730.199	7667.96
730.541	7625.7
730.882	7594.07
731.224	7644.91
731.565	7600.39
731.906	7563.33
732.248	7652.82
732.589	7550.23
732.93	7554.52
733.271	7607.85
733.612	7590.45
733.953	7627.06
734.294	7560.85
734.635	7562.43
734.976	7616.21
735.317	7596.55
735.658	7539.83
735.999	7566.04
736.339	7561.98
736.68	7638.36
737.021	7604.91
737.361	7587.74
737.702	7634.52
738.042	7592.94
738.383	7614.4
738.723	7568.53
739.063	7616.89
739.404	7696.44
739.744	7694.85
740.084	7647.62
740.424	7600.85
740.764	7604.46
741.104	7712.71
741.444	7738.69
741.784	7685.14
742.124	7710.9
742.464	7695.53
742.804	7722.2
743.143	7809.88
743.483	7779.6
743.823	7806.04
744.162	7812.59
744.502	7858.69
744.841	7856.43
745.181	7944.79
745.52	7944.34
745.86	7958.12
746.199	8017.78
746.538	8062.98
746.877	8099.36
747.216	8177.55
747.556	8155.18
747.895	8224.11
748.234	8254.16
748.573	8353.14
748.911	8353.59
749.25	8365.57
749.589	8443.08
749.928	8564.44
750.267	8595.85
750.605	8697.09
750.944	8762.17
751.283	8890.75
751.621	8902.73
751.96	9010.3
752.298	9145.21
752.636	9221.59
752.975	9245.1
753.313	9324.42
753.651	9527.57
753.989	9579.1
754.327	9720.56
754.666	9761.24
755.004	9917.39
755.342	10069.71
755.679	10233.09
756.017	10281.68
756.355	10494.78
756.693	10565.29
757.031	10792.85
757.368	10807.09
757.706	10992.85
