Data from hue_130_FLMS001491_00013.txt Node
Date: Tue Feb 07 16:57:14 GMT 2017
User: dcchb
Spectrometer: FLMS00149
Trigger mode: 0
Integration Time (sec): 2.000000E-2
Scans to average: 10
Electric dark correction enabled: true
Nonlinearity correction enabled: false
Boxcar width: 0
XAxis mode: Wavelengths
Number of Pixels in Spectrum: 2048
>>>>>Begin Spectral Data<<<<<
341.393	-13.73
341.776	-13.73
342.16	-13.73
342.543	-40.17
342.927	-34.74
343.31	-76.1
343.693	-78.81
344.077	-65.7
344.46	-55.54
344.843	-56.44
345.226	-48.53
345.61	-22.99
345.993	-49.43
346.376	-4.69
346.759	19.04
347.142	33.5
347.525	40.51
347.908	70.79
348.291	78.02
348.674	87.74
349.057	128.64
349.44	121.86
349.823	148.53
350.206	156.66
350.588	198.7
350.971	191.69
351.354	238.02
351.737	253.16
352.119	231.46
352.502	255.42
352.884	262.2
353.267	293.83
353.65	283.66
354.032	293.61
354.414	294.74
354.797	296.32
355.179	323.44
355.562	315.98
355.944	321.18
356.326	334.96
356.709	330.44
357.091	310.56
357.473	325.25
357.855	340.61
358.238	349.43
358.62	348.3
359.002	329.31
359.384	337.22
359.766	341.97
360.148	337.67
360.53	340.61
360.912	326.38
361.294	317.56
361.676	326.15
362.057	324.12
362.439	360.27
362.821	324.79
363.203	325.25
363.584	318.92
363.966	316.66
364.348	324.34
364.729	317.34
365.111	312.14
365.493	312.36
365.874	322.31
366.256	315.08
366.637	321.63
367.019	317.11
367.4	337
367.781	334.28
368.163	300.84
368.544	313.72
368.925	311.91
369.306	315.08
369.688	304.23
370.069	333.83
370.45	327.96
370.831	325.92
371.212	315.75
371.593	302.42
371.974	311.91
372.355	326.6
372.736	318.01
373.117	322.76
373.498	310.78
373.879	317.79
374.26	307.17
374.641	317.79
375.021	306.04
375.402	329.54
375.783	321.4
376.163	315.75
376.544	302.65
376.925	345.81
377.305	331.35
377.686	317.34
378.066	325.7
378.447	314.62
378.827	332.25
379.208	331.12
379.588	336.54
379.968	329.09
380.349	327.96
380.729	326.15
381.109	330.44
381.489	335.19
381.87	325.7
382.25	340.39
382.63	348.52
383.01	340.84
383.39	337.9
383.77	349.43
384.15	328.86
384.53	334.06
384.91	340.39
385.29	327.96
385.67	344
386.049	365.24
386.429	360.72
386.809	365.92
387.189	361.85
387.568	333.83
387.948	349.88
388.328	336.54
388.707	345.58
389.087	352.36
389.466	379.93
389.846	360.95
390.225	365.92
390.605	359.6
390.984	348.97
391.363	350.33
391.743	370.22
392.122	372.7
392.501	375.19
392.881	372.93
393.26	368.18
393.639	385.81
394.018	343.78
394.397	363.66
394.776	371.12
395.155	386.94
395.534	367.5
395.913	385.58
396.292	372.48
396.671	399.37
397.05	390.33
397.429	390.1
397.808	362.31
398.186	375.87
398.565	402.98
398.944	377.22
399.323	387.84
399.701	392.36
400.08	384.68
400.458	384.68
400.837	410.67
401.215	412.48
401.594	398.92
401.972	406.37
402.351	409.54
402.729	419.25
403.107	385.58
403.486	420.84
403.864	409.99
404.242	440.5
404.62	400.72
404.999	425.36
405.377	426.26
405.755	428.75
406.133	430.55
406.511	415.64
406.889	445.24
407.267	422.42
407.645	413.15
408.023	448.86
408.401	447.95
408.779	438.24
409.156	439.82
409.534	438.46
409.912	454.73
410.29	463.77
410.667	456.54
411.045	456.77
411.422	466.71
411.8	461.74
412.178	450.67
412.555	470.1
412.933	461.97
413.31	473.49
413.687	474.62
414.065	485.24
414.442	484.56
414.819	477.78
415.197	501.74
415.574	496.09
415.951	507.61
416.328	478.46
416.705	501.74
417.082	527.05
417.46	513.72
417.837	529.99
418.214	518.46
418.591	515.98
418.967	517.33
419.344	511.23
419.721	535.18
420.098	540.61
420.475	516.65
420.852	526.6
421.228	532.92
421.605	522.08
421.982	545.8
422.358	528.86
422.735	551
423.111	568.86
423.488	543.32
423.864	569.53
424.241	546.26
424.617	540.61
424.994	577.67
425.37	566.6
425.746	570.21
426.123	576.76
426.499	581.06
426.875	595.97
427.251	565.24
427.627	608.63
428.003	590.78
428.379	627.84
428.756	616.76
429.132	597.78
429.507	650.66
429.883	630.77
430.259	613.83
430.635	633.49
431.011	640.72
431.387	641.17
431.763	649.3
432.138	648.85
432.514	679.59
432.89	677.78
433.265	659.7
433.641	661.96
434.016	689.76
434.392	683.2
434.767	708.06
435.143	699.93
435.518	720.49
435.894	677.78
436.269	693.82
436.644	721.39
437.02	692.69
437.395	735.86
437.77	733.6
438.145	747.38
438.52	751.68
438.895	739.7
439.271	773.14
439.646	772.01
440.021	782.18
440.395	764.56
440.77	797.1
441.145	770.88
441.52	793.93
441.895	821.96
442.27	822.63
442.645	807.04
443.019	797.1
443.394	806.81
443.769	838.9
444.143	814.72
444.518	829.41
444.892	829.64
445.267	832.35
445.641	826.02
446.016	844.55
446.39	854.95
446.764	836.87
447.139	858.79
447.513	859.92
447.887	871.67
448.262	877.55
448.636	888.85
449.01	901.73
449.384	881.16
449.758	926.81
450.132	912.35
450.506	907.6
450.88	913.25
451.254	901.05
451.628	916.87
452.002	944.21
452.376	958
452.75	957.55
453.123	944.66
453.497	975.17
453.871	988.51
454.244	997.77
454.618	1004.1
454.992	1018.11
455.365	1025.11
455.739	1038
456.112	1048.39
456.486	1029.18
456.859	1043.42
457.232	1091.1
457.606	1073.25
457.979	1086.36
458.352	1107.37
458.725	1119.12
459.099	1117.54
459.472	1134.72
459.845	1165.22
460.218	1167.94
460.591	1172.68
460.964	1183.98
461.337	1221.49
461.71	1245
462.083	1263.3
462.456	1271.44
462.829	1261.27
463.201	1288.61
463.574	1285.9
463.947	1295.16
464.32	1359.34
464.692	1408.61
465.065	1367.48
465.438	1397.53
465.81	1401.15
466.183	1441.6
466.555	1484.54
466.928	1469.85
467.3	1467.81
467.672	1498.77
468.045	1555.95
468.417	1541.26
468.789	1560.02
469.161	1586.46
469.534	1594.14
469.906	1675.72
470.278	1680.92
470.65	1707.13
471.022	1784.19
471.394	1791.87
471.766	1798.65
472.138	1854.7
472.51	1890.18
472.882	1918.65
473.253	1954.13
473.625	1965.65
473.997	2066.89
474.369	2082.94
474.74	2114.8
475.112	2171.52
475.484	2199.55
475.855	2299.21
476.227	2284.29
476.598	2376.04
476.97	2425.76
477.341	2508.01
477.713	2572.42
478.084	2616.26
478.455	2735.13
478.827	2736.93
479.198	2811.96
479.569	2844.28
479.94	2961.79
480.311	3065.51
480.682	3139.41
481.053	3233.42
481.424	3341.66
481.795	3395.9
482.166	3493.07
482.537	3578.49
482.908	3688.32
483.279	3766.29
483.65	3860.52
484.021	3991.59
484.391	4151.81
484.762	4192.94
485.133	4270.45
485.503	4379.83
485.874	4540.95
486.244	4597.45
486.615	4713.6
486.985	4902.3
487.356	5003.09
487.726	5123.99
488.097	5278.56
488.467	5359.69
488.837	5503.87
489.207	5631.77
489.578	5767.36
489.948	5883.29
490.318	6030.18
490.688	6112.66
491.058	6313.34
491.428	6481.24
491.798	6529.38
492.168	6762.14
492.538	6817.73
492.908	7006.88
493.278	7129.13
493.648	7238.28
494.017	7400.77
494.387	7493.64
494.757	7683.92
495.126	7763.92
495.496	7867.42
495.866	7990.58
496.235	8158.94
496.605	8211.14
496.974	8368.2
497.344	8538.59
497.713	8628.3
498.082	8725.25
498.452	8822.88
498.821	8961.85
499.19	9029.42
499.559	9176.09
499.928	9348.74
500.298	9312.58
500.667	9538.34
501.036	9572.23
501.405	9628.05
501.774	9793.25
502.143	9863.75
502.512	9935.16
502.88	10085.89
503.249	10089.28
503.618	10137.87
503.987	10322.95
504.356	10365.21
504.724	10508.71
505.093	10582.38
505.462	10567.69
505.83	10697.4
506.199	10810.39
506.567	10948.24
506.936	10925.64
507.304	11039.54
507.672	11139.65
508.041	11154.79
508.409	11281.12
508.777	11339.87
509.145	11460.09
509.514	11430.94
509.882	11544.39
510.25	11496.93
510.618	11607.43
510.986	11630.49
511.354	11729.24
511.722	11893.53
512.09	11915.22
512.458	11958.61
512.826	12012.85
513.193	12093.98
513.561	12105.27
513.929	12258.27
514.297	12345.49
514.664	12341.2
515.032	12345.72
515.4	12394.53
515.767	12453.97
516.135	12543.68
516.502	12434.98
516.869	12549.56
517.237	12611.25
517.604	12531.25
517.972	12740.96
518.339	12735.54
518.706	12704.81
519.073	12753.17
519.44	12790.91
519.808	12907.51
520.175	12870.9
520.542	12981.41
520.909	13005.14
521.276	12985.03
521.643	13158.58
522.009	13133.5
522.376	13147.73
522.743	13155.19
523.11	13235.87
523.477	13304.57
523.843	13387.28
524.21	13440.83
524.577	13506.59
524.943	13470.44
525.31	13564.9
525.676	13601.28
526.043	13578
526.409	13585.01
526.776	13712.01
527.142	13658.68
527.508	13678.34
527.874	13712.24
528.241	13715.4
528.607	13751.56
528.973	13737.32
529.339	13798.56
529.705	13805.12
530.071	13726.02
530.437	13891.44
530.803	13876.75
531.169	13944.55
531.535	13851.22
531.901	13732.58
532.267	13908.39
532.632	13935.28
532.998	13859.35
533.364	13864.1
533.73	13812.57
534.095	13952.01
534.461	13843.76
534.826	13873.36
535.192	13774.61
535.557	13913.81
535.923	13808.96
536.288	13810.31
536.653	13829.07
537.019	13656.65
537.384	13670.43
537.749	13695.97
538.114	13728.28
538.479	13662.52
538.845	13713.59
539.21	13594.28
539.575	13517.22
539.94	13563.32
540.305	13543.88
540.67	13501.85
541.034	13473.15
541.399	13552.92
541.764	13463.21
542.129	13484.67
542.494	13421.85
542.858	13392.7
543.223	13423.43
543.587	13322.87
543.952	13293.72
544.316	13408.74
544.681	13181.18
545.045	13194.51
545.41	13214.62
545.774	13186.6
546.138	13164
546.503	13149.09
546.867	13039.49
547.231	13093.05
547.595	13048.75
547.959	13073.61
548.324	12973.73
548.688	12953.16
549.052	12955.2
549.416	12876.78
549.779	12917.68
550.143	12807.86
550.507	12921.98
550.871	12812.15
551.235	12779.83
551.599	12772.83
551.962	12738.48
552.326	12681.3
552.689	12721.98
553.053	12623.91
553.417	12646.5
553.78	12672.04
554.143	12631.14
554.507	12570.8
554.87	12595.88
555.234	12672.94
555.597	12575.77
555.96	12510.91
556.323	12494.87
556.686	12507.3
557.05	12617.8
557.413	12533.51
557.776	12495.1
558.139	12554.53
558.502	12465.04
558.865	12530.8
559.228	12526.96
559.59	12489.45
559.953	12478.15
560.316	12549.11
560.679	12473.4
561.041	12524.92
561.404	12568.09
561.767	12548.43
562.129	12500.29
562.492	12555.66
562.854	12535.77
563.217	12473.85
563.579	12485.38
563.941	12600.18
564.304	12564.92
564.666	12568.77
565.028	12626.17
565.39	12593.62
565.753	12667.07
566.115	12677.92
566.477	12711.13
566.839	12606.5
567.201	12725.37
567.563	12620.06
567.925	12695.77
568.287	12683.79
568.648	12649.22
569.01	12732.38
569.372	12785.93
569.734	12687.41
570.095	12765.37
570.457	12813.73
570.819	12825.26
571.18	12825.48
571.542	12792.94
571.903	12818.7
572.265	12822.77
572.626	12873.84
572.987	12854.86
573.349	12992.71
573.71	12867.97
574.071	12900.96
574.432	12874.97
574.794	13011.47
575.155	12926.5
575.516	13013.95
575.877	12970.56
576.238	12941.86
576.599	12958.36
576.96	13012.82
577.32	12970.34
577.681	13005.82
578.042	12990.22
578.403	12980.51
578.763	12986.16
579.124	13011.92
579.485	13027.28
579.845	13116.1
580.206	13086.94
580.566	12958.59
580.927	12962.2
581.287	13048.07
581.648	12987.06
582.008	12963.11
582.368	13072.71
582.728	13011.24
583.089	13031.58
583.449	12927.17
583.809	13055.08
584.169	13000.62
584.529	12931.47
584.889	13064.57
585.249	12918.36
585.609	12881.75
585.969	13015.53
586.329	12952.03
586.688	12931.24
587.048	12873.62
587.408	12846.27
587.768	12855.31
588.127	12856.44
588.487	12827.06
588.846	12881.07
589.206	12760.62
589.565	12805.82
589.925	12918.81
590.284	12841.3
590.643	12822.77
591.003	12886.5
591.362	12923.33
591.721	12845.59
592.08	12895.99
592.44	12920.39
592.799	12794.97
593.158	12765.14
593.517	12793.17
593.876	12796.1
594.235	12841.3
594.593	12783.9
594.952	12796.33
595.311	12739.83
595.67	12759.72
596.029	12785.93
596.387	12823.22
596.746	12825.26
597.104	12686.5
597.463	12687.41
597.822	12790.23
598.18	12771.25
598.538	12701.64
598.897	12735.09
599.255	12584.58
599.613	12838.14
599.972	12708.65
600.33	12816.89
600.688	12656.67
601.046	12751.81
601.404	12796.56
601.762	12735.99
602.12	12791.58
602.478	12735.09
602.836	12743.22
603.194	12761.75
603.552	12614.41
603.91	12697.35
604.268	12774.41
604.625	12684.24
604.983	12737.57
605.341	12635.2
605.698	12795.2
606.056	12777.57
606.413	12743.68
606.771	12819.38
607.128	12817.57
607.485	12715.88
607.843	12768.08
608.2	12788.65
608.557	12871.13
608.914	12798.82
609.272	12899.83
609.629	12872.03
609.986	12925.59
610.343	12805.82
610.7	12959.04
611.057	12860.06
611.414	12877.23
611.771	12833.62
612.127	12919.26
612.484	12910.45
612.841	12959.04
613.198	12947.29
613.554	12909.55
613.911	12984.12
614.267	12941.41
614.624	12910
614.98	12924.91
615.337	13057.79
615.693	13017.12
616.05	13006.49
616.406	13163.55
616.762	13093.27
617.118	13072.93
617.475	13068.41
617.831	13079.03
618.187	13076.55
618.543	13115.19
618.899	13196.32
619.255	13097.34
619.611	13165.81
619.967	13119.03
620.323	13191.57
620.678	13084.01
621.034	13072.03
621.39	13121.75
621.746	13033.39
622.101	13223.89
622.457	13172.82
622.812	13110.45
623.168	13173.95
623.523	13145.7
623.879	13182.99
624.234	13124.91
624.589	13172.59
624.945	13181.86
625.3	13175.3
625.655	13118.36
626.01	13151.58
626.365	13186.15
626.72	13143.67
627.075	13143.89
627.43	13142.99
627.785	13130.33
628.14	13096.66
628.495	13190.44
628.85	13121.75
629.205	13119.26
629.559	13178.69
629.914	13072.48
630.269	13112.25
630.623	13054.18
630.978	13040.17
631.332	13055.76
631.687	13139.15
632.041	13026.61
632.396	12976.44
632.75	13012.6
633.104	12914.07
633.459	12880.4
633.813	12907.06
634.167	12937.8
634.521	12921.98
634.875	12910.23
635.229	12901.41
635.583	12882.88
635.937	12877.01
636.291	12810.34
636.645	12837.01
636.999	12795.43
637.352	12806.27
637.706	12710.91
638.06	12812.83
638.413	12740.51
638.767	12737.35
639.121	12730.34
639.474	12668.88
639.828	12625.04
640.181	12706.16
640.534	12716.33
640.888	12636.79
641.241	12586.84
641.594	12635.2
641.947	12600.86
642.301	12661.64
642.654	12704.13
643.007	12629.33
643.36	12592.72
643.713	12502.78
644.066	12613.96
644.419	12466.17
644.771	12495.1
645.124	12382.78
645.477	12371.03
645.83	12306.17
646.182	12200.87
646.535	12201.77
646.888	12195.89
647.24	12223.92
647.593	12256.01
647.945	12236.12
648.298	12139.17
648.65	12066.86
649.002	12102.11
649.355	12132.17
649.707	12114.99
650.059	12194.54
650.411	12307.08
650.763	12344.36
651.115	12480.63
651.467	12449.9
651.819	12489.45
652.171	12379.17
652.523	12422.55
652.875	12363.57
653.227	12312.05
653.578	12435.66
653.93	12396.57
654.282	12337.81
654.633	12410.8
654.985	12381.43
655.337	12347.98
655.688	12403.57
656.039	12434.98
656.391	12309.34
656.742	12321.99
657.094	12406.51
657.445	12363.57
657.796	12423.23
658.147	12361.09
658.498	12321.09
658.849	12441.09
659.2	12394.08
659.551	12428.88
659.902	12403.35
660.253	12478.37
660.604	12478.82
660.955	12400.18
661.306	12418.94
661.656	12442.44
662.007	12443.8
662.358	12442.89
662.708	12475.66
663.059	12471.14
663.409	12420.75
663.76	12488.77
664.11	12385.72
664.461	12536.68
664.811	12524.25
665.161	12522.44
665.511	12446.96
665.862	12486.96
666.212	12480.86
666.562	12454.87
666.912	12478.15
667.262	12451.25
667.612	12505.49
667.962	12521.76
668.312	12450.8
668.662	12511.59
669.011	12497.36
669.361	12468.43
669.711	12449.45
670.06	12460.97
670.41	12427.3
670.76	12392.05
671.109	12485.83
671.459	12389.56
671.808	12401.31
672.157	12424.14
672.507	12303.46
672.856	12355.44
673.205	12351.37
673.554	12331.48
673.904	12360.64
674.253	12420.97
674.602	12382.56
674.951	12151.15
675.3	12089.91
675.649	12333.74
675.998	12283.8
676.346	12293.97
676.695	12237.7
677.044	12312.28
677.393	12233.86
677.741	12246.06
678.09	12247.19
678.438	12129.68
678.787	12262.56
679.135	12184.59
679.484	12121.32
679.832	12222.11
680.181	12110.02
680.529	12108.21
680.877	12063.24
681.225	12093.52
681.573	12163.35
681.922	12005.84
682.27	11974.66
682.618	11976.24
682.966	11884.49
683.314	11974.2
683.661	11896.24
684.009	11834.32
684.357	11776.02
684.705	11825.51
685.053	11798.84
685.4	11841.55
685.748	11810.14
686.095	11732.18
686.443	11685.17
686.79	11728.11
687.138	11676.13
687.485	11676.13
687.832	11604.95
688.18	11652.86
688.527	11513.88
688.874	11555.46
689.221	11579.19
689.568	11498.29
689.915	11465.29
690.262	11370.38
690.609	11451.05
690.956	11345.52
691.303	11361.79
691.65	11301.68
691.997	11314.11
692.344	11216.48
692.69	11200.67
693.037	11142.14
693.383	11056.71
693.73	11121.12
694.077	11042.25
694.423	10986.89
694.769	11021.46
695.116	10925.19
695.462	10931.29
695.808	10869.83
696.155	10836.16
696.501	10766.78
696.847	10848.36
697.193	10689.94
697.539	10761.81
697.885	10631.87
698.231	10624.41
698.577	10549.61
698.923	10578.08
699.269	10522.27
699.614	10512.77
699.96	10476.62
700.306	10441.82
700.651	10402.04
700.997	10306.23
701.342	10356.62
701.688	10246.34
702.033	10230.3
702.379	10243.4
702.724	10161.82
703.069	10226.45
703.415	10055.39
703.76	10070.53
704.105	10078.21
704.45	10104.2
704.795	9889.06
705.14	9967.48
705.485	9941.72
705.83	9867.14
706.175	9913.02
706.52	9806.58
706.865	9822.4
707.209	9757.54
707.554	9698.33
707.899	9727.48
708.243	9666.92
708.588	9697.2
708.932	9573.14
709.277	9597.09
709.621	9626.7
709.966	9564.55
710.31	9572.46
710.654	9524.33
710.998	9458.11
711.342	9452.69
711.687	9347.38
712.031	9394.39
712.375	9338.57
712.719	9400.71
713.063	9376.99
713.407	9353.03
713.75	9256.31
714.094	9270.55
714.438	9228.97
714.782	9238.46
715.125	9199.36
715.469	9253.82
715.812	9191.23
716.156	9183.09
716.499	9119.36
716.843	9180.83
717.186	9132.25
717.53	9122.3
717.873	9143.32
718.216	9075.07
718.559	9048.41
718.902	9059.48
719.246	8990.1
719.589	9054.96
719.932	8980.16
720.275	9012.47
720.617	8972.48
720.96	9012.47
721.303	8905.59
721.646	8955.75
721.989	8908.3
722.331	8951.69
722.674	8884.79
723.016	8895.87
723.359	8880.27
723.701	8890.44
724.044	8855.42
724.386	8800.96
724.729	8955.3
725.071	8912.82
725.413	8839.37
725.755	8826.94
726.097	8764.57
726.439	8737.91
726.782	8810.9
727.124	8806.6
727.465	8782.65
727.807	8720.73
728.149	8725.7
728.491	8732.93
728.833	8791.69
729.175	8800.96
729.516	8733.84
729.858	8689.32
730.199	8696.55
730.541	8749.66
730.882	8737.23
731.224	8812.93
731.565	8702.65
731.906	8703.1
732.248	8759.6
732.589	8656.78
732.93	8664.46
733.271	8711.01
733.612	8768.87
733.953	8731.58
734.294	8720.28
734.635	8665.82
734.976	8711.47
735.317	8654.74
735.658	8716.89
735.999	8697.91
736.339	8703.33
736.68	8721.18
737.021	8725.93
737.361	8655.65
737.702	8681.64
738.042	8638.25
738.383	8638.25
738.723	8754.63
739.063	8711.47
739.404	8770.9
739.744	8693.84
740.084	8782.2
740.424	8752.37
740.764	8766.38
741.104	8821.29
741.444	8768.19
741.784	8779.49
742.124	8783.78
742.464	8800.28
742.804	8830.78
743.143	8818.58
743.483	8837.56
743.823	8845.02
744.162	8875.76
744.502	8964.11
744.841	8961.18
745.181	9052.02
745.52	9020.61
745.86	9082.76
746.199	9071.91
746.538	9129.08
746.877	9208.85
747.216	9236.42
747.556	9237.78
747.895	9344.22
748.234	9380.15
748.573	9338.57
748.911	9480.26
749.25	9475.74
749.589	9543.99
749.928	9572.91
750.267	9747.14
750.605	9744.66
750.944	9781.49
751.283	9853.81
751.621	9962.28
751.96	10040.7
752.298	10122.95
752.636	10180.81
752.975	10330.41
753.313	10386
753.651	10585.77
753.989	10613.34
754.327	10665.31
754.666	10822.6
755.004	10995.93
755.342	11037.05
755.679	11218.52
756.017	11256.03
756.355	11393.88
756.693	11497.61
757.031	11653.08
757.368	11745.96
757.706	11902.57
758.044	12094.43
758.381	12279.06
758.719	12336.23
759.056	12505.04
