Data from hue_160_FLMS001491_00098.txt Node
Date: Tue Feb 07 16:51:58 GMT 2017
User: dcchb
Spectrometer: FLMS00149
Trigger mode: 0
Integration Time (sec): 2.000000E-2
Scans to average: 10
Electric dark correction enabled: true
Nonlinearity correction enabled: false
Boxcar width: 0
XAxis mode: Wavelengths
Number of Pixels in Spectrum: 2048
>>>>>Begin Spectral Data<<<<<
341.393	-6.57
341.776	-6.57
342.16	-6.57
342.543	-63.52
342.927	-67.81
343.31	-72.1
343.693	-74.14
344.077	-60.13
344.46	-58.54
344.843	-59.9
345.226	-35.04
345.61	-28.49
345.993	-18.77
346.376	-16.51
346.759	4.28
347.142	33.21
347.525	51.28
347.908	46.54
348.291	72.98
348.674	95.35
349.057	119.98
349.44	129.02
349.823	141
350.206	166.54
350.588	182.13
350.971	203.82
351.354	235.46
351.737	225.29
352.119	266.42
352.502	269.81
352.884	272.52
353.267	281.79
353.65	293.54
354.032	281.33
354.414	314.1
354.797	304.61
355.179	317.49
355.562	355.68
355.944	305.51
356.326	336.02
356.709	341.67
357.091	364.5
357.473	336.02
357.855	339.86
358.238	345.29
358.62	352.07
359.002	361.78
359.384	338.96
359.766	330.15
360.148	331.95
360.53	335.57
360.912	331.28
361.294	322.46
361.676	320.43
362.057	331.5
362.439	340.09
362.821	346.42
363.203	315.23
363.584	329.47
363.966	311.84
364.348	318.62
364.729	320.43
365.111	335.8
365.493	340.99
365.874	329.02
366.256	311.84
366.637	303.48
367.019	308.9
367.4	302.12
367.781	324.95
368.163	339.19
368.544	323.59
368.925	289.92
369.306	298.96
369.688	315.01
370.069	323.82
370.45	325.63
370.831	290.6
371.212	323.37
371.593	317.72
371.974	317.49
372.355	295.35
372.736	320.66
373.117	323.14
373.498	307.77
373.879	309.36
374.26	324.95
374.641	302.35
375.021	322.69
375.402	314.78
375.783	331.05
376.163	315.23
376.544	319.07
376.925	349.13
377.305	316.59
377.686	314.55
378.066	341.22
378.447	333.08
378.827	348
379.208	338.06
379.588	340.32
379.968	347.77
380.349	332.86
380.729	317.72
381.109	330.6
381.489	330.6
381.87	327.89
382.25	336.7
382.63	326.3
383.01	350.71
383.39	330.15
383.77	355.46
384.15	352.29
384.53	350.03
384.91	330.15
385.29	354.78
385.67	364.72
386.049	369.24
386.429	345.51
386.809	339.64
387.189	359.3
387.568	360.65
387.948	346.64
388.328	354.55
388.707	367.21
389.087	365.17
389.466	366.08
389.846	355.23
390.225	356.81
390.605	334.21
390.984	344.16
391.363	355
391.743	369.47
392.122	383.48
392.501	339.19
392.881	350.71
393.26	357.49
393.639	367.21
394.018	374.89
394.397	380.77
394.776	391.61
395.155	369.47
395.534	391.39
395.913	377.15
396.292	378.06
396.671	390.26
397.05	387.55
397.429	386.42
397.808	378.96
398.186	382.12
398.565	393.87
398.944	404.72
399.323	392.97
399.701	392.29
400.08	367.89
400.458	384.61
400.837	404.95
401.215	425.51
401.594	411.05
401.972	400.88
402.351	425.96
402.729	396.59
403.107	404.95
403.486	404.5
403.864	429.58
404.242	381.44
404.62	430.26
404.999	406.98
405.377	413.08
405.755	418.73
406.133	403.14
406.511	427.55
406.889	420.99
407.267	427.55
407.645	422.57
408.023	436.81
408.401	446.75
408.779	455.34
409.156	441.1
409.534	437.26
409.912	429.58
410.29	473.65
410.667	449.24
411.045	462.8
411.422	444.72
411.8	461.67
412.178	458.28
412.555	497.6
412.933	460.54
413.31	507.09
413.687	487.2
414.065	478.39
414.442	499.18
414.819	479.07
415.197	512.97
415.574	505.28
415.951	512.51
416.328	489.01
416.705	494.66
417.082	507.32
417.46	500.09
417.837	507.54
418.214	525.62
418.591	543.7
418.967	514.1
419.344	517.71
419.721	518.84
420.098	527.66
420.475	532.85
420.852	538.28
421.228	557.03
421.605	552.29
421.982	574.89
422.358	541.21
422.735	541.21
423.111	552.29
423.488	559.75
423.864	557.49
424.241	572.17
424.617	583.47
424.994	610.82
425.37	595.9
425.746	586.86
426.123	597.71
426.499	598.16
426.875	624.38
427.251	609.01
427.627	609.01
428.003	607.43
428.379	637.26
428.756	637.03
429.132	635.9
429.507	627.31
429.883	618.27
430.259	653.53
430.635	673.87
431.011	653.75
431.387	661.66
431.763	677.03
432.138	677.48
432.514	696.92
432.89	698.05
433.265	707.31
433.641	702.11
434.016	703.47
434.392	711.83
434.767	748.44
435.143	732.17
435.518	736.69
435.894	726.29
436.269	748.67
436.644	768.1
437.02	760.19
437.395	742.57
437.77	773.75
438.145	790.7
438.52	789.57
438.895	793.64
439.271	795.67
439.646	822.56
440.021	823.47
440.395	835.44
440.77	815.78
441.145	848.1
441.52	839.74
441.895	822.34
442.27	866.86
442.645	860.08
443.019	854.43
443.394	853.97
443.769	886.29
444.143	871.83
444.518	881.09
444.892	885.16
445.267	902.56
445.641	909.57
446.016	872.96
446.39	911.83
446.764	938.72
447.139	930.58
447.513	914.76
447.887	931.49
448.262	931.03
448.636	957.25
449.01	951.83
449.384	979.17
449.758	981.43
450.132	985.95
450.506	990.92
450.88	1004.25
451.254	983.91
451.628	990.02
452.002	1009.22
452.376	1061.43
452.75	1038.6
453.123	1055.1
453.497	1053.07
453.871	1075.21
454.244	1079.28
454.618	1075.44
454.992	1122.44
455.365	1110.24
455.739	1115.66
456.112	1176.45
456.486	1143.46
456.859	1131.26
457.232	1166.96
457.606	1194.3
457.979	1189.33
458.352	1210.12
458.725	1247.86
459.099	1240.41
459.472	1239.05
459.845	1273.17
460.218	1279.05
460.591	1295.55
460.964	1331.25
461.337	1328.09
461.71	1363.79
462.083	1399.27
462.456	1393.17
462.829	1388.2
463.201	1413.06
463.574	1422.55
463.947	1435.88
464.32	1429.33
464.692	1479.49
465.065	1500.74
465.438	1535.76
465.81	1535.09
466.183	1553.62
466.555	1576.67
466.928	1591.13
467.3	1616.21
467.672	1665.03
468.045	1704.35
468.417	1726.72
468.789	1720.62
469.161	1763.78
469.534	1801.75
469.906	1827.73
470.278	1861.86
470.65	1874.74
471.022	1920.84
471.394	1970.78
471.766	1995.87
472.138	2006.49
472.51	2052.36
472.882	2141.4
473.253	2141.62
473.625	2186.37
473.997	2244.9
474.369	2285.12
474.74	2291.68
475.112	2369.64
475.484	2449.86
475.855	2500.49
476.227	2507.72
476.598	2626.58
476.97	2645.34
477.341	2723.76
477.713	2782.29
478.084	2825.67
478.455	2935.05
478.827	3019.79
479.198	3051.66
479.569	3100.92
479.94	3262.72
480.311	3289.16
480.682	3413.46
481.053	3527.12
481.424	3599.44
481.795	3636.73
482.166	3744.07
482.537	3827
482.908	3937.06
483.279	4022.93
483.65	4163.72
484.021	4283.72
484.391	4380.66
484.762	4446.42
485.133	4539.3
485.503	4643.93
485.874	4797.37
486.244	4876.24
486.615	5008.89
486.985	5170.25
487.356	5235.55
487.726	5357.13
488.097	5529.11
488.467	5596
488.837	5735.2
489.207	5918.02
489.578	6040.73
489.948	6143.1
490.318	6259.71
490.688	6321.4
491.058	6527.5
491.428	6633.94
491.798	6726.59
492.168	6871.22
492.538	7002.51
492.908	7124.54
493.278	7260.13
493.648	7375.84
494.017	7542.16
494.387	7662.38
494.757	7769.5
495.126	7938.76
495.496	7955.93
495.866	8068.7
496.235	8196.38
496.605	8329.03
496.974	8385.08
497.344	8511.63
497.713	8627.1
498.082	8707.33
498.452	8811.51
498.821	8957.04
499.19	9058.05
499.559	9089.92
499.928	9197.26
500.298	9331.94
500.667	9476.12
501.036	9490.13
501.405	9549.79
501.774	9648.55
502.143	9753.85
502.512	9780.97
502.88	9909.78
503.249	9966.05
503.618	10030.23
503.987	10100.96
504.356	10175.99
504.724	10218.25
505.093	10326.95
505.462	10347.06
505.83	10477.22
506.199	10548.86
506.567	10693.26
506.936	10639.25
507.304	10694.85
507.672	10816.42
508.041	10910.21
508.409	10984.1
508.777	11072.01
509.145	11148.62
509.514	11073.14
509.882	11076.08
510.25	11246.47
510.618	11208.96
510.986	11271.1
511.354	11374.83
511.722	11410.99
512.09	11535.95
512.458	11495.95
512.826	11643.52
513.193	11620.02
513.561	11635.16
513.929	11688.27
514.297	11893.01
514.664	11853.69
515.032	11889.62
515.4	11907.92
515.767	11929.84
516.135	12036.96
516.502	11846.91
516.869	12110.18
517.237	12140.91
517.604	12024.08
517.972	12112.21
518.339	12186.56
518.706	12184.3
519.073	12168.03
519.44	12212.09
519.808	12358.08
520.175	12297.52
520.542	12361.24
520.909	12433.33
521.276	12344.07
521.643	12460.68
522.009	12502.71
522.376	12509.04
522.743	12565.31
523.11	12556.27
523.477	12685.3
523.843	12700.44
524.21	12831.74
524.577	12786.54
524.943	12782.02
525.31	12826.77
525.676	12847.56
526.043	12897.5
526.409	12864.73
526.776	12933.21
527.142	12968.46
527.508	12936.82
527.874	12985.18
528.241	13017.27
528.607	13031.06
528.973	13072.86
529.339	12988.12
529.705	13130.49
530.071	13085.52
530.437	13104.27
530.803	13082.81
531.169	13193.09
531.535	13013.88
531.901	13036.48
532.267	13011.85
532.632	13067.66
532.998	13082.81
533.364	13037.38
533.73	13055.91
534.095	13057.04
534.461	13037.38
534.826	13044.39
535.192	12965.97
535.557	13120.77
535.923	12944.28
536.288	12945.18
536.653	12984.73
537.019	12904.51
537.384	12906.99
537.749	12894.11
538.114	12853.43
538.479	12837.16
538.845	12822.47
539.21	12758.07
539.575	12768.46
539.94	12752.42
540.305	12787.45
540.67	12711.52
541.034	12624.06
541.399	12627.22
541.764	12551.07
542.129	12645.53
542.494	12541.58
542.858	12518.3
543.223	12531.86
543.587	12466.78
543.952	12436.5
544.316	12391.98
544.681	12471.97
545.045	12441.69
545.41	12440.11
545.774	12248.48
546.138	12283.05
546.503	12224.07
546.867	12242.15
547.231	12239.21
547.595	12160.57
547.959	12086.9
548.324	12111.76
548.688	12128.03
549.052	12062.95
549.416	12047.8
549.779	12006.45
550.143	12021.59
550.507	11994.92
550.871	11952.89
551.235	11897.75
551.599	11900.46
551.962	11853.23
552.326	11851.65
552.689	11867.02
553.053	11773.46
553.417	11729.62
553.78	11820.47
554.143	11788.6
554.507	11757.42
554.87	11778.21
555.234	11818.43
555.597	11704.31
555.96	11712.9
556.323	11687.36
556.686	11609.62
557.05	11732.56
557.413	11623.86
557.776	11647.14
558.139	11632
558.502	11595.16
558.865	11635.16
559.228	11615.95
559.59	11594.71
559.953	11550.19
560.316	11653.92
560.679	11671.54
561.041	11594.48
561.404	11632.67
561.767	11698.21
562.129	11615.73
562.492	11664.09
562.854	11627.02
563.217	11602.84
563.579	11687.14
563.941	11674.93
564.304	11634.03
564.666	11668.61
565.028	11603.07
565.39	11770.3
565.753	11801.71
566.115	11678.1
566.477	11740.47
566.839	11800.58
567.201	11787.47
567.563	11786.79
567.925	11839.67
568.287	11852.33
568.648	11825.66
569.01	11858.66
569.372	11926.9
569.734	11822.5
570.095	11813.46
570.457	11853.91
570.819	11836.28
571.18	11839.9
571.542	11987.92
571.903	11981.59
572.265	11982.95
572.626	11982.5
572.987	11947.24
573.349	11993.12
573.71	12001.7
574.071	11989.28
574.432	11965.77
574.794	12075.37
575.155	12024.53
575.516	12026.56
575.877	12061.82
576.238	12045.54
576.599	12053
576.96	12049.84
577.32	12141.14
577.681	12092.32
578.042	12178.2
578.403	12086.67
578.763	12087.13
579.124	12062.72
579.485	12118.76
579.845	12096.62
580.206	12074.92
580.566	12070.63
580.927	12081.02
581.287	12121.48
581.648	12002.16
582.008	12059.78
582.368	12074.47
582.728	12088.26
583.089	12047.13
583.449	12123.28
583.809	12095.04
584.169	12080.8
584.529	11986.79
584.889	12070.85
585.249	11985.89
585.609	11965.77
585.969	12069.73
586.329	12060.91
586.688	12052.32
587.048	12013.46
587.408	11987.47
587.768	11949.05
588.127	11919.22
588.487	11890.97
588.846	12083.96
589.206	11914.7
589.565	11979.56
589.925	12044.41
590.284	11912.89
590.643	11908.15
591.003	11854.14
591.362	11923.74
591.721	11907.47
592.08	11904.53
592.44	11932.33
592.799	11820.92
593.158	11897.07
593.517	11877.41
593.876	11879.22
594.235	11813.46
594.593	11866.57
594.952	11847.13
595.311	11782.05
595.67	11873.8
596.029	11824.99
596.387	11857.08
596.746	11934.81
597.104	11860.46
597.463	11794.48
597.822	11855.27
598.18	11780.02
598.538	11839.67
598.897	11916.06
599.255	11791.31
599.613	11937.98
599.972	11755.83
600.33	11888.49
600.688	11763.52
601.046	11791.54
601.404	11881.03
601.762	11769.62
602.12	11880.35
602.478	11813.91
602.836	11826.57
603.194	11791.54
603.552	11788.6
603.91	11777.3
604.268	11859.11
604.625	11755.61
604.983	11853.46
605.341	11762.61
605.698	11873.57
606.056	11891.65
606.413	11887.13
606.771	11845.78
607.128	11808.49
607.485	11799.22
607.843	11820.47
608.2	11898.88
608.557	11880.8
608.914	11769.62
609.272	11909.5
609.629	11984.08
609.986	11917.64
610.343	11910.41
610.7	12072.44
611.057	11967.35
611.414	11917.41
611.771	11971.2
612.127	11977.75
612.484	12038.99
612.841	12050.06
613.198	12012.55
613.554	11943.63
613.911	12049.16
614.267	12052.78
614.624	11938.88
614.98	11957.64
615.337	12055.94
615.693	12087.35
616.05	12057.52
616.406	12065.43
616.762	12112.44
617.118	12111.08
617.475	12081.25
617.831	12034.7
618.187	12145.66
618.543	12182.49
618.899	12219.33
619.255	12147.69
619.611	12162.38
619.967	12258.65
620.323	12152.43
620.678	12143.17
621.034	12170.97
621.39	12180.46
621.746	12128.48
622.101	12231.08
622.457	12117.86
622.812	12190.17
623.168	12223.39
623.523	12173.45
623.879	12227.01
624.234	12126.67
624.589	12223.17
624.945	12169.38
625.3	12137.97
625.655	12151.08
626.01	12167.12
626.365	12150.63
626.72	12164.41
627.075	12240.79
627.43	12174.36
627.785	12161.47
628.14	12073.57
628.495	12107.01
628.85	12155.6
629.205	12116.28
629.559	12166.22
629.914	12036.28
630.269	12107.01
630.623	12054.58
630.978	12049.39
631.332	12071.98
631.687	12120.57
632.041	12012.78
632.396	12053
632.75	11990.86
633.104	11968.94
633.459	11993.12
633.813	12033.57
634.167	11948.6
634.521	11999.44
634.875	11997.41
635.229	11886
635.583	11890.97
635.937	11919.67
636.291	11829.73
636.645	11880.35
636.999	11869.73
637.352	11877.64
637.706	11781.37
638.06	11855.27
638.413	11837.41
638.767	11770.52
639.121	11810.07
639.474	11726.68
639.828	11822.5
640.181	11789.96
640.534	11763.29
640.888	11738.43
641.241	11587.25
641.594	11739.11
641.947	11661.6
642.301	11666.57
642.654	11693.24
643.007	11706.12
643.36	11623.64
643.713	11694.59
644.066	11638.32
644.419	11633.35
644.771	11511.77
645.124	11441.49
645.477	11405.79
645.83	11312.68
646.182	11247.6
646.535	11272.46
646.888	11277.43
647.24	11282.4
647.593	11253.48
647.945	11217.09
648.298	11232.23
648.65	11273.81
649.002	11203.53
649.355	11330.08
649.707	11221.39
650.059	11296.19
650.411	11370.31
650.763	11434.94
651.115	11528.72
651.467	11453.24
651.819	11437.88
652.171	11467.48
652.523	11457.09
652.875	11507.25
653.227	11407.37
653.578	11528.5
653.93	11494.37
654.282	11417.09
654.633	11368.27
654.985	11364.66
655.337	11484.43
655.688	11465.22
656.039	11473.13
656.391	11423.41
656.742	11417.09
657.094	11473.81
657.445	11440.14
657.796	11470.42
658.147	11415.28
658.498	11424.54
658.849	11473.81
659.2	11427.26
659.551	11503.64
659.902	11493.24
660.253	11545.22
660.604	11541.15
660.955	11456.86
661.306	11516.52
661.656	11506.8
662.007	11474.71
662.358	11468.38
662.708	11453.24
663.059	11532.34
663.409	11356.3
663.76	11485.79
664.11	11427.48
664.461	11572.79
664.811	11518.1
665.161	11484.88
665.511	11485.79
665.862	11514.94
666.212	11544.77
666.562	11480.14
666.912	11542.51
667.262	11506.12
667.612	11524.65
667.962	11489.4
668.312	11543.19
668.662	11518.55
669.011	11492.79
669.361	11483.53
669.711	11513.58
670.06	11470.64
670.41	11440.36
670.76	11457.99
671.109	11526.46
671.459	11475.84
671.808	11398.1
672.157	11526.46
672.507	11401.49
672.856	11394.49
673.205	11414.15
673.554	11440.14
673.904	11473.36
674.253	11464.77
674.602	11497.08
674.951	11247.83
675.3	11142.07
675.649	11288.95
675.998	11323.53
676.346	11290.76
676.695	11382.96
677.044	11306.36
677.393	11437.43
677.741	11316.75
678.09	11298.9
678.438	11263.42
678.787	11295.73
679.135	11304.77
679.484	11177.77
679.832	11270.2
680.181	11195.85
680.529	11174.38
680.877	11143.87
681.225	11153.36
681.573	11156.53
681.922	11141.39
682.27	11122.86
682.618	11145.46
682.966	11061.39
683.314	10950.43
683.661	11044.89
684.009	10982.3
684.357	10934.39
684.705	10886.03
685.053	10918.79
685.4	10879.02
685.748	10884.9
686.095	10889.64
686.443	10841.51
686.79	10829.08
687.138	10854.16
687.485	10850.1
687.832	10755.86
688.18	10780.49
688.527	10707.27
688.874	10718.35
689.221	10705.02
689.568	10600.16
689.915	10617.33
690.262	10550.89
690.609	10526.71
690.956	10537.34
691.303	10500.27
691.65	10434.97
691.997	10417.11
692.344	10400.39
692.69	10316.78
693.037	10349.32
693.383	10200.17
693.73	10269.32
694.077	10162.43
694.423	10141.41
694.769	10132.83
695.116	10078.82
695.462	10061.64
695.808	10008.76
696.155	10026.39
696.501	9950.01
696.847	9960.4
697.193	9893.06
697.539	9918.14
697.885	9793.17
698.231	9751.37
698.577	9821.65
698.923	9713.63
699.269	9700.07
699.614	9640.86
699.96	9647.64
700.306	9657.81
700.651	9527.87
700.997	9571.26
701.342	9528.77
701.688	9417.37
702.033	9453.75
702.379	9419.85
702.724	9398.61
703.069	9486.97
703.415	9256.01
703.76	9326.29
704.105	9329.46
704.45	9232.29
704.795	9219.63
705.14	9143.47
705.485	9113.42
705.83	9131.72
706.175	9082.91
706.52	9071.84
706.865	9058.96
707.209	9044.27
707.554	8999.07
707.899	9025.06
708.243	8949.81
708.588	8948.45
708.932	8887.66
709.277	8888.11
709.621	8918.17
709.966	8750.94
710.31	8797.72
710.654	8708.23
710.998	8739.42
711.342	8748.68
711.687	8676.59
712.031	8667.55
712.375	8687.22
712.719	8658.52
713.063	8609.48
713.407	8637.27
713.75	8626.65
714.094	8583.26
714.438	8570.61
714.782	8633.21
715.125	8531.29
715.469	8527.67
715.812	8537.16
716.156	8460.33
716.499	8419.65
716.843	8469.14
717.186	8466.2
717.53	8437.05
717.873	8457.62
718.216	8467.33
718.559	8387.34
718.902	8366.55
719.246	8338.75
719.589	8327.45
719.932	8289.03
720.275	8325.64
720.617	8313.67
720.96	8250.84
721.303	8288.36
721.646	8296.26
721.989	8271.63
722.331	8293.33
722.674	8299.88
723.016	8272.31
723.359	8301.46
723.701	8249.26
724.044	8221.24
724.386	8208.36
724.729	8211.75
725.071	8156.38
725.413	8200.67
725.755	8180.34
726.097	8175.14
726.439	8108.93
726.782	8155.48
727.124	8138.3
727.465	8123.84
727.807	8113.22
728.149	8049.27
728.491	8073.22
728.833	8182.6
729.175	8130.62
729.516	8065.76
729.858	8093.33
730.199	8129.49
730.541	8059.66
730.882	8057.18
731.224	8168.36
731.565	8081.58
731.906	8072.09
732.248	8086.55
732.589	8016.27
732.93	7999.32
733.271	8050.17
733.612	8030.28
733.953	8064.41
734.294	8071.64
734.635	7998.65
734.976	8082.03
735.317	7995.48
735.658	8047.68
735.999	8075.25
736.339	8084.07
736.68	8120.45
737.021	8083.62
737.361	8076.84
737.702	8039.77
738.042	8078.19
738.383	8049.49
738.723	8154.35
739.063	8088.13
739.404	8096.04
739.744	8082.03
740.084	8139.21
740.424	8172.43
740.764	8107.57
741.104	8202.26
741.444	8124.52
741.784	8144.18
742.124	8224.85
742.464	8248.36
742.804	8204.74
743.143	8226.44
743.483	8328.35
743.823	8229.83
744.162	8240.67
744.502	8335.36
744.841	8331.52
745.181	8399.54
745.52	8358.64
745.86	8368.35
746.199	8482.7
746.538	8515.47
746.877	8520.89
747.216	8507.78
747.556	8593.66
747.895	8692.64
748.234	8642.24
748.573	8692.41
748.911	8838.17
749.25	8869.36
749.589	8877.94
749.928	8994.55
750.267	9024.38
750.605	9066.19
750.944	9089.46
751.283	9231.61
751.621	9275.45
751.96	9275
752.298	9450.13
752.636	9518.61
752.975	9605.83
753.313	9648.32
753.651	9835.21
753.989	9817.58
754.327	9924.92
754.666	10081.75
755.004	10139.83
755.342	10343.67
755.679	10420.73
756.017	10509.31
756.355	10650.55
756.693	10834.28
757.031	10959.02
757.368	11004.89
757.706	11093.93
758.044	11286.69
758.381	11508.38
758.719	11527.14
759.056	11775.95
759.394	11832.67
