Data from hue_220_FLMS001491_00005.txt Node
Date: Tue Feb 07 16:38:27 GMT 2017
User: dcchb
Spectrometer: FLMS00149
Trigger mode: 0
Integration Time (sec): 2.000000E-2
Scans to average: 10
Electric dark correction enabled: true
Nonlinearity correction enabled: false
Boxcar width: 0
XAxis mode: Wavelengths
Number of Pixels in Spectrum: 2048
>>>>>Begin Spectral Data<<<<<
341.393	-2.32
341.776	-2.32
342.16	-2.32
342.543	-62.43
342.927	-60.17
343.31	-63.11
343.693	-74.63
344.077	-58.59
344.46	-50.9
344.843	-56.33
345.226	-41.19
345.61	-22.2
345.993	-23.11
346.376	5.82
346.759	2.43
347.142	38.13
347.525	27.06
347.908	48.76
348.291	65.03
348.674	92.82
349.057	110
349.44	153.84
349.823	151.35
350.206	164.01
350.588	188.19
350.971	205.81
351.354	223.67
351.737	220.73
352.119	253.72
352.502	264.8
352.884	267.28
353.267	276.09
353.65	302.76
354.032	300.05
354.414	312.7
354.797	314.74
355.179	321.29
355.562	319.48
355.944	340.95
356.326	347.05
356.709	328.97
357.091	332.14
357.473	347.96
357.855	343.89
358.238	348.86
358.62	342.53
359.002	338.24
359.384	368.75
359.766	359.03
360.148	341.86
360.53	343.21
360.912	347.73
361.294	335.53
361.676	344.79
362.057	342.31
362.439	333.49
362.821	344.12
363.203	340.27
363.584	328.75
363.966	333.72
364.348	358.58
364.729	327.84
365.111	340.5
365.493	331.69
365.874	338.69
366.256	316.55
366.637	335.53
367.019	318.81
367.4	322.65
367.781	322.42
368.163	318.13
368.544	332.82
368.925	330.33
369.306	317.45
369.688	333.27
370.069	329.88
370.45	297.56
370.831	341.18
371.212	330.33
371.593	320.39
371.974	303.21
372.355	317.9
372.736	321.74
373.117	332.82
373.498	321.07
373.879	325.36
374.26	330.1
374.641	321.52
375.021	300.95
375.402	331.91
375.783	336.66
376.163	338.69
376.544	351.57
376.925	333.95
377.305	327.62
377.686	320.39
378.066	336.88
378.447	347.73
378.827	357.67
379.208	340.73
379.588	337.34
379.968	339.82
380.349	337.34
380.729	347.05
381.109	360.84
381.489	345.7
381.87	335.08
382.25	346.38
382.63	351.35
383.01	352.25
383.39	338.24
383.77	341.4
384.15	366.94
384.53	361.52
384.91	365.13
385.29	358.13
385.67	367.84
386.049	373.49
386.429	353.83
386.809	356.54
387.189	343.89
387.568	353.38
387.948	353.61
388.328	365.13
388.707	375.53
389.087	371.46
389.466	358.8
389.846	375.53
390.225	387.73
390.605	374.4
390.984	377.79
391.363	386.15
391.743	387.05
392.122	397.9
392.501	392.7
392.881	376.88
393.26	388.63
393.639	384.11
394.018	385.7
394.397	397.67
394.776	371.91
395.155	389.76
395.534	397.67
395.913	376.66
396.292	389.09
396.671	388.41
397.05	409.2
397.429	404
397.808	406.49
398.186	392.93
398.565	441.74
398.944	402.19
399.323	433.15
399.701	416.2
400.08	424.11
400.458	442.87
400.837	434.28
401.215	421.18
401.594	425.24
401.972	433.15
402.351	432.02
402.729	453.49
403.107	437.67
403.486	422.76
403.864	462.08
404.242	467.28
404.62	457.78
404.999	450.55
405.377	470.67
405.755	471.12
406.133	483.32
406.511	476.54
406.889	478.57
407.267	495.3
407.645	495.52
408.023	505.69
408.401	480.83
408.779	512.47
409.156	522.64
409.534	517.9
409.912	529.42
410.29	547.73
410.667	530.33
411.045	540.49
411.422	547.05
411.8	562.64
412.178	555.64
412.555	580.27
412.933	581.62
413.31	601.06
413.687	605.13
414.065	634.5
414.442	601.51
414.819	650.1
415.197	614.62
415.574	662.98
415.951	665.91
416.328	688.51
416.705	695.74
417.082	657.1
417.46	685.58
417.837	707.5
418.214	712.24
418.591	705.46
418.967	714.95
419.344	716.76
419.721	739.81
420.098	733.48
420.475	768.74
420.852	748.85
421.228	788.85
421.605	795.85
421.982	816.42
422.358	805.12
422.735	858
423.111	837.44
423.488	867.49
423.864	862.07
424.241	877.43
424.617	902.07
424.994	897.1
425.37	928.28
425.746	953.59
426.123	935.74
426.499	967.38
426.875	986.81
427.251	994.27
427.627	1003.53
428.003	1006.7
428.379	1029.75
428.756	1027.94
429.132	1071.78
429.507	1076.98
429.883	1069.97
430.259	1099.12
430.635	1110.2
431.011	1104.55
431.387	1116.3
431.763	1151.78
432.138	1142.29
432.514	1189.97
432.89	1197.2
433.265	1227.48
433.641	1235.62
434.016	1250.76
434.392	1291.66
434.767	1300.25
435.143	1340.02
435.518	1316.52
435.894	1356.52
436.269	1380.02
436.644	1428.61
437.02	1418.44
437.395	1464.09
437.77	1465.67
438.145	1486.68
438.52	1517.64
438.895	1553.35
439.271	1544.76
439.646	1599.68
440.021	1603.29
440.395	1635.61
440.77	1650.75
441.145	1658.2
441.52	1708.37
441.895	1665.66
442.27	1698.43
442.645	1726.23
443.019	1742.95
443.394	1768.48
443.769	1781.82
444.143	1754.47
444.518	1819.1
444.892	1809.84
445.267	1814.81
445.641	1856.39
446.016	1875.37
446.39	1898.88
446.764	1894.13
447.139	1883.06
447.513	1933.9
447.887	1947.46
448.262	1963.28
448.636	1956.28
449.01	1971.64
449.384	2008.03
449.758	2006.44
450.132	2033.56
450.506	2025.88
450.88	2065.88
451.254	2046.67
451.628	2078.76
452.002	2127.57
452.376	2125.99
452.75	2108.59
453.123	2137.51
453.497	2170.28
453.871	2196.5
454.244	2237.4
454.618	2250.96
454.992	2278.75
455.365	2264.06
455.739	2339.32
456.112	2331.41
456.486	2403.95
456.859	2384.97
457.232	2423.83
457.606	2418.64
457.979	2492.31
458.352	2493.21
458.725	2513.78
459.099	2501.57
459.472	2562.81
459.845	2633.32
460.218	2569.82
460.591	2663.83
460.964	2634.68
461.337	2695.24
461.71	2773.88
462.083	2804.39
462.456	2806.88
462.829	2815.69
463.201	2827.67
463.574	2858.85
463.947	2884.39
464.32	2948.57
464.692	2948.57
465.065	2964.16
465.438	3063.82
465.81	3077.83
466.183	3079.18
466.555	3161.89
466.928	3174.55
467.3	3128
467.672	3202.8
468.045	3290.25
468.417	3315.79
468.789	3339.97
469.161	3334.77
469.534	3356.69
469.906	3467.42
470.278	3436.69
470.65	3481.21
471.022	3570.92
471.394	3620.19
471.766	3626.74
472.138	3695.89
472.51	3789.22
472.882	3808.66
473.253	3827.19
473.625	3906.96
473.997	3922.78
474.369	3987.18
474.74	4016.79
475.112	4081.87
475.484	4109.44
475.855	4203.67
476.227	4224.69
476.598	4337.46
476.97	4358.7
477.341	4420.62
477.713	4517.34
478.084	4470.56
478.455	4565.25
478.827	4624
479.198	4776.09
479.569	4735.86
479.94	4838.91
480.311	4879.36
480.682	4987.61
481.053	5100.37
481.424	5126.14
481.795	5130.2
482.166	5278
482.537	5285
482.908	5385.79
483.279	5416.98
483.65	5501.27
484.021	5593.47
484.391	5692.68
484.762	5709.17
485.133	5731.54
485.503	5805.44
485.874	5961.59
486.244	5950.07
486.615	6095.38
486.985	6091.76
487.356	6201.59
487.726	6268.25
488.097	6317.97
488.467	6327.01
488.837	6510.73
489.207	6565.65
489.578	6632.76
489.948	6656.49
490.318	6764.29
490.688	6761.8
491.058	6877.95
491.428	6919.99
491.798	6975.13
492.168	7106.65
492.538	7086.08
492.908	7101
493.278	7178.96
493.648	7200.66
494.017	7291.05
494.387	7304.16
494.757	7395.91
495.126	7512.74
495.496	7482.68
495.866	7542.8
496.235	7573.08
496.605	7639.52
496.974	7723.58
497.344	7744.6
497.713	7728.1
498.082	7780.98
498.452	7803.13
498.821	7898.04
499.19	7869.34
499.559	7910.7
499.928	7933.97
500.298	7998.6
500.667	8109.56
501.036	8006.06
501.405	8084.93
501.774	8119.5
502.143	8157.47
502.512	8185.72
502.88	8242.66
503.249	8235.21
503.618	8332.61
503.987	8291.02
504.356	8349.1
504.724	8319.05
505.093	8384.58
505.462	8403.34
505.83	8395.88
506.199	8432.49
506.567	8526.27
506.936	8539.15
507.304	8546.16
507.672	8573.05
508.041	8625.71
508.409	8663.9
508.777	8676.1
509.145	8726.04
509.514	8636.78
509.882	8731.69
510.25	8674.29
510.618	8756.1
510.986	8702.54
511.354	8805.36
511.722	8816.21
512.09	8860.95
512.458	8865.02
512.826	8882.2
513.193	8917
513.561	8899.82
513.929	8979.82
514.297	9038.58
514.664	9006.49
515.032	9020.05
515.4	9051
515.767	9000.38
516.135	9096.65
516.502	8944.34
516.869	9149.31
517.237	9093.72
517.604	9000.16
517.972	9082.87
518.339	9100.27
518.706	9104.11
519.073	9173.94
519.44	9147.5
519.808	9137.56
520.175	9217.33
520.542	9205.8
520.909	9178.69
521.276	9165.58
521.643	9177.78
522.009	9261.85
522.376	9284.9
522.743	9296.2
523.11	9324.67
523.477	9339.81
523.843	9355.18
524.21	9421.16
524.577	9454.84
524.943	9414.39
525.31	9441.5
525.676	9401.73
526.043	9515.85
526.409	9509.3
526.776	9461.62
527.142	9493.93
527.508	9453.25
527.874	9553.36
528.241	9479.69
528.607	9534.38
528.973	9653.7
529.339	9565.79
529.705	9617.09
530.071	9618.9
530.437	9571.9
530.803	9614.38
531.169	9580.03
531.535	9512.91
531.901	9530.99
532.267	9533.25
532.632	9556.3
532.998	9567.38
533.364	9596.75
533.73	9523.31
534.095	9534.16
534.461	9534.38
534.826	9561.73
535.192	9523.31
535.557	9593.14
535.923	9496.42
536.288	9557.66
536.653	9507.04
537.019	9425.46
537.384	9406.25
537.749	9425.01
538.114	9496.87
538.479	9428.85
538.845	9387.95
539.21	9369.41
539.575	9383.65
539.94	9396.76
540.305	9415.29
540.67	9420.49
541.034	9430.66
541.399	9361.51
541.764	9349.08
542.129	9340.26
542.494	9331.45
542.858	9280.38
543.223	9251.9
543.587	9227.95
543.952	9172.13
544.316	9142.98
544.681	9168.97
545.045	9150.21
545.41	9218.91
545.774	9159.93
546.138	9160.61
546.503	9124
546.867	9071.57
547.231	9166.93
547.595	9035.86
547.959	9064.11
548.324	9041.06
548.688	9041.06
549.052	9019.59
549.416	8993.38
549.779	8910.67
550.143	8972.14
550.507	8960.61
550.871	9001.97
551.235	8934.85
551.599	8850.56
551.962	8817.79
552.326	8874.51
552.689	8926.71
553.053	8770.79
553.417	8803.55
553.78	8913.83
554.143	8728.98
554.507	8809.43
554.87	8819.6
555.234	8816.21
555.597	8740.73
555.96	8765.81
556.323	8765.36
556.686	8737.79
557.05	8770.79
557.413	8740.05
557.776	8754.97
558.139	8780.05
558.502	8745.93
558.865	8674.74
559.228	8799.26
559.59	8800.16
559.953	8777.57
560.316	8834.51
560.679	8857.56
561.041	8766.49
561.404	8827.96
561.767	8865.7
562.129	8786.15
562.492	8843.33
562.854	8737.34
563.217	8851.91
563.579	8833.38
563.941	8806.27
564.304	8875.64
564.666	8909.99
565.028	8942.76
565.39	8947.28
565.753	8883.55
566.115	8920.39
566.477	8964.91
566.839	8961.06
567.201	9006.26
567.563	9034.06
567.925	9006.71
568.287	9015.53
568.648	9015.07
569.01	9071.8
569.372	9063.21
569.734	9085.58
570.095	9114.73
570.457	9164.22
570.819	9208.51
571.18	9168.06
571.542	9193.6
571.903	9178.46
572.265	9210.1
572.626	9145.92
572.987	9299.36
573.349	9276.99
573.71	9282.41
574.071	9316.76
574.432	9273.15
574.794	9345.23
575.155	9411
575.516	9341.39
575.877	9426.81
576.238	9427.04
576.599	9465.68
576.96	9445.34
577.32	9450.99
577.681	9490.99
578.042	9578.67
578.403	9564.89
578.763	9551.56
579.124	9555.17
579.485	9583.65
579.845	9649.41
580.206	9605.34
580.566	9636.75
580.927	9565.79
581.287	9735.96
581.648	9662.74
582.008	9707.26
582.368	9743.42
582.728	9663.19
583.089	9740.7
583.449	9776.64
583.809	9813.02
584.169	9789.97
584.529	9850.31
584.889	9888.72
585.249	9815.96
585.609	9818.22
585.969	9885.11
586.329	9838.1
586.688	9923.52
587.048	9939.34
587.408	9890.76
587.768	9842.4
588.127	9975.05
588.487	9939.12
588.846	10017.53
589.206	9909.97
589.565	9967.59
589.925	9942.96
590.284	9973.47
590.643	10036.97
591.003	10097.98
591.362	10069.28
591.721	10069.28
592.08	10050.53
592.44	10093.46
592.799	10109.06
593.158	10104.54
593.517	10168.04
593.876	10113.8
594.235	10110.19
594.593	10228.15
594.952	10178.43
595.311	10079.68
595.67	10141.15
596.029	10253.01
596.387	10233.12
596.746	10279.45
597.104	10253.91
597.463	10196.96
597.822	10263.85
598.18	10260.46
598.538	10214.36
598.897	10254.36
599.255	10236.28
599.613	10270.41
599.972	10262.95
600.33	10346.34
600.688	10214.14
601.046	10332.78
601.404	10371.42
601.762	10363.06
602.12	10394.25
602.478	10349.28
602.836	10378.2
603.194	10360.35
603.552	10306.57
603.91	10352.44
604.268	10393.34
604.625	10317.19
604.983	10390.4
605.341	10295.94
605.698	10374.81
606.056	10438.54
606.413	10434.02
606.771	10462.72
607.128	10426.34
607.485	10357.86
607.843	10421.59
608.2	10451.65
608.557	10462.49
608.914	10429.5
609.272	10535.26
609.629	10534.81
609.986	10597.86
610.343	10518.31
610.7	10594.47
611.057	10603.28
611.414	10541.14
611.771	10591.53
612.127	10656.16
612.484	10620.68
612.841	10602.38
613.198	10602.6
613.554	10590.85
613.911	10658.19
614.267	10663.17
614.624	10626.56
614.98	10661.13
615.337	10732.32
615.693	10716.72
616.05	10662.04
616.406	10642.83
616.762	10705.2
617.118	10735.71
617.475	10766.44
617.831	10681.24
618.187	10734.58
618.543	10728.93
618.899	10822.48
619.255	10768.47
619.611	10747.68
619.967	10829.72
620.323	10831.07
620.678	10806.67
621.034	10759.89
621.39	10760.56
621.746	10717.4
622.101	10816.61
622.457	10769.6
622.812	10838.08
623.168	10814.8
623.523	10809.15
623.879	10841.92
624.234	10672.88
624.589	10853.9
624.945	10802.15
625.3	10784.74
625.655	10794.91
626.01	10776.61
626.365	10783.16
626.72	10792.43
627.075	10784.07
627.43	10761.24
627.785	10776.38
628.14	10735.48
628.495	10816.38
628.85	10745.42
629.205	10736.16
629.559	10779.32
629.914	10693
630.269	10751.53
630.623	10673.34
630.978	10694.58
631.332	10678.08
631.687	10691.19
632.041	10634.47
632.396	10718.98
632.75	10659.78
633.104	10664.07
633.459	10622.94
633.813	10582.72
634.167	10613
634.521	10622.49
634.875	10619.33
635.229	10631.08
635.583	10501.36
635.937	10616.16
636.291	10559.44
636.645	10560.12
636.999	10561.02
637.352	10491.65
637.706	10429.27
638.06	10534.58
638.413	10455.26
638.767	10473.34
639.121	10426.79
639.474	10379.33
639.828	10430.63
640.181	10431.31
640.534	10415.94
640.888	10271.76
641.241	10366.22
641.594	10330.97
641.947	10402.16
642.301	10366.45
642.654	10343.85
643.007	10344.76
643.36	10322.61
643.713	10281.48
644.066	10366.68
644.419	10271.99
644.771	10228.15
645.124	10128.72
645.477	10132.56
645.83	10060.7
646.182	10071.09
646.535	9998.32
646.888	10011.43
647.24	9934.37
647.593	9979.34
647.945	9993.58
648.298	9949.74
648.65	9927.37
649.002	9914.49
649.355	9972.34
649.707	9954.94
650.059	10039
650.411	10160.58
650.763	10164.42
651.115	10234.93
651.467	10163.07
651.819	10170.98
652.171	10219.56
652.523	10109.28
652.875	10135.72
653.227	10145.67
653.578	10217.98
653.93	10187.7
654.282	10116.51
654.633	10166.68
654.985	10250.07
655.337	10227.7
655.688	10205.32
656.039	10218.21
656.391	10128.72
656.742	10180.24
657.094	10190.18
657.445	10189.73
657.796	10227.02
658.147	10165.1
658.498	10176.4
658.849	10160.58
659.2	10131.2
659.551	10100.47
659.902	10215.49
660.253	10211.43
660.604	10135.04
660.955	10140.24
661.306	10199.9
661.656	10201.03
662.007	10246.45
662.358	10236.96
662.708	10267.92
663.059	10219.11
663.409	10131.65
663.76	10277.64
664.11	10302.72
664.461	10247.81
664.811	10181.14
665.161	10235.83
665.511	10243.74
665.862	10280.35
666.212	10307.47
666.562	10276.06
666.912	10269.28
667.262	10239
667.612	10259.56
667.962	10314.7
668.312	10267.7
668.662	10213.01
669.011	10325.1
669.361	10273.35
669.711	10205.1
670.06	10196.06
670.41	10209.17
670.76	10172.78
671.109	10268.83
671.459	10261.37
671.808	10154.48
672.157	10247.13
672.507	10172.33
672.856	10167.13
673.205	10204.65
673.554	10201.71
673.904	10160.58
674.253	10170.98
674.602	10073.8
674.951	9988.38
675.3	9971.21
675.649	10131.2
675.998	10107.7
676.346	10097.53
676.695	10085.78
677.044	9990.19
677.393	10107.25
677.741	10084.2
678.09	10071.77
678.438	10009.17
678.787	9978.66
679.135	9964.88
679.484	9965.78
679.832	10020.25
680.181	9956.52
680.529	9950.64
680.877	9890.08
681.225	9852.57
681.573	9942.28
681.922	9887.59
682.27	9913.13
682.618	9843.98
682.966	9838.1
683.314	9792.45
683.661	9808.27
684.009	9661.61
684.357	9727.15
684.705	9737.77
685.053	9710.42
685.4	9741.61
685.748	9644.44
686.095	9653.7
686.443	9565.79
686.79	9568.96
687.138	9618.45
687.485	9592.23
687.832	9545.91
688.18	9542.29
688.527	9482.41
688.874	9470.65
689.221	9423.42
689.568	9399.02
689.915	9349.53
690.262	9365.57
690.609	9420.26
690.956	9380.71
691.303	9270.89
691.65	9303.65
691.997	9249.87
692.344	9167.84
692.69	9191.34
693.037	9194.5
693.383	9112.47
693.73	9083.55
694.077	9092.81
694.423	9063.43
694.769	8987.96
695.116	8995.87
695.462	8891.69
695.808	8949.31
696.155	8940.5
696.501	8832.71
696.847	8780.5
697.193	8765.36
697.539	8814.4
697.885	8694.18
698.231	8726.27
698.577	8688.3
698.923	8702.09
699.269	8617.8
699.614	8543.9
699.96	8557.23
700.306	8513.62
700.651	8486.5
700.997	8396.11
701.342	8395.65
701.688	8459.61
702.033	8335.54
702.379	8397.91
702.724	8313.4
703.069	8390.01
703.415	8227.98
703.76	8212.16
704.105	8200.86
704.45	8239.73
704.795	8120.41
705.14	8171.48
705.485	8104.82
705.83	8077.47
706.175	8078.6
706.52	8150.69
706.865	7990.02
707.209	8006.51
707.554	8006.06
707.899	7966.29
708.243	7935.78
708.588	7883.13
708.932	7843.13
709.277	7825.27
709.621	7851.71
709.966	7792.06
710.31	7804.94
710.654	7699.63
710.998	7714.32
711.342	7708.44
711.687	7675.67
712.031	7685.39
712.375	7649.69
712.719	7668.22
713.063	7631.83
713.407	7657.37
713.75	7527.43
714.094	7578.95
714.438	7580.31
714.782	7564.04
715.125	7590.03
715.469	7604.26
715.812	7520.65
716.156	7467.54
716.499	7417.6
716.843	7486.3
717.186	7356.59
717.53	7453.98
717.873	7482.01
718.216	7442.46
718.559	7449.92
718.902	7315.91
719.246	7385.29
719.589	7391.16
719.932	7333.31
720.275	7354.78
720.617	7309.13
720.96	7275.46
721.303	7296.47
721.646	7327.43
721.989	7263.48
722.331	7312.07
722.674	7294.67
723.016	7290.83
723.359	7260.54
723.701	7293.54
724.044	7240.21
724.386	7231.62
724.729	7304.16
725.071	7259.87
725.413	7236.36
725.755	7228
726.097	7176.48
726.439	7153.65
726.782	7180.77
727.124	7238.4
727.465	7208.79
727.807	7152.75
728.149	7184.84
728.491	7183.26
728.833	7167.89
729.175	7172.18
729.516	7189.36
729.858	7163.14
730.199	7181.22
730.541	7139.19
730.882	7110.94
731.224	7160.43
731.565	7192.3
731.906	7140.77
732.248	7131.06
732.589	7163.6
732.93	7188
733.271	7126.54
733.612	7116.59
733.953	7145.74
734.294	7159.98
734.635	7134.45
734.976	7171.51
735.317	7213.54
735.658	7108.91
735.999	7135.58
736.339	7141
736.68	7138.96
737.021	7141.9
737.361	7104.39
737.702	7226.19
738.042	7178.29
738.383	7177.16
738.723	7196.82
739.063	7179.42
739.404	7157.95
739.744	7261
740.084	7190.71
740.424	7245.85
740.764	7316.14
741.104	7246.08
741.444	7235.91
741.784	7289.47
742.124	7316.36
742.464	7320.65
742.804	7266.19
743.143	7334.89
743.483	7402.69
743.823	7371.95
744.162	7415.79
744.502	7416.92
744.841	7419.64
745.181	7469.8
745.52	7451.05
745.86	7533.53
746.199	7562.46
746.538	7586.64
746.877	7638.16
747.216	7661.44
747.556	7747.76
747.895	7806.74
748.234	7867.53
748.573	7889
748.911	7932.16
749.25	8046.96
749.589	8001.09
749.928	8086.51
750.267	8150.24
750.605	8227.75
750.944	8297.58
751.283	8405.37
751.621	8475.43
751.96	8465.71
752.298	8627.51
752.636	8811.01
752.975	8790.22
753.313	8854.17
753.651	9024.56
753.989	9084.68
754.327	9171.23
754.666	9283.99
755.004	9376.42
755.342	9623.87
755.679	9729.63
756.017	9791.32
756.355	9925.11
756.693	10068.15
757.031	10196.96
757.368	10329.16
757.706	10458.43
758.044	10529.84
758.381	10756.04
758.719	10902.71
759.056	11140.67
759.394	11251.85
759.731	11305.86
760.068	11593.31
760.405	11727.32
760.743	11921.89
761.08	12127.08
761.417	12248.21
761.754	12485.94
762.091	12593.28
762.428	12834.41
762.765	12912.6
763.102	13179.48
763.438	13287.5
763.775	13458.57
764.112	13756.19
764.449	13858.11
764.785	13921.16
