Data from hue_36_FLMS001491_00017.txt Node
Date: Tue Feb 07 17:29:28 GMT 2017
User: dcchb
Spectrometer: FLMS00149
Trigger mode: 0
Integration Time (sec): 2.000000E-2
Scans to average: 10
Electric dark correction enabled: true
Nonlinearity correction enabled: false
Boxcar width: 0
XAxis mode: Wavelengths
Number of Pixels in Spectrum: 2048
>>>>>Begin Spectral Data<<<<<
341.393	-11.67
341.776	-11.67
342.16	-11.67
342.543	-63.42
342.927	-71.55
343.31	-82.4
343.693	-84.21
344.077	-72
344.46	-56.41
344.843	-54.38
345.226	-19.8
345.61	-32.68
345.993	-16.41
346.376	-9.41
346.759	26.3
347.142	25.39
347.525	51.61
347.908	51.16
348.291	64.72
348.674	97.94
349.057	110.59
349.44	109.01
349.823	130.48
350.206	144.71
350.588	204.37
350.971	218.38
351.354	227.42
351.737	249.8
352.119	247.08
352.502	266.52
352.884	265.84
353.267	275.11
353.65	300.64
354.032	303.35
354.414	308.1
354.797	334.77
355.179	313.75
355.562	320.98
355.944	331.6
356.326	326.63
356.709	339.28
357.091	372.96
357.473	336.8
357.855	368.66
358.238	318.49
358.62	343.58
359.002	350.58
359.384	353.07
359.766	356.91
360.148	340.41
360.53	346.74
360.912	327.31
361.294	346.74
361.676	344.71
362.057	327.76
362.439	317.59
362.821	325.27
363.203	305.16
363.584	314.88
363.966	323.24
364.348	304.94
364.729	324.6
365.111	330.92
365.493	339.96
365.874	322.34
366.256	311.71
366.637	302
367.019	352.84
367.4	326.63
367.781	334.54
368.163	301.09
368.544	317.82
368.925	305.39
369.306	309.68
369.688	340.19
370.069	317.36
370.45	285.05
370.831	320.08
371.212	315.78
371.593	317.59
371.974	295.44
372.355	313.75
372.736	326.86
373.117	322.34
373.498	310.36
373.879	349
374.26	314.88
374.641	292.05
375.021	326.63
375.402	312.84
375.783	315.78
376.163	322.11
376.544	334.54
376.925	330.02
377.305	336.35
377.686	342.45
378.066	319.17
378.447	331.83
378.827	330.92
379.208	339.96
379.588	327.31
379.968	329.34
380.349	334.99
380.729	326.4
381.109	326.4
381.489	334.99
381.87	339.96
382.25	334.77
382.63	330.47
383.01	353.52
383.39	366.18
383.77	345.39
384.15	365.27
384.53	334.31
384.91	360.08
385.29	372.5
385.67	359.4
386.049	353.07
386.429	358.72
386.809	337.03
387.189	344.93
387.568	360.08
387.948	341.54
388.328	369.79
388.707	352.84
389.087	340.19
389.466	369.34
389.846	362.34
390.225	347.42
390.605	358.95
390.984	374.09
391.363	346.97
391.743	337.7
392.122	364.59
392.501	359.17
392.881	370.7
393.26	360.75
393.639	371.37
394.018	373.86
394.397	373.41
394.776	371.15
395.155	374.31
395.534	377.25
395.913	374.09
396.292	360.53
396.671	379.51
397.05	357.82
397.429	365.05
397.808	379.51
398.186	397.59
398.565	370.02
398.944	389.91
399.323	395.33
399.701	386.74
400.08	405.27
400.458	387.19
400.837	391.71
401.215	411.6
401.594	426.74
401.972	375.44
402.351	393.52
402.729	399.4
403.107	402.79
403.486	410.24
403.864	398.72
404.242	401.43
404.62	414.09
404.999	416.12
405.377	389.91
405.755	414.31
406.133	421.99
406.511	413.41
406.889	400.75
407.267	408.44
407.645	422.9
408.023	423.35
408.401	400.75
408.779	426.51
409.156	434.2
409.534	436.01
409.912	443.91
410.29	440.07
410.667	437.81
411.045	458.83
411.422	449.34
411.8	443.69
412.178	468.32
412.555	458.6
412.933	469.68
413.31	485.5
413.687	454.76
414.065	480.52
414.442	463.58
414.819	487.53
415.197	469.45
415.574	485.27
415.951	514.2
416.328	496.57
416.705	478.04
417.082	482.11
417.46	480.75
417.837	493.86
418.214	490.02
418.591	498.83
418.967	496.57
419.344	510.58
419.721	482.33
420.098	481.2
420.475	524.59
420.852	510.35
421.228	510.35
421.605	529.11
421.982	516.68
422.358	527.3
422.735	541.09
423.111	520.3
423.488	544.7
423.864	536.79
424.241	550.8
424.617	548.54
424.994	530.01
425.37	566.62
425.746	547.64
426.123	533.18
426.499	557.81
426.875	588.32
427.251	561.65
427.627	570.47
428.003	577.24
428.379	581.54
428.756	556.23
429.132	571.14
429.507	592.61
429.883	614.08
430.259	606.85
430.635	584.02
431.011	579.96
431.387	614.08
431.763	599.84
432.138	607.53
432.514	613.4
432.89	642.78
433.265	635.77
433.641	643.46
434.016	630.8
434.392	657.47
434.767	673.06
435.143	628.09
435.518	641.65
435.894	634.42
436.269	677.58
436.644	668.77
437.02	684.36
437.395	692.5
437.77	684.81
438.145	690.01
438.52	711.25
438.895	712.16
439.271	670.35
439.646	697.24
440.021	694.53
440.395	718.94
440.77	710.12
441.145	722.55
441.52	710.12
441.895	747.64
442.27	763.91
442.645	722.55
443.019	740.86
443.394	733.4
443.769	735.21
444.143	760.29
444.518	746.73
444.892	737.01
445.267	783.34
445.641	773.62
446.016	763.45
446.39	785.15
446.764	778.37
447.139	758.93
447.513	801.42
447.887	789.44
448.262	768.65
448.636	800.97
449.01	790.12
449.384	799.84
449.758	819.5
450.132	824.7
450.506	827.18
450.88	828.99
451.254	811.59
451.628	806.84
452.002	854.98
452.376	846.39
452.75	846.16
453.123	850.91
453.497	880.29
453.871	879.16
454.244	885.49
454.618	888.42
454.992	914.41
455.365	890.68
455.739	921.87
456.112	947.86
456.486	948.76
456.859	953.05
457.232	953.28
457.606	930.46
457.979	972.04
458.352	947.86
458.725	977.69
459.099	993.73
459.472	1016.78
459.845	1020.4
460.218	1005.71
460.591	1029.89
460.964	1047.97
461.337	1046.61
461.71	1073.73
462.083	1103.56
462.456	1108.3
462.829	1097.68
463.201	1111.24
463.574	1119.6
463.947	1129.77
464.32	1166.83
464.692	1144.46
465.065	1149.66
465.438	1198.92
465.81	1207.28
466.183	1245.93
466.555	1240.05
466.928	1242.09
467.3	1278.92
467.672	1274.63
468.045	1291.8
468.417	1308.98
468.789	1318.69
469.161	1356.21
469.534	1396.66
469.906	1395.98
470.278	1416.77
470.65	1451.35
471.022	1483.66
471.394	1483.21
471.766	1511.68
472.138	1514.85
472.51	1566.82
472.882	1597.1
473.253	1612.47
473.625	1658.12
473.997	1678.91
474.369	1691.11
474.74	1722.3
475.112	1786.48
475.484	1809.53
475.855	1846.82
476.227	1877.78
476.598	1941.28
476.97	1940.82
477.341	2017.21
477.713	2028.73
478.084	2055.4
478.455	2142.18
478.827	2216.3
479.198	2237.54
479.569	2297.2
479.94	2358.89
480.311	2423.75
480.682	2445.44
481.053	2571.54
481.424	2611.32
481.795	2680.01
482.166	2749.17
482.537	2754.14
482.908	2861.7
483.279	2920.01
483.65	3020.8
484.021	3090.62
484.391	3169.04
484.762	3247.46
485.133	3294.24
485.503	3356.83
485.874	3491.52
486.244	3543.04
486.615	3636.15
486.985	3701
487.356	3862.81
487.726	3903.48
488.097	4016.7
488.467	4040.88
488.837	4195.91
489.207	4264.38
489.578	4326.07
489.948	4466.18
490.318	4538.04
490.688	4575.11
491.058	4795.66
491.428	4828.21
491.798	4929.45
492.168	5095.54
492.538	5128.76
492.908	5218.03
493.278	5344.13
493.648	5399.72
494.017	5520.17
494.387	5569.2
494.757	5694.62
495.126	5818.24
495.496	5847.61
495.866	5906.82
496.235	6007.16
496.605	6186.36
496.974	6309.3
497.344	6293.48
497.713	6384.32
498.082	6414.61
498.452	6577.99
498.821	6610.31
499.19	6690.3
499.559	6773.92
499.928	6871.99
500.298	6934.14
500.667	6996.28
501.036	7024.53
501.405	7155.38
501.774	7188.6
502.143	7318.31
502.512	7389.49
502.88	7455.71
503.249	7478.76
503.618	7641.69
503.987	7662.26
504.356	7707.68
504.724	7833.55
505.093	7863.38
505.462	7957.84
505.83	8044.84
506.199	8091.4
506.567	8213.65
506.936	8212.98
507.304	8300.66
507.672	8361.9
508.041	8459.75
508.409	8549.46
508.777	8622.91
509.145	8652.96
509.514	8662
509.882	8761.89
510.25	8834.43
510.618	8857.03
510.986	8935.22
511.354	9042.33
511.722	9048.21
512.09	9200.52
512.458	9167.3
512.826	9319.61
513.193	9363.23
513.561	9403.23
513.929	9469.67
514.297	9533.85
514.664	9616.33
515.032	9606.84
515.4	9722.54
515.767	9694.52
516.135	9818.36
516.502	9730
516.869	9944.68
517.237	10001.63
517.604	9967.05
517.972	10101.97
518.339	10162.08
518.706	10114.17
519.073	10189.65
519.44	10282.07
519.808	10361.62
520.175	10386.48
520.542	10476.65
520.909	10604.55
521.276	10596.19
521.643	10692.46
522.009	10695.62
522.376	10826.47
522.743	10815.62
523.11	10957.08
523.477	11052.9
523.843	11127.7
524.21	11152.11
524.577	11249.96
524.943	11305.1
525.31	11374.25
525.676	11544.19
526.043	11525.43
526.409	11575.15
526.776	11697.4
527.142	11752.77
527.508	11872.77
527.874	11866.44
528.241	11953.22
528.607	12007.45
528.973	12133.1
529.339	12079.54
529.705	12290.84
530.071	12243.38
530.437	12356.37
530.803	12418.29
531.169	12511.85
531.535	12532.86
531.901	12611.28
532.267	12682.24
532.632	12740.77
532.998	12785.29
533.364	12901.89
533.73	12863.7
534.095	12936.69
534.461	13060.98
534.826	13029.57
535.192	13146.63
535.557	13196.57
535.923	13209
536.288	13267.53
536.653	13345.95
537.019	13363.12
537.384	13392.27
537.749	13430.92
538.114	13540.75
538.479	13550.46
538.845	13576
539.21	13609.44
539.575	13705.94
539.94	13740.51
540.305	13844.92
540.67	13787.97
541.034	13921.75
541.399	13930.79
541.764	14075.87
542.129	14186.15
542.494	14133.72
542.858	14210.56
543.223	14209.88
543.587	14384.57
543.952	14280.61
544.316	14406.94
544.681	14434.51
545.045	14466.82
545.41	14574.39
545.774	14659.81
546.138	14676.08
546.503	14721.28
546.867	14696.42
547.231	14842.86
547.595	14882.18
547.959	14937.32
548.324	14963.53
548.688	14997.2
549.052	15080.59
549.416	15041.27
549.779	15178.22
550.143	15208.95
550.507	15306.57
550.871	15333.24
551.235	15384.99
551.599	15392
551.962	15432.22
552.326	15536.63
552.689	15597.87
553.053	15572.78
553.417	15552.67
553.78	15770.52
554.143	15789.73
554.507	15841.25
554.87	15912.66
555.234	15984.98
555.597	15881.02
555.96	16102.49
556.323	16064.97
556.686	16142.03
557.05	16192.43
557.413	16314.46
557.776	16380.22
558.139	16465.41
558.502	16434.23
558.865	16450.5
559.228	16501.35
559.59	16586.99
559.953	16699.98
560.316	16841.68
560.679	16829.47
561.041	16930.04
561.404	17000.32
561.767	17083.25
562.129	17049.35
562.492	17307.2
562.854	17237.6
563.217	17291.16
563.579	17375.22
563.941	17402.34
564.304	17467.87
564.666	17493.86
565.028	17569.11
565.39	17742.22
565.753	17758.04
566.115	17857.92
566.477	17929.78
566.839	17927.75
567.201	18086.39
567.563	17999.39
567.925	18291.81
568.287	18206.84
568.648	18259.49
569.01	18313.5
569.372	18474.85
569.734	18354.4
570.095	18594.17
570.457	18662.42
570.819	18691.57
571.18	18778.57
571.542	18875.97
571.903	18811.34
572.265	19017.21
572.626	19103.31
572.987	19151.9
573.349	19267.15
573.71	19329.75
574.071	19436.18
574.432	19566.8
574.794	19650.19
575.155	19614.03
575.516	19694.71
575.877	19839.56
576.238	19938.54
576.599	20033.46
576.96	20015.15
577.32	20208.14
577.681	20347.35
578.042	20538.98
578.403	20590.96
578.763	20732.87
579.124	20957.05
579.485	20994.33
579.845	21176.7
580.206	21354.78
580.566	21383.25
580.927	21545.28
581.287	21895.78
581.648	21837.93
582.008	22116.34
582.368	22210.8
582.728	22325.6
583.089	22465.93
583.449	22691.24
583.809	22812.82
584.169	22994.06
584.529	23144.33
584.889	23423.65
585.249	23451.67
585.609	23672.23
585.969	23930.98
586.329	24096.85
586.688	24439.89
587.048	24496.39
587.408	24759.66
587.768	24796.49
588.127	25033.32
588.487	25189.48
588.846	25604.84
589.206	25615.91
589.565	25777.71
589.925	26158.04
590.284	26306.51
590.643	26561.87
591.003	26807.06
591.362	27220.84
591.721	27221.29
592.08	27534.73
592.44	27718.23
592.799	27916.64
593.158	28170.19
593.517	28404.99
593.876	28513.69
594.235	28757.29
594.593	28998.19
594.952	29284.96
595.311	29423.94
595.67	29754.56
596.029	29957.49
596.387	30245.84
596.746	30481.54
597.104	30529.23
597.463	30594.08
597.822	30882.21
598.18	30909.78
598.538	31164.24
598.897	31731.45
599.255	31513.61
599.613	32180.71
599.972	32073.59
600.33	32236.98
600.688	32525.33
601.046	32702.73
601.404	33093
601.762	33116.73
602.12	33463.39
602.478	33516.04
602.836	33710.38
603.194	33678.07
603.552	33947.67
603.91	33954.67
604.268	34291.61
604.625	34386.98
604.983	34559.85
605.341	34596.24
605.698	34863.35
606.056	35058.37
606.413	35155.32
606.771	35359.83
607.128	35565.03
607.485	35570.9
607.843	35788.3
608.2	35964.34
608.557	36194.39
608.914	36209.53
609.272	36476.19
609.629	36533.81
609.986	36922.73
610.343	36921.83
610.7	37327.01
611.057	37197.07
611.414	37333.11
611.771	37399.78
612.127	37739.66
612.484	37815.36
612.841	37988.01
613.198	37849.26
613.554	38033.66
613.911	38308
614.267	38355.91
614.624	38484.04
614.98	38481.56
615.337	38822.11
615.693	38804.26
616.05	38901.66
616.406	39085.61
616.762	38977.36
617.118	39256.91
617.475	39333.51
617.831	39395.89
618.187	39554.07
618.543	39593.85
618.899	39786.84
619.255	39726.72
619.611	39785.93
619.967	39806.95
620.323	40119.48
620.678	39966.49
621.034	40045.13
621.39	40115.41
621.746	40135.75
622.101	40501.84
622.457	40258.91
622.812	40538
623.168	40557.66
623.523	40613.71
623.879	40790.42
624.234	40569.64
624.589	40774.83
624.945	40857.99
625.3	40864.55
625.655	40933.02
626.01	40973.47
626.365	41102.51
626.72	41027.48
627.075	40996.75
627.43	40934.83
627.785	40922.85
628.14	41103.41
628.495	41200.36
628.85	41112.45
629.205	41086.24
629.559	41427.24
629.914	41150.19
630.269	41246.91
630.623	41117.42
630.978	41112.68
631.332	41403.97
631.687	41353.12
632.041	41206.68
632.396	41401.93
632.75	41163.75
633.104	41329.17
633.459	41337.98
633.813	41068.38
634.167	41304.76
634.521	41266.12
634.875	41369.84
635.229	41204.2
635.583	41012.79
635.937	41223.18
636.291	41080.13
636.645	41180.92
636.999	41046.92
637.352	41308.15
637.706	41032.68
638.06	41217.98
638.413	41134.82
638.767	41004.88
639.121	41135.73
639.474	40968.95
639.828	41018.89
640.181	40982.96
640.534	40909.97
640.888	40818.22
641.241	40785.45
641.594	40899.57
641.947	40924.43
642.301	40700.71
642.654	40988.16
643.007	40952.23
643.36	40935.96
643.713	40822.51
644.066	40919.23
644.419	40612.12
644.771	40414.16
645.124	39978.24
645.477	40034.96
645.83	39842.2
646.182	39652.38
646.535	39670.45
646.888	39634.97
647.24	39436.11
647.593	39744.8
647.945	39620.06
648.298	39463.45
648.65	39325.38
649.002	39275.21
649.355	39589.78
649.707	39601.53
650.059	39731.92
650.411	40034.06
650.763	40149.54
651.115	40603.76
651.467	40324
651.819	40458
652.171	40213.72
652.523	40276.09
652.875	40213.04
653.227	40025.92
653.578	40348.4
653.93	40169.2
654.282	40084.45
654.633	40056.88
654.985	40121.52
655.337	40156.32
655.688	40077.45
656.039	40234.06
656.391	39986.15
656.742	40028.18
657.094	39914.97
657.445	40161.97
657.796	40027.05
658.147	39964.91
658.498	39858.92
658.849	40026.38
659.2	39889.21
659.551	39910
659.902	40019.6
660.253	39847.85
660.604	39917.91
660.955	39756.33
661.306	40061.63
661.656	39879.94
662.007	39897.79
662.358	39831.58
662.708	39867.51
663.059	39842.43
663.409	39607.18
663.76	39884.46
664.11	39960.16
664.461	39917.91
664.811	40015.08
665.161	39854.18
665.511	39782.54
665.862	39680.4
666.212	39841.75
666.562	39928.07
666.912	39758.14
667.262	39623.68
667.612	39783.22
667.962	39782.99
668.312	39775.76
668.662	39837.68
669.011	39649.44
669.361	39729.44
669.711	39605.6
670.06	39766.5
670.41	39492.83
670.76	39552.04
671.109	39652.83
671.459	39440.4
671.808	39454.87
672.157	39529.44
672.507	39486.73
672.856	39382.55
673.205	39510.46
673.554	39667.74
673.904	39473.85
674.253	39751.13
674.602	39646.27
674.951	38955.44
675.3	38899.85
675.649	39421.2
675.998	39403.34
676.346	39449.89
676.695	39473.4
677.044	39211.26
677.393	39403.79
677.741	39278.37
678.09	39370.8
678.438	39291.71
678.787	39317.92
679.135	39385.49
679.484	39069.11
679.832	39192.05
680.181	39076.12
680.529	39080.41
680.877	38921.77
681.225	38953.64
681.573	39062.79
681.922	38959.51
682.27	38698.28
682.618	38794.77
682.966	38712.74
683.314	38796.13
683.661	38651.05
684.009	38480.65
684.357	38271.62
684.705	38368.57
685.053	38401.11
685.4	38392.75
685.748	38154.34
686.095	38145.3
686.443	38071.85
686.79	38041.12
687.138	38118.4
687.485	37948.92
687.832	37853.1
688.18	37923.83
688.527	37668.02
688.874	37782.82
689.221	37560
689.568	37513.67
689.915	37499.89
690.262	37529.27
690.609	37452.43
690.956	37237.98
691.303	37292.89
691.65	37115.49
691.997	37113.23
692.344	36885.22
692.69	36874.37
693.037	36868.49
693.383	36584.21
693.73	36689.06
694.077	36510.54
694.423	36548.28
694.769	36378.34
695.116	36325.23
695.462	36188.29
695.808	36069.19
696.155	36168.63
696.501	35836.43
696.847	36080.72
697.193	35697.23
697.539	35786.49
697.885	35630.11
698.231	35536.33
698.577	35402.54
698.923	35383.79
699.269	35249.78
699.614	35150.57
699.96	34981.99
700.306	35049.11
700.651	34960.07
700.997	34791.26
701.342	34712.62
701.688	34722.11
702.033	34744.48
702.379	34605.28
702.724	34543.58
703.069	34565.05
703.415	34115.12
703.76	34228.34
704.105	34292.52
704.45	34185.85
704.795	34017.5
705.14	33913.77
705.485	33877.84
705.83	33663.61
706.175	33727.56
706.52	33670.84
706.865	33505.87
707.209	33382.71
707.554	33278.08
707.899	33421.35
708.243	33235.82
708.588	33157.41
708.932	32993.57
709.277	32971.87
709.621	32969.61
709.966	32800.58
710.31	32790.41
710.654	32522.39
710.998	32599
711.342	32648.72
711.687	32559
712.031	32376.63
712.375	32191.33
712.719	32352.45
713.063	32227.49
713.407	32291.44
713.75	32088.96
714.094	32168.5
714.438	32039.69
714.782	32084.44
715.125	31887.38
715.469	32031.56
715.812	31785.24
716.156	31613.94
716.499	31578.46
716.843	31715.18
717.186	31387.28
717.53	31604.45
717.873	31500.27
718.216	31481.29
718.559	31255.53
718.902	31111.58
719.246	31238.36
719.589	31078.82
719.932	30925.15
720.275	31027.29
720.617	30923.34
720.96	30864.36
721.303	30823.46
721.646	30769.45
721.989	30656.68
722.331	30786.39
722.674	30660.75
723.016	30716.79
723.359	30536.01
723.701	30731.25
724.044	30510.02
724.386	30399.96
724.729	30467.98
725.071	30406.52
725.413	30280.87
725.755	30343.47
726.097	30199.74
726.439	30116.13
726.782	30124.94
727.124	30270.25
727.465	30077.94
727.807	30028.9
728.149	30016.7
728.491	29860.99
728.833	29951.16
729.175	29835.23
729.516	29640.44
729.858	29800.21
730.199	29705.07
730.541	29647.44
730.882	29566.54
731.224	29682.24
731.565	29312.76
731.906	29442.7
732.248	29485.86
732.589	29307.56
732.93	29229.6
733.271	29293.78
733.612	29155.48
733.953	29267.11
734.294	29093.56
734.635	29134.91
734.976	29160.45
735.317	28964.29
735.658	29104.18
735.999	29010.17
736.339	28842.94
736.68	28967.01
737.021	28822.15
737.361	28694.25
737.702	28920.68
738.042	28781.25
738.383	28624.19
738.723	28689.5
739.063	28633.91
739.404	28627.35
739.744	28519.56
740.084	28443.63
740.424	28614.47
740.764	28469.17
741.104	28477.53
741.444	28419.45
741.784	28441.14
742.124	28349.62
742.464	28300.13
742.804	28207.93
743.143	28163.19
743.483	28148.5
743.823	28102.85
744.162	28124.99
744.502	28087.71
744.841	27848.62
745.181	28036.41
745.52	28006.13
745.86	27959.8
746.199	27837.54
746.538	27776.76
746.877	27816.53
747.216	27783.99
747.556	27762.74
747.895	27785.12
748.234	27674.84
748.573	27667.83
748.911	27656.76
749.25	27511.45
749.589	27359.14
749.928	27276.88
750.267	27480.72
750.605	27345.35
750.944	27278.46
751.283	27159.14
751.621	27316.88
751.96	27133.83
752.298	27075.53
752.636	27154.85
752.975	26958.02
753.313	26843.45
753.651	27001.18
753.989	26784.47
754.327	26747.18
754.666	26643.9
755.004	26749.44
755.342	26762.77
755.679	26581.08
756.017	26386.51
756.355	26580.85
756.693	26284.59
757.031	26433.06
757.368	26281.88
757.706	26274.42
