Data from hue_00_FLMS001491_63.txt Node
Date: Mon Feb 06 15:30:03 GMT 2017
User: dcchb
Spectrometer: FLMS00149
Trigger mode: 0
Integration Time (sec): 2.000000E-2
Scans to average: 10
Electric dark correction enabled: true
Nonlinearity correction enabled: false
Boxcar width: 0
XAxis mode: Wavelengths
Number of Pixels in Spectrum: 2048
>>>>>Begin Spectral Data<<<<<
341.393	-11.78
341.776	-11.78
342.16	-11.78
342.543	-62.17
342.927	-70.53
343.31	-59.69
343.693	-85.45
344.077	-53.36
344.46	-57.65
344.843	-52.68
345.226	-41.38
345.61	-16.3
345.993	-27.6
346.376	-4.32
346.759	-0.93
347.142	19.86
347.525	15.79
347.908	76.35
348.291	82.23
348.674	95.79
349.057	109.35
349.44	130.59
349.823	135.34
350.206	162.45
350.588	205.39
350.971	197.71
351.354	232.51
351.737	239.51
352.119	242.9
352.502	259.4
352.884	264.15
353.267	281.77
353.65	294.43
354.032	305.73
354.414	301.66
354.797	316.35
355.179	316.35
355.562	324.48
355.944	340.98
356.326	339.4
356.709	329.45
357.091	338.04
357.473	334.88
357.855	338.04
358.238	347.31
358.62	361.32
359.002	334.2
359.384	347.99
359.766	327.19
360.148	350.92
360.53	356.57
360.912	338.72
361.294	333.75
361.676	339.4
362.057	328.78
362.439	330.81
362.821	323.58
363.203	311.6
363.584	326.06
363.966	322.45
364.348	342.79
364.729	309.12
365.111	318.61
365.493	331.49
365.874	301.88
366.256	318.16
366.637	308.44
367.019	316.12
367.4	319.29
367.781	301.66
368.163	310.25
368.544	323.13
368.925	324.48
369.306	318.83
369.688	308.21
370.069	284.26
370.45	310.47
370.831	305.73
371.212	302.79
371.593	314.09
371.974	297.59
372.355	322
372.736	347.08
373.117	316.12
373.498	326.97
373.879	314.09
374.26	304.6
374.641	310.92
375.021	311.83
375.402	310.7
375.783	334.65
376.163	318.16
376.544	325.39
376.925	325.61
377.305	326.97
377.686	331.26
378.066	328.55
378.447	348.89
378.827	334.65
379.208	331.94
379.588	314.99
379.968	321.77
380.349	337.59
380.729	330.13
381.109	347.08
381.489	350.7
381.87	324.93
382.25	315.44
382.63	344.6
383.01	333.75
383.39	346.18
383.77	347.31
384.15	350.02
384.53	353.41
384.91	337.36
385.29	348.89
385.67	309.79
386.049	338.49
386.429	334.65
386.809	359.51
387.189	326.97
387.568	348.21
387.948	346.18
388.328	358.61
388.707	364.48
389.087	372.17
389.466	366.06
389.846	356.12
390.225	353.63
390.605	369.23
390.984	354.99
391.363	353.63
391.743	371.94
392.122	361.09
392.501	379.62
392.881	353.41
393.26	350.25
393.639	354.54
394.018	349.12
394.397	379.4
394.776	394.31
395.155	377.36
395.534	396.57
395.913	375.1
396.292	373.07
396.671	391.37
397.05	378.27
397.429	391.6
397.808	381.2
398.186	373.52
398.565	385.05
398.944	417.14
399.323	377.14
399.701	369.23
400.08	376.46
400.458	370.81
400.837	405.61
401.215	380.98
401.594	388.66
401.972	400.19
402.351	397.48
402.729	412.39
403.107	398.61
403.486	390.24
403.864	388.21
404.242	414.65
404.62	419.62
404.999	409.23
405.377	386.4
405.755	408.55
406.133	405.16
406.511	424.14
406.889	424.14
407.267	395.67
407.645	425.27
408.023	418.49
408.401	436.57
408.779	412.16
409.156	414.2
409.534	415.33
409.912	418.27
410.29	443.8
410.667	443.12
411.045	427.76
411.422	433.63
411.8	452.39
412.178	440.41
412.555	444.48
412.933	467.76
413.31	447.64
413.687	486.51
414.065	458.94
414.442	460.98
414.819	463.46
415.197	482.44
415.574	460.07
415.951	468.43
416.328	462.56
416.705	457.59
417.082	478.15
417.46	493.29
417.837	492.61
418.214	491.48
418.591	480.19
418.967	489.68
419.344	507.08
419.721	506.4
420.098	495.1
420.475	526.51
420.852	507.08
421.228	520.64
421.605	507.98
421.982	522.44
422.358	500.52
422.735	525.38
423.111	510.69
423.488	525.16
423.864	536.91
424.241	520.64
424.617	525.16
424.994	529.9
425.37	547.98
425.746	535.1
426.123	523.57
426.499	548.88
426.875	560.41
427.251	558.83
427.627	576.91
428.003	564.02
428.379	564.02
428.756	588.43
429.132	599.05
429.507	583.23
429.883	591.14
430.259	583.91
430.635	590.46
431.011	589.56
431.387	599.28
431.763	628.88
432.138	609.45
432.514	605.15
432.89	611.48
433.265	614.42
433.641	651.03
434.016	641.31
434.392	650.8
434.767	652.16
435.143	647.64
435.518	636.79
435.894	663.91
436.269	678.82
436.644	672.72
437.02	667.3
437.395	711.14
437.77	697.13
438.145	704.59
438.52	699.84
438.895	694.64
439.271	700.74
439.646	712.72
440.021	720.4
440.395	727.64
440.77	699.16
441.145	715.66
441.52	742.1
441.895	712.95
442.27	719.05
442.645	727.86
443.019	745.04
443.394	744.81
443.769	743.46
444.143	764.7
444.518	770.57
444.892	748.2
445.267	764.47
445.641	786.17
446.016	767.86
446.39	772.15
446.764	788.65
447.139	774.41
447.513	798.82
447.887	801.53
448.262	787.3
448.636	786.17
449.01	775.09
449.384	820.97
449.758	826.16
450.132	810.12
450.506	809.67
450.88	819.61
451.254	821.65
451.628	829.33
452.002	831.36
452.376	848.09
452.75	841.53
453.123	852.6
453.497	855.32
453.871	867.52
454.244	853.51
454.618	867.29
454.992	889.21
455.365	898.71
455.739	924.24
456.112	905.03
456.486	897.35
456.859	933.28
457.232	916.78
457.606	940.74
457.979	949.78
458.352	947.07
458.725	973.96
459.099	970.57
459.472	992.71
459.845	997.69
460.218	991.58
460.591	994.97
460.964	1007.4
461.337	1020.51
461.71	1030.91
462.083	1057.8
462.456	1045.82
462.829	1077.23
463.201	1057.57
463.574	1089.21
463.947	1082.88
464.32	1098.7
464.692	1129.43
465.065	1127.17
465.438	1129.43
465.81	1154.74
466.183	1159.04
466.555	1162.88
466.928	1189.77
467.3	1200.84
467.672	1214.4
468.045	1208.75
468.417	1241.75
468.789	1236.1
469.161	1255.76
469.534	1248.75
469.906	1298.24
470.278	1301.86
470.65	1340.05
471.022	1352.48
471.394	1367.85
471.766	1417.79
472.138	1369.2
472.51	1398.35
472.882	1408.3
473.253	1432.25
473.625	1452.14
473.997	1521.29
474.369	1550.89
474.74	1532.13
475.112	1554.51
475.484	1580.27
475.855	1598.12
476.227	1650.55
476.598	1651.68
476.97	1649.19
477.341	1686.71
477.713	1725.35
478.084	1742.98
478.455	1821.39
478.827	1826.82
479.198	1881.5
479.569	1868.85
479.94	1919.02
480.311	1941.16
480.682	1976.64
481.053	2017.55
481.424	2029.07
481.795	2067.71
482.166	2140.48
482.537	2121.27
482.908	2157.2
483.279	2201.27
483.65	2263.42
484.021	2311.32
484.391	2307.48
484.762	2375.5
485.133	2365.56
485.503	2399.91
485.874	2455.5
486.244	2475.16
486.615	2511.54
486.985	2540.7
487.356	2612.56
487.726	2633.12
488.097	2684.65
488.467	2737.98
488.837	2738.2
489.207	2825.21
489.578	2865.21
489.948	2856.17
490.318	2905.66
490.688	2934.58
491.058	3029.95
491.428	3039.67
491.798	3042.83
492.168	3145.65
492.538	3104.52
492.908	3195.82
493.278	3228.81
493.648	3235.37
494.017	3265.87
494.387	3318.08
494.757	3302.48
495.126	3353.78
495.496	3378.41
495.866	3424.06
496.235	3439.66
496.605	3487.11
496.974	3500.67
497.344	3542.03
497.713	3558.07
498.082	3579.99
498.452	3575.02
498.821	3628.12
499.19	3668.35
499.559	3660.21
499.928	3659.76
500.298	3704.28
500.667	3774.11
501.036	3738.86
501.405	3822.7
501.774	3840.1
502.143	3850.72
502.512	3845.52
502.88	3888.91
503.249	3936.37
503.618	3960.77
503.987	3928.46
504.356	3955.12
504.724	3994.22
505.093	3980.21
505.462	3972.52
505.83	4073.08
506.199	4061.56
506.567	4084.84
506.936	4070.37
507.304	4129.35
507.672	4170.03
508.041	4176.13
508.409	4222.91
508.777	4224.95
509.145	4256.58
509.514	4218.17
509.882	4259.29
510.25	4280.31
510.618	4350.37
510.986	4330.25
511.354	4359.86
511.722	4337.48
512.09	4401.44
512.458	4368.44
512.826	4419.74
513.193	4430.36
513.561	4416.8
513.929	4454.77
514.297	4486.18
514.664	4502.68
515.032	4487.99
515.4	4525.5
515.767	4533.86
516.135	4551.72
516.502	4553.52
516.869	4589.91
517.237	4627.65
517.604	4566.86
517.972	4638.95
518.339	4679.4
518.706	4661.32
519.073	4651.6
519.44	4709.9
519.808	4749.9
520.175	4703.35
520.542	4778.15
520.909	4827.87
521.276	4791.71
521.643	4806.17
522.009	4838.04
522.376	4829
522.743	4869.45
523.11	4937.47
523.477	4937.7
523.843	4988.77
524.21	4984.25
524.577	5033.96
524.943	5024.47
525.31	5052.04
525.676	5133.17
526.043	5133.17
526.409	5158.93
526.776	5198.48
527.142	5179.95
527.508	5189.21
527.874	5232.38
528.241	5263.34
528.607	5280.28
528.973	5333.39
529.339	5309.89
529.705	5404.58
530.071	5390.79
530.437	5429.21
530.803	5437.12
531.169	5470.11
531.535	5458.13
531.901	5512.14
532.267	5560.73
532.632	5617.9
532.998	5600.28
533.364	5562.76
533.73	5632.59
534.095	5652.48
534.461	5653.83
534.826	5676.88
535.192	5752.36
535.557	5786.94
535.923	5765.24
536.288	5760.5
536.653	5826.03
537.019	5823.77
537.384	5886.37
537.749	5888.63
538.114	5888.18
538.479	5940.61
538.845	5947.39
539.21	5949.87
539.575	5975.86
539.94	6011.57
540.305	6038.46
540.67	6054.28
541.034	6028.74
541.399	6120.71
541.764	6099.47
542.129	6106.7
542.494	6187.15
542.858	6194.61
543.223	6221.73
543.587	6264.89
543.952	6243.2
544.316	6252.46
544.681	6252.24
545.045	6361.61
545.41	6377.43
545.774	6359.8
546.138	6426.7
546.503	6407.03
546.867	6445
547.231	6491.33
547.595	6505.56
547.959	6523.64
548.324	6562.96
548.688	6578.56
549.052	6597.31
549.416	6614.94
549.779	6641.61
550.143	6638.22
550.507	6704.43
550.871	6705.11
551.235	6738.55
551.599	6755.05
551.962	6697.42
552.326	6786.69
552.689	6840.47
553.053	6805.22
553.417	6890.41
553.78	6878.43
554.143	6863.07
554.507	6895.84
554.87	6912.11
555.234	7035.72
555.597	6989.62
555.96	6995.49
556.323	7007.47
556.686	6991.2
557.05	7062.38
557.413	7036.62
557.776	7053.57
558.139	7110.97
558.502	7140.12
558.865	7161.14
559.228	7230.97
559.59	7224.64
559.953	7221.48
560.316	7316.62
560.679	7355.71
561.041	7360
561.404	7323.85
561.767	7421.25
562.129	7385.54
562.492	7385.54
562.854	7448.59
563.217	7484.52
563.579	7463.96
563.941	7514.12
564.304	7497.85
564.666	7546.21
565.028	7606.55
565.39	7603.61
565.753	7681.58
566.115	7728.36
566.477	7710.05
566.839	7708.24
567.201	7820.56
567.563	7745.3
567.925	7804.29
568.287	7863.04
568.648	7851.97
569.01	7904.17
569.372	7976.26
569.734	7922.48
570.095	7968.35
570.457	8049.7
570.819	8057.39
571.18	8075.69
571.542	8196.14
571.903	8172.41
572.265	8242.69
572.626	8303.03
572.987	8280.21
573.349	8322.46
573.71	8388.68
574.071	8446.53
574.432	8441.11
574.794	8562.46
575.155	8583.25
575.516	8626.19
575.877	8705.51
576.238	8704.83
576.599	8818.27
576.96	8902.34
577.32	8913.41
577.681	8990.92
578.042	9042.9
578.403	9193.18
578.763	9271.37
579.124	9320.63
579.485	9478.59
579.845	9575.54
580.206	9679.49
580.566	9764.01
580.927	9839.04
581.287	10007.17
581.648	10044.68
582.008	10255.52
582.368	10289.64
582.728	10493.48
583.089	10564.44
583.449	10707.71
583.809	10979.34
584.169	11100.7
584.529	11135.95
584.889	11476.96
585.249	11552.89
585.609	11756.5
585.969	12010.5
586.329	12011.86
586.688	12318.07
587.048	12592.41
587.408	12730.71
587.768	12916.69
588.127	13096.12
588.487	13276.23
588.846	13710.8
589.206	13735.2
589.565	14077.34
589.925	14313.04
590.284	14535.63
590.643	14855.63
591.003	15136.52
591.362	15382.17
591.721	15612.22
592.08	15826.67
592.44	16192.77
592.799	16346.66
593.158	16624.39
593.517	16978.96
593.876	17239.52
594.235	17518.83
594.593	17653.52
594.952	18008.31
595.311	18295.76
595.67	18555.64
596.029	18909.53
596.387	19173.25
596.746	19555.16
597.104	19655.95
597.463	19953.12
597.822	20397.4
598.18	20517.4
598.538	20759.2
598.897	21220.66
599.255	21259.98
599.613	21874.65
599.972	21932.95
600.33	22317.35
600.688	22576.55
601.046	22962.08
601.404	23150.32
601.762	23415.63
602.12	23761.15
602.478	23966.57
602.836	24179.22
603.194	24369.5
603.552	24668.7
603.91	24811.52
604.268	25232.53
604.625	25221.23
604.983	25727.88
605.341	25812.85
605.698	26198.83
606.056	26549.78
606.413	26600.18
606.771	26951.81
607.128	27201.06
607.485	27209.65
607.843	27519.7
608.2	27758.56
608.557	28016.86
608.914	28171.89
609.272	28455.72
609.629	28759.22
609.986	29103.84
610.343	29006.21
610.7	29519.42
611.057	29519.2
611.414	29755.8
611.771	29847.32
612.127	30137.26
612.484	30367.76
612.841	30675.1
613.198	30593.97
613.554	30777.92
613.911	31206.61
614.267	31376.32
614.624	31365.47
614.98	31572.02
615.337	31918.45
615.693	32073.48
616.05	32056.3
616.406	32333.58
616.762	32352.12
617.118	32536.74
617.475	32668.72
617.831	32770.18
618.187	32926.56
618.543	33134.02
618.899	33412.43
619.255	33462.37
619.611	33610.16
619.967	33709.59
620.323	33909.59
620.678	33735.81
621.034	33863.26
621.39	34030.49
621.746	34138.28
622.101	34663.02
622.457	34271.16
622.812	34382.12
623.168	34640.19
623.523	34698.04
623.879	34857.59
624.234	34709.79
624.589	35046.51
624.945	34974.87
625.3	35160.86
625.655	35068.88
626.01	35234.98
626.365	35300.06
626.72	35471.58
627.075	35397.23
627.43	35541.41
627.785	35474.52
628.14	35660.73
628.495	35669.54
628.85	35657.34
629.205	35551.81
629.559	35968.97
629.914	35731.69
630.269	35854.62
630.623	35855.07
630.978	35762.87
631.332	35915.19
631.687	36072.7
632.041	35971
632.396	36101.62
632.75	36051.23
633.104	36066.82
633.459	35953.15
633.813	35911.12
634.167	36004.9
634.521	35969.65
634.875	36141.85
635.229	36048.29
635.583	36023.66
635.937	36048.74
636.291	35921.06
636.645	36036.31
636.999	36010.78
637.352	36087.38
637.706	35944.56
638.06	36178.46
638.413	35944.79
638.767	36044.67
639.121	36045.13
639.474	35994.73
639.828	35950.89
640.181	36056.2
640.534	36128.06
640.888	35923.55
641.241	35862.76
641.594	35818.69
641.947	35926.71
642.301	35837.9
642.654	35883.55
643.007	35934.85
643.36	35900.27
643.713	35802.42
644.066	35955.86
644.419	35710.22
644.771	35524.91
645.124	35204.92
645.477	35179.16
645.83	35099.16
646.182	34893.29
646.535	34856.68
646.888	34936.91
647.24	34759.51
647.593	34979.62
647.945	34827.3
648.298	34745.27
648.65	34613.52
649.002	34514.77
649.355	34769.45
649.707	34589.34
650.059	34862.78
650.411	35164.47
650.763	35141.65
651.115	35622.54
651.467	35521.98
651.819	35378.7
652.171	35497.57
652.523	35381.19
652.875	35519.72
653.227	35233.85
653.578	35425.03
653.93	35270.68
654.282	35347.52
654.633	35168.76
654.985	35203.11
655.337	35296.67
655.688	35288.31
656.039	35383.67
656.391	35107.3
656.742	35148.2
657.094	35180.29
657.445	35235.88
657.796	35143.45
658.147	35173.28
658.498	35099.16
658.849	35313.85
659.2	35193.17
659.551	35040.63
659.902	35200.63
660.253	35171.7
660.604	35305.71
660.955	34920.41
661.306	35121.76
661.656	35096.45
662.007	35037.47
662.358	35056.68
662.708	35032.5
663.059	35096.22
663.409	34683.58
663.76	35091.7
664.11	35053.06
664.461	35018.71
664.811	35020.07
665.161	35020.29
665.511	35016.68
665.862	34965.61
666.212	35168.09
666.562	35167.41
666.912	35059.39
667.262	34981.88
667.612	35035.66
667.962	35119.27
668.312	34951.14
668.662	35100.52
669.011	34915.89
669.361	34944.14
669.711	34972.16
670.06	34814.88
670.41	34846.29
670.76	34627.31
671.109	35002.22
671.459	34782.79
671.808	34794.31
672.157	34765.84
672.507	34674.09
672.856	34693.97
673.205	34816.91
673.554	34779.85
673.904	34692.39
674.253	34722.9
674.602	34664.15
674.951	34399.52
675.3	34271.84
675.649	34645.61
675.998	34568.1
676.346	34597.25
676.695	34764.71
677.044	34383.93
677.393	34724.03
677.741	34634.32
678.09	34512.74
678.438	34395.45
678.787	34469.8
679.135	34458.95
679.484	34408.78
679.832	34360.2
680.181	34281.78
680.529	34356.13
680.877	34265.74
681.225	34149.13
681.573	34308
681.922	34050.6
682.27	34087.21
682.618	34164.95
682.966	33839.99
683.314	34065.06
683.661	33801.57
684.009	33742.81
684.357	33663.49
684.705	33536.49
685.053	33748.01
685.4	33430.73
685.748	33491.97
686.095	33407.91
686.443	33403.39
686.79	33251.98
687.138	33284.29
687.485	33346.21
687.832	33366.78
688.18	33253.11
688.527	33108.71
688.874	33053.79
689.221	33059.67
689.568	32921.59
689.915	32782.84
690.262	32842.72
690.609	32670.75
690.956	32635.95
691.303	32572.22
691.65	32584.43
691.997	32558.44
692.344	32336.97
692.69	32254.26
693.037	32293.81
693.383	32063.54
693.73	32176.07
694.077	32017.89
694.423	32020.82
694.769	31951.45
695.116	31701.51
695.462	31649.76
695.808	31709.42
696.155	31692.92
696.501	31500.84
696.847	31429.65
697.193	31171.13
697.539	31208.87
697.885	31252.03
698.231	31097.01
698.577	30993.96
698.923	30964.81
699.269	30821.76
699.614	30714.87
699.96	30642.1
700.306	30766.85
700.651	30518.72
700.997	30528.43
701.342	30375.22
701.688	30336.58
702.033	30230.36
702.379	30171.83
702.724	30087.32
703.069	30186.3
703.415	29811.84
703.76	29925.96
704.105	29906.3
704.45	29758.74
704.795	29716.03
705.14	29522.81
705.485	29568.01
705.83	29418.86
706.175	29629.25
706.52	29491.85
706.865	29309.03
707.209	29318.3
707.554	29060
707.899	29264.06
708.243	28972.32
708.588	28924.63
708.932	28763.74
709.277	28891.42
709.621	28812.55
709.966	28598.99
710.31	28592.89
710.654	28405.33
710.998	28468.15
711.342	28407.36
711.687	28456.4
712.031	28292.34
712.375	28154.03
712.719	28194.71
713.063	28144.77
713.407	28227.25
713.75	27943.87
714.094	27928.05
714.438	27888.96
714.782	27921.95
715.125	27731.9
715.469	27799.69
715.812	27712.01
716.156	27552.47
716.499	27589.75
716.843	27716.31
717.186	27510.21
717.53	27599.92
717.873	27511.34
718.216	27402.64
718.559	27447.61
718.902	27188.64
719.246	27257.11
719.589	27188.41
719.932	27066.15
720.275	27075.42
720.617	27041.29
720.96	27051.01
721.303	26958.36
721.646	27024.12
721.989	26796.33
722.331	26901.19
722.674	26725.14
723.016	26854.63
723.359	26849.66
723.701	26812.83
724.044	26564.02
724.386	26374.65
724.729	26589.33
725.071	26613.74
725.413	26534.19
725.755	26483.34
726.097	26242.45
726.439	26182.33
726.782	26272.73
727.124	26347.53
727.465	26179.62
727.807	26129.45
728.149	26094.43
728.491	26048.78
728.833	26072.96
729.175	25962.23
729.516	25976.92
729.858	25752.74
730.199	25892.85
730.541	25898.05
730.882	25736.24
731.224	25805.39
731.565	25770.14
731.906	25692.86
732.248	25613.99
732.589	25503.48
732.93	25393.2
733.271	25533.09
733.612	25479.75
733.953	25565.63
734.294	25484.05
734.635	25321.11
734.976	25386.87
735.317	25240.44
735.658	25336.71
735.999	25183.26
736.339	25132.87
736.68	25298.52
737.021	25100.78
737.361	25007
737.702	25105.53
738.042	25002.93
738.383	24891.75
738.723	25021.91
739.063	24935.36
739.404	24980.11
739.744	24881.35
740.084	24742.82
740.424	24888.36
740.764	24828.25
741.104	24892.65
741.444	24611.08
741.784	24631.41
742.124	24610.4
742.464	24531.53
742.804	24643.39
743.143	24513.45
743.483	24598.42
743.823	24371.76
744.162	24363.85
744.502	24448.37
744.841	24329.95
745.181	24356.39
745.52	24275.27
745.86	24326.56
746.199	24184.65
746.538	24169.51
746.877	24244.53
747.216	24149.85
747.556	24232.55
747.895	24133.12
748.234	23947.59
748.573	24041.6
748.911	23888.38
749.25	23964.31
749.589	23798.44
749.928	23935.61
750.267	23851.32
750.605	23784.43
750.944	23638.67
751.283	23648.62
751.621	23647.71
751.96	23505.34
752.298	23520.48
752.636	23473.03
752.975	23354.84
753.313	23364.1
753.651	23456.08
753.989	23386.93
754.327	23319.36
754.666	23237.78
755.004	23220.38
755.342	23226.71
755.679	23109.65
756.017	22989.88
756.355	23045.92
756.693	22944
757.031	23000.5
757.368	22914.4
757.706	22861.74
758.044	22844.12
758.381	22783.1
758.719	22687.51
759.056	22768.41
759.394	22553.95
759.731	22478.25
760.068	22420.4
760.405	22370.01
760.743	22288.2
761.08	22350.34
