Data from hue_220_FLMS001491_00020.txt Node
Date: Tue Feb 07 16:38:37 GMT 2017
User: dcchb
Spectrometer: FLMS00149
Trigger mode: 0
Integration Time (sec): 2.000000E-2
Scans to average: 10
Electric dark correction enabled: true
Nonlinearity correction enabled: false
Boxcar width: 0
XAxis mode: Wavelengths
Number of Pixels in Spectrum: 2048
>>>>>Begin Spectral Data<<<<<
341.393	-5.34
341.776	-5.34
342.16	-5.34
342.543	-58.67
342.927	-59.8
343.31	-81.04
343.693	-74.04
344.077	-66.81
344.46	-68.16
344.843	-56.86
345.226	-52.34
345.61	-23.87
345.993	-16.86
346.376	18.62
346.759	11.84
347.142	36.92
347.525	50.93
347.908	64.04
348.291	50.93
348.674	99.74
349.057	106.97
349.44	116.24
349.823	146.75
350.206	175.22
350.588	219.06
350.971	215.22
351.354	244.37
351.737	228.1
352.119	249.12
352.502	265.16
352.884	278.72
353.267	276.69
353.65	283.92
354.032	302
354.414	297.25
354.797	320.98
355.179	338.15
355.562	312.39
355.944	337.48
356.326	330.7
356.709	350.36
357.091	335.44
357.473	330.47
357.855	335.22
358.238	333.64
358.62	349
359.002	352.39
359.384	323.47
359.766	317.36
360.148	345.39
360.53	344.93
360.912	317.82
361.294	341.77
361.676	338.15
362.057	326.63
362.439	342.9
362.821	336.57
363.203	355.78
363.584	301.09
363.966	337.93
364.348	320.75
364.729	320.75
365.111	325.5
365.493	304.03
365.874	303.13
366.256	312.62
366.637	316.91
367.019	337.25
367.4	313.75
367.781	313.52
368.163	307.87
368.544	288.66
368.925	313.07
369.306	309.68
369.688	320.98
370.069	308.33
370.45	301.77
370.831	322.11
371.212	308.55
371.593	302.22
371.974	309.91
372.355	322.79
372.736	311.26
373.117	321.66
373.498	313.07
373.879	317.36
374.26	316.01
374.641	334.31
375.021	308.55
375.402	318.49
375.783	318.04
376.163	297.25
376.544	320.53
376.925	316.69
377.305	328.21
377.686	330.02
378.066	327.99
378.447	321.21
378.827	332.51
379.208	342
379.588	315.33
379.968	315.1
380.349	334.09
380.729	333.86
381.109	311.49
381.489	311.94
381.87	332.96
382.25	337.93
382.63	340.19
383.01	348.1
383.39	340.64
383.77	342.45
384.15	352.17
384.53	351.71
384.91	350.13
385.29	325.05
385.67	344.71
386.049	351.26
386.429	353.97
386.809	339.28
387.189	369.11
387.568	365.27
387.948	359.85
388.328	347.42
388.707	346.52
389.087	372.05
389.466	353.97
389.846	360.75
390.225	366.18
390.605	353.3
390.984	372.73
391.363	350.13
391.743	385.61
392.122	375.67
392.501	366.18
392.881	360.53
393.26	375.67
393.639	377.02
394.018	375.89
394.397	375.89
394.776	369.34
395.155	397.81
395.534	384.48
395.913	365.27
396.292	381.77
396.671	392.84
397.05	390.81
397.429	386.97
397.808	381.77
398.186	396.68
398.565	403.69
398.944	419.28
399.323	410.7
399.701	393.97
400.08	405.72
400.458	403.92
400.837	417.47
401.215	430.58
401.594	402.33
401.972	434.42
402.351	406.85
402.729	409.34
403.107	437.59
403.486	429.23
403.864	406.4
404.242	437.14
404.62	452.73
404.999	429.68
405.377	453.18
405.755	421.99
406.133	464.48
406.511	452.95
406.889	438.94
407.267	468.32
407.645	483.24
408.023	483.46
408.401	499.05
408.779	490.02
409.156	492.28
409.534	520.75
409.912	497.92
410.29	498.83
410.667	515.55
411.045	528.21
411.422	532.5
411.8	537.25
412.178	552.61
412.555	532.05
412.933	570.92
413.31	574.31
413.687	600.07
414.065	588.54
414.442	585.38
414.819	591.48
415.197	609.56
415.574	600.07
415.951	631.48
416.328	611.37
416.705	642.78
417.082	632.84
417.46	656.11
417.837	668.09
418.214	661.08
418.591	686.39
418.967	674.64
419.344	686.62
419.721	703.12
420.098	695.21
420.475	709.67
420.852	748.99
421.228	732.04
421.605	747.18
421.982	769.56
422.358	770.69
422.735	770.01
423.111	818.59
423.488	798.03
423.864	824.24
424.241	841.42
424.617	838.48
424.994	858.59
425.37	851.14
425.746	858.37
426.123	891.81
426.499	900.17
426.875	913.06
427.251	920.96
427.627	943.56
428.003	946.95
428.379	978.36
428.756	989.89
429.132	997.35
429.507	985.14
429.883	1000.74
430.259	1030.79
430.635	1049.77
431.011	1066.95
431.387	1060.17
431.763	1109.43
432.138	1111.47
432.514	1094.07
432.89	1141.98
433.265	1157.57
433.641	1177.68
434.016	1192.37
434.392	1214.74
434.767	1196.21
435.143	1248.41
435.518	1273.95
435.894	1292.71
436.269	1323.89
436.644	1333.38
437.02	1339.03
437.395	1354.4
437.77	1378.13
438.145	1407.05
438.52	1424.68
438.895	1436.43
439.271	1462.42
439.646	1472.14
440.021	1524.11
440.395	1532.02
440.77	1521.4
441.145	1560.27
441.52	1587.84
441.895	1574.73
442.27	1614.28
442.645	1616.09
443.019	1658.8
443.394	1658.35
443.769	1655.18
444.143	1683.43
444.518	1711.23
444.892	1740.38
445.267	1737.67
445.641	1752.13
446.016	1762.3
446.39	1791.45
446.764	1777.44
447.139	1782.18
447.513	1799.13
447.887	1808.4
448.262	1819.7
448.636	1841.39
449.01	1868.96
449.384	1877.1
449.758	1914.38
450.132	1875.74
450.506	1899.47
450.88	1915.74
451.254	1957.1
451.628	1984.89
452.002	2015.17
452.376	1982.18
452.75	2023.08
453.123	2009.75
453.497	2075.06
453.871	2071.22
454.244	2134.49
454.618	2119.35
454.992	2165.9
455.365	2143.31
455.739	2198.9
456.112	2201.83
456.486	2248.16
456.859	2244.32
457.232	2316.86
457.606	2286.13
457.979	2295.39
458.352	2308.27
458.725	2374.49
459.099	2380.59
459.472	2401.83
459.845	2446.12
460.218	2477.31
460.591	2477.99
460.964	2499.23
461.337	2560.02
461.71	2571.09
462.083	2612.22
462.456	2630.98
462.829	2622.84
463.201	2682.27
463.574	2712.1
463.947	2696.51
464.32	2803.4
464.692	2809.5
465.065	2815.6
465.438	2876.17
465.81	2884.08
466.183	2931.08
466.555	2972.21
466.928	2978.31
467.3	2940.8
467.672	3033.23
468.045	3105.31
468.417	3088.82
468.789	3111.19
469.161	3159.55
469.534	3187.35
469.906	3226.21
470.278	3259.66
470.65	3314.35
471.022	3368.81
471.394	3422.82
471.766	3431.18
472.138	3438.64
472.51	3543.04
472.882	3586.66
473.253	3612.42
473.625	3700.33
473.997	3746.43
474.369	3724.51
474.74	3784.17
475.112	3796.37
475.484	3896.71
475.855	3947.55
476.227	3947.1
476.598	4079.3
476.97	4109.13
477.341	4171.27
477.713	4196.13
478.084	4228.45
478.455	4352.74
478.827	4369.24
479.198	4450.82
479.569	4489.46
479.94	4580.53
480.311	4637.93
480.682	4739.4
481.053	4803.57
481.424	4882.89
481.795	4950.01
482.166	4947.07
482.537	5000.18
482.908	5086.73
483.279	5105.71
483.65	5218.48
484.021	5248.53
484.391	5328.53
484.762	5409.66
485.133	5395.42
485.503	5487.85
485.874	5582.99
486.244	5603.55
486.615	5698.24
486.985	5744.57
487.356	5848.97
487.726	5888.52
488.097	5941.4
488.467	6008.97
488.837	6077.21
489.207	6161.5
489.578	6243.08
489.948	6275.63
490.318	6297.09
490.688	6352.69
491.058	6409.18
491.428	6505.68
491.798	6531.89
492.168	6646.24
492.538	6688.27
492.908	6717.65
493.278	6772.79
493.648	6761.26
494.017	6911.32
494.387	6964.2
494.757	6955.61
495.126	7045.55
495.496	7089.62
495.866	7067.47
496.235	7109.73
496.605	7175.04
496.974	7159.44
497.344	7245.09
497.713	7293.45
498.082	7271.76
498.452	7408.7
498.821	7368.7
499.19	7429.72
499.559	7457.29
499.928	7446.44
500.298	7526.89
500.667	7579.55
501.036	7520.34
501.405	7537.51
501.774	7617.74
502.143	7631.75
502.512	7635.82
502.88	7720.11
503.249	7716.94
503.618	7770.5
503.987	7748.81
504.356	7833.1
504.724	7844.4
505.093	7827
505.462	7859.99
505.83	7884.17
506.199	7931.4
506.567	7988.12
506.936	7967.56
507.304	8065.18
507.672	8016.37
508.041	8050.04
508.409	8098.4
508.777	8090.04
509.145	8168.23
509.514	8125.29
509.882	8167.78
510.25	8170.94
510.618	8172.3
510.986	8151.96
511.354	8223.37
511.722	8281.45
512.09	8270.83
512.458	8245.29
512.826	8280.32
513.193	8362.8
513.561	8343.59
513.929	8328
514.297	8395.34
514.664	8438.05
515.032	8374.78
515.4	8490.26
515.767	8420.88
516.135	8444.38
516.502	8377.04
516.869	8512.4
517.237	8484.16
517.604	8401.45
517.972	8445.51
518.339	8459.52
518.706	8502.46
519.073	8499.3
519.44	8494.32
519.808	8543.81
520.175	8532.29
520.542	8587.2
520.909	8603.47
521.276	8523.48
521.643	8601.21
522.009	8566.41
522.376	8670.59
522.743	8592.4
523.11	8669.91
523.477	8695.45
523.843	8719.86
524.21	8698.16
524.577	8828.1
524.943	8765.28
525.31	8762.34
525.676	8744.71
526.043	8734.32
526.409	8761.21
526.776	8837.14
527.142	8766.86
527.508	8802.57
527.874	8814.54
528.241	8856.8
528.607	8797.82
528.973	8800.31
529.339	8788.33
529.705	8839.63
530.071	8858.61
530.437	8847.99
530.803	8814.99
531.169	8862.22
531.535	8828.33
531.901	8784.94
532.267	8781.1
532.632	8838.95
532.998	8805.5
533.364	8790.81
533.73	8809.57
534.095	8782
534.461	8783.36
534.826	8758.5
535.192	8798.5
535.557	8805.05
535.923	8776.8
536.288	8765.5
536.653	8761.66
537.019	8667.65
537.384	8739.06
537.749	8682.57
538.114	8653.42
538.479	8666.07
538.845	8699.74
539.21	8605.06
539.575	8603.93
539.94	8574.1
540.305	8563.7
540.67	8596.24
541.034	8545.62
541.399	8498.17
541.764	8512.86
542.129	8528.67
542.494	8498.17
542.858	8501.56
543.223	8453.42
543.587	8506.53
543.952	8451.61
544.316	8439.64
544.681	8364.61
545.045	8405.51
545.41	8391.05
545.774	8402.12
546.138	8337.72
546.503	8364.84
546.867	8297.72
547.231	8246.2
547.595	8243.71
547.959	8262.92
548.324	8185.86
548.688	8212.75
549.052	8219.53
549.416	8118.29
549.779	8122.58
550.143	8147.44
550.507	8161.68
550.871	8101.11
551.235	8085.07
551.599	8123.94
551.962	8109.02
552.326	8071.51
552.689	8042.81
553.053	8049.14
553.417	7996.94
553.78	8125.52
554.143	7995.35
554.507	8026.54
554.87	8037.84
555.234	8008.24
555.597	7903.15
555.96	7967.78
556.323	7916.49
556.686	7900.67
557.05	7963.72
557.413	7933.21
557.776	7927.33
558.139	7951.29
558.502	7933.44
558.865	7928.24
559.228	8025.64
559.59	7947.67
559.953	7965.75
560.316	7989.48
560.679	7966.2
561.041	8014.56
561.404	8049.14
561.767	7979.08
562.129	8008.91
562.492	8018.18
562.854	7951.06
563.217	7993.32
563.579	7982.25
563.941	7964.62
564.304	7969.14
564.666	8046.2
565.028	8050.49
565.39	8030.16
565.753	8070.83
566.115	8026.77
566.477	8056.14
566.839	8056.82
567.201	8059.76
567.563	8106.31
567.925	8198.29
568.287	8106.09
568.648	8135.01
569.01	8121.45
569.372	8220.89
569.734	8168.23
570.095	8222.02
570.457	8193.99
570.819	8203.26
571.18	8236.48
571.542	8294.78
571.903	8271.51
572.265	8287.55
572.626	8259.08
572.987	8318.51
573.349	8306.31
573.71	8343.14
574.071	8363.48
574.432	8346.31
574.794	8398.96
575.155	8405.74
575.516	8381.79
575.877	8433.31
576.238	8455.68
576.599	8439.41
576.96	8461.33
577.32	8506.53
577.681	8509.01
578.042	8498.62
578.403	8520.76
578.763	8574.55
579.124	8538.62
579.485	8548.11
579.845	8615.45
580.206	8583.81
580.566	8564.83
580.927	8662.46
581.287	8664.94
581.648	8638.05
582.008	8645.06
582.368	8659.97
582.728	8689.8
583.089	8678.95
583.449	8736.8
583.809	8734.77
584.169	8742.23
584.529	8719.63
584.889	8842.34
585.249	8743.13
585.609	8750.59
585.969	8809.57
586.329	8832.62
586.688	8801.21
587.048	8838.04
587.408	8853.86
587.768	8836.24
588.127	8846.41
588.487	8806.18
588.846	8890.7
589.206	8895.9
589.565	8924.14
589.925	8965.95
590.284	9019.51
590.643	8948.78
591.003	9001.43
591.362	9022.67
591.721	8989
592.08	9014.99
592.44	9040.75
592.799	9111.71
593.158	9003.24
593.517	9097.47
593.876	9092.05
594.235	9107.19
594.593	9075.1
594.952	9095.89
595.311	9000.53
595.67	9090.24
596.029	9147.64
596.387	9178.83
596.746	9179.28
597.104	9095.21
597.463	9215.66
597.822	9192.84
598.18	9165.72
598.538	9134.08
598.897	9258.82
599.255	9123.91
599.613	9221.54
599.972	9169.11
600.33	9225.15
600.688	9225.83
601.046	9212.5
601.404	9238.94
601.762	9251.59
602.12	9341.76
602.478	9273.29
602.836	9270.12
603.194	9204.81
603.552	9263.34
603.91	9261.54
604.268	9304.47
604.625	9301.99
604.983	9282.55
605.341	9230.8
605.698	9351.7
606.056	9280.74
606.413	9277.81
606.771	9318.26
607.128	9364.13
607.485	9295.43
607.843	9254.3
608.2	9394.64
608.557	9362.78
608.914	9339.05
609.272	9403.45
609.629	9373.85
609.986	9399.61
610.343	9360.29
610.7	9446.16
611.057	9453.85
611.414	9465.6
611.771	9444.81
612.127	9440.51
612.484	9450.91
612.841	9537.24
613.198	9460.63
613.554	9428.09
613.911	9533.85
614.267	9481.42
614.624	9474.19
614.98	9518.25
615.337	9525.71
615.693	9515.09
616.05	9517.8
616.406	9517.57
616.762	9539.04
617.118	9530.91
617.475	9566.16
617.831	9606.61
618.187	9601.87
618.543	9607.06
618.899	9583.11
619.255	9635.09
619.611	9585.82
619.967	9682.77
620.323	9642.54
620.678	9641.19
621.034	9651.58
621.39	9644.35
621.746	9622.2
622.101	9710.11
622.457	9616.56
622.812	9647.51
623.168	9671.69
623.523	9620.85
623.879	9662.66
624.234	9590.34
624.589	9613.39
624.945	9699.26
625.3	9639.38
625.655	9655.2
626.01	9669.89
626.365	9676.89
626.72	9622.43
627.075	9594.63
627.43	9605.26
627.785	9563
628.14	9600.51
628.495	9634.41
628.85	9706.04
629.205	9563.22
629.559	9646.84
629.914	9653.84
630.269	9611.36
630.623	9553.28
630.978	9573.62
631.332	9628.98
631.687	9619.49
632.041	9557.35
632.396	9631.7
632.75	9524.35
633.104	9533.62
633.459	9482.1
633.813	9470.57
634.167	9475.54
634.521	9466.28
634.875	9532.26
635.229	9496.56
635.583	9432.38
635.937	9386.05
636.291	9361.42
636.645	9445.49
636.999	9398.93
637.352	9388.54
637.706	9312.16
638.06	9434.64
638.413	9385.6
638.767	9327.98
639.121	9391.02
639.474	9291.37
639.828	9312.38
640.181	9344.02
640.534	9287.75
640.888	9274.64
641.241	9257.69
641.594	9250.46
641.947	9316.22
642.301	9268.09
642.654	9243.46
643.007	9262.44
643.36	9307.86
643.713	9253.4
644.066	9302.89
644.419	9217.47
644.771	9211.37
645.124	9075.55
645.477	9084.14
645.83	9023.58
646.182	8981.32
646.535	8962.11
646.888	9054.08
647.24	8938.38
647.593	8937.93
647.945	8968.44
648.298	8954.88
648.65	8862.9
649.002	8848.21
649.355	8921.21
649.707	8962.56
650.059	8956.69
650.411	9022.9
650.763	9099.51
651.115	9151.03
651.467	9183.57
651.819	9084.82
652.171	9037.14
652.523	9061.99
652.875	9090.47
653.227	9030.36
653.578	9109.22
653.93	9068.09
654.282	9097.25
654.633	9066.29
654.985	9052.5
655.337	9031.94
655.688	9069
656.039	9102.9
656.391	9072.84
656.742	9082.78
657.094	9167.08
657.445	9104.25
657.796	9092.73
658.147	9072.84
658.498	9113.07
658.849	9166.4
659.2	9101.54
659.551	9086.63
659.902	9132.05
660.253	9175.44
660.604	9182.44
660.955	9118.49
661.306	9130.47
661.656	9128.66
662.007	9163.69
662.358	9102.67
662.708	9072.16
663.059	9124.59
663.409	9067.87
663.76	9146.28
664.11	9193.74
664.461	9165.72
664.811	9128.43
665.161	9159.84
665.511	9079.62
665.862	9123.69
666.212	9217.24
666.562	9137.47
666.912	9181.09
667.262	9124.14
667.612	9152.84
667.962	9181.54
668.312	9172.72
668.662	9152.39
669.011	9105.16
669.361	9155.1
669.711	9103.12
670.06	9088.89
670.41	9080.98
670.76	9093.86
671.109	9170.92
671.459	9063.8
671.808	9103.12
672.157	9104.7
672.507	9075.78
672.856	9060.19
673.205	9090.69
673.554	9097.02
673.904	9032.16
674.253	9129.79
674.602	9059.28
674.951	8934.99
675.3	8875.78
675.649	9042.56
675.998	8983.13
676.346	9026.29
676.695	9051.6
677.044	8982.9
677.393	8998.72
677.741	8972.96
678.09	8942.22
678.438	8901.32
678.787	8920.3
679.135	8888.89
679.484	8949.23
679.832	8903.58
680.181	8950.58
680.529	8937.7
680.877	8878.95
681.225	8813.41
681.573	8947.65
681.922	8809.12
682.27	8768.44
682.618	8700.87
682.966	8788.55
683.314	8732.06
683.661	8737.71
684.009	8757.82
684.357	8661.55
684.705	8715.56
685.053	8735.67
685.4	8704.49
685.748	8592.85
686.095	8598.5
686.443	8589.46
686.79	8526.41
687.138	8588.33
687.485	8530.93
687.832	8549.69
688.18	8520.76
688.527	8475.57
688.874	8448.45
689.221	8468.11
689.568	8394.67
689.915	8336.36
690.262	8382.69
690.609	8349.47
690.956	8295.23
691.303	8312.41
691.65	8329.81
691.997	8251.62
692.344	8160.77
692.69	8174.33
693.037	8177.04
693.383	8097.72
693.73	8135.24
694.077	8089.59
694.423	8078.06
694.769	8029.93
695.116	8048.91
695.462	8048.46
695.808	7963.94
696.155	7976.15
696.501	7835.81
696.847	7907
697.193	7846.21
697.539	7823.61
697.885	7769.82
698.231	7785.19
698.577	7735.47
698.923	7699.09
699.269	7661.13
699.614	7642.14
699.96	7577.06
700.306	7629.26
700.651	7595.82
700.997	7508.36
701.342	7488.93
701.688	7546.78
702.033	7440.57
702.379	7446.67
702.724	7462.04
703.069	7462.26
703.415	7269.5
703.76	7314.69
704.105	7309.05
704.45	7307.01
704.795	7258.88
705.14	7250.97
705.485	7241.25
705.83	7194.92
706.175	7174.59
706.52	7164.42
706.865	7097.53
707.209	7151.76
707.554	7082.84
707.899	7137.3
708.243	7096.62
708.588	7006
708.932	7012.56
709.277	7018.88
709.621	7017.3
709.966	6974.59
710.31	6995.38
710.654	6953.12
710.998	6952.22
711.342	6916.97
711.687	6852.33
712.031	6875.38
712.375	6844.88
712.719	6860.7
713.063	6866.12
713.407	6850.3
713.75	6775.95
714.094	6829.74
714.438	6722.85
714.782	6766.69
715.125	6713.35
715.469	6727.59
715.812	6674.26
716.156	6712.22
716.499	6695.95
716.843	6730.76
717.186	6648.5
717.53	6666.12
717.873	6676.97
718.216	6646.24
718.559	6599.46
718.902	6632.45
719.246	6605.11
719.589	6567.14
719.932	6587.71
720.275	6547.94
720.617	6546.58
720.96	6573.47
721.303	6599.01
721.646	6535.73
721.989	6538.22
722.331	6522.17
722.674	6541.16
723.016	6493.7
723.359	6535.73
723.701	6511.78
724.044	6483.08
724.386	6476.3
724.729	6519.24
725.071	6479.46
725.413	6457.77
725.755	6473.59
726.097	6418.22
726.439	6410.54
726.782	6383.65
727.124	6423.19
727.465	6446.47
727.807	6398.79
728.149	6410.54
728.491	6389.75
728.833	6398.56
729.175	6355.17
729.516	6443.31
729.858	6368.28
730.199	6394.49
730.541	6432.68
730.882	6375.06
731.224	6376.41
731.565	6384.32
731.906	6335.06
732.248	6398.33
732.589	6366.47
732.93	6351.1
733.271	6372.35
733.612	6409.63
733.953	6445.34
734.294	6372.8
734.635	6376.87
734.976	6392.46
735.317	6372.57
735.658	6377.32
735.999	6404.66
736.339	6405.57
736.68	6377.09
737.021	6415.96
737.361	6380.93
737.702	6459.12
738.042	6409.18
738.383	6400.82
738.723	6379.58
739.063	6458.22
739.404	6456.19
739.744	6410.54
740.084	6454.38
740.424	6459.35
740.764	6459.8
741.104	6466.58
741.444	6448.05
741.784	6516.07
742.124	6495.51
742.464	6549.52
742.804	6524.88
743.143	6486.69
743.483	6592.45
743.823	6579.8
744.162	6599.46
744.502	6628.16
744.841	6626.58
745.181	6766.23
745.52	6731.21
745.86	6763.75
746.199	6758.33
746.538	6790.19
746.877	6877.42
747.216	6975.04
747.556	6913.12
747.895	6951.77
748.234	7015.95
748.573	7097.75
748.911	7068.83
749.25	7149.95
749.589	7201.7
749.928	7268.37
750.267	7336.62
750.605	7350.63
750.944	7438.08
751.283	7460
751.621	7591.98
751.96	7650.96
752.298	7714.91
752.636	7804.17
752.975	7874.68
753.313	7912.87
753.651	8106.76
753.989	8202.58
754.327	8241.9
754.666	8313.31
755.004	8440.99
755.342	8623.36
755.679	8733.19
756.017	8761.66
756.355	8944.93
756.693	9123.23
757.031	9206.62
757.368	9321.65
757.706	9409.1
758.044	9598.25
758.381	9727.51
758.719	9909.43
759.056	10005.7
759.394	10238.01
759.731	10289.08
760.068	10436.65
760.405	10588.28
760.743	10765.45
761.08	10913.02
761.417	11062.62
761.754	11217.87
762.091	11461.93
762.428	11576.05
762.765	11651.3
763.102	11837.97
763.438	11979.66
763.775	12204.74
764.112	12347.78
764.449	12579.87
764.785	12680.66
765.122	12825.74
765.458	12967.2
765.795	13114.32
766.131	13328.55
766.467	13436.79
766.804	13514.08
767.14	13672.95
767.476	13917.23
767.812	14010.56
768.148	14220.28
768.485	14234.29
768.821	14459.59
769.157	14622.53
