Data from hue_350_FLMS001491_70.txt Node
Date: Mon Feb 06 15:38:22 GMT 2017
User: dcchb
Spectrometer: FLMS00149
Trigger mode: 0
Integration Time (sec): 2.000000E-2
Scans to average: 10
Electric dark correction enabled: true
Nonlinearity correction enabled: false
Boxcar width: 0
XAxis mode: Wavelengths
Number of Pixels in Spectrum: 2048
>>>>>Begin Spectral Data<<<<<
341.393	-10.28
341.776	-10.28
342.16	-10.28
342.543	-53.67
342.927	-48.93
343.31	-69.04
343.693	-88.92
344.077	-45.31
344.46	-62.94
344.843	-58.19
345.226	-60.22
345.61	-41.47
345.993	-21.13
346.376	7.34
346.759	20
347.142	27.91
347.525	48.25
347.908	57.06
348.291	69.94
348.674	93.9
349.057	122.82
349.44	121.47
349.823	147.23
350.206	179.32
350.588	181.35
350.971	187
351.354	231.07
351.737	250.73
352.119	262.48
352.502	256.6
352.884	292.08
353.267	274.23
353.65	297.73
354.032	297.96
354.414	303.16
354.797	321.01
355.179	335.7
355.562	324.17
355.944	336.83
356.326	336.6
356.709	359.2
357.091	348.35
357.473	350.84
357.855	354.23
358.238	329.82
358.62	339.31
359.002	352.65
359.384	339.77
359.766	349.93
360.148	341.35
360.53	349.71
360.912	342.7
361.294	325.08
361.676	370.05
362.057	358.75
362.439	343.38
362.821	341.57
363.203	333.66
363.584	325.98
363.966	340.89
364.348	349.71
364.729	328.01
365.111	326.88
365.493	319.65
365.874	325.08
366.256	300.44
366.637	314.46
367.019	321.91
367.4	302.03
367.781	307.22
368.163	334.12
368.544	317.17
368.925	320.78
369.306	335.25
369.688	306.32
370.069	316.71
370.45	314.68
370.831	317.84
371.212	317.62
371.593	326.88
371.974	317.84
372.355	323.72
372.736	330.05
373.117	329.6
373.498	315.36
373.879	323.27
374.26	334.57
374.641	301.57
375.021	308.81
375.402	324.4
375.783	318.75
376.163	332.53
376.544	342.02
376.925	314.23
377.305	326.21
377.686	325.53
378.066	328.01
378.447	324.85
378.827	336.38
379.208	353.55
379.588	305.87
379.968	333.89
380.349	332.53
380.729	327.79
381.109	319.43
381.489	323.49
381.87	336.83
382.25	341.57
382.63	337.96
383.01	361.69
383.39	329.37
383.77	325.98
384.15	343.38
384.53	345.87
384.91	343.38
385.29	341.57
385.67	351.06
386.049	346.32
386.429	334.57
386.809	360.56
387.189	345.64
387.568	360.33
387.948	351.97
388.328	361.69
388.707	348.58
389.087	358.97
389.466	368.24
389.846	350.16
390.225	328.47
390.605	366.88
390.984	370.05
391.363	361.91
391.743	369.59
392.122	392.87
392.501	348.58
392.881	348.13
393.26	373.44
393.639	383.61
394.018	370.72
394.397	379.76
394.776	362.59
395.155	374.11
395.534	382.48
395.913	354.68
396.292	411.63
396.671	365.75
397.05	370.05
397.429	358.97
397.808	370.72
398.186	388.35
398.565	363.95
398.944	379.54
399.323	365.08
399.701	378.63
400.08	384.06
400.458	386.09
400.837	379.76
401.215	396.03
401.594	389.93
401.972	394.68
402.351	397.62
402.729	394.9
403.107	394.68
403.486	395.13
403.864	418.86
404.242	415.02
404.62	417.05
404.999	392.19
405.377	394
405.755	403.72
406.133	403.94
406.511	412.76
406.889	420.21
407.267	421.34
407.645	415.02
408.023	435.81
408.401	428.35
408.779	441.23
409.156	447.56
409.534	435.81
409.912	420.44
410.29	443.72
410.667	446.2
411.045	431.97
411.422	451.85
411.8	444.4
412.178	462.25
412.555	443.72
412.933	456.6
413.31	457.28
413.687	460.21
414.065	457.5
414.442	482.59
414.819	476.48
415.197	474.22
415.574	480.55
415.951	485.75
416.328	490.5
416.705	476.94
417.082	476.71
417.46	478.52
417.837	495.47
418.214	488.91
418.591	500.44
418.967	489.82
419.344	512.64
419.721	504.73
420.098	528.69
420.475	542.25
420.852	521.91
421.228	513.32
421.605	547.67
421.982	507.22
422.358	552.19
422.735	518.29
423.111	550.83
423.488	550.83
423.864	535.24
424.241	537.05
424.617	550.83
424.994	543.6
425.37	545.41
425.746	546.09
426.123	589.25
426.499	568.46
426.875	565.52
427.251	566.43
427.627	582.7
428.003	579.53
428.379	575.69
428.756	593.09
429.132	613.2
429.507	611.4
429.883	577.05
430.259	619.31
430.635	584.73
431.011	629.93
431.387	620.21
431.763	626.31
432.138	655.46
432.514	641.45
432.89	662.02
433.265	663.15
433.641	644.16
434.016	657.27
434.392	651.17
434.767	669.7
435.143	675.12
435.518	688.46
435.894	696.59
436.269	680.55
436.644	679.42
437.02	710.38
437.395	715.12
437.77	715.35
438.145	732.75
438.52	715.57
438.895	731.17
439.271	746.53
439.646	745.18
440.021	724.39
440.395	752.64
440.77	749.25
441.145	746.08
441.52	752.86
441.895	751.51
442.27	764.84
442.645	793.76
443.019	792.41
443.394	768.91
443.769	771.17
444.143	764.84
444.518	778.62
444.892	765.97
445.267	766.19
445.641	763.93
446.016	815.91
446.39	817.72
446.764	800.32
447.139	785.86
447.513	787.89
447.887	816.36
448.262	820.2
448.636	822.69
449.01	827.44
449.384	832.86
449.758	852.07
450.132	853.65
450.506	832.18
450.88	812.3
451.254	857.49
451.628	858.17
452.002	854.1
452.376	842.8
452.75	857.49
453.123	889.13
453.497	900.65
453.871	918.05
454.244	908.11
454.618	922.35
454.992	922.12
455.365	915.8
455.739	914.21
456.112	935.68
456.486	929.58
456.859	949.92
457.232	964.61
457.606	973.87
457.979	991.05
458.352	969.81
458.725	976.81
459.099	1013.65
459.472	998.05
459.845	1020.65
460.218	1025.62
460.591	1035.57
460.964	1008
461.337	1049.58
461.71	1053.87
462.083	1085.51
462.456	1088.22
462.829	1081.44
463.201	1092.29
463.574	1096.36
463.947	1101.33
464.32	1122.12
464.692	1139.52
465.065	1141.55
465.438	1144.26
465.81	1169.57
466.183	1183.13
466.555	1201.44
466.928	1210.93
467.3	1224.71
467.672	1228.1
468.045	1247.31
468.417	1265.16
468.789	1260.42
469.161	1293.41
469.534	1265.39
469.906	1307.2
470.278	1337.93
470.65	1304.49
471.022	1385.16
471.394	1354.43
471.766	1377.93
472.138	1410.02
472.51	1443.01
472.882	1447.31
473.253	1455.67
473.625	1516.68
473.997	1532.73
474.369	1509.45
474.74	1559.85
475.112	1558.94
475.484	1581.77
475.855	1593.52
476.227	1623.12
476.598	1675.55
476.97	1709.9
477.341	1713.74
477.713	1710.35
478.084	1755.55
478.455	1789.44
478.827	1781.76
479.198	1859.05
479.569	1863.11
479.94	1904.24
480.311	1927.97
480.682	1968.2
481.053	2021.75
481.424	2031.47
481.795	2058.59
482.166	2091.58
482.537	2142.66
482.908	2132.03
483.279	2195.08
483.65	2235.76
484.021	2266.27
484.391	2315.31
484.762	2272.6
485.133	2362.99
485.503	2353.95
485.874	2466.26
486.244	2451.8
486.615	2512.59
486.985	2539.93
487.356	2564.79
487.726	2568.86
488.097	2595.52
488.467	2659.48
488.837	2706.93
489.207	2720.72
489.578	2769.53
489.948	2785.8
490.318	2848.4
490.688	2863.54
491.058	2888.17
491.428	2938.11
491.798	2956.65
492.168	3028.96
492.538	3037.1
492.908	3083.87
493.278	3141.5
493.648	3110.09
494.017	3188.28
494.387	3154.38
494.757	3224.21
495.126	3241.38
495.496	3228.28
495.866	3289.07
496.235	3311.89
496.605	3373.58
496.974	3369.97
497.344	3429.4
497.713	3437.76
498.082	3474.37
498.452	3485.22
498.821	3509.85
499.19	3510.53
499.559	3603.63
499.928	3600.24
500.298	3573.8
500.667	3642.73
501.036	3633.92
501.405	3663.97
501.774	3683.63
502.143	3718.66
502.512	3709.85
502.88	3768.15
503.249	3710.75
503.618	3780.35
503.987	3774.93
504.356	3816.74
504.724	3873.91
505.093	3817.64
505.462	3850.18
505.83	3871.88
506.199	3921.14
506.567	3955.72
506.936	3947.13
507.304	3970.86
507.672	4019.67
508.041	4042.72
508.409	3999.33
508.777	4033
509.145	4104.86
509.514	4027.58
509.882	4106.67
510.25	4045.66
510.618	4134.69
510.986	4120.46
511.354	4149.16
511.722	4161.59
512.09	4162.04
512.458	4203.39
512.826	4282.26
513.193	4262.6
513.561	4238.42
513.929	4282.03
514.297	4335.59
514.664	4329.49
515.032	4371.98
515.4	4407.45
515.767	4356.61
516.135	4390.96
516.502	4372.2
516.869	4472.76
517.237	4462.82
517.604	4436.61
517.972	4469.83
518.339	4486.1
518.706	4491.97
519.073	4500.79
519.44	4504.18
519.808	4540.56
520.175	4588.69
520.542	4599.54
520.909	4615.81
521.276	4597.51
521.643	4652.65
522.009	4650.39
522.376	4663.04
522.743	4732.64
523.11	4741.01
523.477	4741.91
523.843	4811.96
524.21	4811.96
524.577	4873.88
524.943	4849.03
525.31	4875.24
525.676	4908.46
526.043	4944.62
526.409	4947.33
526.776	4978.51
527.142	5002.47
527.508	4992.75
527.874	5036.82
528.241	5081.11
528.607	5105.29
528.973	5113.2
529.339	5161.11
529.705	5137.61
530.071	5180.54
530.437	5215.57
530.803	5218.28
531.169	5274.55
531.535	5278.62
531.901	5233.87
532.267	5323.59
532.632	5344.83
532.998	5336.7
533.364	5369.69
533.73	5391.16
534.095	5432.74
534.461	5417.82
534.826	5462.79
535.192	5549.12
535.557	5547.09
535.923	5551.83
536.288	5582.57
536.653	5594.32
537.019	5597.03
537.384	5622.79
537.749	5640.64
538.114	5670.7
538.479	5631.15
538.845	5740.53
539.21	5710.02
539.575	5734.2
539.94	5760.87
540.305	5864.37
540.67	5774.42
541.034	5804.25
541.399	5853.74
541.764	5903.69
542.129	5890.13
542.494	5917.25
542.858	5914.99
543.223	5981.88
543.587	6018.26
543.952	6027.75
544.316	6127.64
544.681	6075.89
545.045	6089.22
545.41	6105.94
545.774	6171.7
546.138	6139.39
546.503	6198.82
546.867	6150.69
547.231	6291.7
547.595	6211.25
547.959	6255.99
548.324	6310.46
548.688	6353.17
549.052	6314.75
549.416	6361.53
549.779	6342.32
550.143	6381.64
550.507	6415.76
550.871	6418.25
551.235	6430.9
551.599	6506.16
551.962	6517.46
552.326	6517.46
552.689	6559.49
553.053	6530.79
553.417	6631.13
553.78	6669.54
554.143	6666.83
554.507	6677.9
554.87	6683.33
555.234	6710.67
555.597	6700.5
555.96	6688.52
556.323	6740.27
556.686	6687.17
557.05	6825.92
557.413	6787.96
557.776	6798.8
558.139	6828.18
558.502	6827.73
558.865	6876.99
559.228	6925.35
559.59	6990.89
559.953	6985.24
560.316	7030.44
560.679	7030.21
561.041	7044
561.404	7055.75
561.767	7109.98
562.129	7107.04
562.492	7130.32
562.854	7170.55
563.217	7185.69
563.579	7191.56
563.941	7207.16
564.304	7283.54
564.666	7301.62
565.028	7339.36
565.39	7343.65
565.753	7352.91
566.115	7426.13
566.477	7436.08
566.839	7460.93
567.201	7428.84
567.563	7565.79
567.925	7566.92
568.287	7546.58
568.648	7576.18
569.01	7622.29
569.372	7671.1
569.734	7599.46
570.095	7668.16
570.457	7734.37
570.819	7768.27
571.18	7752.9
571.542	7836.29
571.903	7847.82
572.265	7924.42
572.626	7946.57
572.987	7995.83
573.349	8015.5
573.71	8067.7
574.071	8107.24
574.432	8149.96
574.794	8262.27
575.155	8303.85
575.516	8288.48
575.877	8350.18
576.238	8436.95
576.599	8426.78
576.96	8558.98
577.32	8623.62
577.681	8618.64
578.042	8761.46
578.403	8794.23
578.763	8881.69
579.124	9011.85
579.485	9114.9
579.845	9164.39
580.206	9275.35
580.566	9325.29
580.927	9458.85
581.287	9641.89
581.648	9699.97
582.008	9815
582.368	9910.36
582.728	10052.73
583.089	10174.08
583.449	10304.47
583.809	10460.85
584.169	10621.75
584.529	10760.28
584.889	10989.43
585.249	11143.55
585.609	11270.33
585.969	11548.96
586.329	11725.45
586.688	11862.63
587.048	12047.48
587.408	12240.7
587.768	12433.68
588.127	12660.35
588.487	12873.9
588.846	13177.17
589.206	13283.61
589.565	13470.27
589.925	13852.18
590.284	14035.22
590.643	14302.56
591.003	14623.01
591.362	14913.85
591.721	15126.72
592.08	15271.12
592.44	15660.27
592.799	15940.03
593.158	16213.47
593.517	16493.69
593.876	16711.31
594.235	16994.02
594.593	17288.25
594.952	17675.81
595.311	17815.46
595.67	18206.19
596.029	18472.17
596.387	18827.41
596.746	19174.98
597.104	19303.79
597.463	19639.82
597.822	20018.12
598.18	20192.8
598.538	20397.77
598.897	20800.47
599.255	20891.09
599.613	21530.39
599.972	21663.95
600.33	21971.06
600.688	22203.37
601.046	22625.28
601.404	22919.06
601.762	23077.02
602.12	23440.17
602.478	23626.84
602.836	24084.68
603.194	24140.5
603.552	24375.74
603.91	24608.05
604.268	25046.46
604.625	25204.87
604.983	25597.86
605.341	25784.75
605.698	26052.31
606.056	26335.47
606.413	26518.96
606.771	26814.55
607.128	27077.59
607.485	27067.2
607.843	27466.51
608.2	27867.4
608.557	28127.96
608.914	28184.91
609.272	28538.57
609.629	28781.05
609.986	28982.63
610.343	29223.98
610.7	29569.5
611.057	29686.11
611.414	29833.23
611.771	30154.57
612.127	30359.09
612.484	30501.91
612.841	30804.05
613.198	30717.05
613.554	31040.43
613.911	31306.18
614.267	31451.94
614.624	31682.44
614.98	31844.47
615.337	32117.46
615.693	32225.71
616.05	32303.44
616.406	32635.41
616.762	32528.98
617.118	32818.46
617.475	32981.17
617.831	33138
618.187	33333.93
618.543	33354.26
618.899	33777.3
619.255	33676.74
619.611	33765.1
619.967	33946.11
620.323	34203.96
620.678	34125.09
621.034	34262.49
621.39	34247.35
621.746	34422.94
622.101	34965.75
622.457	34668.58
622.812	34749.26
623.168	35124.61
623.523	35084.61
623.879	35313.53
624.234	35157.38
624.589	35436.7
624.945	35472.17
625.3	35639.63
625.655	35725.73
626.01	35758.27
626.365	35835.1
626.72	35965.27
627.075	35998.26
627.43	36003.46
627.785	35996.91
628.14	36173.17
628.495	36261.31
628.85	36187.86
629.205	36075.77
629.559	36370.46
629.914	36283.23
630.269	36371.81
630.623	36210.91
630.978	36339.95
631.332	36522.54
631.687	36593.5
632.041	36576.33
632.396	36594.18
632.75	36451.81
633.104	36604.57
633.459	36410.46
633.813	36555.76
634.167	36642.31
634.521	36545.82
634.875	36722.09
635.229	36579.04
635.583	36495.2
635.937	36499.27
636.291	36561.41
636.645	36652.71
636.999	36497.23
637.352	36622.88
637.706	36505.59
638.06	36663.78
638.413	36552.15
638.767	36774.29
639.121	36562.77
639.474	36385.14
639.828	36618.59
640.181	36536.55
640.534	36682.99
640.888	36641.41
641.241	36433.05
641.594	36447.29
641.947	36555.99
642.301	36549.66
642.654	36513.28
643.007	36456.78
643.36	36424.69
643.713	36536.33
644.066	36569.77
644.419	36340.85
644.771	36112.61
645.124	35922.56
645.477	35856.8
645.83	35616.8
646.182	35601.44
646.535	35445.96
646.888	35572.06
647.24	35385.85
647.593	35622.23
647.945	35540.2
648.298	35181.79
648.65	35306.76
649.002	35237.83
649.355	35306.76
649.707	35311.95
650.059	35457.03
650.411	35820.41
650.763	35909.68
651.115	36262.66
651.467	36053.18
651.819	36099.73
652.171	36107.64
652.523	36063.8
652.875	35949.22
653.227	36034.65
653.578	36108.32
653.93	36071.48
654.282	35989
654.633	35871.94
654.985	35924.82
655.337	35907.64
655.688	35860.86
656.039	35967.53
656.391	35699.29
656.742	35786.52
657.094	35872.16
657.445	35803.92
657.796	35874.65
658.147	35725.73
658.498	35655.22
658.849	35903.35
659.2	35734.99
659.551	35767.31
659.902	35986.74
660.253	35831.49
660.604	35803.69
660.955	35644.83
661.306	35804.82
661.656	35697.25
662.007	35818.61
662.358	35718.72
662.708	35701.32
663.059	35716.01
663.409	35490.25
663.76	35764.14
664.11	35753.52
664.461	35717.59
664.811	35799.17
665.161	35708.55
665.511	35611.15
665.862	35698.38
666.212	35804.14
666.562	35727.54
666.912	35734.31
667.262	35645.05
667.612	35617.26
667.962	35713.98
668.312	35579.29
668.662	35787.19
669.011	35726.86
669.361	35613.19
669.711	35563.47
670.06	35505.62
670.41	35548.78
670.76	35504.04
671.109	35560.76
671.459	35452.97
671.808	35348.11
672.157	35521.21
672.507	35355.57
672.856	35336.13
673.205	35304.04
673.554	35473.3
673.904	35317.15
674.253	35464.04
674.602	35314.89
674.951	34874.45
675.3	34775.02
675.649	35356.7
675.998	35316.25
676.346	35182.69
676.695	35251.16
677.044	35215.23
677.393	35257.72
677.741	35238.51
678.09	35148.12
678.438	35042.36
678.787	35146.99
679.135	35210.71
679.484	35037.61
679.832	35092.52
680.181	34936.14
680.529	34933.88
680.877	34914
681.225	34788.8
681.573	35013.66
681.922	34682.82
682.27	34771.18
682.618	34757.17
682.966	34695.7
683.314	34812.76
683.661	34555.59
684.009	34363.73
684.357	34387.01
684.705	34236.95
685.053	34309.49
685.4	34180.23
685.748	34160.12
686.095	34049.39
686.443	33955.83
686.79	33931.88
687.138	34067.47
687.485	34008.71
687.832	33815.72
688.18	33790.86
688.527	33762.16
688.874	33620.7
689.221	33676.06
689.568	33584.77
689.915	33490.98
690.262	33469.97
690.609	33375.51
690.956	33237.88
691.303	33106.81
691.65	33179.81
691.997	33086.47
692.344	32879.93
692.69	32808.06
693.037	32981.84
693.383	32535.08
693.73	32676.77
694.077	32564.23
694.423	32670.67
694.769	32511.57
695.116	32406.72
695.462	32239.49
695.808	32180.74
696.155	32253.28
696.501	32073.85
696.847	32023.45
697.193	31799.95
697.539	31932.15
697.885	31727.41
698.231	31628.89
698.577	31678.6
698.923	31614.65
699.269	31408.78
699.614	31218.95
699.96	31310.25
700.306	31325.84
700.651	31151.38
700.997	30952.75
701.342	30933.08
701.688	30766.54
702.033	30887.66
702.379	30821.9
702.724	30652.41
703.069	30726.31
703.415	30366.09
703.76	30345.08
704.105	30501.01
704.45	30360.67
704.795	30201.58
705.14	30074.8
705.485	30064.63
705.83	29913
706.175	30008.59
706.52	29887.69
706.865	29727.01
707.209	29800.69
707.554	29663.97
707.899	29800.91
708.243	29511.65
708.588	29458.55
708.932	29265.56
709.277	29263.52
709.621	29345.56
709.966	29085.22
710.31	29182.17
710.654	28979.01
710.998	28995.06
711.342	29045
711.687	28946.24
712.031	28879.58
712.375	28611.79
712.719	28802.29
713.063	28637.78
713.407	28732.01
713.75	28587.38
714.094	28554.84
714.438	28404.79
714.782	28518.91
715.125	28300.16
715.469	28479.82
715.812	28151.69
716.156	27990.79
716.499	28119.6
716.843	28157.34
717.186	27900.17
717.53	28039.38
717.873	28037.57
718.216	27893.39
718.559	27742.21
718.902	27746.73
719.246	27815.43
719.589	27675.77
719.932	27538.82
720.275	27516.23
720.617	27550.35
720.96	27561.2
721.303	27423.57
721.646	27468.32
721.989	27228.1
722.331	27393.74
722.674	27251.83
723.016	27284.14
723.359	27170.02
723.701	27132.51
724.044	27010.7
724.386	26937.26
724.729	27097.71
725.071	26889.8
725.413	26879.18
725.755	26825.85
726.097	26771.84
726.439	26723.48
726.782	26660.65
727.124	26777.49
727.465	26615.23
727.807	26626.98
728.149	26582.46
728.491	26500.21
728.833	26532.52
729.175	26509.25
729.516	26405.07
729.858	26379.76
730.199	26320.1
730.541	26185.87
730.882	26266.77
731.224	26375.69
731.565	26080.56
731.906	26075.59
732.248	26178.18
732.589	26109.71
732.93	25909.49
733.271	25970.05
733.612	25977.06
733.953	26083.49
734.294	25907.68
734.635	25795.14
734.976	25920.79
735.317	25697.97
735.658	25692.54
735.999	25704.75
736.339	25577.52
736.68	25729.38
737.021	25593.56
737.361	25500.69
737.702	25684.86
738.042	25473.12
738.383	25447.35
738.723	25496.62
739.063	25398.09
739.404	25432.89
739.744	25341.14
740.084	25201.26
740.424	25206.23
740.764	25199.9
741.104	25263.63
741.444	25240.35
741.784	25024.77
742.124	25079.68
742.464	25044.2
742.804	25048.27
743.143	24910.42
743.483	24975.5
743.823	24818.9
744.162	24786.35
744.502	24841.27
744.841	24741.38
745.181	24793.13
745.52	24684.66
745.86	24675.85
746.199	24665.68
746.538	24687.6
746.877	24638.79
747.216	24551.11
747.556	24538.68
747.895	24582.97
748.234	24519.24
748.573	24432.24
748.911	24333.03
749.25	24319.47
749.589	24238.8
749.928	24347.72
750.267	24348.63
750.605	24148.18
750.944	24157.9
751.283	23971.91
751.621	24118.8
751.96	24017.79
752.298	23965.58
752.636	24021.4
752.975	23837.68
753.313	23784.12
753.651	23929.2
753.989	23913.16
754.327	23678.81
754.666	23639.27
755.004	23677.68
755.342	23665.03
755.679	23575.09
756.017	23451.7
756.355	23591.13
756.693	23463.68
757.031	23384.58
757.368	23309.33
757.706	23272.27
758.044	23175.1
758.381	23225.49
758.719	23043.12
759.056	23164.48
759.394	22990.47
759.731	22828.21
760.068	22911.6
760.405	22659.86
760.743	22654.43
