Data from hue_26_FLMS001491_00019.txt Node
Date: Tue Feb 07 17:13:38 GMT 2017
User: dcchb
Spectrometer: FLMS00149
Trigger mode: 0
Integration Time (sec): 2.000000E-2
Scans to average: 10
Electric dark correction enabled: true
Nonlinearity correction enabled: false
Boxcar width: 0
XAxis mode: Wavelengths
Number of Pixels in Spectrum: 2048
>>>>>Begin Spectral Data<<<<<
341.393	-8.5
341.776	-8.5
342.16	-8.5
342.543	-57.54
342.927	-61.83
343.31	-75.39
343.693	-74.49
344.077	-69.52
344.46	-71.33
344.843	-45.79
345.226	-39.46
345.61	-30.2
345.993	-23.87
346.376	-11.44
346.759	23.81
347.142	28.33
347.525	32.85
347.908	65.39
348.291	67.2
348.674	112.62
349.057	111.27
349.44	134.09
349.823	128.67
350.206	170.48
350.588	189.68
350.971	220.19
351.354	227.65
351.737	228.33
352.119	243.69
352.502	253.41
352.884	275.11
353.267	283.02
353.65	308.78
354.032	314.43
354.414	310.59
354.797	332.51
355.179	323.69
355.562	328.21
355.944	317.14
356.326	320.75
356.709	333.86
357.091	323.69
357.473	330.92
357.855	336.57
358.238	353.97
358.62	363.69
359.002	362.79
359.384	349
359.766	351.71
360.148	351.71
360.53	350.58
360.912	329.79
361.294	325.95
361.676	331.15
362.057	347.65
362.439	346.52
362.821	328.44
363.203	310.59
363.584	320.98
363.966	334.77
364.348	330.7
364.729	332.28
365.111	308.78
365.493	312.39
365.874	340.41
366.256	322.11
366.637	325.73
367.019	316.01
367.4	328.44
367.781	304.94
368.163	325.5
368.544	320.98
368.925	321.88
369.306	300.64
369.688	326.63
370.069	291.38
370.45	338.61
370.831	306.52
371.212	318.95
371.593	320.3
371.974	298.38
372.355	310.81
372.736	317.82
373.117	323.01
373.498	303.35
373.879	330.02
374.26	326.63
374.641	309.68
375.021	320.53
375.402	312.17
375.783	328.89
376.163	323.01
376.544	322.56
376.925	333.18
377.305	323.24
377.686	334.31
378.066	335.9
378.447	333.18
378.827	323.92
379.208	342.67
379.588	333.86
379.968	337.25
380.349	339.28
380.729	343.8
381.109	365.72
381.489	331.83
381.87	350.36
382.25	316.69
382.63	343.35
383.01	356.91
383.39	343.8
383.77	361.88
384.15	349.45
384.53	339.96
384.91	349.68
385.29	353.07
385.67	363.01
386.049	337.48
386.429	352.84
386.809	353.3
387.189	384.48
387.568	373.18
387.948	384.71
388.328	363.47
388.707	356.23
389.087	347.42
389.466	345.61
389.846	385.61
390.225	385.16
390.605	382
390.984	389.68
391.363	369.34
391.743	377.25
392.122	402.56
392.501	389.23
392.881	384.26
393.26	368.66
393.639	384.93
394.018	373.18
394.397	376.35
394.776	393.75
395.155	406.85
395.534	401.2
395.913	384.48
396.292	372.5
396.671	393.75
397.05	402.79
397.429	384.71
397.808	404.14
398.186	404.37
398.565	406.4
398.944	399.62
399.323	409.79
399.701	384.48
400.08	406.85
400.458	406.4
400.837	416.57
401.215	404.59
401.594	416.12
401.972	416.34
402.351	406.4
402.729	405.72
403.107	417.7
403.486	420.86
403.864	409.34
404.242	428.55
404.62	418.38
404.999	433.52
405.377	411.83
405.755	435.1
406.133	446.4
406.511	432.62
406.889	453.18
407.267	451.37
407.645	438.72
408.023	454.31
408.401	458.15
408.779	463.35
409.156	459.06
409.534	459.51
409.912	471.94
410.29	464.71
410.667	474.42
411.045	465.84
411.422	470.35
411.8	487.98
412.178	454.54
412.555	473.97
412.933	457.02
413.31	474.2
413.687	504.25
414.065	496.12
414.442	494.08
414.819	505.16
415.197	487.08
415.574	510.13
415.951	505.38
416.328	516.68
416.705	502.9
417.082	503.57
417.46	514.42
417.837	513.74
418.214	516
418.591	535.66
418.967	505.61
419.344	529.79
419.721	538.83
420.098	535.44
420.475	559.84
420.852	531.37
421.228	535.21
421.605	527.98
421.982	551.71
422.358	556.91
422.735	549.9
423.111	563.46
423.488	576.57
423.864	563.69
424.241	578.6
424.617	576.34
424.994	585.15
425.37	590.13
425.746	600.07
426.123	580.63
426.499	593.52
426.875	604.59
427.251	617.24
427.627	606.62
428.003	604.59
428.379	627.19
428.756	611.14
429.132	633.74
429.507	662.21
429.883	654.53
430.259	660.18
430.635	627.19
431.011	644.14
431.387	667.86
431.763	661.31
432.138	671.71
432.514	657.24
432.89	674.87
433.265	695.66
433.641	693.85
434.016	693.4
434.392	694.08
434.767	708.77
435.143	700.86
435.518	710.35
435.894	717.58
436.269	735.66
436.644	732.95
437.02	747.86
437.395	761.65
437.77	722.78
438.145	771.36
438.52	745.38
438.895	764.81
439.271	774.98
439.646	784.02
440.021	783.34
440.395	788.54
440.77	790.12
441.145	802.55
441.52	796.22
441.895	789.44
442.27	818.37
442.645	812.72
443.019	800.74
443.394	799.16
443.769	830.12
444.143	830.8
444.518	826.05
444.892	815.2
445.267	840.97
445.641	824.02
446.016	824.02
446.39	853.17
446.764	861.76
447.139	864.92
447.513	844.13
447.887	860.18
448.262	870.8
448.636	875.77
449.01	869.21
449.384	890
449.758	886.16
450.132	906.73
450.506	901.53
450.88	897.69
451.254	920.96
451.628	908.08
452.002	943.34
452.376	940.17
452.75	945.14
453.123	940.85
453.497	953.73
453.871	981.75
454.244	984.01
454.618	974.75
454.992	983.11
455.365	1011.58
455.739	1023.11
456.112	1039.15
456.486	1060.17
456.859	1016.78
457.232	1048.42
457.606	1048.64
457.979	1042.09
458.352	1081.41
458.725	1095.2
459.099	1146.27
459.472	1130.45
459.845	1140.39
460.218	1107.63
460.591	1144.46
460.964	1138.36
461.337	1167.51
461.71	1169.09
462.083	1226.49
462.456	1190.11
462.829	1219.49
463.201	1250.45
463.574	1245.02
463.947	1251.8
464.32	1278.92
464.692	1298.58
465.065	1288.86
465.438	1339.26
465.81	1336.55
466.183	1325.93
466.555	1383.33
466.928	1364.79
467.3	1378.13
467.672	1426.49
468.045	1428.07
468.417	1435.98
468.789	1424.45
469.161	1447.28
469.534	1484.79
469.906	1505.13
470.278	1543.32
470.65	1531.12
471.022	1595.07
471.394	1612.47
471.766	1606.37
472.138	1605.92
472.51	1672.58
472.882	1671
473.253	1717.33
473.625	1726.14
473.997	1751.23
474.369	1781.96
474.74	1801.62
475.112	1844.56
475.484	1863.54
475.855	1900.15
476.227	1911.67
476.598	1948.28
476.97	1971.11
477.341	2002.29
477.713	2090.65
478.084	2110.76
478.455	2158.22
478.827	2173.59
479.198	2225.34
479.569	2264.66
479.94	2303.3
480.311	2316.63
480.682	2370.42
481.053	2437.31
481.424	2489.51
481.795	2528.38
482.166	2568.6
482.537	2591.43
482.908	2662.39
483.279	2667.13
483.65	2746.68
484.021	2798.88
484.391	2822.61
484.762	2908.48
485.133	2881.59
485.503	2962.72
485.874	3060.12
486.244	3090.4
486.615	3122.49
486.985	3205.42
487.356	3257.4
487.726	3313.9
488.097	3367
488.467	3354.8
488.837	3451.97
489.207	3493.78
489.578	3543.95
489.948	3632.53
490.318	3646.54
490.688	3715.24
491.058	3738.29
491.428	3828.46
491.798	3874.33
492.168	3944.16
492.538	3965.4
492.908	4027.32
493.278	4057.15
493.648	4122.24
494.017	4159.98
494.387	4193.65
494.757	4259.86
495.126	4322.68
495.496	4306.41
495.866	4348.44
496.235	4359.74
496.605	4493.53
496.974	4485.84
497.344	4545.05
497.713	4554.99
498.082	4619.62
498.452	4618.49
498.821	4676.8
499.19	4693.52
499.559	4774.2
499.928	4803.8
500.298	4783.24
500.667	4885.15
501.036	4871.82
501.405	4924.48
501.774	4950.69
502.143	5034.08
502.512	5021.2
502.88	5081.53
503.249	5078.6
503.618	5123.57
503.987	5166.28
504.356	5150.91
504.724	5197.01
505.093	5233.62
505.462	5260.29
505.83	5336.67
506.199	5329.89
506.567	5378.47
506.936	5364.92
507.304	5438.13
507.672	5452.6
508.041	5541.41
508.409	5579.6
508.777	5577.34
509.145	5589.54
509.514	5570.11
509.882	5670.67
510.25	5681.52
510.618	5699.14
510.986	5749.09
511.354	5700.27
511.722	5830.44
512.09	5830.89
512.458	5828.41
512.826	5867.5
513.193	5921.96
513.561	5919.25
513.929	5926.93
514.297	5904.34
514.664	6051.45
515.032	6053.71
515.4	6083.99
515.767	6108.62
516.135	6126.93
516.502	6100.04
516.869	6213.93
517.237	6263.42
517.604	6188.17
517.972	6231.79
518.339	6266.13
518.706	6319.01
519.073	6346.58
519.44	6396.3
519.808	6472.23
520.175	6402.4
520.542	6470.42
520.909	6485.56
521.276	6515.17
521.643	6572.79
522.009	6646.24
522.376	6648.27
522.743	6649.4
523.11	6692.79
523.477	6731.66
523.843	6782.28
524.21	6894.14
524.577	6929.17
524.943	6938.89
525.31	6929.39
525.676	6992.22
526.043	7024.53
526.409	7079.45
526.776	7123.06
527.142	7140.46
527.508	7176.17
527.874	7238.54
528.241	7251.42
528.607	7268.37
528.973	7354.47
529.339	7353.56
529.705	7424.97
530.071	7467.91
530.437	7514.01
530.803	7526.21
531.169	7614.12
531.535	7528.47
531.901	7577.51
532.267	7682.59
532.632	7651.18
532.998	7695.7
533.364	7764.63
533.73	7749.03
534.095	7811.86
534.461	7867.22
534.826	7952.87
535.192	7925.75
535.557	8011.4
535.923	7927.56
536.288	8092.98
536.653	8067.44
537.019	8044.17
537.384	8118.06
537.749	8115.13
538.114	8156.03
538.479	8153.32
538.845	8232.41
539.21	8191.51
539.575	8241.9
539.94	8336.14
540.305	8406.19
540.67	8371.84
541.034	8436.47
541.399	8414.78
541.764	8548.56
542.129	8506.3
542.494	8622.91
542.858	8582.68
543.223	8620.65
543.587	8648.22
543.952	8689.35
544.316	8719.63
544.681	8700.65
545.045	8786.97
545.41	8818.84
545.774	8813.41
546.138	8838.27
546.503	8889.12
546.867	8889.34
547.231	8990.58
547.595	9013.86
547.959	9073.29
548.324	9059.96
548.688	9105.38
549.052	9143.57
549.416	9159.39
549.779	9182.44
550.143	9151.93
550.507	9299.28
550.871	9299.28
551.235	9389.44
551.599	9396.67
551.962	9414.3
552.326	9398.48
552.689	9498.37
553.053	9487.07
553.417	9491.36
553.78	9645.48
554.143	9556.44
554.507	9638.25
554.87	9591.02
555.234	9733.84
555.597	9656.1
555.96	9725.25
556.323	9744.91
556.686	9721.41
557.05	9868.3
557.413	9817.45
557.776	9917.11
558.139	9887.28
558.502	9978.13
558.865	9973.16
559.228	10047.28
559.59	10045.02
559.953	10098.35
560.316	10192.59
560.679	10204.79
561.041	10229.19
561.404	10323.43
561.767	10390.32
562.129	10320.27
562.492	10347.16
562.854	10450.43
563.217	10349.64
563.579	10346.03
563.941	10540.6
564.304	10575.17
564.666	10587.83
565.028	10617.66
565.39	10605.46
565.753	10694.72
566.115	10737.66
566.477	10795.28
566.839	10804.09
567.201	10932
567.563	10841.61
567.925	10907.59
568.287	10990.98
568.648	10956.63
569.01	11009.96
569.372	11132.45
569.734	11086.8
570.095	11172.67
570.457	11224.65
570.819	11234.37
571.18	11286.34
571.542	11372.44
571.903	11314.14
572.265	11386.68
572.626	11469.84
572.987	11529.73
573.349	11580.12
573.71	11645.43
574.071	11644.98
574.432	11711.64
574.794	11894.69
575.155	11884.29
575.516	11964.52
575.877	12048.81
576.238	12056.72
576.599	12191.4
576.96	12250.16
577.32	12384.62
577.681	12429.81
578.042	12571.73
578.403	12634.1
578.763	12744.16
579.124	12830.93
579.485	12992.96
579.845	13067.31
580.206	13173.75
580.566	13203.81
580.927	13328.32
581.287	13525.38
581.648	13638.6
582.008	13801.98
582.368	13878.36
582.728	14010.56
583.089	14135.31
583.449	14375.75
583.809	14550.44
584.169	14711.56
584.529	14818.9
584.889	15102.06
585.249	15251.21
585.609	15369.62
585.969	15645.78
586.329	15718.77
586.688	16009.61
587.048	16243.73
587.408	16389.03
587.768	16619.99
588.127	16862.01
588.487	17071.27
588.846	17390.36
589.206	17573.18
589.565	17832.61
589.925	18070.8
590.284	18364.57
590.643	18590.56
591.003	18855.18
591.362	19241.61
591.721	19469.86
592.08	19716.85
592.44	20041.59
592.799	20273.9
593.158	20600
593.517	20862.36
593.876	21210.15
594.235	21420.09
594.593	21732.62
594.952	22156.56
595.311	22282.66
595.67	22696.89
596.029	23082.19
596.387	23379.81
596.746	23582.29
597.104	23796.97
597.463	24216.4
597.822	24593.79
598.18	24760.79
598.538	24976.83
598.897	25557.83
599.255	25622.01
599.613	26219.06
599.972	26336.12
600.33	26686.61
600.688	26842.54
601.046	27271.01
601.404	27663.76
601.762	27851.56
602.12	28294.48
602.478	28477.08
602.836	28833
603.194	28928.59
603.552	29261.69
603.91	29433.66
604.268	29814.44
604.625	30120.65
604.983	30417.82
605.341	30530.58
605.698	30926.5
606.056	31304.12
606.413	31389.54
606.771	31634.28
607.128	31895.74
607.485	32067.04
607.843	32339.35
608.2	32733.24
608.557	33103.4
608.914	33223.17
609.272	33491.41
609.629	33698.18
609.986	34001.45
610.343	34096.82
610.7	34478.27
611.057	34661.55
611.414	34778.15
611.771	35104.92
612.127	35386.05
612.484	35569.77
612.841	35885.69
613.198	35839.14
613.554	36172.92
613.911	36429.64
614.267	36492.23
614.624	36689.52
614.98	36826.91
615.337	37201.59
615.693	37296.05
616.05	37361.59
616.406	37814.46
616.762	37737.85
617.118	37866.66
617.475	38004.28
617.831	38314.33
618.187	38340.77
618.543	38472.97
618.899	38863.7
619.255	38848.33
619.611	38846.97
619.967	39108.89
620.323	39328.77
620.678	39394.76
621.034	39400.18
621.39	39538.03
621.746	39601.3
622.101	40069.77
622.457	39984.8
622.812	40057.11
623.168	40265.69
623.523	40280.83
623.879	40505.01
624.234	40463.88
624.589	40565.8
624.945	40655.74
625.3	40714.72
625.655	40885.79
626.01	40810.09
626.365	41038.33
626.72	40927.82
627.075	41057.76
627.43	41036.75
627.785	40981.15
628.14	41347.47
628.495	41367.81
628.85	41235.61
629.205	41285.55
629.559	41421.14
629.914	41436.28
630.269	41518.54
630.623	41484.64
630.978	41526.22
631.332	41742.04
631.687	41789.04
632.041	41651.42
632.396	41698.42
632.75	41754.47
633.104	41911.53
633.459	41669.72
633.813	41682.15
634.167	41770.96
634.521	41694.13
634.875	41662.94
635.229	41856.61
635.583	41640.35
635.937	41717.63
636.291	41695.26
636.645	41776.84
636.999	41702.27
637.352	41731.19
637.706	41547.69
638.06	41755.82
638.413	41618.88
638.767	41659.33
639.121	41666.33
639.474	41619.33
639.828	41526.9
640.181	41745.88
640.534	41682.6
640.888	41625.2
641.241	41559.22
641.594	41482.16
641.947	41807.12
642.301	41544.53
642.654	41481.48
643.007	41615.71
643.36	41553.12
643.713	41558.54
644.066	41775.48
644.419	41435.61
644.771	41140.92
645.124	40859.12
645.477	40810.54
645.83	40562.63
646.182	40443.32
646.535	40197.67
646.888	40520.38
647.24	40197.67
647.593	40467.5
647.945	40406.48
648.298	40177.33
648.65	40198.35
649.002	40095.53
649.355	40234.51
649.707	40300.49
650.059	40466.37
650.411	40888.05
650.763	41050.3
651.115	41311.77
651.467	41207.14
651.819	41127.59
652.171	41143.18
652.523	41140.92
652.875	41144.31
653.227	40995.39
653.578	41233.35
653.93	41196.52
654.282	40999.46
654.633	40867.71
654.985	40935.51
655.337	40966.01
655.688	40966.92
656.039	41074.94
656.391	40828.84
656.742	40733.7
657.094	40919.23
657.445	40963.3
657.796	40842.85
658.147	40778.9
658.498	40855.28
658.849	40731.67
659.2	40890.99
659.551	40644.67
659.902	40897.77
660.253	40802.18
660.604	40787.94
660.955	40624.78
661.306	40800.82
661.656	40694.16
662.007	40842.17
662.358	40661.39
662.708	40665.23
663.059	40722.86
663.409	40557.66
663.76	40727.6
664.11	40696.87
664.461	40672.69
664.811	40770.09
665.161	40708.62
665.511	40593.82
665.862	40688.73
666.212	40749.52
666.562	40703.42
666.912	40712.46
667.262	40539.36
667.612	40794.04
667.962	40749.3
668.312	40660.03
668.662	40800.14
669.011	40497.78
669.361	40650.32
669.711	40573.26
670.06	40588.4
670.41	40406.03
670.76	40525.8
671.109	40475.4
671.459	40468.4
671.808	40454.16
672.157	40483.54
672.507	40346.37
672.856	40308.86
673.205	40363.32
673.554	40348.18
673.904	40309.99
674.253	40573.93
674.602	40374.62
674.951	39856.89
675.3	39682.66
675.649	40332.13
675.998	40359.02
676.346	40237.67
676.695	40490.32
677.044	40020.28
677.393	40105.47
677.741	40266.14
678.09	40098.01
678.438	40091.91
678.787	40130.78
679.135	40048.52
679.484	39753.62
679.832	39853.73
680.181	39815.76
680.529	39725.59
680.877	39627.74
681.225	39731.7
681.573	39920.84
681.922	39714.97
682.27	39614.41
682.618	39477.01
682.966	39521.08
683.314	39644.47
683.661	39292.38
684.009	39307.3
684.357	39254.87
684.705	39143.91
685.053	39228.88
685.4	38990.02
685.748	38988.21
686.095	38959.74
686.443	38906.18
686.79	38870.02
687.138	38974.88
687.485	38853.53
687.832	38749.57
688.18	38762.68
688.527	38462.58
688.874	38469.36
689.221	38462.58
689.568	38299.87
689.915	38305.52
690.262	38315.69
690.609	38192.3
690.956	38176.71
691.303	38007.67
691.65	37842.03
691.997	37797.73
692.344	37627.12
692.69	37611.3
693.037	37637.74
693.383	37313.91
693.73	37420.12
694.077	37247.47
694.423	37315.71
694.769	37081.6
695.116	37008.38
695.462	36911.66
695.808	36829.85
696.155	36900.13
696.501	36634.38
696.847	36698.1
697.193	36419.69
697.539	36606.13
697.885	36143.54
698.231	36159.81
698.577	36330.65
698.923	36159.59
699.269	35990.32
699.614	35769.09
699.96	35767.05
700.306	35906.94
700.651	35651.8
700.997	35470.11
701.342	35373.84
701.688	35316.22
702.033	35308.31
702.379	35287.52
702.724	34998.26
703.069	35178.59
703.415	34873.97
703.76	34841.2
704.105	34800.98
704.45	34684.82
704.795	34451.83
705.14	34522.11
705.485	34365.06
705.83	34290.03
706.175	34250.94
706.52	34330.48
706.865	33975.46
707.209	34031.73
707.554	33978.85
707.899	34220.65
708.243	33781.34
708.588	33798.29
708.932	33537.28
709.277	33599.2
709.621	33652.31
709.966	33359.43
710.31	33488.02
710.654	33205.77
710.998	33147.91
711.342	33263.84
711.687	33132.77
712.031	32970.97
712.375	32895.04
712.719	33002.83
713.063	32804.65
713.407	33051.65
713.75	32765.1
714.094	32875.6
714.438	32592.9
714.782	32643.07
715.125	32358.33
715.469	32611.2
715.812	32396.3
716.156	32126.7
716.499	32118.34
716.843	32316.75
717.186	32032.46
717.53	32217.99
717.873	32172.12
718.216	31962.86
718.559	31956.08
718.902	31698.01
719.246	31818.46
719.589	31681.51
719.932	31530.33
720.275	31604.68
720.617	31595.41
720.96	31509.76
721.303	31429.99
721.646	31412.37
721.989	31198.59
722.331	31402.42
722.674	31316.78
723.016	31417.56
723.359	31277.23
723.701	31177.57
724.044	31079.95
724.386	30984.35
724.729	31070
725.071	30877.92
725.413	31114.52
725.755	30898.03
726.097	30837.69
726.439	30548.21
726.782	30623.01
727.124	30681.31
727.465	30564.48
727.807	30478.61
728.149	30408.32
728.491	30497.81
728.833	30449.45
729.175	30314.54
729.516	30196.8
729.858	30277.48
730.199	30197.71
730.541	30137.6
730.882	30099.41
731.224	30293.75
731.565	29987.77
731.906	30039.29
732.248	30097.6
732.589	29844.5
732.93	29788.91
733.271	29700.55
733.612	29665.97
733.953	29811.5
734.294	29739.87
734.635	29547.56
734.976	29702.58
735.317	29605.18
735.658	29521.34
735.999	29465.07
736.339	29473.66
736.68	29533.77
737.021	29493.32
737.361	29365.64
737.702	29455.13
738.042	29397.96
738.383	29302.59
738.723	29338.52
739.063	29202.48
739.404	29253.33
739.744	29093.78
740.084	29096.49
740.424	29129.49
740.764	29034.8
741.104	29157.06
741.444	28888.14
741.784	28928.36
742.124	28884.07
742.464	28911.64
742.804	28739.89
743.143	28620.58
743.483	28658.31
743.823	28558.2
744.162	28552.55
744.502	28582.38
744.841	28434.82
745.181	28595.27
745.52	28401.82
745.86	28379.45
746.199	28431.65
746.538	28382.16
746.877	28362.5
747.216	28252.9
747.556	28262.84
747.895	28210.19
748.234	28111.89
748.573	28090.42
748.911	28132.45
749.25	28044.09
749.589	27905.11
749.928	27943.98
750.267	28036.18
750.605	27860.37
750.944	27839.8
751.283	27753.71
751.621	27894.49
751.96	27635.29
752.298	27692.69
752.636	27776.08
752.975	27576.31
753.313	27446.14
753.651	27554.84
753.989	27290.67
754.327	27367.05
754.666	27192.59
755.004	27351
755.342	27251.57
755.679	27271.01
756.017	27082.76
756.355	27061.75
756.693	26915.76
757.031	27026.94
757.368	26840.28
757.706	26879.38
758.044	26793.73
758.381	26844.12
758.719	26623.34
759.056	26622.66
759.394	26605.49
