Data from hue_140_FLMS001491_00094.txt Node
Date: Tue Feb 07 16:56:41 GMT 2017
User: dcchb
Spectrometer: FLMS00149
Trigger mode: 0
Integration Time (sec): 2.000000E-2
Scans to average: 10
Electric dark correction enabled: true
Nonlinearity correction enabled: false
Boxcar width: 0
XAxis mode: Wavelengths
Number of Pixels in Spectrum: 2048
>>>>>Begin Spectral Data<<<<<
341.393	-11.64
341.776	-11.64
342.16	-11.64
342.543	-57.96
342.927	-71.3
343.31	-81.47
343.693	-62.71
344.077	-72.88
344.46	-58.19
344.843	-63.61
345.226	-26.1
345.61	-4.63
345.993	-20.45
346.376	-11.41
346.759	10.51
347.142	19.77
347.525	50.73
347.908	61.13
348.291	69.04
348.674	80.56
349.057	109.71
349.44	124.86
349.823	150.62
350.206	186.77
350.588	191.52
350.971	193.33
351.354	208.24
351.737	234.46
352.119	234.01
352.502	239.88
352.884	254.8
353.267	281.24
353.65	290.05
354.032	305.87
354.414	294.57
354.797	307.22
355.179	308.13
355.562	305.64
355.944	309.48
356.326	332.31
356.709	335.47
357.091	337.28
357.473	331.63
357.855	324.4
358.238	330.05
358.62	329.37
359.002	338.86
359.384	335.25
359.766	329.82
360.148	345.87
360.53	344.51
360.912	324.17
361.294	343.61
361.676	327.56
362.057	335.02
362.439	350.39
362.821	336.6
363.203	311.97
363.584	313.33
363.966	328.01
364.348	313.33
364.729	327.11
365.111	307.9
365.493	309.03
365.874	299.54
366.256	301.8
366.637	315.58
367.019	312.42
367.4	315.58
367.781	313.55
368.163	307.9
368.544	302.7
368.925	289.14
369.306	319.43
369.688	333.66
370.069	310.84
370.45	309.26
370.831	313.78
371.212	303.83
371.593	322.82
371.974	301.12
372.355	295.25
372.736	301.12
373.117	311.29
373.498	304.06
373.879	299.99
374.26	305.64
374.641	302.7
375.021	295.92
375.402	328.92
375.783	297.28
376.163	337.05
376.544	317.84
376.925	337.51
377.305	317.39
377.686	330.27
378.066	313.55
378.447	317.84
378.827	322.14
379.208	306.09
379.588	297.73
379.968	329.6
380.349	325.98
380.729	325.53
381.109	351.74
381.489	333.89
381.87	339.31
382.25	326.66
382.63	346.09
383.01	322.82
383.39	342.7
383.77	315.36
384.15	338.64
384.53	358.97
384.91	344.74
385.29	348.13
385.67	356.04
386.049	343.38
386.429	337.28
386.809	366.21
387.189	352.65
387.568	342.93
387.948	365.08
388.328	356.49
388.707	352.65
389.087	369.14
389.466	337.73
389.846	356.49
390.225	379.99
390.605	370.05
390.984	357.62
391.363	368.24
391.743	354.68
392.122	372.53
392.501	377.05
392.881	357.62
393.26	354.45
393.639	363.49
394.018	396.71
394.397	355.36
394.776	344.96
395.155	379.09
395.534	369.14
395.913	389.03
396.292	384.06
396.671	390.39
397.05	403.94
397.429	368.01
397.808	405.75
398.186	384.51
398.565	369.37
398.944	385.41
399.323	404.4
399.701	388.8
400.08	395.58
400.458	391.06
400.837	400.78
401.215	405.3
401.594	395.13
401.972	415.02
402.351	396.71
402.729	411.4
403.107	413.66
403.486	432.64
403.864	390.39
404.242	426.99
404.62	413.66
404.999	431.74
405.377	428.12
405.755	430.61
406.133	408.69
406.511	425.86
406.889	438.52
407.267	423.6
407.645	422.25
408.023	428.12
408.401	422.47
408.779	430.16
409.156	450.04
409.534	440.1
409.912	465.64
410.29	445.07
410.667	475.58
411.045	467.45
411.422	473.77
411.8	445.53
412.178	484.39
412.555	490.27
412.933	479.2
413.31	492.08
413.687	479.87
414.065	502.92
414.442	494.56
414.819	489.59
415.197	492.53
415.574	495.47
415.951	500.89
416.328	508.57
416.705	494.79
417.082	502.02
417.46	523.26
417.837	501.34
418.214	505.18
418.591	499.53
418.967	508.8
419.344	535.24
419.721	541.79
420.098	549.03
420.475	535.92
420.852	553.54
421.228	565.3
421.605	545.64
421.982	538.4
422.358	546.31
422.735	556.26
423.111	560.32
423.488	562.36
423.864	545.64
424.241	565.52
424.617	543.6
424.994	565.3
425.37	571.17
425.746	579.76
426.123	582.02
426.499	592.19
426.875	572.53
427.251	594.22
427.627	620.44
428.003	603.26
428.379	604.84
428.756	604.62
429.132	611.62
429.507	598.06
429.883	621.34
430.259	627.22
430.635	629.25
431.011	636.71
431.387	646.65
431.763	642.13
432.138	650.72
432.514	646.65
432.89	666.99
433.265	677.38
433.641	694.56
434.016	691.62
434.392	716.93
434.767	698.17
435.143	711.96
435.518	691.62
435.894	686.87
436.269	725.52
436.644	718.96
437.02	727.33
437.395	723.03
437.77	748.12
438.145	758.51
438.52	765.52
438.895	769.81
439.271	759.87
439.646	786.53
440.021	808.91
440.395	779.75
440.77	754.9
441.145	802.8
441.52	815.46
441.895	798.74
442.27	799.87
442.645	797.61
443.019	808.68
443.394	801.9
443.769	847.1
444.143	824.95
444.518	847.55
444.892	824.72
445.267	836.93
445.641	854.55
446.016	847.32
446.39	880.99
446.764	869.69
447.139	871.5
447.513	876.47
447.887	864.05
448.262	876.7
448.636	871.95
449.01	891.84
449.384	926.87
449.758	901.78
450.132	928
450.506	935
450.88	931.84
451.254	899.98
451.628	949.47
452.002	951.27
452.376	944.27
452.75	965.06
453.123	980.2
453.497	968.45
453.871	1000.09
454.244	1011.61
454.618	1006.87
454.992	1009.58
455.365	1031.27
455.739	1040.54
456.112	1059.75
456.486	1086.41
456.859	1092.06
457.232	1075.11
457.606	1133.64
457.979	1127.31
458.352	1149.91
458.725	1138.16
459.099	1121.67
459.472	1187.43
459.845	1191.04
460.218	1189.23
460.591	1184.71
460.964	1232.85
461.337	1222.23
461.71	1261.32
462.083	1289.34
462.456	1277.14
462.829	1295.45
463.201	1291.83
463.574	1322.34
463.947	1347.2
464.32	1349.23
464.692	1370.47
465.065	1368.66
465.438	1421.54
465.81	1413.64
466.183	1462.22
466.555	1499.06
466.928	1498.38
467.3	1504.48
467.672	1548.55
468.045	1600.07
468.417	1593.07
468.789	1603.69
469.161	1618.38
469.534	1654.31
469.906	1702.44
470.278	1705.83
470.65	1757.58
471.022	1769.78
471.394	1815.88
471.766	1862.66
472.138	1884.13
472.51	1921.42
472.882	1950.57
473.253	1994.86
473.625	2027.63
473.997	2042.77
474.369	2113.5
474.74	2139.94
475.112	2195.08
475.484	2267.85
475.855	2328.87
476.227	2353.95
476.598	2416.77
476.97	2462.87
477.341	2530.44
477.713	2633.04
478.084	2625.81
478.455	2744.67
478.827	2779.47
479.198	2869.19
479.569	2921.39
479.94	3019.47
480.311	3068.96
480.682	3151.89
481.053	3283.42
481.424	3389.4
481.795	3451.32
482.166	3544.43
482.537	3633.24
482.908	3712.78
483.279	3841.82
483.65	3943.74
484.021	4046.56
484.391	4151.19
484.762	4270.06
485.133	4252.88
485.503	4437.74
485.874	4583.72
486.244	4691.74
486.615	4802.25
486.985	4912.07
487.356	5032.52
487.726	5140.77
488.097	5283.59
488.467	5400.2
488.837	5594.54
489.207	5678.16
489.578	5814.2
489.948	5908.43
490.318	6051.71
490.688	6129.44
491.058	6351.81
491.428	6449.66
491.798	6620.96
492.168	6753.16
492.538	6851.68
492.908	7003.77
493.278	7139.13
493.648	7228.4
494.017	7340.94
494.387	7509.97
494.757	7661.61
495.126	7786.8
495.496	7846.23
495.866	7967.36
496.235	8055.49
496.605	8226.11
496.974	8319.89
497.344	8452.32
497.713	8586.1
498.082	8722.82
498.452	8787
498.821	8898.18
499.19	8965.3
499.559	9117.84
499.928	9227.22
500.298	9382.92
500.667	9462.24
501.036	9468.34
501.405	9646.41
501.774	9635.79
502.143	9773.42
502.512	9868.1
502.88	9968.44
503.249	10057.93
503.618	10132.73
503.987	10193.52
504.356	10285.27
504.724	10363.46
505.093	10412.95
505.462	10500.63
505.83	10613.85
506.199	10676.22
506.567	10936.55
506.936	10817.68
507.304	10940.16
507.672	10967.96
508.041	11073.27
508.409	11134.74
508.777	11212.93
509.145	11294.96
509.514	11391.9
509.882	11479.59
510.25	11451.11
510.618	11523.2
510.986	11522.52
511.354	11633.93
511.722	11769.07
512.09	11751.67
512.458	11768.84
512.826	11863.98
513.193	11998.22
513.561	11857.2
513.929	12000.7
514.297	12091.32
514.664	12105.78
515.032	12148.04
515.4	12224.88
515.767	12230.07
516.135	12369.73
516.502	12246.8
516.869	12375.83
517.237	12392.78
517.604	12420.13
517.972	12505.55
518.339	12493.12
518.706	12539.22
519.073	12552.1
519.44	12618.76
519.808	12660.57
520.175	12629.39
520.542	12770.62
520.909	12839.55
521.276	12740.79
521.643	12824.41
522.009	13030.5
522.376	12905.54
522.743	12924.52
523.11	13094.46
523.477	13083.84
523.843	13141.91
524.21	13251.97
524.577	13316.15
524.943	13265.07
525.31	13216.04
525.676	13370.38
526.043	13355.24
526.409	13337.62
526.776	13478.85
527.142	13374.22
527.508	13402.7
527.874	13511.4
528.241	13509.81
528.607	13486.76
528.973	13554.11
529.339	13505.07
529.705	13569.93
530.071	13588.68
530.437	13565.18
530.803	13604.5
531.169	13549.81
531.535	13592.3
531.901	13602.02
532.267	13561.56
532.632	13647.21
532.998	13594.11
533.364	13628.46
533.73	13513.43
534.095	13657.83
534.461	13544.16
534.826	13505.75
535.192	13501.68
535.557	13583.48
535.923	13501.23
536.288	13524.28
536.653	13518.85
537.019	13428.69
537.384	13477.5
537.749	13478.18
538.114	13421
538.479	13357.05
538.845	13395.24
539.21	13305.07
539.575	13258.52
539.94	13235.7
540.305	13254
540.67	13226.66
541.034	13212.19
541.399	13160.9
541.764	13181.24
542.129	13191.63
542.494	13172.87
542.858	13148.24
543.223	13029.6
543.587	13007.23
543.952	12980.11
544.316	12987.79
544.681	12836.39
545.045	12883.62
545.41	12885.42
545.774	12820.57
546.138	12776.27
546.503	12771.53
546.867	12770.17
547.231	12794.58
547.595	12807.91
547.959	12727.91
548.324	12647.46
548.688	12636.39
549.052	12644.75
549.416	12513.68
549.779	12550.52
550.143	12552.33
550.507	12548.26
550.871	12538.54
551.235	12516.17
551.599	12438.43
551.962	12366.79
552.326	12376.96
552.689	12431.42
553.053	12317.3
553.417	12270.75
553.78	12437.75
554.143	12252.22
554.507	12334.25
554.87	12215.16
555.234	12334.03
555.597	12210.19
555.96	12177.19
556.323	12179
556.686	12132.45
557.05	12186.46
557.413	12128.61
557.776	12162.96
558.139	12133.81
558.502	12145.56
558.865	12131.09
559.228	12141.71
559.59	12076.18
559.953	12167.02
560.316	12280.02
560.679	12179
561.041	12165.89
561.404	12170.19
561.767	12231.2
562.129	12185.56
562.492	12268.49
562.854	12225.55
563.217	12132.22
563.579	12173.13
563.941	12194.59
564.304	12266.01
564.666	12244.31
565.028	12204.31
565.39	12253.12
565.753	12229.17
566.115	12249.06
566.477	12307.36
566.839	12266.23
567.201	12298.32
567.563	12263.52
567.925	12326.79
568.287	12294.48
568.648	12346.68
569.01	12443.4
569.372	12386.23
569.734	12469.16
570.095	12412.22
570.457	12434.36
570.819	12474.14
571.18	12460.35
571.542	12479.78
571.903	12454.25
572.265	12476.62
572.626	12508.94
572.987	12486.34
573.349	12522.04
573.71	12511.2
574.071	12549.39
574.432	12572.89
574.794	12608.6
575.155	12555.26
575.516	12538.99
575.877	12661.47
576.238	12592.1
576.599	12675.49
576.96	12607.24
577.32	12561.14
577.681	12553
578.042	12646.11
578.403	12556.39
578.763	12560.23
579.124	12552.33
579.485	12615.15
579.845	12653.34
580.206	12603.62
580.566	12578.54
580.927	12576.51
581.287	12612.89
581.648	12593.23
582.008	12657.63
582.368	12613.79
582.728	12701.93
583.089	12540.35
583.449	12614.02
583.809	12600.46
584.169	12583.96
584.529	12590.06
584.889	12605.43
585.249	12565.43
585.609	12524.98
585.969	12539.44
586.329	12549.16
586.688	12514.59
587.048	12564.53
587.408	12498.32
587.768	12558.88
588.127	12476.85
588.487	12421.48
588.846	12539.9
589.206	12465.1
589.565	12452.89
589.925	12528.37
590.284	12478.43
590.643	12494.93
591.003	12468.71
591.362	12501.25
591.721	12538.31
592.08	12447.47
592.44	12492.44
592.799	12461.25
593.158	12397.98
593.517	12401.14
593.876	12377.19
594.235	12327.47
594.593	12328.83
594.952	12376.96
595.311	12339
595.67	12406.11
596.029	12440.01
596.387	12378.54
596.746	12343.29
597.104	12366.34
597.463	12271.65
597.822	12399.11
598.18	12326.34
598.538	12352.33
598.897	12428.26
599.255	12316.85
599.613	12539.44
599.972	12307.13
600.33	12438.43
600.688	12362.95
601.046	12406.34
601.404	12438.2
601.762	12339.68
602.12	12427.36
602.478	12388.94
602.836	12401.82
603.194	12339.45
603.552	12322.05
603.91	12309.62
604.268	12349.39
604.625	12326.57
604.983	12327.47
605.341	12260.36
605.698	12417.19
606.056	12390.52
606.413	12373.35
606.771	12378.32
607.128	12315.72
607.485	12330.64
607.843	12380.8
608.2	12443.63
608.557	12475.49
608.914	12371.99
609.272	12438.43
609.629	12377.41
609.986	12386.91
610.343	12473.01
610.7	12506.68
611.057	12475.94
611.414	12445.44
611.771	12544.87
612.127	12510.07
612.484	12557.97
612.841	12473.68
613.198	12519.56
613.554	12513.46
613.911	12568.14
614.267	12553.91
614.624	12573.79
614.98	12585.32
615.337	12663.51
615.693	12682.04
616.05	12586
616.406	12611.98
616.762	12592.55
617.118	12603.85
617.475	12544.42
617.831	12642.94
618.187	12607.92
618.543	12684.98
618.899	12644.75
619.255	12731.53
619.611	12649.95
619.967	12678.42
620.323	12786.67
620.678	12632.78
621.034	12686.79
621.39	12704.19
621.746	12635.26
622.101	12796.16
622.457	12702.83
622.812	12658.76
623.168	12755.26
623.523	12786.9
623.879	12831.19
624.234	12725.2
624.589	12743.28
624.945	12701.47
625.3	12725.88
625.655	12634.13
626.01	12731.08
626.365	12729.72
626.72	12637.97
627.075	12674.81
627.43	12733.56
627.785	12704.64
628.14	12766.78
628.495	12704.41
628.85	12693.34
629.205	12635.04
629.559	12709.61
629.914	12682.27
630.269	12643.85
630.623	12609.95
630.978	12651.31
631.332	12693.11
631.687	12663.51
632.041	12642.72
632.396	12572.66
632.75	12543.96
633.104	12545.55
633.459	12447.02
633.813	12471.88
634.167	12464.19
634.521	12583.06
634.875	12470.97
635.229	12515.26
635.583	12385.55
635.937	12469.62
636.291	12418.54
636.645	12415.15
636.999	12377.87
637.352	12365.21
637.706	12304.65
638.06	12315.04
638.413	12333.12
638.767	12329.96
639.121	12208.61
639.474	12337.64
639.828	12297.64
640.181	12248.15
640.534	12246.8
640.888	12274.59
641.241	12158.44
641.594	12277.53
641.947	12228.49
642.301	12192.33
642.654	12226.68
643.007	12229.4
643.36	12220.36
643.713	12224.42
644.066	12253.35
644.419	12212.9
644.771	12081.6
645.124	11964.09
645.477	11940.82
645.83	11853.81
646.182	11873.25
646.535	11823.53
646.888	11794.38
647.24	11697.43
647.593	11817.88
647.945	11815.62
648.298	11648.62
648.65	11721.84
649.002	11707.15
649.355	11720.93
649.707	11698.79
650.059	11758.9
650.411	11953.92
650.763	11952.34
651.115	12063.07
651.467	11940.59
651.819	12047.71
652.171	11992.79
652.523	12058.55
652.875	11979.91
653.227	12015.16
653.578	12038.67
653.93	11975.84
654.282	11905.11
654.633	11873.47
654.985	11941.95
655.337	11895.17
655.688	12100.59
656.039	12089.74
656.391	11957.09
656.742	11883.64
657.094	11944.21
657.445	12055.39
657.796	11982.4
658.147	11995.5
658.498	11998.44
658.849	12029.18
659.2	11958.44
659.551	11876.41
659.902	12016.29
660.253	12041.38
660.604	11973.13
660.955	11957.09
661.306	12041.38
661.656	12000.25
662.007	12029.4
662.358	12001.83
662.708	12056.29
663.059	12062.62
663.409	11946.69
663.76	11986.24
664.11	12108.27
664.461	12095.61
664.811	12033.69
665.161	12054.26
665.511	11974.26
665.862	12003.19
666.212	12108.27
666.562	12027.59
666.912	12056.75
667.262	12037.31
667.612	12087.25
667.962	12049.29
668.312	11967.71
668.662	12060.81
669.011	12003.41
669.361	11965.9
669.711	12026.46
670.06	11957.09
670.41	12014.26
670.76	11928.16
671.109	12130.87
671.459	11951.44
671.808	11938.33
672.157	11997.76
672.507	11891.78
672.856	11968.39
673.205	11906.01
673.554	11997.31
673.904	11924.09
674.253	11955.05
674.602	11965.67
674.951	11716.42
675.3	11676.64
675.649	11882.96
675.998	11888.16
676.346	11861.72
676.695	11870.31
677.044	11797.32
677.393	11824.43
677.741	11881.61
678.09	11790.09
678.438	11803.87
678.787	11854.49
679.135	11822.18
679.484	11714.83
679.832	11745.57
680.181	11682.07
680.529	11672.35
680.877	11681.16
681.225	11637.1
681.573	11672.12
681.922	11635.29
682.27	11596.64
682.618	11580.15
682.966	11589.41
683.314	11550.54
683.661	11522.07
684.009	11446.37
684.357	11407.27
684.705	11442.52
685.053	11441.39
685.4	11336.76
685.748	11358.01
686.095	11366.82
686.443	11328.63
686.79	11295.64
687.138	11297.9
687.485	11278.46
687.832	11257.67
688.18	11249.08
688.527	11254.28
688.874	11158.46
689.221	11113.72
689.568	11142.19
689.915	11110.1
690.262	11096.09
690.609	10989.88
690.956	10957.11
691.303	11001.63
691.65	10911.69
691.997	10981.97
692.344	10784.01
692.69	10803.9
693.037	10777.23
693.383	10709.44
693.73	10691.36
694.077	10602.32
694.423	10647.52
694.769	10616.56
695.116	10589.67
695.462	10446.84
695.808	10542.21
696.155	10508.54
696.501	10369.33
696.847	10458.82
697.193	10346.51
697.539	10373.63
697.885	10257.02
698.231	10178.38
698.577	10210.24
698.923	10222.67
699.269	10120.52
699.614	10069.9
699.96	10016.35
700.306	10035.78
700.651	10006.18
700.997	10001.66
701.342	9960.53
701.688	9918.5
702.033	9877.37
702.379	9828.78
702.724	9835.79
703.069	9834.88
703.415	9678.28
703.76	9725.28
704.105	9731.16
704.45	9624.49
704.795	9660.65
705.14	9623.14
705.485	9539.52
705.83	9506.76
706.175	9564.83
706.52	9522.12
706.865	9451.62
707.209	9473.08
707.554	9417.04
707.899	9430.15
708.243	9361.67
708.588	9383.14
708.932	9220.89
709.277	9320.09
709.621	9301.56
709.966	9194.67
710.31	9221.57
710.654	9110.38
710.998	9144.28
711.342	9143.6
711.687	9186.09
712.031	9103.6
712.375	9132.98
712.719	9087.78
713.063	9018.63
713.407	9117.39
713.75	8962.59
714.094	8957.84
714.438	8960.33
714.782	8930.05
715.125	8924.85
715.469	8920.78
715.812	8937.96
716.156	8890.27
716.499	8891.18
716.843	8833.78
717.186	8806.89
717.53	8801.24
717.873	8806.66
718.216	8784.06
718.559	8673.11
718.902	8657.29
719.246	8757.62
719.589	8726.66
719.932	8677.17
720.275	8670.85
720.617	8710.84
720.96	8641.47
721.303	8638.08
721.646	8725.99
721.989	8590.4
722.331	8583.84
722.674	8647.57
723.016	8638.3
723.359	8576.38
723.701	8576.38
724.044	8593.11
724.386	8563.73
724.729	8645.54
725.071	8596.5
725.413	8576.61
725.755	8527.12
726.097	8521.7
726.439	8483.73
726.782	8481.92
727.124	8521.24
727.465	8519.66
727.807	8537.29
728.149	8450.06
728.491	8463.62
728.833	8457.52
729.175	8430.85
729.516	8381.36
729.858	8473.56
730.199	8478.76
730.541	8468.59
730.882	8453
731.224	8439.44
731.565	8430.63
731.906	8446.9
732.248	8427.91
732.589	8375.71
732.93	8342.27
733.271	8424.75
733.612	8387.92
733.953	8447.57
734.294	8400.34
734.635	8365.54
734.976	8436.73
735.317	8424.52
735.658	8363.51
735.999	8318.54
736.339	8395.6
736.68	8390.17
737.021	8398.08
737.361	8340.91
737.702	8406.22
738.042	8394.02
738.383	8399.67
738.723	8457.74
739.063	8408.48
739.404	8490.06
739.744	8454.35
740.084	8441.7
740.424	8490.06
740.764	8446.9
741.104	8494.8
741.444	8492.09
741.784	8525.99
742.124	8523.5
742.464	8528.25
742.804	8546.1
743.143	8580.9
743.483	8623.84
743.823	8585.65
744.162	8631.75
744.502	8688.7
744.841	8601.02
745.181	8767.57
745.52	8714.46
745.86	8748.36
746.199	8823.38
746.538	8828.81
746.877	8872.2
747.216	8934.79
747.556	8923.49
747.895	8992.87
748.234	9026.09
748.573	9158.97
748.911	9142.25
749.25	9212.07
749.589	9347.44
749.928	9373.88
750.267	9374.1
750.605	9419.07
750.944	9498.85
751.283	9550.37
751.621	9689.12
751.96	9753.75
752.298	9826.3
752.636	9977.48
752.975	10006.63
753.313	10031.49
753.651	10216.57
753.989	10304.47
754.327	10334.3
754.666	10457.47
755.004	10578.59
755.342	10755.99
755.679	10871.69
756.017	10905.59
756.355	11148.97
756.693	11197.78
757.031	11391.9
757.368	11417.89
757.706	11577.44
758.044	11673.25
758.381	11815.17
758.719	12086.57
759.056	12138.32
759.394	12267.81
