Data from hue_200_FLMS001491_00007.txt Node
Date: Tue Feb 07 16:42:44 GMT 2017
User: dcchb
Spectrometer: FLMS00149
Trigger mode: 0
Integration Time (sec): 2.000000E-2
Scans to average: 10
Electric dark correction enabled: true
Nonlinearity correction enabled: false
Boxcar width: 0
XAxis mode: Wavelengths
Number of Pixels in Spectrum: 2048
>>>>>Begin Spectral Data<<<<<
341.393	-13.08
341.776	-13.08
342.16	-13.08
342.543	-58.5
342.927	-51.04
343.31	-82.46
343.693	-66.64
344.077	-46.98
344.46	-85.85
344.843	-57.37
345.226	-16.47
345.61	-27.99
345.993	-36.58
346.376	1.38
346.759	23.53
347.142	21.5
347.525	34.6
347.908	65.34
348.291	74.83
348.674	96.52
349.057	102.62
349.44	127.48
349.823	149.4
350.206	138.78
350.588	201.38
350.971	207.71
351.354	195.05
351.737	229.85
352.119	242.28
352.502	255.39
352.884	301.26
353.267	256.52
353.65	300.36
354.032	302.85
354.414	334.03
354.797	301.26
355.179	321.83
355.562	322.51
355.944	321.15
356.326	340.13
356.709	336.74
357.091	340.36
357.473	354.14
357.855	352.34
358.238	356.18
358.62	345.33
359.002	350.53
359.384	332.67
359.766	338.78
360.148	338.55
360.53	350.53
360.912	343.75
361.294	330.87
361.676	328.38
362.057	343.3
362.439	355.95
362.821	328.83
363.203	339
363.584	335.84
363.966	314.37
364.348	327.7
364.729	310.75
365.111	310.3
365.493	327.48
365.874	303.75
366.256	309.4
366.637	315.5
367.019	336.97
367.4	325.44
367.781	304.65
368.163	302.17
368.544	301.72
368.925	296.74
369.306	358.89
369.688	313.69
370.069	322.28
370.45	316.86
370.831	295.84
371.212	303.3
371.593	325.22
371.974	300.36
372.355	317.31
372.736	315.5
373.117	310.75
373.498	327.7
373.879	338.78
374.26	330.64
374.641	310.53
375.021	335.61
375.402	333.8
375.783	315.73
376.163	330.42
376.544	340.36
376.925	346.01
377.305	317.08
377.686	343.75
378.066	329.74
378.447	321.6
378.827	338.1
379.208	336.52
379.588	324.54
379.968	349.17
380.349	333.58
380.729	331.32
381.109	340.13
381.489	342.17
381.87	343.07
382.25	343.75
382.63	350.3
383.01	365.22
383.39	362.96
383.77	353.01
384.15	370.41
384.53	351.43
384.91	361.37
385.29	371.09
385.67	360.47
386.049	383.52
386.429	339
386.809	367.48
387.189	347.82
387.568	367.02
387.948	360.92
388.328	373.58
388.707	353.69
389.087	367.93
389.466	370.64
389.846	383.3
390.225	391.88
390.605	371.54
390.984	376.97
391.363	396.85
391.743	381.26
392.122	392.33
392.501	379
392.881	390.75
393.26	400.7
393.639	401.6
394.018	409.51
394.397	395.05
394.776	411.32
395.155	424.65
395.534	403.18
395.913	425.33
396.292	431.88
396.671	418.55
397.05	426.46
397.429	395.72
397.808	406.57
398.186	426.46
398.565	428.49
398.944	428.49
399.323	429.4
399.701	417.64
400.08	416.06
400.458	437.53
400.837	428.27
401.215	435.27
401.594	443.63
401.972	432.11
402.351	435.5
402.729	478.89
403.107	459.9
403.486	462.61
403.864	449.73
404.242	476.4
404.62	462.39
404.999	486.8
405.377	507.81
405.755	483.63
406.133	485.67
406.511	481.37
406.889	496.96
407.267	507.81
407.645	508.72
408.023	511.65
408.401	523.18
408.779	540.13
409.156	540.8
409.534	553.91
409.912	547.13
410.29	575.15
410.667	575.61
411.045	548.71
411.422	575.61
411.8	583.97
412.178	607.7
412.555	614.48
412.933	635.27
413.31	649.05
413.687	636.17
414.065	660.8
414.442	682.72
414.819	697.64
415.197	669.16
415.574	687.92
415.951	721.59
416.328	752.32
416.705	719.56
417.082	724.75
417.46	751.42
417.837	770.18
418.214	763.17
418.591	769.27
418.967	803.17
419.344	791.65
419.721	798.2
420.098	816.96
420.475	824.64
420.852	858.31
421.228	860.8
421.605	883.85
421.982	908.48
422.358	917.74
422.735	935.82
423.111	925.65
423.488	973.79
423.864	996.39
424.241	1013.79
424.617	1012.43
424.994	1031.41
425.37	1023.73
425.746	1057.63
426.123	1059.44
426.499	1099.66
426.875	1115.71
427.251	1119.09
427.627	1163.39
428.003	1151.18
428.379	1189.38
428.756	1195.93
429.132	1190.51
429.507	1195.93
429.883	1232.99
430.259	1252.88
430.635	1233.89
431.011	1279.09
431.387	1327.9
431.763	1315.7
432.138	1302.59
432.514	1352.31
432.89	1387.34
433.265	1412.19
433.641	1399.77
434.016	1440.44
434.392	1460.78
434.767	1508.24
435.143	1561.34
435.518	1553.43
435.894	1598.63
436.269	1634.11
436.644	1662.13
437.02	1659.65
437.395	1690.83
437.77	1724.05
438.145	1736.03
438.52	1782.13
438.895	1817.38
439.271	1807.89
439.646	1923.59
440.021	1903.26
440.395	1943.03
440.77	1931.28
441.145	1970.37
441.52	2035.45
441.895	2020.31
442.27	2051.73
442.645	2012.4
443.019	2074.1
443.394	2100.99
443.769	2148.67
444.143	2130.59
444.518	2194.77
444.892	2182.34
445.267	2243.59
445.641	2237.03
446.016	2272.06
446.39	2282.45
446.764	2285.17
447.139	2280.87
447.513	2352.06
447.887	2358.38
448.262	2392.28
448.636	2375.56
449.01	2418.04
449.384	2453.07
449.758	2454.43
450.132	2488.1
450.506	2490.36
450.88	2526.97
451.254	2533.29
451.628	2565.38
452.002	2569.23
452.376	2614.65
452.75	2657.81
453.123	2642.44
453.497	2697.36
453.871	2674.99
454.244	2758.15
454.618	2821.65
454.992	2840.41
455.365	2808.77
455.739	2923.34
456.112	2942.78
456.486	2931.25
456.859	2977.58
457.232	3045.82
457.606	3058.7
457.979	3086.73
458.352	3134.86
458.725	3166.72
459.099	3197.46
459.472	3263.67
459.845	3274.97
460.218	3362.88
460.591	3340.05
460.964	3370.11
461.337	3493.72
461.71	3482.87
462.083	3549.31
462.456	3524.91
462.829	3552.93
463.201	3676.32
463.574	3635.64
463.947	3736.88
464.32	3783.66
464.692	3801.51
465.065	3818.23
465.438	3903.65
465.81	3956.08
466.183	3982.07
466.555	4096.64
466.928	4074.95
467.3	4098
467.672	4176.64
468.045	4240.14
468.417	4320.37
468.789	4295.06
469.161	4328.28
469.534	4380.7
469.906	4503.41
470.278	4574.6
470.65	4569.4
471.022	4658.89
471.394	4770.52
471.766	4812.56
472.138	4839.68
472.51	4896.85
472.882	4958.99
473.253	5093.68
473.625	5158.54
473.997	5189.5
474.369	5245.77
474.74	5312.43
475.112	5425.42
475.484	5496.15
475.855	5597.17
476.227	5603.72
476.598	5738.18
476.97	5760.33
477.341	5862.92
477.713	6000.1
478.084	6025.63
478.455	6195.12
478.827	6241.9
479.198	6474.89
479.569	6391.05
479.94	6534.55
480.311	6638.05
480.682	6745.39
481.053	6915.1
481.424	6962.11
481.795	7029.45
482.166	7122.55
482.537	7205.94
482.908	7373.62
483.279	7452.94
483.65	7526.61
484.021	7708.3
484.391	7727.51
484.762	7792.14
485.133	7958.69
485.503	7994.17
485.874	8128.85
486.244	8146.71
486.615	8308.51
486.985	8452.69
487.356	8588.28
487.726	8654.04
488.097	8753.92
488.467	8866.69
488.837	8953.47
489.207	8996.85
489.578	9150.07
489.948	9228.49
490.318	9332.66
490.688	9317.98
491.058	9563.39
491.428	9580.79
491.798	9717.51
492.168	9832.76
492.538	9808.36
492.908	9946.21
493.278	10101.91
493.648	10107.33
494.017	10147.56
494.387	10191.85
494.757	10288.8
495.126	10399.53
495.496	10430.94
495.866	10482.69
496.235	10600.65
496.605	10668.22
496.974	10658.05
497.344	10776.92
497.713	10798.84
498.082	10878.61
498.452	10972.85
498.821	11035.9
499.19	11020.3
499.559	11063.69
499.928	11147.76
500.298	11206.51
500.667	11262.33
501.036	11211.48
501.405	11336.91
501.774	11277.7
502.143	11401.08
502.512	11409.9
502.88	11514.98
503.249	11480.63
503.618	11538.26
503.987	11623.68
504.356	11643.11
504.724	11637.69
505.093	11707.74
505.462	11669.78
505.83	11733.96
506.199	11808.53
506.567	12002.2
506.936	11888.76
507.304	12014.85
507.672	12068.41
508.041	12059.15
508.409	12040.39
508.777	12139.6
509.145	12172.36
509.514	12203.32
509.882	12246.49
510.25	12272.47
510.618	12290.1
510.986	12222.08
511.354	12288.97
511.722	12430.44
512.09	12413.94
512.458	12393.15
512.826	12490.1
513.193	12500.49
513.561	12506.82
513.929	12648.28
514.297	12556.08
514.664	12655.74
515.032	12608.28
515.4	12681.95
515.767	12659.81
516.135	12613.03
516.502	12609.19
516.869	12813.48
517.237	12783.65
517.604	12719.47
517.972	12744.33
518.339	12820.26
518.706	12834.95
519.073	12791.1
519.44	12874.94
519.808	12958.56
520.175	12866.36
520.542	13010.08
520.909	12974.15
521.276	12921.04
521.643	13022.28
522.009	13012.57
522.376	13103.41
522.743	13058.89
523.11	13130.3
523.477	13147.48
523.843	13149.06
524.21	13234.71
524.577	13242.17
524.943	13232.22
525.31	13225.22
525.676	13314.03
526.043	13350.19
526.409	13333.46
526.776	13398.32
527.142	13293.46
527.508	13373.24
527.874	13376.63
528.241	13360.35
528.607	13408.04
528.973	13467.92
529.339	13322.62
529.705	13390.86
530.071	13382.73
530.437	13402.84
530.803	13430.18
531.169	13388.38
531.535	13325.55
531.901	13320.13
532.267	13300.92
532.632	13356.74
532.998	13374.59
533.364	13336.17
533.73	13365.55
534.095	13332.56
534.461	13310.64
534.826	13293.92
535.192	13255.05
535.557	13304.99
535.923	13225.9
536.288	13207.82
536.653	13227.7
537.019	13090.31
537.384	13039.46
537.749	13047.37
538.114	12929.63
538.479	12916.52
538.845	12987.71
539.21	12821.61
539.575	12838.56
539.94	12816.19
540.305	12827.94
540.67	12790.65
541.034	12748.39
541.399	12736.42
541.764	12661.62
542.129	12603.09
542.494	12583.88
542.858	12547.72
543.223	12470.43
543.587	12485.35
543.952	12435.63
544.316	12308.63
544.681	12346.37
545.045	12401.51
545.41	12287.39
545.774	12288.97
546.138	12186.6
546.503	12180.05
546.867	12099.15
547.231	12115.42
547.595	12101.18
547.959	12001.75
548.324	11906.16
548.688	11921.52
549.052	11909.77
549.416	11830
549.779	11902.31
550.143	11814.63
550.507	11767.18
550.871	11694.64
551.235	11622.1
551.599	11679.27
551.962	11640.4
552.326	11650.8
552.689	11576.9
553.053	11480.18
553.417	11512.95
553.78	11558.14
554.143	11449.44
554.507	11487.41
554.87	11432.04
555.234	11438.6
555.597	11316.57
555.96	11380.29
556.323	11276.57
556.686	11362.67
557.05	11249.68
557.413	11300.3
557.776	11269.56
558.139	11272.27
558.502	11239.05
558.865	11163.35
559.228	11298.71
559.59	11166.97
559.953	11150.02
560.316	11223.01
560.679	11131.26
561.041	11153.41
561.404	11134.2
561.767	11188.66
562.129	11097.59
562.492	11230.69
562.854	11089.91
563.217	11070.47
563.579	11127.42
563.941	11121.32
564.304	11161.09
564.666	11147.31
565.028	11162.22
565.39	11109.57
565.753	11167.19
566.115	11155.44
566.477	11154.76
566.839	11145.95
567.201	11196.8
567.563	11185.04
567.925	11222.11
568.287	11190.47
568.648	11178.94
569.01	11251.03
569.372	11232.5
569.734	11254.87
570.095	11265.04
570.457	11267.75
570.819	11265.49
571.18	11213.29
571.542	11302.56
571.903	11312.95
572.265	11283.57
572.626	11346.17
572.987	11289.45
573.349	11363.35
573.71	11331.26
574.071	11300.07
574.432	11316.34
574.794	11362.44
575.155	11331.03
575.516	11317.7
575.877	11350.92
576.238	11388.2
576.599	11413.74
576.96	11397.24
577.32	11357.47
577.681	11375.1
578.042	11340.3
578.403	11387.75
578.763	11396.56
579.124	11366.74
579.485	11376.9
579.845	11406.73
580.206	11413.74
580.566	11403.8
580.927	11369.67
581.287	11387.53
581.648	11361.54
582.008	11441.76
582.368	11387.3
582.728	11451.03
583.089	11431.82
583.449	11467.3
583.809	11358.15
584.169	11411.48
584.529	11375.32
584.889	11416.9
585.249	11401.31
585.609	11339.17
585.969	11378.71
586.329	11351.14
586.688	11355.44
587.048	11355.44
587.408	11367.86
587.768	11370.35
588.127	11287.87
588.487	11308.43
588.846	11343.01
589.206	11321.76
589.565	11359.96
589.925	11294.87
590.284	11335.55
590.643	11338.04
591.003	11358.83
591.362	11338.94
591.721	11322.44
592.08	11282.9
592.44	11299.84
592.799	11281.54
593.158	11274.99
593.517	11260.3
593.876	11300.3
594.235	11293.74
594.593	11232.73
594.952	11297.58
595.311	11227.3
595.67	11206.51
596.029	11315.66
596.387	11257.81
596.746	11349.11
597.104	11187.53
597.463	11302.33
597.822	11243.35
598.18	11131.71
598.538	11197.25
598.897	11246.96
599.255	11176.91
599.613	11277.7
599.972	11228.66
600.33	11234.76
600.688	11211.71
601.046	11228.89
601.404	11319.73
601.762	11233.86
602.12	11308.43
602.478	11228.66
602.836	11282.44
603.194	11258.49
603.552	11220.52
603.91	11225.04
604.268	11279.96
604.625	11206.29
604.983	11225.72
605.341	11190.02
605.698	11225.04
606.056	11227.53
606.413	11190.47
606.771	11242.67
607.128	11274.31
607.485	11228.66
607.843	11284.03
608.2	11296.91
608.557	11304.59
608.914	11309.79
609.272	11258.94
609.629	11262.56
609.986	11368.77
610.343	11205.38
610.7	11335.1
611.057	11282.22
611.414	11273.86
611.771	11293.74
612.127	11352.27
612.484	11364.93
612.841	11388.88
613.198	11369.22
613.554	11395.66
613.911	11422.1
614.267	11433.4
614.624	11301.88
614.98	11339.62
615.337	11418.26
615.693	11396.11
616.05	11416.68
616.406	11439.73
616.762	11439.73
617.118	11368.77
617.475	11400.41
617.831	11444.93
618.187	11487.86
618.543	11441.31
618.899	11525.37
619.255	11478.82
619.611	11464.36
619.967	11475.88
620.323	11452.61
620.678	11468.43
621.034	11442.21
621.39	11432.04
621.746	11463.46
622.101	11537.35
622.457	11500.52
622.812	11496.9
623.168	11527.18
623.523	11460.74
623.879	11526.28
624.234	11383.01
624.589	11482.89
624.945	11402.21
625.3	11541.87
625.655	11443.57
626.01	11505.49
626.365	11456.22
626.72	11462.33
627.075	11470.91
627.43	11453.74
627.785	11420.97
628.14	11399.95
628.495	11477.24
628.85	11409.22
629.205	11386.62
629.559	11504.81
629.914	11282.22
630.269	11386.17
630.623	11408.09
630.978	11403.8
631.332	11358.37
631.687	11364.25
632.041	11265.72
632.396	11305.04
632.75	11289
633.104	11314.31
633.459	11252.16
633.813	11248.32
634.167	11295.32
634.521	11254.65
634.875	11227.08
635.229	11234.76
635.583	11124.03
635.937	11124.71
636.291	11144.59
636.645	11123.35
636.999	11084.71
637.352	11164.03
637.706	11053.3
638.06	11097.14
638.413	11075.9
638.767	11028.89
639.121	11036.8
639.474	10959.74
639.828	11092.84
640.181	11042.45
640.534	11072.96
640.888	11039.06
641.241	10882
641.594	11000.42
641.947	10994.99
642.301	10989.34
642.654	10923.58
643.007	10941.21
643.36	10935.79
643.713	10873.64
644.066	10916.58
644.419	10861.89
644.771	10823.92
645.124	10734.21
645.477	10686.3
645.83	10655.79
646.182	10573.76
646.535	10553.42
646.888	10600.65
647.24	10535.8
647.593	10490.37
647.945	10535.12
648.298	10383.71
648.65	10493.31
649.002	10434.56
649.355	10458.74
649.707	10578.51
650.059	10576.7
650.411	10656.92
650.763	10703.02
651.115	10783.7
651.467	10739.86
651.819	10726.75
652.171	10751.61
652.523	10698.5
652.875	10730.37
653.227	10685.62
653.578	10812.4
653.93	10737.83
654.282	10719.29
654.633	10634.78
654.985	10708.9
655.337	10770.14
655.688	10736.47
656.039	10778.28
656.391	10694.66
656.742	10646.75
657.094	10724.72
657.445	10753.42
657.796	10697.83
658.147	10672.06
658.498	10695.57
658.849	10773.53
659.2	10707.77
659.551	10661.67
659.902	10756.81
660.253	10719.97
660.604	10773.08
660.955	10705.28
661.306	10767.2
661.656	10780.99
662.007	10780.54
662.358	10836.81
662.708	10779.41
663.059	10814.43
663.409	10680.88
663.76	10842
664.11	10756.81
664.461	10778.28
664.811	10729.01
665.161	10812.85
665.511	10797.94
665.862	10777.82
666.212	10784.38
666.562	10801.78
666.912	10763.14
667.262	10725.17
667.612	10755.9
667.962	10746.86
668.312	10686.98
668.662	10829.57
669.011	10699.18
669.361	10722.68
669.711	10817.14
670.06	10749.12
670.41	10772.85
670.76	10776.69
671.109	10815.56
671.459	10770.14
671.808	10700.99
672.157	10732.63
672.507	10760.42
672.856	10686.75
673.205	10625.06
673.554	10702.12
673.904	10679.52
674.253	10692.4
674.602	10652.63
674.951	10526.31
675.3	10448.79
675.649	10670.03
675.998	10527.89
676.346	10623.03
676.695	10591.61
677.044	10542.12
677.393	10535.57
677.741	10556.36
678.09	10580.09
678.438	10530.6
678.787	10542.12
679.135	10522.24
679.484	10465.97
679.832	10456.93
680.181	10423.93
680.529	10531.95
680.877	10350.49
681.225	10341.45
681.573	10426.87
681.922	10355.01
682.27	10327.21
682.618	10342.36
682.966	10288.57
683.314	10378.74
683.661	10215.58
684.009	10214.22
684.357	10245.41
684.705	10142.81
685.053	10185.75
685.4	10156.15
685.748	10038.18
686.095	10139.42
686.443	10048.8
686.79	10053.55
687.138	10033.66
687.485	10100.33
687.832	9956.6
688.18	10003.83
688.527	9934.91
688.874	9908.24
689.221	9934.91
689.568	9991.63
689.915	9819.66
690.262	9870.05
690.609	9829.83
690.956	9777.4
691.303	9739.21
691.65	9728.36
691.997	9691.07
692.344	9649.94
692.69	9634.13
693.037	9554.81
693.383	9458.54
693.73	9573.34
694.077	9450.85
694.423	9460.12
694.769	9393.23
695.116	9429.38
695.462	9330.18
695.808	9352.55
696.155	9260.35
696.501	9206.11
696.847	9233.01
697.193	9144.42
697.539	9190.3
697.885	9097.42
698.231	9070.52
698.577	9035.04
698.923	9047.25
699.269	8986.68
699.614	8946.23
699.96	8918.44
700.306	8864.2
700.651	8866.01
700.997	8789.18
701.342	8775.62
701.688	8772.23
702.033	8748.5
702.379	8712.79
702.724	8652.23
703.069	8628.28
703.415	8567.49
703.76	8650.2
704.105	8543.31
704.45	8596.19
704.795	8553.25
705.14	8462.63
705.485	8431.9
705.83	8457.88
706.175	8471.44
706.52	8398.45
706.865	8366.14
707.209	8301.5
707.554	8292.69
707.899	8294.5
708.243	8296.08
708.588	8274.16
708.932	8197.33
709.277	8155.07
709.621	8156.2
709.966	8129.98
710.31	8143.77
710.654	8092.92
710.998	8113.94
711.342	8074.17
711.687	8024.22
712.031	8005.02
712.375	7953.49
712.719	8036.65
713.063	7956.2
713.407	7972.7
713.75	7915.07
714.094	7899.93
714.438	7877.34
714.782	7915.75
715.125	7919.37
715.469	7896.09
715.812	7858.8
716.156	7838.01
716.499	7806.38
716.843	7781.07
717.186	7746.27
717.53	7823.55
717.873	7827.17
718.216	7786.04
718.559	7755.53
718.902	7655.87
719.246	7698.81
719.589	7692.93
719.932	7614.29
720.275	7630.79
720.617	7632.82
720.96	7671.01
721.303	7650.9
721.646	7652.48
721.989	7584.46
722.331	7668.75
722.674	7640.96
723.016	7630.79
723.359	7625.59
723.701	7568.19
724.044	7560.73
724.386	7466.05
724.729	7566.83
725.071	7460.62
725.413	7561.86
725.755	7544.24
726.097	7460.85
726.439	7477.8
726.782	7472.37
727.124	7489.77
727.465	7516.21
727.807	7509.66
728.149	7451.13
728.491	7444.13
728.833	7537.68
729.175	7450
729.516	7440.51
729.858	7392.6
730.199	7431.47
730.541	7490.68
730.882	7419.72
731.224	7411.36
731.565	7344.02
731.906	7479.15
732.248	7466.95
732.589	7422.43
732.93	7394.18
733.271	7419.95
733.612	7406.61
733.953	7425.82
734.294	7419.04
734.635	7401.42
734.976	7418.14
735.317	7422.43
735.658	7393.96
735.999	7413.39
736.339	7428.08
736.68	7457.69
737.021	7372.04
737.361	7449.78
737.702	7476.89
738.042	7448.87
738.383	7484.58
738.723	7520.06
739.063	7477.57
739.404	7622.65
739.744	7522.99
740.084	7461.3
740.424	7526.16
740.764	7562.77
741.104	7551.47
741.444	7524.35
741.784	7521.64
742.124	7538.59
742.464	7601.18
742.804	7649.32
743.143	7614.97
743.483	7596.44
743.823	7666.95
744.162	7604.8
744.502	7749.2
744.841	7699.71
745.181	7810.67
745.52	7763.44
745.86	7784.23
746.199	7868.52
746.538	7911.46
746.877	7990.55
747.216	7989.65
747.556	8006.6
747.895	8068.74
748.234	8138.57
748.573	8168.63
748.911	8216.76
749.25	8242.52
749.589	8309.64
749.928	8399.81
750.267	8461.05
750.605	8558
750.944	8598.45
751.283	8637.54
751.621	8752.57
751.96	8830.08
752.298	8960.02
752.636	9056.29
752.975	9095.16
753.313	9224.19
753.651	9364.3
753.989	9462.6
754.327	9512.32
754.666	9573.11
755.004	9815.59
755.342	9903.5
755.679	10060.1
756.017	10126.99
756.355	10334.9
756.693	10408.34
757.031	10558.85
757.368	10734.21
757.706	10820.76
758.044	11021.89
758.381	11184.59
