Data from hue_100_FLMS001491_00027.txt Node
Date: Tue Feb 07 17:02:56 GMT 2017
User: dcchb
Spectrometer: FLMS00149
Trigger mode: 0
Integration Time (sec): 2.000000E-2
Scans to average: 10
Electric dark correction enabled: true
Nonlinearity correction enabled: false
Boxcar width: 0
XAxis mode: Wavelengths
Number of Pixels in Spectrum: 2048
>>>>>Begin Spectral Data<<<<<
341.393	-11.24
341.776	-11.24
342.16	-11.24
342.543	-49.21
342.927	-63.9
343.31	-74.74
343.693	-90.34
344.077	-57.8
344.46	-70.45
344.843	-55.99
345.226	-30.45
345.61	-39.49
345.993	-26.16
346.376	-5.59
346.759	29.89
347.142	30.56
347.525	35.08
347.908	54.52
348.291	86.38
348.674	103.78
349.057	110.79
349.44	120.05
349.823	154.85
350.206	154.18
350.588	183.33
350.971	228.98
351.354	259.26
351.737	256.09
352.119	246.15
352.502	260.84
352.884	292.03
353.267	293.61
353.65	298.81
354.032	297.45
354.414	306.26
354.797	338.8
355.179	333.16
355.562	326.38
355.944	330.67
356.326	334.96
356.709	325.92
357.091	337.9
357.473	347.62
357.855	326.83
358.238	339.26
358.62	329.31
359.002	342.42
359.384	346.94
359.766	342.19
360.148	326.6
360.53	332.03
360.912	349.43
361.294	352.14
361.676	347.84
362.057	361.85
362.439	319.82
362.821	369.99
363.203	331.35
363.584	324.79
363.966	304.23
364.348	326.6
364.729	345.13
365.111	314.4
365.493	312.14
365.874	331.57
366.256	320.27
366.637	305.36
367.019	339.93
367.4	325.02
367.781	330.22
368.163	325.02
368.544	332.93
368.925	318.01
369.306	331.12
369.688	328.18
370.069	330.22
370.45	337.22
370.831	310.1
371.212	310.78
371.593	317.79
371.974	310.78
372.355	312.82
372.736	315.98
373.117	318.01
373.498	322.76
373.879	298.13
374.26	308.97
374.641	305.81
375.021	325.25
375.402	322.76
375.783	318.69
376.163	343.32
376.544	332.03
376.925	347.17
377.305	327.51
377.686	342.65
378.066	348.07
378.447	345.58
378.827	329.09
379.208	350.1
379.588	366.37
379.968	348.75
380.349	333.16
380.729	340.39
381.109	347.39
381.489	347.39
381.87	344.23
382.25	354.4
382.63	355.53
383.01	367.96
383.39	344.23
383.77	349.43
384.15	370.67
384.53	339.26
384.91	363.44
385.29	362.76
385.67	369.99
386.049	370.22
386.429	362.76
386.809	364.57
387.189	369.54
387.568	353.95
387.948	367.28
388.328	358.01
388.707	362.98
389.087	360.27
389.466	356.43
389.846	368.86
390.225	408.18
390.605	385.58
390.984	384.45
391.363	367.96
391.743	380.16
392.122	395.53
392.501	394.4
392.881	400.72
393.26	379.03
393.639	391.91
394.018	396.66
394.397	402.08
394.776	402.98
395.155	397.56
395.534	386.04
395.913	401.85
396.292	390.33
396.671	411.8
397.05	412.93
397.429	410.44
397.808	414.96
398.186	407.05
398.565	403.89
398.944	405.02
399.323	431.23
399.701	412.48
400.08	411.57
400.458	417.67
400.837	449.31
401.215	430.33
401.594	430.78
401.972	428.97
402.351	419.25
402.729	449.99
403.107	442.53
403.486	446.82
403.864	436.2
404.242	447.95
404.62	439.59
404.999	460.84
405.377	455.19
405.755	443.89
406.133	458.12
406.511	446.37
406.889	455.19
407.267	474.39
407.645	483.21
408.023	458.58
408.401	457.9
408.779	476.2
409.156	456.99
409.534	485.92
409.912	480.72
410.29	470.78
410.667	491.79
411.045	497.67
411.422	501.96
411.8	519.59
412.178	534.73
412.555	522.3
412.933	515.98
413.31	522.98
413.687	532.25
414.065	559.59
414.442	513.26
414.819	538.35
415.197	531.34
415.574	523.66
415.951	547.84
416.328	544.22
416.705	537.44
417.082	562.75
417.46	555.07
417.837	573.37
418.214	573.37
418.591	564.11
418.967	562.98
419.344	570.44
419.721	592.36
420.098	574.96
420.475	593.71
420.852	584.22
421.228	598.68
421.605	598.68
421.982	597.33
422.358	625.58
422.735	601.62
423.111	607.05
423.488	618.8
423.864	615.86
424.241	639.81
424.617	636.42
424.994	644.11
425.37	635.29
425.746	646.59
426.123	648.18
426.499	644.56
426.875	671.9
427.251	672.81
427.627	671.68
428.003	700.6
428.379	676.2
428.756	702.41
429.132	683.65
429.507	705.57
429.883	708.06
430.259	708.06
430.635	721.85
431.011	724.11
431.387	738.57
431.763	747.83
432.138	723.65
432.514	756.65
432.89	760.94
433.265	771.11
433.641	797.55
434.016	776.53
434.392	784.89
434.767	795.06
435.143	810.2
435.518	821.28
435.894	838.23
436.269	814.05
436.644	827.15
437.02	826.02
437.395	835.29
437.77	833.71
438.145	895.4
438.52	862.18
438.895	879.81
439.271	862.86
439.646	864.67
440.021	887.26
440.395	923.65
440.77	892.01
441.145	915.96
441.52	915.96
441.895	914.38
442.27	935.63
442.645	941.05
443.019	947.38
443.394	955.06
443.769	939.24
444.143	919.81
444.518	984.89
444.892	971.1
445.267	971.1
445.641	972.46
446.016	998.9
446.39	1002.97
446.764	978.56
447.139	1007.26
447.513	1025.34
447.887	1023.76
448.262	1032.35
448.636	1014.72
449.01	1037.32
449.384	1054.49
449.758	1035.28
450.132	1058.56
450.506	1071.67
450.88	1062.18
451.254	1096.75
451.628	1086.36
452.002	1103.08
452.376	1118.9
452.75	1146.47
453.123	1135.39
453.497	1149.86
453.871	1158.44
454.244	1184.21
454.618	1187.82
454.992	1180.14
455.365	1210.42
455.739	1213.58
456.112	1233.24
456.486	1235.73
456.859	1249.74
457.232	1301.49
457.606	1287.93
457.979	1299.91
458.352	1324.09
458.725	1329.97
459.099	1337.42
459.472	1398.44
459.845	1386.23
460.218	1400.7
460.591	1408.16
460.964	1452.45
461.337	1431.88
461.71	1474.82
462.083	1491.54
462.456	1484.54
462.829	1487.7
463.201	1536.06
463.574	1579
463.947	1585.78
464.32	1600.47
464.692	1671.2
465.065	1675.27
465.438	1651.31
465.81	1684.08
466.183	1714.14
466.555	1759.33
466.928	1768.37
467.3	1788.71
467.672	1816.96
468.045	1844.08
468.417	1875.49
468.789	1880.23
469.161	1943.06
469.534	1964.98
469.906	1997.74
470.278	2030.29
470.65	2063.73
471.022	2106.22
471.394	2153.67
471.766	2187.34
472.138	2223.5
472.51	2259.43
472.882	2308.02
473.253	2354.12
473.625	2427.11
473.997	2504.4
474.369	2504.62
474.74	2566.09
475.112	2613.32
475.484	2681.79
475.855	2734.9
476.227	2770.61
476.598	2913.2
476.97	2926.76
477.341	3026.64
477.713	3073.2
478.084	3109.35
478.455	3249.91
478.827	3336.01
479.198	3429.8
479.569	3451.49
479.94	3600.41
480.311	3637.47
480.682	3764.7
481.053	3893.51
481.424	3979.39
481.795	4025.04
482.166	4178.93
482.537	4236.1
482.908	4431.58
483.279	4472.03
483.65	4636.09
484.021	4799.48
484.391	4877.44
484.762	4990.43
485.133	5071.56
485.503	5208.51
485.874	5430.65
486.244	5431.1
486.615	5624.99
486.985	5766.68
487.356	5907.47
487.726	6103.62
488.097	6285.77
488.467	6334.35
488.837	6528.92
489.207	6681.01
489.578	6819.31
489.948	6946.54
490.318	7148.8
490.688	7227.66
491.058	7429.47
491.428	7594.43
491.798	7732.51
492.168	7970.24
492.538	8052.5
492.908	8235.55
493.278	8407.75
493.648	8464.92
494.017	8666.72
494.387	8827.4
494.757	8966.15
495.126	9169.98
495.496	9257.89
495.866	9349.64
496.235	9541.05
496.605	9698.78
496.974	9811.55
497.344	9947.37
497.713	10079.11
498.082	10229.62
498.452	10410.86
498.821	10470.74
499.19	10544.86
499.559	10736.27
499.928	10876.83
500.298	10993.21
500.667	11141.46
501.036	11176.03
501.405	11374.45
501.774	11354.33
502.143	11622.12
502.512	11653.54
502.88	11822.34
503.249	11796.81
503.618	11879.52
503.987	12074.32
504.356	12242.22
504.724	12311.15
505.093	12339.39
505.462	12466.4
505.83	12556.11
506.199	12615.54
506.567	12752.26
506.936	12801.53
507.304	13017.57
507.672	13088.3
508.041	13168.98
508.409	13323.32
508.777	13353.38
509.145	13470.66
509.514	13501.17
509.882	13636.08
510.25	13593.6
510.618	13728.06
510.986	13722.18
511.354	13902.97
511.722	14023.87
512.09	14206.24
512.458	14089.63
512.826	14201.49
513.193	14353.13
513.561	14240.36
513.929	14370.98
514.297	14499.34
514.664	14600.35
515.032	14577.53
515.4	14727.8
515.767	14831.76
516.135	14857.74
516.502	14792.89
516.869	14923.51
517.237	14978.19
517.604	14879.67
517.972	15110.62
518.339	15101.35
518.706	15147
519.073	15192.88
519.44	15248.02
519.808	15364.17
520.175	15357.17
520.542	15548.35
520.909	15584.96
521.276	15518.52
521.643	15681.45
522.009	15734.11
522.376	15705.41
522.743	15784.05
523.11	15918.06
523.477	15993.76
523.843	15993.99
524.21	16132.74
524.577	16205.96
524.943	16133.19
525.31	16285.73
525.676	16286.41
526.043	16295.9
526.409	16401.43
526.776	16444.37
527.142	16412.96
527.508	16522.11
527.874	16574.54
528.241	16548.32
528.607	16573.63
528.973	16654.53
529.339	16652.05
529.705	16743.12
530.071	16829.22
530.437	16842.55
530.803	16921.87
531.169	16889.33
531.535	16807.52
531.901	16757.58
532.267	16893.85
532.632	16867.41
532.998	16895.66
533.364	16897.69
533.73	16826.51
534.095	16975.66
534.461	16951.7
534.826	16876
535.192	16986.95
535.557	17083.68
535.923	16996.9
536.288	16824.02
536.653	16891.59
537.019	16893.85
537.384	16866.96
537.749	16922.78
538.114	16843
538.479	16841.65
538.845	16816.79
539.21	16683.23
539.575	16698.37
539.94	16716.91
540.305	16850.01
540.67	16664.03
541.034	16725.04
541.399	16686.62
541.764	16626.51
542.129	16676.45
542.494	16622.9
542.858	16638.26
543.223	16666.06
543.587	16654.31
543.952	16456.12
544.316	16487.76
544.681	16473.97
545.045	16435.1
545.41	16464.93
545.774	16418.83
546.138	16337.25
546.503	16341.1
546.867	16367.08
547.231	16304.26
547.595	16373.64
547.959	16260.65
548.324	16229.01
548.688	16200.08
549.052	16178.39
549.416	16218.84
549.779	16095.68
550.143	16111.27
550.507	16174.77
550.871	16059.97
551.235	16013.87
551.599	16113.98
551.962	16043.25
552.326	16054.32
552.689	16085.74
553.053	15914.67
553.417	15842.8
553.78	16074.89
554.143	15936.81
554.507	15925.29
554.87	15897.04
555.234	16013.42
555.597	15832.18
555.96	15895.68
556.323	15810.26
556.686	15827.21
557.05	16039.18
557.413	15897.94
557.776	15899.98
558.139	15938.62
558.502	15970.71
558.865	15860.2
559.228	15878.96
559.59	15909.24
559.953	15907.66
560.316	16030.82
560.679	16038.05
561.041	15992.4
561.404	15968.68
561.767	16033.31
562.129	15982.24
562.492	15972.07
562.854	15933.65
563.217	15895.23
563.579	16056.36
563.941	16041.44
564.304	16068.33
564.666	16108.33
565.028	16067.88
565.39	16111.05
565.753	16170.7
566.115	16205.28
566.477	16192.85
566.839	16151.72
567.201	16244.83
567.563	16246.63
567.925	16339.29
568.287	16259.74
568.648	16280.98
569.01	16400.08
569.372	16537.02
569.734	16371.15
570.095	16386.52
570.457	16481.88
570.819	16520.75
571.18	16434.88
571.542	16449.34
571.903	16474.2
572.265	16585.61
572.626	16534.99
572.987	16501.77
573.349	16581.77
573.71	16641.2
574.071	16633.52
574.432	16586.06
574.794	16627.64
575.155	16599.39
575.516	16533.63
575.877	16624.03
576.238	16618.15
576.599	16690.92
576.96	16682.1
577.32	16674.42
577.681	16794.19
578.042	16781.76
578.403	16785.83
578.763	16751.48
579.124	16766.85
579.485	16855.88
579.845	16810.69
580.206	16744.47
580.566	16696.57
580.927	16730.69
581.287	16850.23
581.648	16727.07
582.008	16745.38
582.368	16787.86
582.728	16758.71
583.089	16726.85
583.449	16733.85
583.809	16809.78
584.169	16800.97
584.529	16702.67
584.889	16702.89
585.249	16746.28
585.609	16627.42
585.969	16715.1
586.329	16657.7
586.688	16718.26
587.048	16634.42
587.408	16628.09
587.768	16644.36
588.127	16544.25
588.487	16566.85
588.846	16668.32
589.206	16569.79
589.565	16633.29
589.925	16554.2
590.284	16552.16
590.643	16496.12
591.003	16554.42
591.362	16564.14
591.721	16526.4
592.08	16524.59
592.44	16561.2
592.799	16568.21
593.158	16513.29
593.517	16499.51
593.876	16549.9
594.235	16450.92
594.593	16465.39
594.952	16539.73
595.311	16446.18
595.67	16478.72
596.029	16537.02
596.387	16522.56
596.746	16502.9
597.104	16412.28
597.463	16412.96
597.822	16503.58
598.18	16352.39
598.538	16350.36
598.897	16471.49
599.255	16340.42
599.613	16509.68
599.972	16370.47
600.33	16504.93
600.688	16366.18
601.046	16418.38
601.404	16543.8
601.762	16409.12
602.12	16539.06
602.478	16475.1
602.836	16542.9
603.194	16426.29
603.552	16432.62
603.91	16376.35
604.268	16401.66
604.625	16377.03
604.983	16482.56
605.341	16406.4
605.698	16542.9
606.056	16513.07
606.413	16500.41
606.771	16552.16
607.128	16522.56
607.485	16419.51
607.843	16477.82
608.2	16434.2
608.557	16675.32
608.914	16501.09
609.272	16640.75
609.629	16607.76
609.986	16664.25
610.343	16514.65
610.7	16581.54
611.057	16585.38
611.414	16569.79
611.771	16625.16
612.127	16741.76
612.484	16669.67
612.841	16734.31
613.198	16716.91
613.554	16647.08
613.911	16810.46
614.267	16741.99
614.624	16639.62
614.98	16704.02
615.337	16852.27
615.693	16820.41
616.05	16843
616.406	16864.92
616.762	16890.91
617.118	16714.42
617.475	16806.39
617.831	16861.76
618.187	16895.66
618.543	16907.86
618.899	16942.44
619.255	16909.67
619.611	16924.81
619.967	16996.9
620.323	16925.49
620.678	16928.42
621.034	16916
621.39	16887.52
621.746	16879.61
622.101	17031.93
622.457	16868.31
622.812	16975.43
623.168	17022.21
623.523	17024.92
623.879	17050.91
624.234	16899.27
624.589	16934.98
624.945	16940.63
625.3	17003.9
625.655	16939.27
626.01	16966.16
626.365	16933.4
626.72	17008.42
627.075	16953.06
627.43	16898.6
627.785	16866.51
628.14	17013.17
628.495	17024.92
628.85	16930.46
629.205	16791.25
629.559	17025.37
629.914	16778.82
630.269	16955.99
630.623	16912.38
630.978	16795.55
631.332	16848.43
631.687	16784.02
632.041	16850.91
632.396	16734.76
632.75	16735.21
633.104	16669
633.459	16651.82
633.813	16725.94
634.167	16656.57
634.521	16674.65
634.875	16645.72
635.229	16618.15
635.583	16531.83
635.937	16583.8
636.291	16560.98
636.645	16558.27
636.999	16530.47
637.352	16586.51
637.706	16501.77
638.06	16495.44
638.413	16431.94
638.767	16485.72
639.121	16436.46
639.474	16242.57
639.828	16377.93
640.181	16350.36
640.534	16403.47
640.888	16325.5
641.241	16280.31
641.594	16318.72
641.947	16316.46
642.301	16342.68
642.654	16308.33
643.007	16294.54
643.36	16353.3
643.713	16166.64
644.066	16249.57
644.419	16184.49
644.771	16065.85
645.124	16002.8
645.477	15976.36
645.83	15754.22
646.182	15852.97
646.535	15699.98
646.888	15754.22
647.24	15600.78
647.593	15685.52
647.945	15677.38
648.298	15667.67
648.65	15454.34
649.002	15448.46
649.355	15677.84
649.707	15715.12
650.059	15795.12
650.411	15930.26
650.763	15951.28
651.115	16052.52
651.467	16033.99
651.819	15978.85
652.171	16037.6
652.523	15953.31
652.875	15972.29
653.227	15901.56
653.578	16003.25
653.93	15975.23
654.282	15891.62
654.633	15954.21
654.985	15926.64
655.337	15966.42
655.688	16028.79
656.039	15964.61
656.391	15964.83
656.742	15938.17
657.094	15884.38
657.445	15997.6
657.796	16021.1
658.147	16005.06
658.498	15951.28
658.849	16074.21
659.2	16117.15
659.551	15987.66
659.902	16092.06
660.253	16108.56
660.604	16137.49
660.955	16007.09
661.306	15992.86
661.656	15961.67
662.007	16079.86
662.358	15987.88
662.708	15990.6
663.059	16036.25
663.409	15800.54
663.76	16043.7
664.11	16098.62
664.461	16024.49
664.811	16071.95
665.161	16061.56
665.511	16018.17
665.862	16063.59
666.212	16090.03
666.562	16022.23
666.912	16064.04
667.262	16168.22
667.612	16028.11
667.962	16008.9
668.312	16000.54
668.662	16111.95
669.011	16074.44
669.361	15987.21
669.711	15998.51
670.06	15976.36
670.41	15932.97
670.76	15890.26
671.109	15982.91
671.459	15929.13
671.808	15890.03
672.157	15978.39
672.507	15929.13
672.856	15900.88
673.205	15849.81
673.554	15991.5
673.904	15859.75
674.253	15967.77
674.602	15888.23
674.951	15636.03
675.3	15599.42
675.649	15799.64
675.998	15810.04
676.346	15732.98
676.695	15916.25
677.044	15695.46
677.393	15787.89
677.741	15845.29
678.09	15809.13
678.438	15806.19
678.787	15645.75
679.135	15648.46
679.484	15635.35
679.832	15612.98
680.181	15505.41
680.529	15593.09
680.877	15445.98
681.225	15513.09
681.573	15580.89
681.922	15432.19
682.27	15422.02
682.618	15409.14
682.966	15398.3
683.314	15357.17
683.661	15262.25
684.009	15256.6
684.357	15200.79
684.705	15256.6
685.053	15209.6
685.4	15144.29
685.748	15094.35
686.095	15119.21
686.443	15063.62
686.79	15009.38
687.138	15062.03
687.485	14947.91
687.832	14943.84
688.18	14928.48
688.527	14870.17
688.874	14824.3
689.221	14866.33
689.568	14707.92
689.915	14715.15
690.262	14690.52
690.609	14634.93
690.956	14599.9
691.303	14568.94
691.65	14503.18
691.997	14480.35
692.344	14380.24
692.69	14349.74
693.037	14333.92
693.383	14172.57
693.73	14261.15
694.077	14189.06
694.423	14159.01
694.769	14143.41
695.116	14119.23
695.462	14001.27
695.808	13916.53
696.155	13956.53
696.501	13794.5
696.847	13884.89
697.193	13732.8
697.539	13754.72
697.885	13613.03
698.231	13629.08
698.577	13637.44
698.923	13596.76
699.269	13509.31
699.614	13455.07
699.96	13372.81
700.306	13395.86
700.651	13298.46
700.997	13278.35
701.342	13269.54
701.688	13248.07
702.033	13220.27
702.379	13133.27
702.724	13047.85
703.069	13064.8
703.415	12922.88
703.76	12917.91
704.105	12890.57
704.45	12968.08
704.795	12827.97
705.14	12721.76
705.485	12740.06
705.83	12679.95
706.175	12548.88
706.52	12550.91
706.865	12577.13
707.209	12539.84
707.554	12511.37
707.899	12501.2
708.243	12496.45
708.588	12379.17
708.932	12178.27
709.277	12333.29
709.621	12307.53
709.966	12174.65
710.31	12132.84
710.654	12084.94
710.998	12113.18
711.342	12102.34
711.687	12010.59
712.031	12001.77
712.375	11957.93
712.719	11987.09
713.063	11991.61
713.407	11928.78
713.75	11862.34
714.094	11948.67
714.438	11734.89
714.782	11811.5
715.125	11740.31
715.469	11755.45
715.812	11702.12
716.156	11737.15
716.499	11619.19
716.843	11694.89
717.186	11648.11
717.53	11693.99
717.873	11627.32
718.216	11642.24
718.559	11595.01
718.902	11568.57
719.246	11603.82
719.589	11500.77
719.932	11522.01
720.275	11491.96
720.617	11527.44
720.96	11475.01
721.303	11487.89
721.646	11425.52
721.989	11396.14
722.331	11351.17
722.674	11373.54
723.016	11367.89
723.359	11371.28
723.701	11300.78
724.044	11265.75
724.386	11159.31
724.729	11317.05
725.071	11279.76
725.413	11248.57
725.755	11265.07
726.097	11223.49
726.439	11159.76
726.782	11146.2
727.124	11268.46
727.465	11134.45
727.807	11205.64
728.149	11157.05
728.491	11184.17
728.833	11181.01
729.175	11123.38
729.516	11120.67
729.858	11104.4
730.199	11181.46
730.541	11098.07
730.882	11148.24
731.224	11124.51
731.565	11041.8
731.906	11140.33
732.248	11109.59
732.589	11126.32
732.93	11032.99
733.271	11040.44
733.612	11047
733.953	11085.41
734.294	11024.17
734.635	11092.19
734.976	11091.97
735.317	11025.3
735.658	11080.44
735.999	11091.06
736.339	11056.94
736.68	11093.55
737.021	11112.08
737.361	11113.89
737.702	11131.06
738.042	11045.87
738.383	11106.43
738.723	11110.95
739.063	11092.19
739.404	11193.89
739.744	11125.87
740.084	11136.71
740.424	11099.43
740.764	11238.41
741.104	11181.68
741.444	11122.7
741.784	11190.04
742.124	11220.78
742.464	11295.58
742.804	11246.77
743.143	11241.12
743.483	11336.48
743.823	11165.19
744.162	11361.34
744.502	11301.91
744.841	11323.37
745.181	11378.97
745.52	11392.75
745.86	11525.18
746.199	11491.28
746.538	11530.6
746.877	11650.82
747.216	11673.65
747.556	11696.92
747.895	11762.69
748.234	11719.75
748.573	11911.61
748.911	11916.58
749.25	11949.35
749.589	11966.75
749.928	12081.55
750.267	12194.54
750.605	12237.7
750.944	12255.1
751.283	12322.9
751.621	12552.27
751.96	12531.7
752.298	12691.47
752.636	12815.76
752.975	12810.79
753.313	12927.63
753.651	13120.16
753.989	13055.31
754.327	13220.27
754.666	13334.4
755.004	13489.19
755.342	13592.47
755.679	13820.48
