Data from hue_120_FLMS001491_00068.txt Node
Date: Tue Feb 07 16:59:50 GMT 2017
User: dcchb
Spectrometer: FLMS00149
Trigger mode: 0
Integration Time (sec): 2.000000E-2
Scans to average: 10
Electric dark correction enabled: true
Nonlinearity correction enabled: false
Boxcar width: 0
XAxis mode: Wavelengths
Number of Pixels in Spectrum: 2048
>>>>>Begin Spectral Data<<<<<
341.393	-0.01
341.776	-0.01
342.16	-0.01
342.543	-46.34
342.927	-60.8
343.31	-59.22
343.693	-71.2
344.077	-67.13
344.46	-56.96
344.843	-33.01
345.226	-68.03
345.61	-28.71
345.993	-20.13
346.376	-6.79
346.759	4.28
347.142	21.23
347.525	40.44
347.908	68.91
348.291	69.36
348.674	81.11
349.057	125.86
349.44	136.71
349.823	149.36
350.206	162.24
350.588	199.08
350.971	223.48
351.354	226.42
351.737	262.58
352.119	302.8
352.502	268.91
352.884	303.25
353.267	287.21
353.65	285.63
354.032	301.22
354.414	320.66
354.797	323.82
355.179	317.72
355.562	321.56
355.944	326.53
356.326	316.36
356.709	341.9
357.091	350.71
357.473	338.96
357.855	346.64
358.238	351.62
358.62	358.17
359.002	367.43
359.384	366.53
359.766	354.78
360.148	337.83
360.53	342.8
360.912	347.55
361.294	335.34
361.676	328.34
362.057	347.55
362.439	342.8
362.821	353.42
363.203	350.49
363.584	340.99
363.966	334.44
364.348	325.4
364.729	326.76
365.111	312.29
365.493	339.19
365.874	336.25
366.256	332.86
366.637	321.33
367.019	315.68
367.4	317.27
367.781	305.97
368.163	324.72
368.544	339.64
368.925	303.48
369.306	345.74
369.688	315.68
370.069	319.53
370.45	330.82
370.831	344.16
371.212	317.04
371.593	331.95
371.974	311.84
372.355	323.59
372.736	332.41
373.117	334.67
373.498	335.34
373.879	323.82
374.26	319.53
374.641	320.66
375.021	332.86
375.402	336.93
375.783	343.71
376.163	355.23
376.544	340.32
376.925	323.37
377.305	345.51
377.686	322.01
378.066	333.08
378.447	323.82
378.827	338.06
379.208	324.05
379.588	336.02
379.968	339.64
380.349	341.9
380.729	337.83
381.109	368.79
381.489	351.84
381.87	356.59
382.25	352.97
382.63	336.02
383.01	348.23
383.39	343.48
383.77	346.87
384.15	366.53
384.53	381.67
384.91	356.36
385.29	385.96
385.67	332.41
386.049	370.37
386.429	362.69
386.809	377.38
387.189	371.28
387.568	356.59
387.948	377.38
388.328	369.02
388.707	365.4
389.087	375.57
389.466	378.96
389.846	390.48
390.225	389.35
390.605	379.64
390.984	381.44
391.363	377.6
391.743	386.87
392.122	397.26
392.501	397.04
392.881	384.83
393.26	396.36
393.639	393.65
394.018	412.63
394.397	404.04
394.776	410.14
395.155	409.69
395.534	419.86
395.913	423.7
396.292	410.82
396.671	407.21
397.05	403.37
397.429	391.39
397.808	411.73
398.186	423.25
398.565	414.66
398.944	403.82
399.323	418.51
399.701	429.81
400.08	441.56
400.458	433.42
400.837	423.48
401.215	414.21
401.594	438.39
401.972	435.91
402.351	431.84
402.729	433.42
403.107	412.86
403.486	435.45
403.864	434.78
404.242	463.7
404.62	437.26
404.999	465.06
405.377	445.62
405.755	464.15
406.133	442.91
406.511	460.09
406.889	469.35
407.267	460.76
407.645	461.67
408.023	491.05
408.401	480.2
408.779	500.76
409.156	491.27
409.534	497.83
409.912	478.62
410.29	483.81
410.667	499.41
411.045	500.76
411.422	512.06
411.8	516.58
412.178	504.83
412.555	524.49
412.933	512.06
413.31	536.47
413.687	533.31
414.065	541.67
414.442	545.51
414.819	557.26
415.197	538.95
415.574	547.09
415.951	543.47
416.328	558.16
416.705	551.84
417.082	567.43
417.46	564.72
417.837	578.5
418.214	565.39
418.591	578.73
418.967	570.14
419.344	566.75
419.721	610.82
420.098	594.32
420.475	593.42
420.852	600.87
421.228	612.4
421.605	597.03
421.982	620.76
422.358	617.6
422.735	605.62
423.111	591.16
423.488	624.6
423.864	623.47
424.241	645.17
424.617	645.62
424.994	626.64
425.37	640.42
425.746	651.04
426.123	666.64
426.499	659.18
426.875	656.24
427.251	669.57
427.627	683.81
428.003	678.39
428.379	701.21
428.756	691.04
429.132	686.97
429.507	696.46
429.883	709.57
430.259	719.06
430.635	725.16
431.011	745.28
431.387	737.37
431.763	759.51
432.138	765.39
432.514	746.41
432.89	774.88
433.265	767.42
433.641	779.85
434.016	785.05
434.392	770.36
434.767	789.8
435.143	787.54
435.518	835.9
435.894	809.23
436.269	828.44
436.644	845.61
437.02	859.17
437.395	847.87
437.77	839.51
438.145	857.82
438.52	879.06
438.895	887.87
439.271	889.45
439.646	900.98
440.021	911.6
440.395	901.88
440.77	911.15
441.145	908.44
441.52	915.89
441.895	942.79
442.27	925.84
442.645	967.42
443.019	935.55
443.394	951.6
443.769	962.67
444.143	967.19
444.518	969.68
444.892	963.35
445.267	978.72
445.641	987.98
446.016	976.91
446.39	1005.16
446.764	989.34
447.139	1009.68
447.513	1016.46
447.887	1036.57
448.262	1032.05
448.636	1062.33
449.01	1025.72
449.384	1054.87
449.758	1067.53
450.132	1083.8
450.506	1065.04
450.88	1096.91
451.254	1089.22
451.628	1105.49
452.002	1086.28
452.376	1136.23
452.75	1129.45
453.123	1144.14
453.497	1161.76
453.871	1154.08
454.244	1168.77
454.618	1175.32
454.992	1211.71
455.365	1226.39
455.739	1216.68
456.112	1245.83
456.486	1263
456.859	1269.33
457.232	1288.99
457.606	1332.15
457.979	1329.44
458.352	1318.6
458.725	1370.12
459.099	1351.81
459.472	1388.42
459.845	1369.67
460.218	1411.7
460.591	1436.78
460.964	1422.77
461.337	1464.81
461.71	1493.51
462.083	1516.56
462.456	1484.47
462.829	1510.91
463.201	1532.37
463.574	1556.33
463.947	1566.27
464.32	1596.55
464.692	1628.42
465.065	1631.81
465.438	1669.77
465.81	1691.24
466.183	1702.09
466.555	1768.3
466.928	1762.2
467.3	1775.08
467.672	1779.15
468.045	1822.76
468.417	1862.31
468.789	1890.56
469.161	1911.12
469.534	1952.7
469.906	2020.95
470.278	1992.02
470.65	2052.59
471.022	2079.25
471.394	2161.74
471.766	2178.46
472.138	2205.35
472.51	2276.99
472.882	2308.4
473.253	2357.89
473.625	2376.87
473.997	2464.1
474.369	2503.65
474.74	2533.25
475.112	2599.69
475.484	2657.77
475.855	2741.16
476.227	2802.17
476.598	2849.18
476.97	2916.75
477.341	3016.63
477.713	3076.06
478.084	3130.07
478.455	3218.43
478.827	3266.79
479.198	3398.77
479.569	3489.84
479.94	3574.36
480.311	3624.3
480.682	3772.09
481.053	3887.12
481.424	4001.01
481.795	4079.43
482.166	4189.93
482.537	4283.49
482.908	4431.96
483.279	4461.79
483.65	4610.03
484.021	4768.67
484.391	4853.64
484.762	4982.68
485.133	5078.5
485.503	5195.1
485.874	5391.48
486.244	5435.32
486.615	5590.57
486.985	5765.71
487.356	5896.1
487.726	6016.78
488.097	6178.13
488.467	6307.62
488.837	6490.89
489.207	6639.81
489.578	6762.07
489.948	6905.57
490.318	7064.21
490.688	7176.29
491.058	7373.8
491.428	7515.04
491.798	7695.38
492.168	7897.18
492.538	8007.01
492.908	8096.72
493.278	8325.87
493.648	8427.56
494.017	8596.6
494.387	8797.72
494.757	8871.17
495.126	9046.53
495.496	9154.32
495.866	9320.87
496.235	9445.84
496.605	9611.26
496.974	9686.96
497.344	9834.53
497.713	10016.22
498.082	10104.8
498.452	10280.39
498.821	10326.72
499.19	10375.31
499.559	10586.15
499.928	10709.99
500.298	10878.34
500.667	11028.17
501.036	11062.75
501.405	11269.97
501.774	11281.27
502.143	11384.09
502.512	11512.45
502.88	11684.88
503.249	11656.85
503.618	11854.14
503.987	11900.69
504.356	12076.73
504.724	12073.79
505.093	12139.33
505.462	12312.43
505.83	12392.88
506.199	12478.53
506.567	12737.96
506.936	12676.71
507.304	12717.62
507.672	12914.67
508.041	12955.58
508.409	13063.15
508.777	13215.01
509.145	13226.53
509.514	13236.47
509.882	13398.05
510.25	13404.38
510.618	13455.68
510.986	13571.15
511.354	13649.57
511.722	13771.83
512.09	13881.88
512.458	13870.36
512.826	13960.75
513.193	14057.47
513.561	14101.99
513.929	14197.13
514.297	14306.28
514.664	14337.46
515.032	14332.26
515.4	14492.26
515.767	14515.31
516.135	14494.97
516.502	14506.05
516.869	14726.6
517.237	14623.1
517.604	14610.45
517.972	14756.66
518.339	14863.55
518.706	14847.96
519.073	14931.12
519.44	14939.48
519.808	15063.32
520.175	14994.62
520.542	15199.36
520.909	15243.43
521.276	15187.61
521.643	15306.93
522.009	15338.34
522.376	15433.48
522.743	15401.61
523.11	15539.01
523.477	15632.34
523.843	15616.52
524.21	15783.98
524.577	15899
524.943	15770.19
525.31	15903.07
525.676	15975.16
526.043	15992.56
526.409	15990.07
526.776	16146.23
527.142	16094.93
527.508	16088.6
527.874	16224.42
528.241	16228.49
528.607	16169.5
528.973	16295.83
529.339	16221.93
529.705	16354.81
530.071	16389.16
530.437	16427.12
530.803	16373.11
531.169	16426.22
531.535	16364.3
531.901	16268.71
532.267	16395.94
532.632	16434.81
532.998	16326.34
533.364	16309.39
533.73	16466.67
534.095	16503.05
534.461	16464.41
534.826	16435.49
535.192	16473
535.557	16518.87
535.923	16455.15
536.288	16435.03
536.653	16422.15
537.019	16306
537.384	16342.83
537.749	16392.78
538.114	16316.17
538.479	16237.3
538.845	16363.17
539.21	16185.77
539.575	16262.61
539.94	16160.46
540.305	16289.73
540.67	16153.69
541.034	16155.72
541.399	16118.21
541.764	16099.68
542.129	16180.8
542.494	16140.13
542.858	16096.29
543.223	16035.95
543.587	16029.62
543.952	15955.05
544.316	15934.93
544.681	15900.13
545.045	15981.49
545.41	15951.2
545.774	15874.82
546.138	15836.63
546.503	15870.08
546.867	15716.41
547.231	15747.59
547.595	15730.19
547.959	15748.5
548.324	15678.67
548.688	15599.12
549.052	15635.96
549.416	15755.73
549.779	15558.67
550.143	15575.4
550.507	15608.84
550.871	15491.78
551.235	15415.85
551.599	15570.42
551.962	15516.19
552.326	15472.35
552.689	15402.74
553.053	15348.96
553.417	15337.89
553.78	15493.82
554.143	15358.45
554.507	15297.44
554.87	15394.61
555.234	15441.39
555.597	15241.39
555.96	15298.57
556.323	15352.58
556.686	15316.19
557.05	15338.34
557.413	15265.35
557.776	15238.23
558.139	15410.65
558.502	15246.14
558.865	15299.92
559.228	15383.08
559.59	15355.97
559.953	15254.27
560.316	15411.56
560.679	15356.87
561.041	15345.12
561.404	15345.8
561.767	15449.3
562.129	15323.42
562.492	15450.65
562.854	15375.17
563.217	15407.72
563.579	15451.33
563.941	15423.08
564.304	15412.24
564.666	15440.71
565.028	15581.5
565.39	15475.74
565.753	15570.42
566.115	15539.92
566.477	15586.24
566.839	15638.67
567.201	15670.53
567.563	15636.18
567.925	15729.29
568.287	15631.21
568.648	15733.36
569.01	15765.9
569.372	15798.67
569.734	15780.14
570.095	15813.36
570.457	15803.41
570.819	15795.73
571.18	15712.79
571.542	15873.24
571.903	15826.46
572.265	15908.27
572.626	15914.37
572.987	15870.98
573.349	15864.65
573.71	15893.35
574.071	15967.93
574.432	15947.82
574.794	16062.84
575.155	16019
575.516	15987.59
575.877	16025.55
576.238	16040.24
576.599	16128.83
576.96	16037.98
577.32	16059.45
577.681	16016.97
578.042	16079.11
578.403	16133.12
578.763	16102.84
579.124	16189.62
579.485	16210.86
579.845	16109.84
580.206	16082.05
580.566	16043.41
580.927	16123.63
581.287	16190.97
581.648	16049.06
582.008	16142.61
582.368	16093.57
582.728	16089.96
583.089	16071.88
583.449	16023.07
583.809	16058.09
584.169	16047.93
584.529	15981.26
584.889	16134.93
585.249	16048.6
585.609	15909.4
585.969	16074.59
586.329	16023.52
586.688	15952.11
587.048	15961.83
587.408	15970.64
587.768	15985.33
588.127	15920.02
588.487	15889.06
588.846	16059.45
589.206	15895.61
589.565	15891.32
589.925	15974.26
590.284	15877.31
590.643	16041.82
591.003	15969.06
591.362	16028.94
591.721	15911.66
592.08	15902.39
592.44	15911.66
592.799	15956.18
593.158	15890.87
593.517	15868.5
593.876	15938.32
594.235	15915.73
594.593	15834.37
594.952	15750.31
595.311	15831.43
595.67	15853.35
596.029	15889.96
596.387	15932.45
596.746	15844.54
597.104	15754.6
597.463	15816.52
597.822	15815.84
598.18	15824.88
598.538	15879.79
598.897	15864.65
599.255	15654.49
599.613	15909.62
599.972	15791.89
600.33	15786.92
600.688	15743.98
601.046	15865.11
601.404	15964.09
601.762	15868.27
602.12	15874.37
602.478	15962.28
602.836	16004.08
603.194	15851.55
603.552	15799.8
603.91	15779.46
604.268	15822.62
604.625	15838.44
604.983	15908.04
605.341	15718.67
605.698	15836.63
606.056	15899
606.413	15837.31
606.771	15929.06
607.128	15954.37
607.485	15790.76
607.843	15892.45
608.2	15925.44
608.557	16040.02
608.914	15919.57
609.272	15961.15
609.629	16075.04
609.986	16067.13
610.343	15973.8
610.7	16099.22
611.057	16031.43
611.414	16077.98
611.771	16070.52
612.127	16079.11
612.484	16042.28
612.841	16190.52
613.198	15986.01
613.554	16063.29
613.911	16136.51
614.267	16119.11
614.624	16148.49
614.98	16111.88
615.337	16129.73
615.693	16144.19
616.05	16113.46
616.406	16304.87
616.762	16180.8
617.118	16220.58
617.475	16209.5
617.831	16240.24
618.187	16217.86
618.543	16263.74
618.899	16276.62
619.255	16296.73
619.611	16241.14
619.967	16383.51
620.323	16420.35
620.678	16335.6
621.034	16301.93
621.39	16324.75
621.746	16234.81
622.101	16516.39
622.457	16311.2
622.812	16313.46
623.168	16430.51
623.523	16358.2
623.879	16376.73
624.234	16189.16
624.589	16384.64
624.945	16354.36
625.3	16358.88
625.655	16331.99
626.01	16311.87
626.365	16329.5
626.72	16260.12
627.075	16304.87
627.43	16308.71
627.785	16439.1
628.14	16410.18
628.495	16378.76
628.85	16343.74
629.205	16290.4
629.559	16259.45
629.914	16304.42
630.269	16254.93
630.623	16307.35
630.978	16215.15
631.332	16338.54
631.687	16306.45
632.041	16237.75
632.396	16183.29
632.75	16157.98
633.104	16201.37
633.459	16088.83
633.813	16029.39
634.167	16039.79
634.521	16078.21
634.875	16121.37
635.229	15983.75
635.583	15967.93
635.937	15962.96
636.291	15885.22
636.645	15976.97
636.999	15950.3
637.352	15926.8
637.706	15869.85
638.06	15843.41
638.413	15860.36
638.767	15871.43
639.121	15805.67
639.474	15795.73
639.828	15793.02
640.181	15840.25
640.534	15812.23
640.888	15767.03
641.241	15649.74
641.594	15635.51
641.947	15773.36
642.301	15712.34
642.654	15660.82
643.007	15693.13
643.36	15690.42
643.713	15746.69
644.066	15633.93
644.419	15595.06
644.771	15546.7
645.124	15342.41
645.477	15438.22
645.83	15292.47
646.182	15176.54
646.535	15248.17
646.888	15090.44
647.24	15065.8
647.593	15115.29
647.945	15055.64
648.298	15071.91
648.65	15065.58
649.002	14946.71
649.355	15131.79
649.707	15041.4
650.059	15111.23
650.411	15370.88
650.763	15376.98
651.115	15545.57
651.467	15483.42
651.819	15491.56
652.171	15360.03
652.523	15469.64
652.875	15393.93
653.227	15410.65
653.578	15488.62
653.93	15493.82
654.282	15340.83
654.633	15411.56
654.985	15425.12
655.337	15342.41
655.688	15378.56
656.039	15475.51
656.391	15373.59
656.742	15466.7
657.094	15444.78
657.445	15491.78
657.796	15416.98
658.147	15449.98
658.498	15422.63
658.849	15416.98
659.2	15409.75
659.551	15426.7
659.902	15486.81
660.253	15403.2
660.604	15477.09
660.955	15401.61
661.306	15402.07
661.656	15427.83
662.007	15446.59
662.358	15380.6
662.708	15461.27
663.059	15415.85
663.409	15338.34
663.76	15447.04
664.11	15526.81
664.461	15385.8
664.811	15495.62
665.161	15373.37
665.511	15348.73
665.862	15453.36
666.212	15511.89
666.562	15555.74
666.912	15462.18
667.262	15439.58
667.612	15461.95
667.962	15359.81
668.312	15445.68
668.662	15561.84
669.011	15501.27
669.361	15435.51
669.711	15424.44
670.06	15388.73
670.41	15426.02
670.76	15372.24
671.109	15418.56
671.459	15406.36
671.808	15399.58
672.157	15473.48
672.507	15366.14
672.856	15318.68
673.205	15274.61
673.554	15391.9
673.904	15258.12
674.253	15330.2
674.602	15241.39
674.951	15108.74
675.3	14943.55
675.649	15220.15
675.998	15244.56
676.346	15305.8
676.695	15220.83
677.044	15134.73
677.393	15142.64
677.741	15199.59
678.09	15066.26
678.438	15088.18
678.787	15064.9
679.135	15153.26
679.484	14948.07
679.832	15081.4
680.181	15021.06
680.529	14930.67
680.877	14906.26
681.225	14900.39
681.573	15018.8
681.922	14959.14
682.27	14858.35
682.618	14820.16
682.966	14828.75
683.314	14875.98
683.661	14799.82
684.009	14765.02
684.357	14730.22
684.705	14771.12
685.053	14799.14
685.4	14633.27
685.748	14454.52
686.095	14584.24
686.443	14461.07
686.79	14483.9
687.138	14547.85
687.485	14523.22
687.832	14468.98
688.18	14443.67
688.527	14314.86
688.874	14220.63
689.221	14227.41
689.568	14192.16
689.915	14179.05
690.262	14120.52
690.609	14135.43
690.956	14033.97
691.303	14064.25
691.65	13903.35
691.997	13948.32
692.344	13967.3
692.69	13784.71
693.037	13814.09
693.383	13716.91
693.73	13695.67
694.077	13687.76
694.423	13685.05
694.769	13662.23
695.116	13596.24
695.462	13572.06
695.808	13539.74
696.155	13561.21
696.501	13422.23
696.847	13374.32
697.193	13419.07
697.539	13412.06
697.885	13318.28
698.231	13243.71
698.577	13228.56
698.923	13173.2
699.269	13078.74
699.614	13017.27
699.96	13002.36
700.306	13015.01
700.651	12848.91
700.997	12822.7
701.342	12781.57
701.688	12753.77
702.033	12699.09
702.379	12718.3
702.724	12606.43
703.069	12693.89
703.415	12445.76
703.76	12464.06
704.105	12429.26
704.45	12446.66
704.795	12324.86
705.14	12323.5
705.485	12362.15
705.83	12233.79
706.175	12179.1
706.52	12134.81
706.865	12137.07
707.209	12130.51
707.554	12127.12
707.899	12145.2
708.243	11987.69
708.588	11931.2
708.932	11893.68
709.277	11890.52
709.621	11823.18
709.966	11768.72
710.31	11810.3
710.654	11694.82
710.998	11734.82
711.342	11722.16
711.687	11757.64
712.031	11643.97
712.375	11641.71
712.719	11606.01
713.063	11606.91
713.407	11630.64
713.75	11524.88
714.094	11586.12
714.438	11484.88
714.782	11435.39
715.125	11431.1
715.469	11428.39
715.812	11374.15
716.156	11311.1
716.499	11368.5
716.843	11323.98
717.186	11183.42
717.53	11280.82
717.873	11364.43
718.216	11369.63
718.559	11220.93
718.902	11180.71
719.246	11208.73
719.589	11197.88
719.932	11148.62
720.275	11147.94
720.617	11138.22
720.96	11078.34
721.303	11109.98
721.646	11100.26
721.989	11047.15
722.331	11117.89
722.674	11048.73
723.016	11116.53
723.359	11100.03
723.701	11070.2
724.044	10994.27
724.386	10905.01
724.729	10971.22
725.071	10963.77
725.413	10999.24
725.755	10974.61
726.097	10867.72
726.439	10933.71
726.782	10856.2
727.124	10897.78
727.465	10811.45
727.807	10883.09
728.149	10864.33
728.491	10743.43
728.833	10880.6
729.175	10802.87
729.516	10796.99
729.858	10792.7
730.199	10815.97
730.541	10769.19
730.882	10775.52
731.224	10757.9
731.565	10756.09
731.906	10727.16
732.248	10820.04
732.589	10721.74
732.93	10696.43
733.271	10797.67
733.612	10795.41
733.953	10702.53
734.294	10716.09
734.635	10803.54
734.976	10798.12
735.317	10686.48
735.658	10768.52
735.999	10736.65
736.339	10723.55
736.68	10787.05
737.021	10771
737.361	10722.64
737.702	10866.59
738.042	10745.24
738.383	10746.37
738.723	10721.74
739.063	10740.04
739.404	10754.96
739.744	10781.85
740.084	10716.99
740.424	10756.77
740.764	10761.96
741.104	10808.74
741.444	10712.7
741.784	10771
742.124	10796.09
742.464	10775.52
742.804	10865.46
743.143	10870.43
743.483	10862.98
743.823	10830.89
744.162	10933.94
744.502	10971
744.841	10983.65
745.181	11071.79
745.52	10998.57
745.86	11121.73
746.199	11140.26
746.538	11241.05
746.877	11225.45
747.216	11288.28
747.556	11319.91
747.895	11372.34
748.234	11341.61
748.573	11491.66
748.911	11495.05
749.25	11498.89
749.589	11628.61
749.928	11701.37
750.267	11769.17
750.605	11836.74
750.944	11942.95
751.283	11973.68
751.621	12095.71
751.96	12157.41
752.298	12250.06
752.636	12377.51
752.975	12455.25
753.313	12529.15
753.651	12717.62
753.989	12709.48
754.327	12850.5
754.666	12890.27
755.004	13044.39
755.342	13267.43
755.679	13337.94
