Data from hue_200_FLMS001491_00006.txt Node
Date: Tue Feb 07 16:42:44 GMT 2017
User: dcchb
Spectrometer: FLMS00149
Trigger mode: 0
Integration Time (sec): 2.000000E-2
Scans to average: 10
Electric dark correction enabled: true
Nonlinearity correction enabled: false
Boxcar width: 0
XAxis mode: Wavelengths
Number of Pixels in Spectrum: 2048
>>>>>Begin Spectral Data<<<<<
341.393	11.27
341.776	11.27
342.16	11.27
342.543	-58.33
342.927	-74.83
343.31	-75.05
343.693	-75.28
344.077	-73.25
344.46	-31.89
344.843	-63.98
345.226	-44.32
345.61	-28.05
345.993	-10.88
346.376	-2.51
346.759	20.99
347.142	18.73
347.525	44.72
347.908	58.28
348.291	67.09
348.674	89.69
349.057	105.73
349.44	133.08
349.823	129.46
350.206	166.52
350.588	202.68
350.971	202.23
351.354	229.8
351.737	240.42
352.119	256.69
352.502	253.98
352.884	263.47
353.267	272.28
353.65	295.33
354.032	317.7
354.414	320.42
354.797	318.16
355.179	319.06
355.562	298.72
355.944	347.53
356.326	340.3
356.709	323.81
357.091	308.66
357.473	342.79
357.855	353.18
358.238	356.35
358.62	347.99
359.002	340.98
359.384	304.37
359.766	332.84
360.148	339.4
360.53	360.19
360.912	344.82
361.294	330.58
361.676	338.95
362.057	323.13
362.439	335.56
362.821	341.21
363.203	340.3
363.584	329.68
363.966	318.83
364.348	335.1
364.729	311.6
365.111	330.81
365.493	314.31
365.874	340.3
366.256	304.82
366.637	312.73
367.019	310.92
367.4	319.29
367.781	312.96
368.163	296.01
368.544	344.82
368.925	320.42
369.306	312.73
369.688	323.58
370.069	317.48
370.45	320.64
370.831	303.01
371.212	343.24
371.593	333.75
371.974	309.79
372.355	314.54
372.736	318.16
373.117	318.83
373.498	326.29
373.879	311.6
374.26	302.34
374.641	312.73
375.021	329.91
375.402	326.97
375.783	299.4
376.163	320.42
376.544	324.26
376.925	338.49
377.305	319.06
377.686	338.72
378.066	331.94
378.447	335.78
378.827	335.33
379.208	315.44
379.588	334.65
379.968	334.2
380.349	336.46
380.729	321.77
381.109	353.41
381.489	351.83
381.87	349.57
382.25	339.85
382.63	360.19
383.01	352.28
383.39	356.57
383.77	343.92
384.15	336.69
384.53	360.41
384.91	360.41
385.29	350.25
385.67	351.83
386.049	357.25
386.429	366.97
386.809	374.88
387.189	343.01
387.568	354.76
387.948	357.93
388.328	388.66
388.707	357.48
389.087	392.73
389.466	373.3
389.846	371.26
390.225	396.8
390.605	355.89
390.984	370.13
391.363	373.07
391.743	379.4
392.122	374.88
392.501	392.73
392.881	380.07
393.26	379.17
393.639	382.56
394.018	402
394.397	403.8
394.776	386.63
395.155	388.44
395.534	410.81
395.913	413.75
396.292	415.33
396.671	417.81
397.05	420.98
397.429	419.62
397.808	413.75
398.186	398.15
398.565	434.08
398.944	425.27
399.323	415.78
399.701	437.02
400.08	439.96
400.458	432.05
400.837	426.63
401.215	430.69
401.594	438.83
401.972	419.85
402.351	445.16
402.729	460.07
403.107	446.29
403.486	470.24
403.864	459.17
404.242	465.27
404.62	481.32
404.999	476.8
405.377	475.67
405.755	488.09
406.133	485.16
406.511	495.33
406.889	494.65
407.267	486.74
407.645	513.63
408.023	514.31
408.401	523.35
408.779	529.9
409.156	535.78
409.534	544.14
409.912	557.02
410.29	564.25
410.667	573.74
411.045	579.62
411.422	580.3
411.8	601.09
412.178	611.71
412.555	617.58
412.933	631.37
413.31	639.28
413.687	652.84
414.065	667.3
414.442	686.06
414.819	663.91
415.197	700.52
415.574	716.79
415.951	722.66
416.328	718.14
416.705	736
417.082	726.96
417.46	746.62
417.837	736.9
418.214	777.13
418.591	778.03
418.967	796.79
419.344	787.97
419.721	813.51
420.098	806.28
420.475	820.52
420.852	861.42
421.228	878.37
421.605	882.43
421.982	894.64
422.358	913.39
422.735	919.72
423.111	929.66
423.488	940.51
423.864	947.52
424.241	981.41
424.617	997.69
424.994	1015.54
425.37	1048.98
425.746	1073.16
426.123	1070.9
426.499	1082.2
426.875	1088.3
427.251	1124.91
427.627	1149.09
428.003	1137.57
428.379	1183.9
428.756	1191.58
429.132	1205.14
429.507	1197.23
429.883	1249.43
430.259	1252.37
430.635	1237.45
431.011	1268.64
431.387	1293.05
431.763	1312.25
432.138	1329.2
432.514	1338.69
432.89	1350.44
433.265	1405.58
433.641	1428.63
434.016	1447.39
434.392	1465.7
434.767	1496.43
435.143	1511.8
435.518	1560.16
435.894	1555.86
436.269	1592.47
436.644	1640.15
437.02	1659.82
437.395	1681.74
437.77	1753.6
438.145	1766.48
438.52	1800.15
438.895	1807.61
439.271	1841.73
439.646	1855.97
440.021	1899.13
440.395	1921.96
440.77	1907.49
441.145	1994.04
441.52	2015.51
441.895	2023.65
442.27	2057.77
442.645	2059.8
443.019	2081.05
443.394	2093.48
443.769	2143.87
444.143	2160.82
444.518	2182.97
444.892	2194.49
445.267	2194.49
445.641	2287.37
446.016	2269.52
446.39	2256.41
446.764	2315.62
447.139	2267.03
447.513	2341.15
447.887	2333.92
448.262	2330.31
448.636	2370.53
449.01	2416.86
449.384	2443.52
449.758	2484.2
450.132	2515.84
450.506	2475.16
450.88	2506.35
451.254	2519
451.628	2559.68
452.002	2594.48
452.376	2622.73
452.75	2647.36
453.123	2628.38
453.497	2721.26
453.871	2723.74
454.244	2759
454.618	2773.01
454.992	2820.69
455.365	2850.97
455.739	2940.46
456.112	2944.08
456.486	2991.76
456.859	2998.99
457.232	3038.08
457.606	3055.71
457.979	3081.02
458.352	3143.17
458.725	3196.95
459.099	3173.9
459.472	3275.14
459.845	3284.63
460.218	3319.88
460.591	3356.27
460.964	3383.61
461.337	3436.04
461.71	3501.12
462.083	3541.35
462.456	3595.58
462.829	3570.95
463.201	3611.63
463.574	3687.11
463.947	3690.27
464.32	3765.52
464.692	3845.29
465.065	3841.23
465.438	3882.58
465.81	3963.71
466.183	3993.54
466.555	4081.67
466.928	4103.82
467.3	4088.9
467.672	4113.99
468.045	4250.03
468.417	4250.48
468.789	4267.88
469.161	4395.56
469.534	4427.65
469.906	4554.88
470.278	4544.26
470.65	4654.54
471.022	4650.7
471.394	4770.92
471.766	4841.88
472.138	4893.18
472.51	4939.05
472.882	5004.81
473.253	5044.13
473.625	5105.6
473.997	5261.53
474.369	5242.09
474.74	5304.24
475.112	5414.74
475.484	5493.39
475.855	5591.69
476.227	5622.87
476.598	5753.94
476.97	5868.29
477.341	5916.43
477.713	6006.37
478.084	5984.22
478.455	6230.99
478.827	6268.06
479.198	6415.85
479.569	6450.88
479.94	6544.43
480.311	6621.72
480.682	6734.94
481.053	6897.87
481.424	6974.48
481.795	7055.61
482.166	7104.64
482.537	7233.91
482.908	7320.91
483.279	7387.57
483.65	7571.07
484.021	7677.74
484.391	7715.02
484.762	7826.21
485.133	7907.79
485.503	7985.3
485.874	8142.13
486.244	8231.62
486.615	8328.57
486.985	8424.83
487.356	8598.39
487.726	8637.03
488.097	8817.37
488.467	8849.46
488.837	9007.19
489.207	9081.54
489.578	9138.26
489.948	9245.83
490.318	9263.91
490.688	9336.45
491.058	9514.52
491.428	9610.34
491.798	9673.16
492.168	9819.37
492.538	9829.32
492.908	9974.4
493.278	10079.48
493.648	10074.51
494.017	10220.95
494.387	10300.72
494.757	10301.17
495.126	10400.15
495.496	10449.41
495.866	10563.31
496.235	10568.28
496.605	10685.79
496.974	10689.18
497.344	10816.86
497.713	10850.53
498.082	10873.13
498.452	10968.27
498.821	10985.45
499.19	10999.46
499.559	11059.57
499.928	11112.67
500.298	11113.35
500.667	11229.96
501.036	11235.83
501.405	11343.4
501.774	11329.39
502.143	11357.41
502.512	11446.45
502.88	11515.6
503.249	11449.16
503.618	11563.28
503.987	11571.87
504.356	11608.03
504.724	11648.25
505.093	11728.48
505.462	11721.02
505.83	11765.09
506.199	11825.88
506.567	11922.6
506.936	11868.13
507.304	11975.25
507.672	12011.18
508.041	12095.47
508.409	12112.42
508.777	12172.99
509.145	12286.2
509.514	12177.96
509.882	12195.58
510.25	12206.43
510.618	12241.68
510.986	12193.32
511.354	12399.42
511.722	12386.09
512.09	12449.36
512.458	12302.47
512.826	12513.32
513.193	12525.74
513.561	12487.1
513.929	12557.83
514.297	12605.29
514.664	12624.05
515.032	12683.71
515.4	12670.37
515.767	12760.54
516.135	12768.22
516.502	12631.5
516.869	12780.88
517.237	12765.96
517.604	12736.13
517.972	12770.03
518.339	12907.2
518.706	12789.47
519.073	12813.42
519.44	12836.02
519.808	12925.73
520.175	12834.44
520.542	12927.09
520.909	12989.91
521.276	12913.76
521.643	13059.52
522.009	13040.53
522.376	13047.54
522.743	13061.55
523.11	13096.58
523.477	13098.61
523.843	13104.49
524.21	13233.3
524.577	13214.77
524.943	13245.5
525.31	13248.66
525.676	13257.48
526.043	13288.89
526.409	13334.31
526.776	13434.87
527.142	13377.93
527.508	13432.84
527.874	13405.72
528.241	13503.8
528.607	13389.9
528.973	13425.83
529.339	13309.45
529.705	13469.22
530.071	13389.68
530.437	13430.35
530.803	13426.96
531.169	13378.38
531.535	13378.83
531.901	13335.44
532.267	13395.78
532.632	13420.86
532.998	13391.03
533.364	13358.04
533.73	13257.02
534.095	13269.45
534.461	13182.45
534.826	13303.58
535.192	13244.14
535.557	13156.91
535.923	13149.91
536.288	13126.41
536.653	13183.58
537.019	13068.1
537.384	13045.73
537.749	13104.71
538.114	13018.61
538.479	12855.23
538.845	12998.95
539.21	12939.97
539.575	12885.28
539.94	12872.85
540.305	12803.25
540.67	12746.08
541.034	12717.6
541.399	12739.07
541.764	12643.26
542.129	12590.15
542.494	12551.51
542.858	12564.84
543.223	12570.26
543.587	12477.84
543.952	12409.36
544.316	12400.55
544.681	12323.49
545.045	12361.45
545.41	12405.97
545.774	12275.81
546.138	12258.18
546.503	12172.31
546.867	12171.18
547.231	12139.99
547.595	12090.05
547.959	12100.22
548.324	12023.61
548.688	11861.13
549.052	11924.63
549.416	11897.74
549.779	11780.9
550.143	11807.34
550.507	11796.95
550.871	11721.25
551.235	11672.21
551.599	11633.34
551.962	11628.82
552.326	11615.49
552.689	11554.02
553.053	11457.52
553.417	11457.07
553.78	11515.15
554.143	11442.38
554.507	11438.54
554.87	11372.78
555.234	11437.86
555.597	11350.41
555.96	11368.49
556.323	11297.3
556.686	11296.85
557.05	11377.75
557.413	11286
557.776	11276.96
558.139	11248.94
558.502	11268.6
558.865	11181.37
559.228	11249.62
559.59	11147.02
559.953	11184.31
560.316	11265.66
560.679	11187.47
561.041	11147.93
561.404	11177.08
561.767	11247.81
562.129	11100.24
562.492	11185.44
562.854	11167.81
563.217	11104.54
563.579	11136.18
563.941	11147.25
564.304	11139.34
564.666	11155.38
565.028	11181.15
565.39	11169.17
565.753	11154.71
566.115	11170.98
566.477	11195.61
566.839	11185.21
567.201	11172.11
567.563	11192.67
567.925	11226.8
568.287	11157.64
568.648	11168.04
569.01	11224.99
569.372	11297.53
569.734	11210.07
570.095	11245.33
570.457	11224.99
570.819	11289.84
571.18	11216.85
571.542	11269.96
571.903	11279.68
572.265	11346.34
572.626	11319.45
572.987	11398.32
573.349	11369.84
573.71	11349.28
574.071	11407.13
574.432	11272.44
574.794	11385.89
575.155	11357.41
575.516	11316.28
575.877	11351.76
576.238	11396.51
576.599	11417.07
576.96	11375.27
577.32	11375.04
577.681	11391.54
578.042	11439.44
578.403	11346.57
578.763	11413.46
579.124	11448.94
579.485	11445.55
579.845	11394.02
580.206	11408.94
580.566	11421.59
580.927	11428.37
581.287	11448.03
581.648	11412.78
582.008	11449.61
582.368	11428.82
582.728	11416.39
583.089	11471.53
583.449	11384.31
583.809	11411.2
584.169	11414.81
584.529	11348.6
584.889	11438.99
585.249	11315.83
585.609	11336.17
585.969	11426.34
586.329	11361.25
586.688	11423.4
587.048	11402.38
587.408	11327.36
587.768	11325.1
588.127	11377.3
588.487	11251.43
588.846	11351.31
589.206	11270.18
589.565	11331.65
589.925	11332.78
590.284	11326.68
590.643	11367.13
591.003	11379.11
591.362	11349.28
591.721	11297.3
592.08	11354.25
592.44	11310.63
592.799	11347.47
593.158	11296.17
593.517	11304.08
593.876	11358.54
594.235	11278.32
594.593	11317.41
594.952	11275.38
595.311	11311.99
595.67	11198.32
596.029	11308.6
596.387	11316.51
596.746	11289.39
597.104	11278.09
597.463	11219.11
597.822	11288.49
598.18	11196.29
598.538	11178.43
598.897	11256.62
599.255	11130.75
599.613	11324.42
599.972	11174.14
600.33	11230.86
600.688	11189.96
601.046	11246.68
601.404	11253.91
601.762	11165.78
602.12	11287.81
602.478	11256.62
602.836	11276.74
603.194	11163.52
603.552	11234.03
603.91	11181.6
604.268	11190.86
604.625	11238.09
604.983	11247.13
605.341	11196.51
605.698	11254.59
606.056	11245.1
606.413	11190.86
606.771	11199.23
607.128	11191.32
607.485	11200.36
607.843	11180.24
608.2	11283.29
608.557	11257.08
608.914	11152.67
609.272	11314.25
609.629	11361.03
609.986	11332.78
610.343	11312.44
610.7	11314.48
611.057	11316.96
611.414	11263.18
611.771	11335.72
612.127	11376.85
612.484	11314.7
612.841	11352.67
613.198	11327.58
613.554	11333.46
613.911	11426.56
614.267	11427.02
614.624	11407.58
614.98	11424.98
615.337	11471.53
615.693	11429.95
616.05	11371.42
616.406	11503.4
616.762	11427.69
617.118	11398.09
617.475	11460.24
617.831	11453.68
618.187	11505.88
618.543	11464.3
618.899	11556.96
619.255	11546.11
619.611	11433.12
619.967	11512.89
620.323	11504.08
620.678	11510.18
621.034	11476.51
621.39	11445.55
621.746	11419.78
622.101	11547.01
622.457	11490.97
622.812	11472.66
623.168	11471.76
623.523	11479.44
623.879	11515.6
624.234	11435.15
624.589	11414.59
624.945	11516.73
625.3	11477.18
625.655	11450.07
626.01	11457.3
626.365	11476.05
626.72	11451.42
627.075	11519.44
627.43	11434.47
627.785	11385.89
628.14	11403.74
628.495	11464.98
628.85	11438.32
629.205	11419.78
629.559	11457.52
629.914	11380.69
630.269	11351.99
630.623	11438.09
630.978	11362.38
631.332	11388.15
631.687	11354.48
632.041	11323.29
632.396	11332.1
632.75	11287.81
633.104	11297.53
633.459	11291.88
633.813	11284.65
634.167	11221.82
634.521	11264.99
634.875	11254.82
635.229	11211.65
635.583	11227.93
635.937	11130.75
636.291	11139.11
636.645	11176.4
636.999	11147.7
637.352	11111.54
637.706	11043.3
638.06	11185.89
638.413	11084.2
638.767	11055.5
639.121	11029.96
639.474	11012.34
639.828	11023.41
640.181	11042.62
640.534	11088.04
640.888	10957.65
641.241	10830.65
641.594	11010.98
641.947	10953.81
642.301	11006.24
642.654	10893.92
643.007	11008.04
643.36	10893.92
643.713	10893.7
644.066	10908.61
644.419	10858.22
644.771	10804.66
645.124	10697.77
645.477	10775.73
645.83	10616.19
646.182	10603.53
646.535	10576.19
646.888	10589.75
647.24	10508.4
647.593	10526.93
647.945	10507.94
648.298	10549.75
648.65	10432.24
649.002	10432.47
649.355	10519.47
649.707	10505.46
650.059	10506.36
650.411	10756.53
650.763	10730.31
651.115	10768.95
651.467	10797.88
651.819	10776.86
652.171	10806.69
652.523	10728.5
652.875	10710.2
653.227	10622.52
653.578	10692.8
653.93	10775.73
654.282	10688.96
654.633	10675.85
654.985	10660.48
655.337	10737.99
655.688	10703.65
656.039	10737.32
656.391	10651.9
656.742	10627.71
657.094	10760.14
657.445	10744.77
657.796	10745.9
658.147	10673.59
658.498	10723.76
658.849	10814.83
659.2	10725.57
659.551	10694.15
659.902	10785.22
660.253	10690.76
660.604	10783.87
660.955	10781.16
661.306	10797.2
661.656	10757.43
662.007	10781.84
662.358	10791.55
662.708	10788.16
663.059	10736.86
663.409	10712.01
663.76	10799.46
664.11	10775.73
664.461	10726.24
664.811	10773.93
665.161	10883.3
665.511	10759.91
665.862	10808.73
666.212	10782.97
666.562	10757.2
666.912	10711.33
667.262	10719.24
667.612	10811.89
667.962	10755.17
668.312	10775.28
668.662	10846.47
669.011	10742.74
669.361	10744.1
669.711	10711.1
670.06	10731.44
670.41	10738.45
670.76	10795.62
671.109	10806.24
671.459	10682.85
671.808	10739.8
672.157	10686.7
672.507	10751.78
672.856	10649.86
673.205	10754.49
673.554	10706.36
673.904	10691.89
674.253	10734.83
674.602	10644.21
674.951	10528.28
675.3	10404.44
675.649	10575.29
675.998	10604.66
676.346	10598.11
676.695	10644.21
677.044	10502.52
677.393	10517.66
677.741	10570.77
678.09	10462.52
678.438	10475.4
678.787	10486.93
679.135	10543.2
679.484	10477.89
679.832	10507.27
680.181	10389.76
680.529	10424.78
680.877	10424.33
681.225	10415.07
681.573	10447.38
681.922	10321.51
682.27	10340.04
682.618	10385.46
682.966	10273.83
683.314	10368.51
683.661	10279.7
684.009	10273.6
684.357	10156.54
684.705	10134.17
685.053	10161.29
685.4	10205.81
685.748	10081.51
686.095	10191.79
686.443	10056.2
686.79	10115.86
687.138	10068.41
687.485	10074.06
687.832	10043.55
688.18	9941.41
688.527	9972.14
688.874	9985.47
689.221	9914.51
689.568	9847.85
689.915	9842.65
690.262	9861.63
690.609	9777.79
690.956	9812.37
691.303	9758.13
691.65	9714.07
691.997	9715.65
692.344	9605.82
692.69	9645.37
693.037	9499.16
693.383	9489.89
693.73	9606.5
694.077	9444.92
694.423	9455.32
694.769	9436.33
695.116	9296
695.462	9436.33
695.808	9293.51
696.155	9299.61
696.501	9256.23
696.847	9243.12
697.193	9181.88
697.539	9121.31
697.885	9167.87
698.231	9117.25
698.577	9068.43
698.923	8999.28
699.269	8973.97
699.614	8942.34
699.96	8881.32
700.306	8882.22
700.651	8852.39
700.997	8784.83
701.342	8860.53
701.688	8785.05
702.033	8748.22
702.379	8696.24
702.724	8662.79
703.069	8725.84
703.415	8519.3
703.76	8626.41
704.105	8611.72
704.45	8531.72
704.795	8481.1
705.14	8512.74
705.485	8410.15
705.83	8446.53
706.175	8461.9
706.52	8356.14
706.865	8397.27
707.209	8282.47
707.554	8284.27
707.899	8339.87
708.243	8269.36
708.588	8236.14
708.932	8206.08
709.277	8175.35
709.621	8137.84
709.966	8171.51
710.31	8110.04
710.654	8099.19
710.998	8049.03
711.342	8039.53
711.687	8035.47
712.031	7961.8
712.375	7947.79
712.719	8078.63
713.063	7980.1
713.407	8073.88
713.75	7922.48
714.094	7950.05
714.438	7889.71
714.782	7914.57
715.125	7869.37
715.469	7914.57
715.812	7795.25
716.156	7814
716.499	7789.82
716.843	7850.39
717.186	7718.64
717.53	7803.61
717.873	7758.41
718.216	7739.88
718.559	7697.62
718.902	7682.71
719.246	7701.24
719.589	7727.9
719.932	7624.86
720.275	7701.46
720.617	7636.83
720.96	7609.49
721.303	7635.48
721.646	7702.82
721.989	7592.54
722.331	7569.49
722.674	7583.5
723.016	7548.93
723.359	7600
723.701	7604.74
724.044	7598.19
724.386	7557.06
724.729	7541.69
725.071	7537.85
725.413	7541.02
725.755	7552.99
726.097	7520.23
726.439	7439.32
726.782	7472.32
727.124	7483.39
727.465	7463.96
727.807	7491.75
728.149	7484.52
728.491	7415.6
728.833	7454.47
729.175	7421.47
729.516	7458.31
729.858	7457.63
730.199	7414.24
730.541	7482.26
730.882	7454.24
731.224	7445.88
731.565	7432.77
731.906	7450.4
732.248	7462.37
732.589	7400.46
732.93	7409.04
733.271	7415.6
733.612	7436.84
733.953	7449.95
734.294	7441.13
734.635	7460.57
734.976	7508.02
735.317	7414.69
735.658	7421.25
735.999	7445.88
736.339	7444.75
736.68	7512.99
737.021	7497.63
737.361	7434.13
737.702	7468.93
738.042	7454.92
738.383	7435.26
738.723	7425.09
739.063	7498.98
739.404	7451.53
739.744	7459.21
740.084	7496.27
740.424	7488.14
740.764	7548.7
741.104	7536.04
741.444	7517.51
741.784	7517.97
742.124	7568.59
742.464	7544.63
742.804	7607.91
743.143	7610.39
743.483	7647.23
743.823	7676.61
744.162	7642.03
744.502	7672.54
744.841	7648.13
745.181	7805.42
745.52	7790.95
745.86	7873.66
746.199	7887
746.538	7878.18
746.877	8012.19
747.216	8057.61
747.556	8060.1
747.895	8075.01
748.234	8122.02
748.573	8135.13
748.911	8255.35
749.25	8249.02
749.589	8375.12
749.928	8434.78
750.267	8475.91
750.605	8550.26
750.944	8602.01
751.283	8666.18
751.621	8767.42
751.96	8819.4
752.298	8936.46
752.636	9066.4
752.975	9161.54
753.313	9154.31
753.651	9377.35
753.989	9461.64
754.327	9517.01
754.666	9677.01
755.004	9765.59
755.342	9949.31
755.679	10084.68
756.017	10136.43
756.355	10311.34
756.693	10483.99
757.031	10611.44
757.368	10681.95
757.706	10882.62
758.044	11017.54
758.381	11148.38
