Data from hue_32_FLMS001491_00031.txt Node
Date: Tue Feb 07 17:23:17 GMT 2017
User: dcchb
Spectrometer: FLMS00149
Trigger mode: 0
Integration Time (sec): 2.000000E-2
Scans to average: 10
Electric dark correction enabled: true
Nonlinearity correction enabled: false
Boxcar width: 0
XAxis mode: Wavelengths
Number of Pixels in Spectrum: 2048
>>>>>Begin Spectral Data<<<<<
341.393	-22.34
341.776	-22.34
342.16	-22.34
342.543	-69.8
342.927	-67.99
343.31	-83.36
343.693	-46.52
344.077	-58.05
344.46	-58.5
344.843	-48.11
345.226	-30.93
345.61	-16.69
345.993	-29.8
346.376	-10.59
346.759	23.53
347.142	21.27
347.525	19.91
347.908	59.91
348.291	82.74
348.674	79.35
349.057	95.84
349.44	133.58
349.823	153.92
350.206	170.19
350.588	186.24
350.971	200.93
351.354	232.79
351.737	244.09
352.119	245.45
352.502	285.9
352.884	279.12
353.267	280.7
353.65	308.49
354.032	315.95
354.414	293.35
354.797	307.14
355.179	327.48
355.562	334.71
355.944	316.86
356.326	320.92
356.709	333.8
357.091	333.13
357.473	334.03
357.855	350.3
358.238	340.58
358.62	344.43
359.002	340.36
359.384	341.04
359.766	339.91
360.148	338.32
360.53	324.54
360.912	330.87
361.294	345.33
361.676	344.2
362.057	343.3
362.439	319.57
362.821	330.19
363.203	328.38
363.584	320.92
363.966	323.18
364.348	305.56
364.729	329.51
365.111	331.09
365.493	306.69
365.874	312.11
366.256	322.28
366.637	315.05
367.019	321.6
367.4	312.11
367.781	309.85
368.163	303.52
368.544	323.64
368.925	316.86
369.306	315.27
369.688	296.97
370.069	324.54
370.45	315.95
370.831	301.72
371.212	302.17
371.593	294.03
371.974	300.81
372.355	321.38
372.736	320.02
373.117	301.26
373.498	310.98
373.879	314.14
374.26	306.91
374.641	318.21
375.021	306.46
375.402	320.25
375.783	311.43
376.163	308.27
376.544	309.4
376.925	319.12
377.305	344.88
377.686	332.45
378.066	319.79
378.447	317.53
378.827	336.29
379.208	325.44
379.588	316.4
379.968	345.33
380.349	319.79
380.729	330.42
381.109	334.93
381.489	326.12
381.87	328.38
382.25	323.86
382.63	329.51
383.01	329.29
383.39	327.93
383.77	320.02
384.15	342.39
384.53	350.53
384.91	349.62
385.29	330.64
385.67	355.5
386.049	358.21
386.429	354.82
386.809	356.63
387.189	372
387.568	333.58
387.948	348.95
388.328	367.7
388.707	342.17
389.087	383.97
389.466	357.76
389.846	373.58
390.225	347.14
390.605	368.38
390.984	365.67
391.363	366.35
391.743	365.89
392.122	351.88
392.501	373.58
392.881	374.03
393.26	385.1
393.639	392.11
394.018	368.61
394.397	391.2
394.776	376.52
395.155	369.28
395.534	359.79
395.913	374.03
396.292	375.84
396.671	367.48
397.05	368.61
397.429	386.01
397.808	391.2
398.186	392.33
398.565	378.78
398.944	403.63
399.323	406.8
399.701	396.4
400.08	400.47
400.458	414.03
400.837	393.01
401.215	405.22
401.594	413.12
401.972	395.72
402.351	399.34
402.729	389.17
403.107	396.4
403.486	413.12
403.864	407.7
404.242	419.9
404.62	399.11
404.999	414.25
405.377	415.61
405.755	424.42
406.133	409.96
406.511	420.81
406.889	419.68
407.267	425.33
407.645	413.35
408.023	432.79
408.401	431.88
408.779	440.02
409.156	440.69
409.534	445.67
409.912	440.02
410.29	438.66
410.667	438.21
411.045	459.45
411.422	448.38
411.8	454.25
412.178	424.2
412.555	452.67
412.933	460.36
413.31	469.62
413.687	467.36
414.065	463.07
414.442	465.55
414.819	456.51
415.197	459.68
415.574	468.49
415.951	470.52
416.328	480.69
416.705	484.99
417.082	497.42
417.46	511.2
417.837	494.48
418.214	508.72
418.591	508.04
418.967	521.6
419.344	510.07
419.721	495.38
420.098	478.66
420.475	503.29
420.852	519.79
421.228	513.46
421.605	525.21
421.982	556.4
422.358	522.27
422.735	559.34
423.111	534.48
423.488	534.7
423.864	531.99
424.241	557.98
424.617	567.7
424.994	546
425.37	558.21
425.746	555.04
426.123	548.94
426.499	584.65
426.875	569.28
427.251	570.18
427.627	558.43
428.003	563.4
428.379	602.27
428.756	598.2
429.132	594.14
429.507	604.98
429.883	591.65
430.259	601.37
430.635	622.38
431.011	619.67
431.387	633.23
431.763	615.15
432.138	625.1
432.514	645.21
432.89	662.38
433.265	666.9
433.641	641.37
434.016	638.88
434.392	649.5
434.767	672.1
435.143	671.65
435.518	657.86
435.894	664.64
436.269	681.82
436.644	704.42
437.02	682.72
437.395	699.44
437.77	698.54
438.145	697.86
438.52	694.93
438.895	728.6
439.271	707.13
439.646	748.94
440.021	723.85
440.395	739.67
440.77	734.02
441.145	762.04
441.52	747.13
441.895	776.96
442.27	771.76
442.645	758.88
443.019	766.79
443.394	771.99
443.769	762.49
444.143	774.7
444.518	798.2
444.892	780.8
445.267	774.02
445.641	799.33
446.016	774.92
446.39	783.28
446.764	791.65
447.139	787.8
447.513	815.37
447.887	794.58
448.262	841.59
448.636	807.46
449.01	825.54
449.384	818.99
449.758	833.9
450.132	817.41
450.506	818.09
450.88	868.48
451.254	892.66
451.628	853.79
452.002	883.85
452.376	863.28
452.75	900.57
453.123	875.03
453.497	906.22
453.871	894.92
454.244	919.55
454.618	898.54
454.992	919.1
455.365	925.2
455.739	949.38
456.112	969.04
456.486	973.79
456.859	950.06
457.232	985.31
457.606	978.76
457.979	997.97
458.352	1022.6
458.725	1031.19
459.099	1044.97
459.472	1058.08
459.845	1051.98
460.218	1075.48
460.591	1078.19
460.964	1090.17
461.337	1094.69
461.71	1094.01
462.083	1119.09
462.456	1111.86
462.829	1152.77
463.201	1148.47
463.574	1162.48
463.947	1165.2
464.32	1194.12
464.692	1194.57
465.065	1203.16
465.438	1225.53
465.81	1237.28
466.183	1244.52
466.555	1262.82
466.928	1267.11
467.3	1303.72
467.672	1316.6
468.045	1331.29
468.417	1360.44
468.789	1374.46
469.161	1379.88
469.534	1421.46
469.906	1434.79
470.278	1434.79
470.65	1460.55
471.022	1478.18
471.394	1525.19
471.766	1551.4
472.138	1548.01
472.51	1589.82
472.882	1608.8
473.253	1654.45
473.625	1651.96
473.997	1730.6
474.369	1762.69
474.74	1769.47
475.112	1782.35
475.484	1813.99
475.855	1891.28
476.227	1902.13
476.598	1945.29
476.97	1933.76
477.341	2016.7
477.713	2054.89
478.084	2082.23
478.455	2150.03
478.827	2164.49
479.198	2251.04
479.569	2286.75
479.94	2333.75
480.311	2374.2
480.682	2415.56
481.053	2542.11
481.424	2551.83
481.795	2625.5
482.166	2663.01
482.537	2748.88
482.908	2796.56
483.279	2851.93
483.65	2938.26
484.021	2978.03
484.391	3047.41
484.762	3135.77
485.133	3205.14
485.503	3245.59
485.874	3291.24
486.244	3375.31
486.615	3474.06
486.985	3547.51
487.356	3664.11
487.726	3695.3
488.097	3819.59
488.467	3813.26
488.837	3930.55
489.207	4013.71
489.578	4095.51
489.948	4168.05
490.318	4267.94
490.688	4280.37
491.058	4400.36
491.428	4502.28
491.798	4566.01
492.168	4659.34
492.538	4758.77
492.908	4848.49
493.278	4887.13
493.648	4936.85
494.017	5078.09
494.387	5123.06
494.757	5189.5
495.126	5270.17
495.496	5289.15
495.866	5427.23
496.235	5439.66
496.605	5535.02
496.974	5552.88
497.344	5629.26
497.713	5751.74
498.082	5797.39
498.452	5907.67
498.821	5948.57
499.19	6009.14
499.559	6077.61
499.928	6107.66
500.298	6170.04
500.667	6255.68
501.036	6249.58
501.405	6349.47
501.774	6406.41
502.143	6433.53
502.512	6540.2
502.88	6587.2
503.249	6626.97
503.618	6704.48
503.987	6769.79
504.356	6738.61
504.724	6817.25
505.093	6908.1
505.462	6945.38
505.83	7013.63
506.199	7077.58
506.567	7130.46
506.936	7139.73
507.304	7303.34
507.672	7293.62
508.041	7312.6
508.409	7388.53
508.777	7464.01
509.145	7558.02
509.514	7532.26
509.882	7622.88
510.25	7643.44
510.618	7616.78
510.986	7702.2
511.354	7815.64
511.722	7897.67
512.09	7967.5
512.458	7913.72
512.826	7978.12
513.193	7997.33
513.561	8041.4
513.929	8124.56
514.297	8259.47
514.664	8199.59
515.032	8292.01
515.4	8394.38
515.767	8447.94
516.135	8392.58
516.502	8360.49
516.869	8522.52
517.237	8570.88
517.604	8541.95
517.972	8554.38
518.339	8631.89
518.706	8682.96
519.073	8706.24
519.44	8817.2
519.808	8855.39
520.175	8869.17
520.542	8935.16
520.909	8889.06
521.276	8993.92
521.643	9072.78
522.009	9156.62
522.376	9148.49
522.743	9237.98
523.11	9283.85
523.477	9386.9
523.843	9456.95
524.21	9444.75
524.577	9552.55
524.943	9632.09
525.31	9653.11
525.676	9731.3
526.043	9777.4
526.409	9811.52
526.776	9909.6
527.142	9896.04
527.508	9929.03
527.874	10016.49
528.241	10107.79
528.607	10070.5
528.973	10163.83
529.339	10136.03
529.705	10273.66
530.071	10335.35
530.437	10405.86
530.803	10450.37
531.169	10547.55
531.535	10505.06
531.901	10564.72
532.267	10653.08
532.632	10643.36
532.998	10755.45
533.364	10727.2
533.73	10808.33
534.095	10914.09
534.461	10889.23
534.826	10980.08
535.192	10979.63
535.557	11054.88
535.923	11100.75
536.288	11128.32
536.653	11190.02
537.019	11177.81
537.384	11209.68
537.749	11333.52
538.114	11352.95
538.479	11361.31
538.845	11449.44
539.21	11397.69
539.575	11522.89
539.94	11562.44
540.305	11614.64
540.67	11632.94
541.034	11641.08
541.399	11752.26
541.764	11717.91
542.129	11853.95
542.494	11865.93
542.858	11911.35
543.223	11902.31
543.587	12006.04
543.952	11937.57
544.316	12055.98
544.681	12046.49
545.045	12160.16
545.41	12218.69
545.774	12202.65
546.138	12235.19
546.503	12316.09
546.867	12370.32
547.231	12455.97
547.595	12523.09
547.959	12545.01
548.324	12619.58
548.688	12655.06
549.052	12750.2
549.416	12723.31
549.779	12719.47
550.143	12811.67
550.507	12826.81
550.871	12898.9
551.235	12932.34
551.599	12961.72
551.962	12997.43
552.326	13048.95
552.689	13141.83
553.053	13005.34
553.417	13187.25
553.78	13267.02
554.143	13244.65
554.507	13357.87
554.87	13342.28
555.234	13454.59
555.597	13436.74
555.96	13544.53
556.323	13494.14
556.686	13520.8
557.05	13676.73
557.413	13656.17
557.776	13680.12
558.139	13700.68
558.502	13718.31
558.865	13840.79
559.228	13880.57
559.59	13954.92
559.953	13936.61
560.316	14077.17
560.679	14140.67
561.041	14140.67
561.404	14213.67
561.767	14335.7
562.129	14254.12
562.492	14336.83
562.854	14362.14
563.217	14412.76
563.579	14438.52
563.941	14523.49
564.304	14589.48
564.666	14699.53
565.028	14641
565.39	14725.97
565.753	14809.58
566.115	14795.35
566.477	14874.21
566.839	14987.66
567.201	15058.39
567.563	15030.14
567.925	15222.9
568.287	15216.58
568.648	15199.85
569.01	15338.38
569.372	15397.36
569.734	15367.76
570.095	15436.23
570.457	15517.81
570.819	15662.44
571.18	15641.42
571.542	15663.12
571.903	15751.25
572.265	15837.58
572.626	15907.41
572.987	15957.35
573.349	15986.27
573.71	16164.57
574.071	16147.85
574.432	16304.01
574.794	16372.25
575.155	16558.01
575.516	16501.97
575.877	16597.56
576.238	16731.57
576.599	16823.54
576.96	16929.3
577.32	17010.88
577.681	17162.51
578.042	17342.4
578.403	17443.19
578.763	17418.1
579.124	17597.53
579.485	17833.68
579.845	17952.55
580.206	18047.69
580.566	18119.33
580.927	18310.73
581.287	18421.46
581.648	18708.91
582.008	18841.57
582.368	18969.25
582.728	19234.32
583.089	19361.33
583.449	19481.78
583.809	19609
584.169	19969.45
584.529	20137.35
584.889	20451.69
585.249	20597.68
585.609	20716.55
585.969	21040.6
586.329	21165.57
586.688	21435.4
587.048	21611.21
587.408	21826.12
587.768	22048.26
588.127	22278.09
588.487	22512.2
588.846	23007.78
589.206	22906.77
589.565	23180.89
589.925	23563.7
590.284	23838.72
590.643	24033.75
591.003	24399.61
591.362	24613.84
591.721	24858.81
592.08	25136.54
592.44	25461.51
592.799	25607.94
593.158	25956.63
593.517	26289.96
593.876	26466.45
594.235	26735.14
594.593	27050.16
594.952	27360.21
595.311	27526.99
595.67	27826.87
596.029	28212.17
596.387	28508.88
596.746	28720.4
597.104	28948.65
597.463	29203.78
597.822	29522.64
598.18	29649.19
598.538	29823.65
598.897	30263.19
599.255	30366.91
599.613	30991.3
599.972	31062.26
600.33	31313.1
600.688	31330.73
601.046	31629.03
601.404	32012.07
601.762	32171.39
602.12	32579.96
602.478	32675.1
602.836	32939.28
603.194	32977.92
603.552	33316.67
603.91	33370.68
604.268	33792.59
604.625	33702.87
604.983	34123.42
605.341	34287.49
605.698	34584.66
606.056	34763.18
606.413	34988.94
606.771	35155.71
607.128	35564.52
607.485	35581.47
607.843	35652.2
608.2	36015.8
608.557	36244.27
608.914	36361.33
609.272	36603.81
609.629	36891.49
609.986	37106.17
610.343	37117.02
610.7	37531.02
611.057	37470.23
611.414	37698.02
611.771	37839.03
612.127	38102.98
612.484	38126.94
612.841	38396.31
613.198	38367.16
613.554	38492.35
613.911	38738.44
614.267	38845.33
614.624	39006.01
614.98	39137.3
615.337	39438.31
615.693	39469.27
616.05	39524.41
616.406	39987.23
616.762	39684.18
617.118	39856.83
617.475	39927.34
617.831	40203.04
618.187	40323.94
618.543	40483.71
618.899	40629.02
619.255	40700.88
619.611	40802.12
619.967	40886.41
620.323	41006.63
620.678	41131.83
621.034	40840.54
621.39	41161.88
621.746	41144.94
622.101	41846.39
622.457	41285.27
622.812	41532.04
623.168	41666.5
623.523	41745.15
623.879	41941.98
624.234	41712.83
624.589	41895.88
624.945	42022.43
625.3	42130.9
625.655	42020.39
626.01	42159.82
626.365	42252.7
626.72	42261.06
627.075	42228.75
627.43	42296.77
627.785	42227.62
628.14	42212.7
628.495	42385.35
628.85	42360.95
629.205	42298.58
629.559	42465.13
629.914	42475.75
630.269	42596.2
630.623	42411.12
630.978	42465.13
631.332	42507.84
631.687	42694.27
632.041	42437.78
632.396	42593.71
632.75	42521.62
633.104	42649.53
633.459	42359.59
633.813	42396.88
634.167	42661.96
634.521	42536.31
634.875	42610.43
635.229	42521.85
635.583	42292.02
635.937	42571.11
636.291	42357.11
636.645	42547.84
636.999	42397.33
637.352	42520.94
637.706	42486.37
638.06	42592.35
638.413	42461.28
638.767	42327.5
639.121	42399.82
639.474	42222.19
639.828	42308.97
640.181	42475.07
640.534	42391.91
640.888	42275.98
641.241	42075.53
641.594	42167.73
641.947	42328.41
642.301	42190.33
642.654	42294.51
643.007	42311.46
643.36	42258.35
643.713	42116.66
644.066	42209.54
644.419	42052.03
644.771	41877.35
645.124	41465.6
645.477	41407.53
645.83	41308.32
646.182	40900.87
646.535	40856.36
646.888	41027.42
647.24	40897.71
647.593	41205.5
647.945	41084.15
648.298	40924.6
648.65	40821.33
649.002	40626.08
649.355	40933.42
649.707	40819.07
650.059	40978.61
650.411	41373.86
650.763	41417.24
651.115	41817.23
651.467	41693.4
651.819	41649.55
652.171	41615.21
652.523	41528.88
652.875	41643.91
653.227	41419.28
653.578	41621.31
653.93	41598.48
654.282	41344.03
654.633	41303.35
654.985	41451.82
655.337	41476
655.688	41501.76
656.039	41677.12
656.391	41264.25
656.742	41542.89
657.094	41403.23
657.445	41583.79
657.796	41248.44
658.147	41448.43
658.498	41316
658.849	41364.36
659.2	41361.88
659.551	41217.7
659.902	41362.33
660.253	41274.65
660.604	41346.29
660.955	41301.54
661.306	41259.51
661.656	41166.4
662.007	41164.6
662.358	41253.18
662.708	41294.31
663.059	41238.04
663.409	40943.36
663.76	41280.3
664.11	41247.76
664.461	41083.47
664.811	41161.66
665.161	41151.26
665.511	41042.56
665.862	41138.61
666.212	41180.41
666.562	41213.86
666.912	41155.56
667.262	40975.22
667.612	40933.19
667.962	41122.79
668.312	41067.87
668.662	41135.67
669.011	41036.69
669.361	41157.59
669.711	40966.86
670.06	40978.61
670.41	40927.99
670.76	40937.26
671.109	41160.53
671.459	40964.15
671.808	40885.73
672.157	41022.45
672.507	40741.1
672.856	40627.66
673.205	40822.91
673.554	40865.17
673.904	40903.36
674.253	41004.37
674.602	40862.68
674.951	40292.98
675.3	40118.52
675.649	40679.64
675.998	40720.54
676.346	40771.61
676.695	40773.19
677.044	40460.43
677.393	40732.97
677.741	40644.84
678.09	40591.73
678.438	40493.88
678.787	40528.68
679.135	40584.05
679.484	40360.77
679.832	40480.32
680.181	40213.21
680.529	40359.87
680.877	40294.56
681.225	40112.42
681.573	40363.49
681.922	40055.92
682.27	40130.05
682.618	40055.92
682.966	39828.36
683.314	40151.51
683.661	39854.57
684.009	39727.12
684.357	39689.15
684.705	39675.37
685.053	39740
685.4	39613.22
685.748	39507.24
686.095	39542.72
686.443	39353.8
686.79	39340.69
687.138	39268.15
687.485	39268.37
687.832	39204.87
688.18	39099.79
688.527	39017.08
688.874	38913.58
689.221	38911.77
689.568	38657.77
689.915	38681.72
690.262	38625
690.609	38477.21
690.956	38377.32
691.303	38401.73
691.65	38187.27
691.997	38289.42
692.344	38091.68
692.69	37928.07
693.037	38075.64
693.383	37720.84
693.73	37946.6
694.077	37594.75
694.423	37573.73
694.769	37374.41
695.116	37474.98
695.462	37320.63
695.808	37312.49
696.155	37438.37
696.501	37106.4
696.847	37153.18
697.193	36816.01
697.539	37057.36
697.885	36787.76
698.231	36667.54
698.577	36714.09
698.923	36529.01
699.269	36331.28
699.614	36297.83
699.96	36095.58
700.306	36254.89
700.651	36052.19
700.997	36033.88
701.342	35868.69
701.688	35730.84
702.033	35703.95
702.379	35632.31
702.724	35548.7
703.069	35547.79
703.415	35209.72
703.76	35278.87
704.105	35372.43
704.45	35156.17
704.795	34875.72
705.14	34865.1
705.485	34837.08
705.83	34783.75
706.175	34780.58
706.52	34592.57
706.865	34462.17
707.209	34537.65
707.554	34339.24
707.899	34417.88
708.243	34119.81
708.588	34136.53
708.932	33925.92
709.277	33980.38
709.621	33985.8
709.966	33816.31
710.31	33826.71
710.654	33599.6
710.998	33695.64
711.342	33667.17
711.687	33554.63
712.031	33450
712.375	33281.19
712.719	33240.28
713.063	33195.31
713.407	33290.9
713.75	33141.53
714.094	32980.18
714.438	32876.45
714.782	32952.38
715.125	32791.48
715.469	32916.9
715.812	32694.31
716.156	32593.97
716.499	32595.78
716.843	32635.1
717.186	32465.16
717.53	32391.04
717.873	32495.22
718.216	32326.86
718.559	32138.17
718.902	32138.62
719.246	32226.07
719.589	32028.56
719.932	31962.8
720.275	31983.82
720.617	31934.56
720.96	31737.95
721.303	31857.27
721.646	31824.95
721.989	31595.81
722.331	31788.57
722.674	31621.8
723.016	31724.84
723.359	31664.05
723.701	31598.52
724.044	31176.61
724.386	31153.79
724.729	31365.31
725.071	31237.4
725.413	31244.4
725.755	31180.45
726.097	31144.52
726.439	30912.44
726.782	30938.2
727.124	31062.26
727.465	30841.03
727.807	30948.59
728.149	30850.06
728.491	30762.61
728.833	30846
729.175	30720.12
729.516	30533.46
729.858	30505.21
730.199	30584.99
730.541	30425.44
730.882	30373.01
731.224	30480.13
731.565	30320.36
731.906	30363.3
732.248	30501.6
732.589	30179.57
732.93	30094.15
733.271	30083.08
733.612	29998.34
733.953	30204.88
734.294	29925.8
734.635	29951.11
734.976	30042.4
735.317	29738.68
735.658	29881.28
735.999	29773.26
736.339	29807.83
736.68	29904.33
737.021	29701.17
737.361	29615.29
737.702	29676.31
738.042	29554.28
738.383	29554.05
738.723	29597.67
739.063	29475.41
739.404	29542.3
739.744	29447.39
740.084	29452.36
740.424	29267.06
740.764	29295.3
741.104	29354.96
741.444	29328.3
741.784	29143.44
742.124	29217.34
742.464	29130.56
742.804	29132.6
743.143	28994.97
743.483	28934.86
743.823	28890.79
744.162	28877.69
744.502	28923.11
744.841	28849.67
745.181	28875.2
745.52	28686.96
745.86	28727.86
746.199	28592.95
746.538	28582.78
746.877	28761.08
747.216	28660.52
747.556	28604.7
747.895	28535.55
748.234	28494.65
748.573	28379.85
748.911	28272.28
749.25	28306.4
749.589	28243.35
749.928	28145.28
750.267	28317.25
750.605	28226.4
750.944	28190.7
751.283	27949.8
751.621	28124.03
751.96	27863.93
752.298	27805.17
752.636	27924.27
752.975	27881.78
753.313	27713.65
753.651	27781.9
753.989	27732.63
754.327	27568.57
754.666	27557.27
755.004	27599.3
755.342	27610.38
755.679	27430.49
756.017	27384.17
756.355	27324.06
756.693	27242.7
757.031	27293.1
757.368	27216.71
757.706	27183.72
758.044	26990.51
758.381	27118.86
