Data from hue_36_FLMS001491_00013.txt Node
Date: Tue Feb 07 17:29:27 GMT 2017
User: dcchb
Spectrometer: FLMS00149
Trigger mode: 0
Integration Time (sec): 2.000000E-2
Scans to average: 10
Electric dark correction enabled: true
Nonlinearity correction enabled: false
Boxcar width: 0
XAxis mode: Wavelengths
Number of Pixels in Spectrum: 2048
>>>>>Begin Spectral Data<<<<<
341.393	-22.94
341.776	-22.94
342.16	-22.94
342.543	-65.87
342.927	-60.22
343.31	-58.19
343.693	-71.3
344.077	-76.72
344.46	-77.85
344.843	-50.96
345.226	-29.04
345.61	-44.18
345.993	-10.73
346.376	-20.68
346.759	5.08
347.142	31.07
347.525	61.35
347.908	60.22
348.291	76.72
348.674	88.25
349.057	116.95
349.44	123.73
349.823	161.01
350.206	150.17
350.588	195.14
350.971	217.51
351.354	237.39
351.737	227.45
352.119	242.37
352.502	261.12
352.884	256.15
353.267	284.85
353.65	303.16
354.032	278.75
354.414	323.27
354.797	316.26
355.179	327.34
355.562	307.68
355.944	300.44
356.326	349.03
356.709	340.89
357.091	346.09
357.473	344.28
357.855	314.68
358.238	333.21
358.62	347
359.002	313.78
359.384	329.14
359.766	334.12
360.148	337.51
360.53	344.06
360.912	328.01
361.294	340.67
361.676	324.17
362.057	346.77
362.439	324.17
362.821	325.98
363.203	335.47
363.584	332.08
363.966	315.36
364.348	311.07
364.729	346.77
365.111	312.65
365.493	329.14
365.874	324.85
366.256	315.13
366.637	327.56
367.019	317.39
367.4	320.1
367.781	300.22
368.163	310.39
368.544	307.68
368.925	315.13
369.306	327.11
369.688	326.43
370.069	318.3
370.45	304.96
370.831	305.42
371.212	299.77
371.593	319.2
371.974	313.1
372.355	305.87
372.736	322.36
373.117	285.98
373.498	307
373.879	337.73
374.26	315.36
374.641	299.99
375.021	314.91
375.402	332.53
375.783	313.33
376.163	336.15
376.544	313.1
376.925	323.04
377.305	313.78
377.686	318.3
378.066	324.4
378.447	309.26
378.827	346.77
379.208	337.51
379.588	314.68
379.968	316.26
380.349	330.5
380.729	332.53
381.109	345.41
381.489	335.92
381.87	318.97
382.25	319.2
382.63	353.1
383.01	350.16
383.39	341.57
383.77	337.28
384.15	346.54
384.53	335.47
384.91	348.58
385.29	349.26
385.67	338.86
386.049	349.71
386.429	367.56
386.809	350.39
387.189	332.31
387.568	342.25
387.948	355.36
388.328	369.14
388.707	353.32
389.087	348.35
389.466	358.75
389.846	378.41
390.225	354
390.605	351.29
390.984	348.13
391.363	357.62
391.743	369.59
392.122	363.49
392.501	360.33
392.881	358.3
393.26	376.6
393.639	366.21
394.018	367.33
394.397	368.69
394.776	371.85
395.155	360.1
395.534	360.56
395.913	374.34
396.292	382.93
396.671	360.56
397.05	377.28
397.429	387.67
397.808	385.64
398.186	381.8
398.565	391.29
398.944	378.18
399.323	369.37
399.701	389.71
400.08	387.22
400.458	410.05
400.837	405.07
401.215	398.75
401.594	396.49
401.972	399.2
402.351	420.44
402.729	411.63
403.107	381.35
403.486	388.35
403.864	395.13
404.242	401.23
404.62	402.14
404.999	404.62
405.377	413.44
405.755	418.86
406.133	413.89
406.511	428.58
406.889	413.21
407.267	430.16
407.645	417.96
408.023	414.34
408.401	424.06
408.779	444.85
409.156	417.73
409.534	424.73
409.912	440.33
410.29	457.05
410.667	458.86
411.045	444.62
411.422	465.86
411.8	466.09
412.178	473.09
412.555	472.42
412.933	462.7
413.31	457.05
413.687	476.94
414.065	463.38
414.442	463.6
414.819	480.78
415.197	472.19
415.574	488.69
415.951	472.19
416.328	490.27
416.705	465.86
417.082	492.08
417.46	475.81
417.837	477.16
418.214	481.46
418.591	504.05
418.967	506.09
419.344	496.15
419.721	500.66
420.098	501.79
420.475	490.04
420.852	487.56
421.228	516.03
421.605	523.26
421.982	513.55
422.358	530.04
422.735	521.91
423.111	534.11
423.488	518.29
423.864	539.53
424.241	527.56
424.617	525.75
424.994	544.05
425.37	555.13
425.746	537.5
426.123	554.22
426.499	554.9
426.875	540.89
427.251	562.36
427.627	587.89
428.003	583.37
428.379	581.11
428.756	583.37
429.132	583.6
429.507	589.7
429.883	584.28
430.259	606.88
430.635	608.01
431.011	616.14
431.387	604.62
431.763	619.31
432.138	628.35
432.514	622.7
432.89	605.07
433.265	634.22
433.641	627.89
434.016	618.85
434.392	627.67
434.767	643.49
435.143	666.99
435.518	666.31
435.894	641.9
436.269	657.27
436.644	674.67
437.02	667.21
437.395	692.3
437.77	682.58
438.145	696.59
438.52	697.72
438.895	696.37
439.271	701.79
439.646	714.67
440.021	708.34
440.395	702.92
440.77	702.92
441.145	708.57
441.52	730.04
441.895	731.62
442.27	727.1
442.645	744.73
443.019	734.33
443.394	764.16
443.769	769.58
444.143	743.82
444.518	760.09
444.892	725.29
445.267	746.31
445.641	778.17
446.016	778.62
446.39	774.33
446.764	807.32
447.139	792.63
447.513	769.13
447.887	779.98
448.262	795.35
448.636	780.88
449.01	796.93
449.384	825.18
449.758	813.65
450.132	812.52
450.506	802.35
450.88	796.25
451.254	830.83
451.628	829.47
452.002	828.57
452.376	831.73
452.75	860.66
453.123	849.81
453.497	894.78
453.871	856.14
454.244	912.18
454.618	897.72
454.992	878.96
455.365	898.62
455.739	901.56
456.112	910.6
456.486	927.09
456.859	921.22
457.232	947.66
457.606	942.91
457.979	967.09
458.352	974.32
458.725	990.6
459.099	1009.13
459.472	1001.44
459.845	1029.69
460.218	1015.91
460.591	1043.7
460.964	1019.75
461.337	1050.93
461.71	1098.62
462.083	1109.24
462.456	1084.83
462.829	1091.84
463.201	1129.35
463.574	1087.09
463.947	1140.65
464.32	1147.2
464.692	1171.16
465.065	1167.77
465.438	1182.45
465.81	1225.39
466.183	1236.46
466.555	1246.63
466.928	1245.96
467.3	1268.33
467.672	1254.77
468.045	1316.46
468.417	1294.54
468.789	1329.12
469.161	1338.83
469.534	1375.22
469.906	1373.86
470.278	1427.42
470.65	1440.08
471.022	1459.96
471.394	1484.59
471.766	1517.36
472.138	1491.15
472.51	1547.42
472.882	1562.11
473.253	1617.25
473.625	1645.72
473.997	1673.29
474.369	1681.88
474.74	1729.79
475.112	1775.66
475.484	1814.08
475.855	1859.5
476.227	1892.49
476.598	1921.87
476.97	1955.54
477.341	1993.51
477.713	2069.89
478.084	2096.33
478.455	2186.72
478.827	2183.78
479.198	2279.6
479.569	2303.1
479.94	2351.24
480.311	2416.77
480.682	2517.56
481.053	2579.93
481.424	2632.36
481.795	2658.35
482.166	2723.66
482.537	2795.07
482.908	2893.6
483.279	2923.65
483.65	3044.33
484.021	3104.66
484.391	3192.57
484.762	3254.04
485.133	3341.27
485.503	3416.75
485.874	3507.59
486.244	3581.71
486.615	3639.57
486.985	3744.65
487.356	3835.27
487.726	3909.39
488.097	4007.01
488.467	4063.06
488.837	4194.13
489.207	4289.72
489.578	4367.91
489.948	4496.94
490.318	4600.22
490.688	4648.58
491.058	4790.27
491.428	4853.54
491.798	4910.94
492.168	5068
492.538	5161.56
492.908	5207.66
493.278	5378.73
493.648	5396.13
494.017	5528.1
494.387	5637.93
494.757	5731.94
495.126	5787.76
495.496	5880.64
495.866	5969.22
496.235	6003.8
496.605	6141.87
496.974	6234.98
497.344	6307.52
497.713	6353.62
498.082	6471.81
498.452	6616.89
498.821	6654.4
499.19	6728.52
499.559	6803.32
499.928	6865.7
500.298	6922.64
500.667	7101.17
501.036	7086.71
501.405	7228.17
501.774	7243.76
502.143	7338.68
502.512	7390.43
502.88	7510.42
503.249	7578.44
503.618	7605.34
503.987	7631.1
504.356	7745.9
504.724	7859.79
505.093	7904.54
505.462	7971.43
505.83	8025.89
506.199	8082.16
506.567	8151.09
506.936	8254.59
507.304	8305.43
507.672	8360.8
508.041	8433.11
508.409	8493.22
508.777	8629.49
509.145	8714.46
509.514	8649.38
509.882	8838.07
510.25	8776.15
510.618	8868.13
510.986	8949.48
511.354	8992.19
511.722	9111.96
512.09	9240.55
512.458	9170.72
512.826	9257.27
513.193	9374.78
513.561	9340.88
513.929	9428.34
514.297	9525.74
514.664	9567.09
515.032	9659.07
515.4	9731.38
515.767	9769.35
516.135	9782
516.502	9821.55
516.869	9969.34
517.237	10022.22
517.604	9968.44
517.972	10099.06
518.339	10137.47
518.706	10165.72
519.073	10278.49
519.44	10327.07
519.808	10389.22
520.175	10366.85
520.542	10561.19
520.909	10512.15
521.276	10574.75
521.643	10662.66
522.009	10721.86
522.376	10776.78
522.743	10848.42
523.11	10878.7
523.477	11019.03
523.843	11138.13
524.21	11206.15
524.577	11292.7
524.943	11287.73
525.31	11337.44
525.676	11548.74
526.043	11604.78
526.409	11589.86
526.776	11743.76
527.142	11776.53
527.508	11867.15
527.874	11956.63
528.241	11907.37
528.607	11990.31
528.973	12115.95
529.339	12092.9
529.705	12175.84
530.071	12307.13
530.437	12339.68
530.803	12469.84
531.169	12552.55
531.535	12519.56
531.901	12551.65
532.267	12655.37
532.632	12674.81
532.998	12715.26
533.364	12787.8
533.73	12908.02
534.095	13048.13
534.461	13008.36
534.826	13157.06
535.192	13128.81
535.557	13255.58
535.923	13290.61
536.288	13348.24
536.653	13382.13
537.019	13339.65
537.384	13459.42
537.749	13536.25
538.114	13548.68
538.479	13569.93
538.845	13675.91
539.21	13716.36
539.575	13691.5
539.94	13766.53
540.305	13797.04
540.67	13790.71
541.034	13982.12
541.399	13977.6
541.764	13992.97
542.129	14023.93
542.494	14151.61
542.858	14187.31
543.223	14136.01
543.587	14412.39
543.952	14314.99
544.316	14401.32
544.681	14390.24
545.045	14515.21
545.41	14628.43
545.774	14675.89
546.138	14689.22
546.503	14709.1
546.867	14761.31
547.231	14890.57
547.595	14956.56
547.959	15041.75
548.324	15029.55
548.688	15016.89
549.052	15146.83
549.416	15125.37
549.779	15162.43
550.143	15138.92
550.507	15334.85
550.871	15291.46
551.235	15380.05
551.599	15445.58
551.962	15490.55
552.326	15520.61
552.689	15710.43
553.053	15512.93
553.417	15639.7
553.78	15775.07
554.143	15829.3
554.507	15835.85
554.87	15957.66
555.234	16042.4
555.597	15986.81
555.96	16030.65
556.323	16136.41
556.686	16167.6
557.05	16256.63
557.413	16199.46
557.776	16269.97
558.139	16558.1
558.502	16463.18
558.865	16438.78
559.228	16584.76
559.59	16563.29
559.953	16705.44
560.316	16847.58
560.679	16864.75
561.041	16908.37
561.404	17055.26
561.767	17134.13
562.129	17049.16
562.492	17235.82
562.854	17183.39
563.217	17209.38
563.579	17318.08
563.941	17373.44
564.304	17543.15
564.666	17609.59
565.028	17624.51
565.39	17767.1
565.753	17763.04
566.115	17882.13
566.477	17865.63
566.839	17974.56
567.201	18102.69
567.563	18115.57
567.925	18162.35
568.287	18223.59
568.648	18288.9
569.01	18355.79
569.372	18573.86
569.734	18487.76
570.095	18535.9
570.457	18645.72
570.819	18693.86
571.18	18838.26
571.542	18892.27
571.903	18873.52
572.265	18993.29
572.626	19011.14
572.987	19166.39
573.349	19217.46
573.71	19372.03
574.071	19369.55
574.432	19553.05
574.794	19689.09
575.155	19673.27
575.516	19666.49
575.877	19806.82
576.238	19983.54
576.599	20040.49
576.96	20058.34
577.32	20271.22
577.681	20385.57
578.042	20518.67
578.403	20606.12
578.763	20753.92
579.124	20821.26
579.485	21032.55
579.845	21153.23
580.206	21408.82
580.566	21397.06
580.927	21582.82
581.287	21731.52
581.648	21782.37
582.008	22096.48
582.368	22105.52
582.728	22249.7
583.089	22543.7
583.449	22658.95
583.809	22909.57
584.169	23064.14
584.529	23084.03
584.889	23461.42
585.249	23569.44
585.609	23644.46
585.969	23930.11
586.329	23974.62
586.688	24242.19
587.048	24505.91
587.408	24594.95
587.768	24838.1
588.127	25020.02
588.487	25295.04
588.846	25684.18
589.206	25655.48
589.565	25875.36
589.925	26181.8
590.284	26323.71
590.643	26545.86
591.003	26814.1
591.362	27083.02
591.721	27259.96
592.08	27493.4
592.44	27798.93
592.799	27887.74
593.158	28199.15
593.517	28457.67
593.876	28553.94
594.235	28800.49
594.593	29077.09
594.952	29244.54
595.311	29394.37
595.67	29723.4
596.029	29994.13
596.387	30239.77
596.746	30488.35
597.104	30415.13
597.463	30687.22
597.822	31022.57
598.18	31100.54
598.538	31294.88
598.897	31556.35
599.255	31409
599.613	32116.78
599.972	32221.19
600.33	32258.25
600.688	32355.42
601.046	32688.75
601.404	32907.04
601.762	33112.01
602.12	33413.25
602.478	33490.53
602.836	33743.86
603.194	33787.7
603.552	33985.21
603.91	33979.56
604.268	34304.07
604.625	34412.54
604.983	34681.91
605.341	34665.87
605.698	34885.07
606.056	35105.4
606.413	35086.42
606.771	35421.55
607.128	35519.86
607.485	35437.15
607.843	35607.31
608.2	35792.17
608.557	36283.45
608.914	36163.91
609.272	36511.02
609.629	36546.04
609.986	36779.71
610.343	36742.65
610.7	37151.23
611.057	37202.07
611.414	37234.16
611.771	37568.16
612.127	37575.4
612.484	37812.23
612.841	37753.24
613.198	37878.67
613.554	37927.93
613.911	38250.41
614.267	38354.13
614.624	38384.19
614.98	38614.69
615.337	38811.75
615.693	38778.75
616.05	38828.24
616.406	39056.04
616.762	39126.99
617.118	39143.72
617.475	39167.44
617.831	39371.06
618.187	39449.25
618.543	39516.36
618.899	39811.72
619.255	39824.38
619.611	39816.69
619.967	39915.45
620.323	40213.29
620.678	40079.74
621.034	40013.52
621.39	40077.7
621.746	40148.21
622.101	40672.94
622.457	40323.35
622.812	40338.94
623.168	40531.7
623.523	40541.87
623.879	40850.34
624.234	40579.16
624.589	40835.88
624.945	40785.93
625.3	40845.37
625.655	40962.65
626.01	41016.44
626.365	40948.64
626.72	41071.58
627.075	41229.76
627.43	41065.47
627.785	40975.53
628.14	40985.02
628.495	41282.19
628.85	41103.66
629.205	41051.69
629.559	41298.69
629.914	41155.19
630.269	41193.83
630.623	41201.29
630.978	41039.26
631.332	41398.12
631.687	41424.79
632.041	41250.1
632.396	41283.77
632.75	41247.62
633.104	41388.86
633.459	41190.22
633.813	41124.91
634.167	41211.01
634.521	41186.37
634.875	41282.19
635.229	41180.73
635.583	41121.07
635.937	41117.45
636.291	41166.26
636.645	41114.29
636.999	41134.62
637.352	41353.83
637.706	41099.6
638.06	41159.48
638.413	41139.14
638.767	41077.68
639.121	41025.93
639.474	40932.14
639.828	40894.18
640.181	41007.85
640.534	40899.38
640.888	40927.85
641.241	40743.9
641.594	40876.1
641.947	40937.12
642.301	40883.33
642.654	40912.94
643.007	40905.25
643.36	40860.28
643.713	40858.47
644.066	40955.87
644.419	40672.94
644.771	40398.15
645.124	40020.3
645.477	40029.12
645.83	39844.94
646.182	39601.78
646.535	39575.34
646.888	39791.38
647.24	39471.62
647.593	39658.28
647.945	39592.29
648.298	39526.98
648.65	39305.07
649.002	39287.67
649.355	39533.76
649.707	39448.34
650.059	39619.64
650.411	40106.4
650.763	39986.18
651.115	40549.56
651.467	40391.59
651.819	40491.7
652.171	40224.82
652.523	40307.53
652.875	40159.96
653.227	40059.85
653.578	40372.84
653.93	40268.43
654.282	40101.21
654.633	39999.29
654.985	40122.45
655.337	40090.58
655.688	40124.93
656.039	40326.96
656.391	40037.25
656.742	40032.05
657.094	40078.16
657.445	40042.9
657.796	40088.78
658.147	39954.77
658.498	39887.88
658.849	39980.76
659.2	39979.17
659.551	39831.16
659.902	40014.65
660.253	39896.92
660.604	40001.32
660.955	39928.55
661.306	39945.5
661.656	39766.3
662.007	39946.86
662.358	39783.7
662.708	39891.04
663.059	39877.26
663.409	39737.83
663.76	39987.08
664.11	39877.03
664.461	39994.32
664.811	39799.07
665.161	39903.92
665.511	39877.71
665.862	39872.96
666.212	39932.62
666.562	39787.54
666.912	39819.63
667.262	39698.28
667.612	39759.07
667.962	39872.96
668.312	39553.65
668.662	39904.83
669.011	39886.75
669.361	39743.25
669.711	39672.06
670.06	39683.14
670.41	39596.81
670.76	39637.04
671.109	39598.85
671.459	39517.49
671.808	39593.42
672.157	39533.31
672.507	39547.55
672.856	39481.33
673.205	39538.96
673.554	39653.53
673.904	39535.12
674.253	39746.64
674.602	39605.85
674.951	38921.35
675.3	38868.24
675.649	39345.97
675.998	39282.7
676.346	39446.53
676.695	39607.43
677.044	39188.91
677.393	39313.88
677.741	39342.58
678.09	39357.27
678.438	39183.04
678.787	39259.42
679.135	39286.09
679.484	38981.46
679.832	39231.17
680.181	39033.89
680.529	39084.74
680.877	38957.96
681.225	38840.45
681.573	39134
681.922	38866.66
682.27	38825.53
682.618	38813.56
682.966	38642.94
683.314	38708.7
683.661	38773.1
684.009	38465.77
684.357	38404.75
684.705	38347.35
685.053	38392.55
685.4	38268.03
685.748	38174.25
686.095	38201.82
686.443	37917.76
686.79	38031.43
687.138	38122.05
687.485	38054.48
687.832	37925.9
688.18	37964.09
688.527	37730.42
688.874	37765
689.221	37623.53
689.568	37589.63
689.915	37495.17
690.262	37669.63
690.609	37387.6
690.956	37419.02
691.303	37324.56
691.65	37124.56
691.997	37169.53
692.344	36928.41
692.69	36992.13
693.037	36828.75
693.383	36662.65
693.73	36629.21
694.077	36589.89
694.423	36443.45
694.769	36336.11
695.116	36376.78
695.462	36297.69
695.808	36107.41
696.155	36135.21
696.501	35789.45
696.847	35950.13
697.193	35761.66
697.539	35856.35
697.885	35680.53
698.231	35398.05
698.577	35552.4
698.923	35408.22
699.269	35231.28
699.614	35092.52
699.96	35038.51
700.306	35130.94
700.651	34890.95
700.997	34832.64
701.342	34793.77
701.688	34695.92
702.033	34676.26
702.379	34572.99
702.724	34460.45
703.069	34555.36
703.415	34129.84
703.76	34222.26
704.105	34140.46
704.45	34219.78
704.795	33937.98
705.14	33881.71
705.485	33790.18
705.83	33582.73
706.175	33704.76
706.52	33636.52
706.865	33573.47
707.209	33390.2
707.554	33290.54
707.899	33414.83
708.243	33207.38
708.588	33206.25
708.932	33014.39
709.277	32974.84
709.621	33107.04
709.966	32818.91
710.31	32884.67
710.654	32686.94
710.998	32646.71
711.342	32743.21
711.687	32571.01
712.031	32429.54
712.375	32364.91
712.719	32383.22
713.063	32120.62
713.407	32394.74
713.75	32132.83
714.094	32068.42
714.438	32072.72
714.782	32075.65
715.125	31802.89
715.469	31964.02
715.812	31679.96
716.156	31632.95
716.499	31633.63
716.843	31529.91
717.186	31492.84
717.53	31546.18
717.873	31599.51
718.216	31451.26
718.559	31271.61
718.902	31290.14
719.246	31202.68
719.589	31196.35
719.932	30913.2
720.275	31029.58
720.617	30778.29
720.96	30894.67
721.303	30939.41
721.646	30808.12
721.989	30731.73
722.331	30814.9
722.674	30637.73
723.016	30680.66
723.359	30658.97
723.701	30751.85
724.044	30515.02
724.386	30447.22
724.729	30402.03
725.071	30458.3
725.413	30428.24
725.755	30350.5
726.097	30256.72
726.439	30218.3
726.782	29980.34
727.124	30254.01
727.465	30060.79
727.807	30068.02
728.149	29884.52
728.491	29773.34
728.833	29878.42
729.175	29845.2
729.516	29751.87
729.858	29654.25
730.199	29817.18
730.541	29630.97
730.882	29569.5
731.224	29675.94
731.565	29505.1
731.906	29405.22
732.248	29493.57
732.589	29338.78
732.93	29267.14
733.271	29165.45
733.612	29292
733.953	29220.81
734.294	29204.32
734.635	29142.4
734.976	29229.4
735.317	28981.5
735.658	28943.76
735.999	29049.74
736.339	28879.58
736.68	28954.38
737.021	28795.06
737.361	28698.57
737.702	28914.61
738.042	28781.96
738.383	28787.83
738.723	28769.75
739.063	28614.28
739.404	28643.2
739.744	28607.5
740.084	28541.74
740.424	28474.17
740.764	28485.24
741.104	28543.32
741.444	28344.9
741.784	28324.34
742.124	28276.88
742.464	28399.82
742.804	28227.62
743.143	28209.77
743.483	28136.55
743.823	28158.24
744.162	28023.56
744.502	28090
744.841	28012.26
745.181	28094.29
745.52	27925.25
745.86	27907.85
746.199	27847.74
746.538	27782.43
746.877	27862.43
747.216	27758.48
747.556	27699.05
747.895	27733.17
748.234	27502.89
748.573	27557.13
748.911	27516.68
749.25	27584.92
749.589	27434.65
749.928	27522.33
750.267	27510.8
750.605	27282.79
750.944	27316.23
751.283	27151.26
751.621	27273.97
751.96	27127.54
752.298	27189
752.636	27139.96
752.975	27066.75
753.313	26906.52
753.651	27029.23
753.989	26772.74
754.327	26769.8
754.666	26746.3
755.004	26759.86
755.342	26751.95
755.679	26672.63
756.017	26435.58
756.355	26553.99
756.693	26383.83
757.031	26412.98
757.368	26114.91
