Data from hue_140_FLMS001491_00055.txt Node
Date: Tue Feb 07 16:56:07 GMT 2017
User: dcchb
Spectrometer: FLMS00149
Trigger mode: 0
Integration Time (sec): 2.000000E-2
Scans to average: 10
Electric dark correction enabled: true
Nonlinearity correction enabled: false
Boxcar width: 0
XAxis mode: Wavelengths
Number of Pixels in Spectrum: 2048
>>>>>Begin Spectral Data<<<<<
341.393	-22.54
341.776	-22.54
342.16	-22.54
342.543	-56.67
342.927	-44.69
343.31	-66.61
343.693	-66.38
344.077	-79.49
344.46	-96.66
344.843	-73.16
345.226	1.86
345.61	-38.59
345.993	-17.57
346.376	-9.89
346.759	16.78
347.142	47.74
347.525	37.12
347.908	64.24
348.291	61.07
348.674	83.67
349.057	135.87
349.44	140.17
349.823	139.49
350.206	168.87
350.588	200.96
350.971	224.68
351.354	209.09
351.737	244.57
352.119	241.86
352.502	258.35
352.884	287.51
353.267	278.24
353.65	299.03
354.032	281.63
354.414	313.95
354.797	317.56
355.179	296.55
355.562	321.86
355.944	328.86
356.326	327.96
356.709	335.87
357.091	328.41
357.473	327.28
357.855	336.09
358.238	358.01
358.62	338.8
359.002	345.36
359.384	331.35
359.766	337.45
360.148	333.61
360.53	325.7
360.912	338.8
361.294	324.34
361.676	334.96
362.057	339.71
362.439	337.9
362.821	346.94
363.203	307.62
363.584	325.25
363.966	313.72
364.348	321.18
364.729	307.85
365.111	322.99
365.493	290.44
365.874	337.22
366.256	318.24
366.637	324.12
367.019	311.91
367.4	311.01
367.781	315.3
368.163	306.72
368.544	326.15
368.925	313.27
369.306	301.29
369.688	310.56
370.069	327.28
370.45	299.94
370.831	312.59
371.212	304.68
371.593	312.14
371.974	321.63
372.355	300.61
372.736	337.9
373.117	300.61
373.498	330.44
373.879	317.11
374.26	328.41
374.641	294.29
375.021	319.6
375.402	304
375.783	308.97
376.163	319.14
376.544	317.34
376.925	320.95
377.305	327.28
377.686	319.37
378.066	330.9
378.447	322.08
378.827	347.39
379.208	349.43
379.588	348.75
379.968	341.97
380.349	320.73
380.729	342.42
381.109	320.27
381.489	365.24
381.87	340.61
382.25	346.04
382.63	313.72
383.01	353.27
383.39	348.52
383.77	355.08
384.15	356.66
384.53	339.26
384.91	354.85
385.29	337.22
385.67	360.05
386.049	362.08
386.429	339.26
386.809	350.33
387.189	359.14
387.568	371.35
387.948	353.27
388.328	360.05
388.707	366.6
389.087	378.13
389.466	365.92
389.846	364.79
390.225	386.26
390.605	366.83
390.984	360.95
391.363	397.56
391.743	370.67
392.122	393.72
392.501	367.96
392.881	398.24
393.26	377
393.639	407.5
394.018	369.09
394.397	384.91
394.776	379.26
395.155	391.91
395.534	403.21
395.913	369.09
396.292	395.07
396.671	408.41
397.05	401.4
397.429	406.6
397.808	399.82
398.186	385.81
398.565	381.29
398.944	397.56
399.323	404.57
399.701	414.28
400.08	404.57
400.458	400.95
400.837	412.7
401.215	411.12
401.594	411.12
401.972	398.24
402.351	421.74
402.729	435.75
403.107	415.86
403.486	407.73
403.864	425.36
404.242	430.78
404.62	420.16
404.999	413.6
405.377	430.78
405.755	435.3
406.133	451.34
406.511	439.37
406.889	436.88
407.267	432.81
407.645	444.34
408.023	440.95
408.401	462.87
408.779	462.19
409.156	467.84
409.534	470.55
409.912	428.97
410.29	459.48
410.667	454.73
411.045	465.13
411.422	464
411.8	480.72
412.178	491.57
412.555	475.3
412.933	485.02
413.31	504.22
413.687	483.89
414.065	499.93
414.442	513.49
414.819	501.96
415.197	526.6
415.574	511
415.951	531.34
416.328	508.74
416.705	499.48
417.082	526.6
417.46	517.56
417.837	538.12
418.214	551.91
418.591	518.91
418.967	540.83
419.344	543.09
419.721	539.93
420.098	545.13
420.475	558.69
420.852	589.19
421.228	565.01
421.605	564.79
421.982	550.78
422.358	576.54
422.735	574.96
423.111	577.44
423.488	551.23
423.864	588.52
424.241	597.33
424.617	586.71
424.994	603.88
425.37	626.03
425.746	584
426.123	597.1
426.499	606.82
426.875	621.28
427.251	617.22
427.627	622.86
428.003	630.1
428.379	635.52
428.756	660.83
429.132	649.3
429.507	632.13
429.883	656.31
430.259	657.44
430.635	654.05
431.011	664.45
431.387	685.46
431.763	685.01
432.138	683.2
432.514	697.67
432.89	710.09
433.265	730.21
433.641	699.25
434.016	708.96
434.392	734.27
434.767	735.4
435.143	749.42
435.518	755.29
435.894	751.68
436.269	761.17
436.644	759.81
437.02	761.84
437.395	763.88
437.77	777.44
438.145	792.58
438.52	794.84
438.895	776.08
439.271	802.07
439.646	788.51
440.021	812.69
440.395	816.76
440.77	822.86
441.145	815.85
441.52	857.66
441.895	855.63
442.27	847.94
442.645	850.88
443.019	859.92
443.394	863.76
443.769	854.72
444.143	864.44
444.518	899.69
444.892	885.23
445.267	882.29
445.641	914.16
446.016	886.13
446.39	911.44
446.764	911.22
447.139	922.29
447.513	915.96
447.887	908.73
448.262	929.52
448.636	947.38
449.01	949.41
449.384	959.35
449.758	976.3
450.132	960.48
450.506	989.18
450.88	978.79
451.254	998
451.628	1007.71
452.002	1014.27
452.376	1025.79
452.75	1026.02
453.123	1055.4
453.497	1045.9
453.871	1069.18
454.244	1074.6
454.618	1090.65
454.992	1105.11
455.365	1079.12
455.739	1077.32
456.112	1114.6
456.486	1116.19
456.859	1137.65
457.232	1169.97
457.606	1157.31
457.979	1154.6
458.352	1197.31
458.725	1199.35
459.099	1222.62
459.472	1264.88
459.845	1273.02
460.218	1272.79
460.591	1277.31
460.964	1333.35
461.337	1320.93
461.71	1324.77
462.083	1364.54
462.456	1333.35
462.829	1356.63
463.201	1388.49
463.574	1417.65
463.947	1441.83
464.32	1451.09
464.692	1482.28
465.065	1476.63
465.438	1500.58
465.81	1529.28
466.183	1534.03
466.555	1590.07
466.928	1607.92
467.3	1581.48
467.672	1640.69
468.045	1673.01
468.417	1685.66
468.789	1677.75
469.161	1715.72
469.534	1758.65
469.906	1773.34
470.278	1819.44
470.65	1823.74
471.022	1890.18
471.394	1941.93
471.766	1933.11
472.138	1978.76
472.51	2009.95
472.882	2100.11
473.253	2109.61
473.625	2136.95
473.997	2202.71
474.369	2228.92
474.74	2288.58
475.112	2359.09
475.484	2364.97
475.855	2428.24
476.227	2482.03
476.598	2578.52
476.97	2623.04
477.341	2685.64
477.713	2730.83
478.084	2779.64
478.455	2843.37
478.827	2912.75
479.198	3029.58
479.569	3094.89
479.94	3208.79
480.311	3287.43
480.682	3387.99
481.053	3470.7
481.424	3627.08
481.795	3646.29
482.166	3722.22
482.537	3814.42
482.908	3972.83
483.279	3980.29
483.65	4132.6
484.021	4218.02
484.391	4374.86
484.762	4421.18
485.133	4545.7
485.503	4667.96
485.874	4838.12
486.244	4877.67
486.615	5062.3
486.985	5154.72
487.356	5276.53
487.726	5392.46
488.097	5577.54
488.467	5676.74
488.837	5869.73
489.207	5970.07
489.578	6074.02
489.948	6255.26
490.318	6362.83
490.688	6424.29
491.058	6552.2
491.428	6777.05
491.798	6890.5
492.168	7055.24
492.538	7116.03
492.908	7326.87
493.278	7479.41
493.648	7504.04
494.017	7758.5
494.387	7852.96
494.757	7973.63
495.126	8116
495.496	8206.39
495.866	8350.57
496.235	8548.98
496.605	8620.85
496.974	8717.79
497.344	8805.7
497.713	8997.56
498.082	9051.34
498.452	9253.82
498.821	9286.37
499.19	9403.43
499.559	9554.16
499.928	9694.72
500.298	9642.97
500.667	9900.14
501.036	9888.16
501.405	10082.5
501.774	10136.74
502.143	10248.15
502.512	10316.17
502.88	10445.66
503.249	10492.66
503.618	10602.04
503.987	10659.44
504.356	10804.52
504.724	10802.71
505.093	10900.56
505.462	10932.88
505.83	11095.36
506.199	11168.8
506.567	11358.4
506.936	11298.06
507.304	11452.64
507.672	11550.04
508.041	11615.12
508.409	11719.75
508.777	11789.58
509.145	11826.41
509.514	11866.86
509.882	12003.36
510.25	12100.98
510.618	12068.67
510.986	12082.45
511.354	12273.41
511.722	12336.46
512.09	12401.76
512.458	12437.47
512.826	12425.72
513.193	12504.59
513.561	12520.18
513.929	12644.7
514.297	12717.91
514.664	12796.1
515.032	12801.98
515.4	12839.72
515.767	12860.96
516.135	12972.82
516.502	12896.21
516.869	12980.28
517.237	13050.11
517.604	13015.31
517.972	13075.19
518.339	13281.97
518.706	13213.72
519.073	13213.49
519.44	13295.07
519.808	13386.82
520.175	13260.72
520.542	13486.03
520.909	13446.93
521.276	13439.7
521.643	13591.34
522.009	13653.48
522.376	13562.41
522.743	13662.07
523.11	13740.94
523.477	13744.78
523.843	13842.86
524.21	13925.79
524.577	13902.74
524.943	13936.64
525.31	13987.71
525.676	14066.13
526.043	14108.39
526.409	14135.5
526.776	14147.26
527.142	14174.83
527.508	14214.6
527.874	14241.72
528.241	14192.23
528.607	14283.97
528.973	14322.17
529.339	14294.14
529.705	14348.38
530.071	14446
530.437	14356.74
530.803	14421.82
531.169	14425.89
531.535	14369.85
531.901	14380.92
532.267	14381.37
532.632	14429.96
532.998	14382.05
533.364	14454.59
533.73	14359.9
534.095	14433.35
534.461	14369.62
534.826	14372.56
535.192	14389.96
535.557	14483.52
535.923	14406.23
536.288	14299.79
536.653	14371.66
537.019	14345.67
537.384	14357.65
537.749	14328.27
538.114	14280.58
538.479	14150.19
538.845	14240.13
539.21	14100.02
539.575	14271.09
539.94	14119.01
540.305	14143.41
540.67	14120.14
541.034	14142.96
541.399	14109.74
541.764	14004.43
542.129	13990.2
542.494	14043.76
542.858	13944.32
543.223	13884.66
543.587	14008.5
543.952	13903.42
544.316	13885.34
544.681	13844.66
545.045	13825
545.41	13818.68
545.774	13781.62
546.138	13708.4
546.503	13726.02
546.867	13685.35
547.231	13783.2
547.595	13700.94
547.959	13645.57
548.324	13516.31
548.688	13608.06
549.052	13568.74
549.416	13537.33
549.779	13478.8
550.143	13518.12
550.507	13541.17
550.871	13529.87
551.235	13432.92
551.599	13436.31
551.962	13379.14
552.326	13324
552.689	13384.56
553.053	13266.6
553.417	13287.39
553.78	13399.03
554.143	13244.68
554.507	13271.8
554.87	13266.83
555.234	13326.71
555.597	13238.13
555.96	13177.79
556.323	13221.4
556.686	13097.57
557.05	13206.71
557.413	13213.72
557.776	13221.63
558.139	13198.58
558.502	13184.79
558.865	13168.75
559.228	13237.67
559.59	13264.11
559.953	13169.43
560.316	13256.43
560.679	13228.18
561.041	13264.11
561.404	13295.3
561.767	13228.41
562.129	13274.74
562.492	13300.5
562.854	13224.57
563.217	13214.62
563.579	13280.16
563.941	13331.46
564.304	13334.62
564.666	13375.75
565.028	13323.77
565.39	13377.56
565.753	13355.19
566.115	13410.55
566.477	13406.94
566.839	13416.88
567.201	13480.83
567.563	13507.5
567.925	13487.16
568.287	13526.93
568.648	13559.47
569.01	13509.76
569.372	13636.53
569.734	13512.02
570.095	13601.51
570.457	13654.84
570.819	13629.98
571.18	13608.96
571.542	13615.29
571.903	13705.01
572.265	13670.66
572.626	13654.39
572.987	13729.64
573.349	13744.55
573.71	13746.59
574.071	13832.69
574.432	13748.17
574.794	13903.42
575.155	13841.95
575.516	13776.42
575.877	13724.89
576.238	13789.75
576.599	13829.98
576.96	13788.85
577.32	13794.5
577.681	13862.52
578.042	13862.06
578.403	13843.76
578.763	13893.7
579.124	13936.41
579.485	13939.13
579.845	13992.68
580.206	13891.67
580.566	13915.17
580.927	13819.81
581.287	13865
581.648	13867.49
582.008	13871.1
582.368	13821.39
582.728	13845.79
583.089	13902.97
583.449	13843.31
583.809	13854.83
584.169	13883.08
584.529	13766.93
584.889	13978.9
585.249	13796.3
585.609	13747.72
585.969	13917.2
586.329	13888.28
586.688	13859.35
587.048	13774.61
587.408	13838.11
587.768	13799.24
588.127	13710.66
588.487	13693.03
588.846	13854.61
589.206	13669.53
589.565	13711.79
589.925	13712.24
590.284	13753.37
590.643	13763.08
591.003	13722.63
591.362	13720.83
591.721	13735.97
592.08	13691.67
592.44	13742.75
592.799	13668.85
593.158	13664.1
593.517	13686.93
593.876	13725.35
594.235	13629.08
594.593	13647.38
594.952	13715.85
595.311	13627.49
595.67	13685.35
596.029	13718.11
596.387	13709.75
596.746	13620.04
597.104	13635.63
597.463	13671.56
597.822	13656.42
598.18	13593.82
598.538	13679.7
598.897	13728.28
599.255	13568.74
599.613	13726.02
599.972	13671.56
600.33	13625.46
600.688	13632.24
601.046	13582.3
601.404	13733.03
601.762	13628.85
602.12	13711.33
602.478	13697.78
602.836	13781.16
603.194	13615.52
603.552	13681.28
603.91	13574.16
604.268	13724.22
604.625	13576.2
604.983	13647.61
605.341	13598.34
605.698	13621.39
606.056	13624.11
606.413	13747.72
606.771	13681.73
607.128	13699.13
607.485	13577.1
607.843	13689.19
608.2	13666.14
608.557	13693.26
608.914	13740.71
609.272	13779.81
609.629	13714.05
609.986	13822.52
610.343	13823.65
610.7	13831.78
611.057	13798.79
611.414	13801.73
611.771	13768.06
612.127	13831.11
612.484	13868.62
612.841	13946.81
613.198	13878.11
613.554	13904.1
613.911	13881.5
614.267	13903.42
614.624	13973.47
614.98	13991.78
615.337	13976.64
615.693	14041.72
616.05	13937.54
616.406	14111.1
616.762	13956.07
617.118	13934.61
617.475	13973.25
617.831	14060.93
618.187	14000.37
618.543	13999.69
618.899	14100.02
619.255	14078.33
619.611	14062.29
619.967	14110.42
620.323	14097.09
620.678	14037.65
621.034	14092.12
621.39	14044.88
621.746	13983.42
622.101	14151.77
622.457	14024.09
622.812	14086.24
623.168	14145
623.523	14087.6
623.879	14206.01
624.234	14071.1
624.589	14121.27
624.945	14030.42
625.3	14142.74
625.655	14117.88
626.01	14086.47
626.365	14175.5
626.72	14094.6
627.075	14138.89
627.43	14143.87
627.785	14059.12
628.14	14067.03
628.495	14141.15
628.85	14084.21
629.205	14043.53
629.559	14072.23
629.914	14030.2
630.269	14063.19
630.623	14037.65
630.978	14072.68
631.332	14081.95
631.687	14086.24
632.041	13958.56
632.396	13975.28
632.75	13939.13
633.104	13942.74
633.459	13888.05
633.813	13940.71
634.167	13850.99
634.521	13863.65
634.875	13842.63
635.229	13831.78
635.583	13796.3
635.937	13754.95
636.291	13693.93
636.645	13725.35
636.999	13689.41
637.352	13715.85
637.706	13632.69
638.06	13749.75
638.413	13714.5
638.767	13678.11
639.121	13645.8
639.474	13560.38
639.828	13582.52
640.181	13635.18
640.534	13609.19
640.888	13599.02
641.241	13513.6
641.594	13498.91
641.947	13599.47
642.301	13535.29
642.654	13573.71
643.007	13519.25
643.36	13497.33
643.713	13494.62
644.066	13517.22
644.419	13424.11
644.771	13323.32
645.124	13225.92
645.477	13223.89
645.83	13169.88
646.182	13201.74
646.535	13018.92
646.888	13121.29
647.24	12975.76
647.593	12984.12
647.945	13038.81
648.298	12988.87
648.65	12947.51
649.002	12924.24
649.355	13026.83
649.707	13035.87
650.059	13042.65
650.411	13208.3
650.763	13182.53
651.115	13307.96
651.467	13341.4
651.819	13354.28
652.171	13320.61
652.523	13329.2
652.875	13315.86
653.227	13271.35
653.578	13325.81
653.93	13347.05
654.282	13229.99
654.633	13231.8
654.985	13312.93
655.337	13240.16
655.688	13323.55
656.039	13271.35
656.391	13246.04
656.742	13267.05
657.094	13286.26
657.445	13289.65
657.796	13275.41
658.147	13254.85
658.498	13246.26
658.849	13277.22
659.2	13303.21
659.551	13195.42
659.902	13251.01
660.253	13279.48
660.604	13309.31
660.955	13213.49
661.306	13268.41
661.656	13245.13
662.007	13305.92
662.358	13244.68
662.708	13246.71
663.059	13264.79
663.409	13213.04
663.76	13283.1
664.11	13350.44
664.461	13291.23
664.811	13292.59
665.161	13299.59
665.511	13278.35
665.862	13221.86
666.212	13316.99
666.562	13340.95
666.912	13304.34
667.262	13333.04
667.612	13306.15
667.962	13268.86
668.312	13303.89
668.662	13438.57
669.011	13328.52
669.361	13292.59
669.711	13277
670.06	13212.82
670.41	13201.07
670.76	13242.42
671.109	13262.76
671.459	13257.56
671.808	13294.17
672.157	13274.06
672.507	13180.05
672.856	13206.04
673.205	13097.57
673.554	13178.47
673.904	13128.75
674.253	13203.78
674.602	13216.43
674.951	13011.24
675.3	12988.42
675.649	13131.91
675.998	13124.23
676.346	13081.97
676.695	13109.09
677.044	13105.47
677.393	13124.23
677.741	13061.18
678.09	13057.34
678.438	13081.75
678.787	13035.65
679.135	13004.23
679.484	12996.78
679.832	12939.6
680.181	12847.18
680.529	12880.85
680.877	12933.95
681.225	12893.28
681.573	12921.98
681.922	12773.28
682.27	12755.65
682.618	12795.88
682.966	12793.84
683.314	12775.99
683.661	12713.17
684.009	12703.23
684.357	12667.29
684.705	12641.53
685.053	12712.49
685.4	12618.26
685.748	12535.32
686.095	12523.79
686.443	12472.95
686.79	12396.57
687.138	12451.48
687.485	12418.26
687.832	12413.29
688.18	12374.87
688.527	12344.59
688.874	12260.75
689.221	12308.66
689.568	12254.2
689.915	12185.95
690.262	12222.79
690.609	12142.11
690.956	12011.72
691.303	12074.09
691.65	12100.53
691.997	12022.79
692.344	11896.24
692.69	11949.57
693.037	11860.08
693.383	11737.37
693.73	11809.92
694.077	11715.45
694.423	11658.28
694.769	11703.93
695.116	11650.6
695.462	11707.09
695.808	11635.91
696.155	11581.45
696.501	11477.72
696.847	11461.9
697.193	11371.28
697.539	11416.71
697.885	11371.28
698.231	11352.75
698.577	11253.09
698.923	11233.89
699.269	11183.72
699.614	11195.24
699.96	11146.88
700.306	11154.34
700.651	11116.37
700.997	10973.33
701.342	11050.39
701.688	10941.92
702.033	10973.1
702.379	10920.45
702.724	10877.06
703.069	10933.78
703.415	10816.5
703.76	10762.03
704.105	10726.1
704.45	10683.84
704.795	10666.22
705.14	10676.16
705.485	10683.17
705.83	10485.43
706.175	10535.15
706.52	10522.49
706.865	10493.11
707.209	10449.27
707.554	10475.26
707.899	10489.05
708.243	10359.11
708.588	10339.45
708.932	10226.45
709.277	10319.56
709.621	10208.15
709.966	10118.21
710.31	10147.59
710.654	10069.62
710.998	10113.01
711.342	10146.68
711.687	10042.73
712.031	10018.78
712.375	10047.48
712.719	10023.75
713.063	9981.26
713.407	9996.86
713.75	10036.18
714.094	9951.89
714.438	9903.3
714.782	9917.31
715.125	9857.88
715.469	9868.05
715.812	9797.76
716.156	9779.23
716.499	9793.02
716.843	9817.2
717.186	9806.35
717.53	9848.84
717.873	9720.93
718.216	9753.47
718.559	9725.9
718.902	9676.86
719.246	9666.24
719.589	9625.57
719.932	9650.42
720.275	9641.61
720.617	9642.51
720.96	9621.27
721.303	9541.95
721.646	9576.08
721.989	9549.86
722.331	9568.84
722.674	9525
723.016	9492.01
723.359	9477.32
723.701	9543.08
724.044	9482.97
724.386	9385.8
724.729	9466.7
725.071	9452.01
725.413	9459.47
725.755	9435.51
726.097	9411.11
726.439	9301.96
726.782	9385.8
727.124	9435.97
727.465	9407.72
727.807	9367.95
728.149	9412.69
728.491	9438.9
728.833	9375.18
729.175	9337.89
729.516	9374.5
729.858	9322.3
730.199	9344.67
730.541	9337.89
730.882	9289.3
731.224	9380.83
731.565	9290.89
731.906	9294.28
732.248	9372.69
732.589	9310.09
732.93	9298.57
733.271	9301.28
733.612	9370.21
733.953	9311.45
734.294	9261.06
734.635	9280.94
734.976	9243.88
735.317	9260.38
735.658	9278
735.999	9285.46
736.339	9274.16
736.68	9291.56
737.021	9262.19
737.361	9348.74
737.702	9313.48
738.042	9261.51
738.383	9272.36
738.723	9367.27
739.063	9248.85
739.404	9333.37
739.744	9353.26
740.084	9268.97
740.424	9366.59
740.764	9280.04
741.104	9375.4
741.444	9389.64
741.784	9351.45
742.124	9385.12
742.464	9362.07
742.804	9398.68
743.143	9382.86
743.483	9495.63
743.823	9395.06
744.162	9424.22
744.502	9545.57
744.841	9450.88
745.181	9560.94
745.52	9570.88
745.86	9561.61
746.199	9660.14
746.538	9657.88
746.877	9767.71
747.216	9835.5
747.556	9776.07
747.895	9827.14
748.234	9757.77
748.573	9839.35
748.911	10043.86
749.25	10039.34
749.589	10143.97
749.928	10056.97
750.267	10229.39
750.605	10237.75
750.944	10322.5
751.283	10299.67
751.621	10500.57
751.96	10517.29
752.298	10573.34
752.636	10693.56
752.975	10752.09
753.313	10779.21
753.651	11026.21
753.989	10958.41
754.327	11105.08
754.666	11212.19
755.004	11339.87
755.342	11431.62
755.679	11615.8
756.017	11717.49
756.355	11856.47
756.693	11896.01
757.031	12140.98
757.368	12129.23
757.706	12362.22
758.044	12479.28
758.381	12689.89
