Data from hue_70_FLMS001491_34.txt Node
Date: Mon Feb 06 15:20:46 GMT 2017
User: dcchb
Spectrometer: FLMS00149
Trigger mode: 0
Integration Time (sec): 2.000000E-2
Scans to average: 10
Electric dark correction enabled: true
Nonlinearity correction enabled: false
Boxcar width: 0
XAxis mode: Wavelengths
Number of Pixels in Spectrum: 2048
>>>>>Begin Spectral Data<<<<<
341.393	-19.76
341.776	-19.76
342.16	-19.76
342.543	-85.75
342.927	-85.97
343.31	-67.67
343.693	-68.35
344.077	-71.51
344.46	-41
344.843	-52.07
345.226	-23.15
345.61	-25.86
345.993	-26.31
346.376	-17.05
346.759	18.43
347.142	9.17
347.525	45.55
347.908	52.33
348.291	60.92
348.674	86.68
349.057	119.9
349.44	129.16
349.823	130.52
350.206	163.06
350.588	190.86
350.971	197.64
351.354	223.85
351.737	229.5
352.119	248.48
352.502	263.17
352.884	268.59
353.267	295.71
353.65	289.84
354.032	287.35
354.414	312.89
354.797	310.4
355.179	320.57
355.562	324.41
355.944	318.54
356.326	324.19
356.709	320.8
357.091	333.23
357.473	349.27
357.855	331.42
358.238	316.5
358.62	325.32
359.002	334.36
359.384	331.64
359.766	351.53
360.148	330.29
360.53	336.62
360.912	352.21
361.294	313.11
361.676	334.81
362.057	332.77
362.439	348.82
362.821	320.12
363.203	318.99
363.584	325.32
363.966	311.76
364.348	307.92
364.729	316.5
365.111	307.92
365.493	321.7
365.874	312.66
366.256	317.63
366.637	310.18
367.019	316.95
367.4	320.34
367.781	323.51
368.163	302.49
368.544	299.33
368.925	309.72
369.306	337.97
369.688	312.44
370.069	308.37
370.45	297.97
370.831	315.15
371.212	323.51
371.593	317.18
371.974	314.24
372.355	322.15
372.736	328.03
373.117	317.63
373.498	311.76
373.879	321.7
374.26	301.36
374.641	307.69
375.021	315.37
375.402	331.19
375.783	316.5
376.163	306.33
376.544	334.13
376.925	311.76
377.305	302.72
377.686	314.47
378.066	335.49
378.447	312.89
378.827	314.02
379.208	329.61
379.588	300.01
379.968	330.29
380.349	343.17
380.729	333.68
381.109	325.99
381.489	345.65
381.87	344.52
382.25	334.58
382.63	319.21
383.01	324.64
383.39	349.5
383.77	326.45
384.15	350.63
384.53	335.03
384.91	336.62
385.29	330.29
385.67	355.37
386.049	351.98
386.429	358.31
386.809	342.04
387.189	350.4
387.568	345.88
387.948	338.88
388.328	345.88
388.707	344.07
389.087	342.04
389.466	346.56
389.846	342.94
390.225	334.13
390.605	370.74
390.984	356.5
391.363	361.7
391.743	356.28
392.122	359.44
392.501	359.67
392.881	372.55
393.26	350.63
393.639	361.25
394.018	369.38
394.397	358.54
394.776	363.51
395.155	386.33
395.534	378.2
395.913	353.79
396.292	370.29
396.671	378.42
397.05	343.17
397.429	385.2
397.808	398.99
398.186	359.67
398.565	381.36
398.944	389.04
399.323	372.09
399.701	380.68
400.08	371.64
400.458	376.39
400.837	380.91
401.215	395.14
401.594	374.13
401.972	382.72
402.351	410.51
402.729	398.99
403.107	409.61
403.486	388.59
403.864	385.88
404.242	380.46
404.62	399.44
404.999	396.27
405.377	389.04
405.755	397.86
406.133	403.05
406.511	392.21
406.889	398.53
407.267	409.61
407.645	410.74
408.023	412.55
408.401	419.33
408.779	422.49
409.156	405.31
409.534	419.1
409.912	420.46
410.29	411.87
410.667	420.46
411.045	408.25
411.422	422.94
411.8	425.65
412.178	430.4
412.555	441.92
412.933	459.32
413.31	438.99
413.687	443.51
414.065	449.15
414.442	455.71
414.819	459.32
415.197	461.36
415.574	443.73
415.951	461.58
416.328	452.54
416.705	460
417.082	473.79
417.46	449.38
417.837	477.18
418.214	472.66
418.591	458.65
418.967	482.83
419.344	482.83
419.721	493
420.098	497.52
420.475	499.1
420.852	509.49
421.228	508.81
421.605	496.84
421.982	486.22
422.358	506.1
422.735	484.63
423.111	486.89
423.488	522.15
423.864	503.39
424.241	520.34
424.617	539.1
424.994	529.83
425.37	534.8
425.746	528.47
426.123	528.47
426.499	515.14
426.875	539.1
427.251	537.74
427.627	564.41
428.003	522.15
428.379	545.88
428.756	565.54
429.132	586.55
429.507	529.38
429.883	574.58
430.259	572.09
430.635	569.6
431.011	573.67
431.387	582.48
431.763	591.52
432.138	604.63
432.514	610.73
432.89	595.59
433.265	614.57
433.641	609.83
434.016	625.42
434.392	603.5
434.767	645.31
435.143	646.66
435.518	619.55
435.894	645.08
436.269	652.54
436.644	651.86
437.02	683.72
437.395	668.81
437.77	662.93
438.145	664.52
438.52	667.23
438.895	667.68
439.271	661.35
439.646	689.83
440.021	680.11
440.395	699.54
440.77	698.19
441.145	676.72
441.52	706.55
441.895	702.03
442.27	683.95
442.645	701.35
443.019	732.99
443.394	702.03
443.769	737.96
444.143	740.67
444.518	739.54
444.892	725.76
445.267	744.74
445.641	754.46
446.016	763.27
446.39	732.09
446.764	740.22
447.139	723.5
447.513	776.6
447.887	776.15
448.262	759.2
448.636	775.93
449.01	776.38
449.384	788.13
449.758	793.1
450.132	781.35
450.506	798.3
450.88	816.6
451.254	774.57
451.628	792.87
452.002	818.64
452.376	826.77
452.75	837.62
453.123	847.56
453.497	850.73
453.871	845.75
454.244	840.33
454.618	867
454.992	881.23
455.365	878.75
455.739	896.15
456.112	874.91
456.486	895.92
456.859	930.95
457.232	916.94
457.606	912.65
457.979	945.64
458.352	941.12
458.725	949.48
459.099	961.91
459.472	989.48
459.845	977.73
460.218	996.94
460.591	987.45
460.964	1012.08
461.337	1061.79
461.71	1044.62
462.083	1088.46
462.456	1083.94
462.829	1052.75
463.201	1093.21
463.574	1094.79
463.947	1112.19
464.32	1149.48
464.692	1135.92
465.065	1157.16
465.438	1167.55
465.81	1168.01
466.183	1169.59
466.555	1215.24
466.928	1264.05
467.3	1277.38
467.672	1262.92
468.045	1293.43
468.417	1287.1
468.789	1327.78
469.161	1354.22
469.534	1363.48
469.906	1405.97
470.278	1414.33
470.65	1429.24
471.022	1483.48
471.394	1493.2
471.766	1507.43
472.138	1532.52
472.51	1573.19
472.882	1589.24
473.253	1643.7
473.625	1660.65
473.997	1746.07
474.369	1743.13
474.74	1759.85
475.112	1794.66
475.484	1822.68
475.855	1909.91
476.227	1957.14
476.598	1993.07
476.97	2051.82
477.341	2093.86
477.713	2146.06
478.084	2202.1
478.455	2244.14
478.827	2306.28
479.198	2378.14
479.569	2452.27
479.94	2539.27
480.311	2563.9
480.682	2587.18
481.053	2739.04
481.424	2794.63
481.795	2886.15
482.166	2941.97
482.537	3036.43
482.908	3130.21
483.279	3198.01
483.65	3314.84
484.021	3404.78
484.391	3550.54
484.762	3596.87
485.133	3657.43
485.503	3815.39
485.874	3914.83
486.244	4012.45
486.615	4120.02
486.985	4224.87
487.356	4348.26
487.726	4460.8
488.097	4614.02
488.467	4725.43
488.837	4815.14
489.207	4951.41
489.578	5056.49
489.948	5145.08
490.318	5359.53
490.688	5450.38
491.058	5576.03
491.428	5709.58
491.798	5861.22
492.168	6006.97
492.538	6135.56
492.908	6263.92
493.278	6446.51
493.648	6535.1
494.017	6687.63
494.387	6804.69
494.757	6954.52
495.126	7105.93
495.496	7263.66
495.866	7394.73
496.235	7462.08
496.605	7628.18
496.974	7770.32
497.344	7943.65
497.713	8047.15
498.082	8184.77
498.452	8310.42
498.821	8457.98
499.19	8505.89
499.559	8737.3
499.928	8842.83
500.298	8962.38
500.667	9158.08
501.036	9133.45
501.405	9325.76
501.774	9372.08
502.143	9609.14
502.512	9606.88
502.88	9835.35
503.249	9924.61
503.618	10038.96
503.987	10121.89
504.356	10313.53
504.724	10320.08
505.093	10500.19
505.462	10561.88
505.83	10716.23
506.199	10815.21
506.567	10993.96
506.936	11031.7
507.304	11253.84
507.672	11318.93
508.041	11480.28
508.409	11570.9
508.777	11626.04
509.145	11792.36
509.514	11856.09
509.882	11911.9
510.25	12059.7
510.618	12119.58
510.986	12261.5
511.354	12376.3
511.722	12486.13
512.09	12643.41
512.458	12637.31
512.826	12835.5
513.193	12926.34
513.561	12930.63
513.929	13127.69
514.297	13249.95
514.664	13330.85
515.032	13365.2
515.4	13452.2
515.767	13565.42
516.135	13659.2
516.502	13689.94
516.869	13877.05
517.237	13967.9
517.604	13946.43
517.972	14106.65
518.339	14179.42
518.706	14218.96
519.073	14289.69
519.44	14489.01
519.808	14652.85
520.175	14605.39
520.542	14733.53
520.909	14841.32
521.276	14849.91
521.643	15016.68
522.009	15239.27
522.376	15198.82
522.743	15372.15
523.11	15416.9
523.477	15582.77
523.843	15686.95
524.21	15781.18
524.577	15867.73
524.943	15949.31
525.31	16055.3
525.676	16121.96
526.043	16260.49
526.409	16284.44
526.776	16474.72
527.142	16435.4
527.508	16594.04
527.874	16602.63
528.241	16705.45
528.607	16740.48
528.973	16932.56
529.339	16865.22
529.705	17087.36
530.071	17174.14
530.437	17271.99
530.803	17314.25
531.169	17415.26
531.535	17331.42
531.901	17347.24
532.267	17488.48
532.632	17519.89
532.998	17551.53
533.364	17649.61
533.73	17729.6
534.095	17853.89
534.461	17863.16
534.826	17934.34
535.192	17958.52
535.557	18014.57
535.923	17953.55
536.288	18033.33
536.653	18128.92
537.019	18034.91
537.384	18124.17
537.749	18288.69
538.114	18136.83
538.479	18286.65
538.845	18339.53
539.21	18236.26
539.575	18353.32
539.94	18292.53
540.305	18393.77
540.67	18434.44
541.034	18471.51
541.399	18426.99
541.764	18493.65
542.129	18597.15
542.494	18546.76
542.858	18645.51
543.223	18412.52
543.587	18627.89
543.952	18639.41
544.316	18657.94
544.681	18584.5
545.045	18832.63
545.41	18772.51
545.774	18727.54
546.138	18749.24
546.503	18780.88
546.867	18699.52
547.231	18878.27
547.595	18869.46
547.959	19039.63
548.324	18916.92
548.688	18934.09
549.052	18973.19
549.416	19020.87
549.779	19040.08
550.143	18989.91
550.507	19178.38
550.871	19066.29
551.235	19185.84
551.599	19140.19
551.962	19192.16
552.326	19131.38
552.689	19344.25
553.053	19261.77
553.417	19333.63
553.78	19514.42
554.143	19390.13
554.507	19408.2
554.87	19288.21
555.234	19555.55
555.597	19445.94
555.96	19547.86
556.323	19612.49
556.686	19563.91
557.05	19670.12
557.413	19582.89
557.776	19721.87
558.139	19833.28
558.502	19800.96
558.865	19890.23
559.228	19955.53
559.59	19985.82
559.953	19946.5
560.316	20149.88
560.679	20150.78
561.041	20187.17
561.404	20251.57
561.767	20454.05
562.129	20389.65
562.492	20521.17
562.854	20484.33
563.217	20493.6
563.579	20607.72
563.941	20731.11
564.304	20679.81
564.666	20830.77
565.028	20829.64
565.39	20853.59
565.753	20963.42
566.115	20968.62
566.477	21033.92
566.839	21091.32
567.201	21256.29
567.563	21217.2
567.925	21293.35
568.287	21491.99
568.648	21571.54
569.01	21484.08
569.372	21554.36
569.734	21633.46
570.095	21652.89
570.457	21710.06
570.819	21755.94
571.18	21689.95
571.542	21818.99
571.903	21981.47
572.265	21907.8
572.626	21939.66
572.987	22055.14
573.349	21987.12
573.71	22099.66
574.071	22165.19
574.432	22105.76
574.794	22363.83
575.155	22329.26
575.516	22158.87
575.877	22399.09
576.238	22406.54
576.599	22460.55
576.96	22465.98
577.32	22480.44
577.681	22583.04
578.042	22606.31
578.403	22566.99
578.763	22641.79
579.124	22669.81
579.485	22684.73
579.845	22711.39
580.206	22651.28
580.566	22673.43
580.927	22708.23
581.287	22714.78
581.648	22669.36
582.008	22818.28
582.368	22742.35
582.728	22839.53
583.089	22735.35
583.449	22737.83
583.809	22799.08
584.169	22851.5
584.529	22794.33
584.889	22926.08
585.249	22742.81
585.609	22824.84
585.969	22878.4
586.329	22777.16
586.688	22893.08
587.048	22828.68
587.408	22812.41
587.768	22860.54
588.127	22879.53
588.487	22839.75
588.846	22959.07
589.206	22821
589.565	22876.81
589.925	22934.44
590.284	22853.31
590.643	22837.72
591.003	22816.48
591.362	22883.59
591.721	22982.8
592.08	23028.67
592.44	22950.94
592.799	22967.21
593.158	22894.67
593.517	22940.31
593.876	22909.58
594.235	22945.96
594.593	22891.28
594.952	22898.06
595.311	22944.16
595.67	22944.61
596.029	23041.1
596.387	23004.95
596.746	23047.2
597.104	22992.29
597.463	22899.86
597.822	23063.25
598.18	22901.45
598.538	22850.83
598.897	23073.87
599.255	22805.4
599.613	23089.24
599.972	22956.13
600.33	23012.4
600.688	23004.95
601.046	23071.84
601.404	23209.23
601.762	23125.17
602.12	23215.56
602.478	23269.35
602.836	23234.54
603.194	23218.95
603.552	23140.31
603.91	23156.81
604.268	23258.5
604.625	23138.5
604.983	23292.62
605.341	23213.75
605.698	23260.76
606.056	23438.61
606.413	23285.62
606.771	23375.11
607.128	23386.4
607.485	23330.81
607.843	23344.82
608.2	23399.29
608.557	23599.28
608.914	23480.64
609.272	23653.52
609.629	23621.65
609.986	23687.19
610.343	23652.39
610.7	23733.74
611.057	23804.02
611.414	23793.17
611.771	23801.99
612.127	23841.53
612.484	23859.39
612.841	23940.06
613.198	23761.31
613.554	23808.54
613.911	23937.58
614.267	23924.47
614.624	23926.28
614.98	23964.02
615.337	24053.73
615.693	24053.28
616.05	24110.45
616.406	24229.09
616.762	24001.08
617.118	24062.09
617.475	24133.5
617.831	24121.98
618.187	24224.35
618.543	24204.69
618.899	24461.18
619.255	24376.66
619.611	24269.77
619.967	24365.59
620.323	24491.91
620.678	24305.25
621.034	24334.63
621.39	24246.95
621.746	24289.43
622.101	24564.9
622.457	24416.43
622.812	24422.31
623.168	24574.85
623.523	24465.02
623.879	24642.19
624.234	24383.67
624.589	24533.49
624.945	24542.76
625.3	24524.91
625.655	24512.25
626.01	24547.28
626.365	24599.03
626.72	24604
627.075	24533.72
627.43	24591.12
627.785	24491.91
628.14	24651.23
628.495	24550.67
628.85	24528.97
629.205	24382.31
629.559	24646.71
629.914	24521.74
630.269	24538.24
630.623	24506.6
630.978	24510.22
631.332	24585.02
631.687	24597.67
632.041	24411.24
632.396	24485.58
632.75	24403.1
633.104	24488.75
633.459	24352.03
633.813	24474.06
634.167	24340.73
634.521	24329.88
634.875	24493.49
635.229	24329.66
635.583	24284.69
635.937	24138.25
636.291	24194.07
636.645	24201.07
636.999	24060.51
637.352	24226.16
637.706	24136.89
638.06	24156.33
638.413	24041.08
638.767	24080.62
639.121	24135.31
639.474	24054.41
639.828	23989.55
640.181	24018.93
640.534	24060.29
640.888	24075.2
641.241	23810.8
641.594	24020.29
641.947	23966.73
642.301	23896.45
642.654	23933.51
643.007	23917.46
643.36	23928.99
643.713	23843.57
644.066	23861.19
644.419	23793.4
644.771	23757.24
645.124	23375.78
645.477	23523.58
645.83	23251.49
646.182	23213.3
646.535	23091.72
646.888	23129.69
647.24	23067.77
647.593	23033.42
647.945	23054.66
648.298	23018.28
648.65	22973.76
649.002	22892.86
649.355	22936.25
649.707	22882.69
650.059	23029.35
650.411	23299.85
650.763	23260.08
651.115	23619.85
651.467	23399.29
651.819	23472.73
652.171	23325.62
652.523	23340.08
652.875	23355.9
653.227	23344.6
653.578	23440.87
653.93	23432.96
654.282	23350.25
654.633	23241.78
654.985	23308.44
655.337	23355.45
655.688	23377.14
656.039	23469.57
656.391	23091.05
656.742	23264.6
657.094	23264.83
657.445	23387.31
657.796	23296.69
658.147	23272.96
658.498	23289.01
658.849	23379.63
659.2	23309.34
659.551	23337.14
659.902	23323.81
660.253	23276.35
660.604	23414.43
660.955	23309.8
661.306	23336.01
661.656	23282
662.007	23236.35
662.358	23309.57
662.708	23312.28
663.059	23329.01
663.409	23142.8
663.76	23343.92
664.11	23248.78
664.461	23351.83
664.811	23377.14
665.161	23380.53
665.511	23195.9
665.862	23392.96
666.212	23339.85
666.562	23246.75
666.912	23336.24
667.262	23174.43
667.612	23238.61
667.962	23404.26
668.312	23351.38
668.662	23308.89
669.011	23271.83
669.361	23317.93
669.711	23194.32
670.06	23144.15
670.41	23193.64
670.76	23213.53
671.109	23222.12
671.459	23221.21
671.808	23179.4
672.157	23379.63
672.507	23075.45
672.856	23056.02
673.205	23119.52
673.554	23142.12
673.904	23098.73
674.253	23211.49
674.602	23067.77
674.951	22776.03
675.3	22560.89
675.649	22908.68
675.998	22964.27
676.346	22974.21
676.695	23042.69
677.044	22946.87
677.393	22910.49
677.741	22901.9
678.09	22882.69
678.438	22849.92
678.787	22910.03
679.135	22982.57
679.484	22730.15
679.832	22880.66
680.181	22708
680.529	22691.06
680.877	22690.38
681.225	22679.98
681.573	22728.8
681.922	22598.18
682.27	22578.74
682.618	22552.3
682.966	22440.44
683.314	22580.32
683.661	22435.47
684.009	22391.63
684.357	22294.91
684.705	22268.24
685.053	22270.28
685.4	22235.25
685.748	22130.17
686.095	22078.19
686.443	22050.62
686.79	22043.84
687.138	22082.26
687.485	21995.93
687.832	21897.63
688.18	21766.11
688.527	21809.27
688.874	21746.45
689.221	21675.72
689.568	21647.02
689.915	21578.77
690.262	21516.17
690.609	21440.47
690.956	21388.27
691.303	21403.18
691.65	21280.02
691.997	21323.18
692.344	21204.09
692.69	21094.94
693.037	21191.43
693.383	20946.24
693.73	21029.63
694.077	20940.82
694.423	20941.05
694.769	20847.94
695.116	20780.15
695.462	20680.04
695.808	20707.15
696.155	20662.63
696.501	20535.86
696.847	20560.94
697.193	20346.26
697.539	20466.93
697.885	20278.46
698.231	20202.08
698.577	20085.7
698.923	20061.97
699.269	20018.58
699.614	19915.54
699.96	19923.9
700.306	19881.41
700.651	19763
700.997	19756.22
701.342	19586.28
701.688	19670.34
702.033	19590.8
702.379	19545.83
702.724	19415.44
703.069	19593.96
703.415	19170.47
703.76	19269.68
704.105	19334.76
704.45	19225.16
704.795	19196.91
705.14	19052.51
705.485	19064.03
705.83	18960.53
706.175	18857.26
706.52	18881.44
706.865	18854.32
707.209	18806.19
707.554	18686.42
707.899	18818.84
708.243	18646.19
708.588	18558.28
708.932	18460.21
709.277	18452.52
709.621	18447.55
709.966	18270.61
710.31	18445.74
710.654	18178.63
710.998	18275.13
711.342	18198.74
711.687	18187.45
712.031	18144.73
712.375	18080.56
712.719	18106.54
713.063	18067.22
713.407	18141.12
713.75	17955.36
714.094	17951.29
714.438	17846.89
714.782	17906.55
715.125	17757.63
715.469	17834.91
715.812	17736.61
716.156	17674.01
716.499	17732.32
716.843	17735.48
717.186	17483.51
717.53	17586.33
717.873	17651.19
718.216	17595.6
718.559	17379.11
718.902	17461.14
719.246	17408.26
719.589	17269.5
719.932	17296.17
720.275	17356.51
720.617	17264.53
720.96	17293.68
721.303	17309.28
721.646	17212.56
721.989	17202.39
722.331	17168.94
722.674	17097.76
723.016	17119
723.359	17078.1
723.701	17064.09
724.044	16995.39
724.386	16996.97
724.729	17003.3
725.071	16962.39
725.413	16908.38
725.755	17013.01
726.097	16961.72
726.439	16765.11
726.782	16843.3
727.124	16909.74
727.465	16803.75
727.807	16729.86
728.149	16783.41
728.491	16728.5
728.833	16780.02
729.175	16654.15
729.516	16672.68
729.858	16694.15
730.199	16679.91
730.541	16686.02
730.882	16623.87
731.224	16682.85
731.565	16601.5
731.906	16552.23
732.248	16602.85
732.589	16497.77
732.93	16502.74
733.271	16489.41
733.612	16530.99
733.953	16547.49
734.294	16450.54
734.635	16489.64
734.976	16649.86
735.317	16337.32
735.658	16405.8
735.999	16516.53
736.339	16429.07
736.68	16392.01
737.021	16477.21
737.361	16357.21
737.702	16439.02
738.042	16360.6
738.383	16309.53
738.723	16421.16
739.063	16366.25
739.404	16369.19
739.744	16295.29
740.084	16296.87
740.424	16408.51
740.764	16300.26
741.104	16380.94
741.444	16261.39
741.784	16199.93
742.124	16345.23
742.464	16388.62
742.804	16237.21
743.143	16290.55
743.483	16265.46
743.823	16317.89
744.162	16375.52
744.502	16392.01
744.841	16305.24
745.181	16335.97
745.52	16387.04
745.86	16405.35
746.199	16363.31
746.538	16308.17
746.877	16472.91
747.216	16487.15
747.556	16522.4
747.895	16641.95
748.234	16471.56
748.573	16549.3
748.911	16512.01
749.25	16693.47
749.589	16574.61
749.928	16648.95
750.267	16723.98
750.605	16799.69
750.944	16803.08
751.283	16761.95
751.621	16887.37
751.96	16800.14
752.298	16942.96
752.636	17038.1
752.975	16962.39
753.313	16946.35
753.651	17192.22
753.989	17115.84
754.327	17195.83
754.666	17290.52
755.004	17348.37
755.342	17426.11
755.679	17481.48
756.017	17508.14
756.355	17544.75
756.693	17688.25
