Data from hue_60_FLMS001491_65.txt Node
Date: Mon Feb 06 15:17:44 GMT 2017
User: dcchb
Spectrometer: FLMS00149
Trigger mode: 0
Integration Time (sec): 2.000000E-2
Scans to average: 10
Electric dark correction enabled: true
Nonlinearity correction enabled: false
Boxcar width: 0
XAxis mode: Wavelengths
Number of Pixels in Spectrum: 2048
>>>>>Begin Spectral Data<<<<<
341.393	-7.1
341.776	-7.1
342.16	-7.1
342.543	-57.05
342.927	-62.02
343.31	-78.74
343.693	-73.32
344.077	-61.11
344.46	-70.83
344.843	-49.59
345.226	-21.34
345.61	-15.47
345.993	-26.09
346.376	-10.49
346.759	13.46
347.142	27.47
347.525	45.32
347.908	54.14
348.291	59.33
348.674	89.62
349.057	117.64
349.44	124.42
349.823	141.59
350.206	164.19
350.588	191.08
350.971	210.74
351.354	223.85
351.737	248.71
352.119	260.23
352.502	271.98
352.884	253.23
353.267	291.64
353.65	292.77
354.032	302.49
354.414	304.98
354.797	315.83
355.179	318.08
355.562	315.15
355.944	323.73
356.326	335.26
356.709	343.17
357.091	353.34
357.473	346.33
357.855	342.94
358.238	339.33
358.62	343.85
359.002	340.46
359.384	343.85
359.766	338.42
360.148	338.2
360.53	339.55
360.912	320.57
361.294	350.17
361.676	351.76
362.057	332.1
362.439	333.9
362.821	331.87
363.203	332.55
363.584	327.35
363.966	330.97
364.348	322.38
364.729	306.79
365.111	323.96
365.493	334.13
365.874	325.09
366.256	312.44
366.637	320.34
367.019	303.85
367.4	299.78
367.781	318.08
368.163	314.92
368.544	342.94
368.925	313.79
369.306	335.94
369.688	317.41
370.069	277.41
370.45	317.86
370.831	312.66
371.212	296.84
371.593	337.97
371.974	306.56
372.355	341.59
372.736	315.6
373.117	323.73
373.498	317.41
373.879	336.16
374.26	335.03
374.641	321.02
375.021	312.44
375.402	328.03
375.783	344.75
376.163	354.24
376.544	320.57
376.925	330.06
377.305	321.93
377.686	313.34
378.066	325.54
378.447	319.21
378.827	304.53
379.208	336.84
379.588	331.19
379.968	341.36
380.349	344.52
380.729	320.34
381.109	345.43
381.489	334.36
381.87	341.81
382.25	331.87
382.63	336.16
383.01	348.37
383.39	363.06
383.77	310.63
384.15	334.13
384.53	344.52
384.91	355.37
385.29	356.28
385.67	364.41
386.049	362.38
386.429	346.11
386.809	369.16
387.189	357.63
387.568	352.43
387.948	357.63
388.328	347.69
388.707	352.43
389.087	351.98
389.466	346.11
389.846	357.18
390.225	364.41
390.605	360.57
390.984	332.55
391.363	357.63
391.743	364.64
392.122	358.99
392.501	375.26
392.881	373.68
393.26	356.5
393.639	366.9
394.018	374.13
394.397	353.11
394.776	372.09
395.155	360.8
395.534	365.77
395.913	376.39
396.292	371.64
396.671	381.36
397.05	377.74
397.429	386.11
397.808	381.13
398.186	387.46
398.565	374.35
398.944	376.39
399.323	401.02
399.701	388.14
400.08	394.47
400.458	388.37
400.837	380
401.215	388.59
401.594	395.6
401.972	400.57
402.351	407.12
402.729	399.21
403.107	410.51
403.486	408.7
403.864	394.47
404.242	405.99
404.62	403.51
404.999	408.7
405.377	403.51
405.755	400.79
406.133	415.03
406.511	407.35
406.889	410.74
407.267	416.39
407.645	427.46
408.023	418.2
408.401	399.44
408.779	416.61
409.156	416.61
409.534	412.55
409.912	451.41
410.29	427.69
410.667	446.9
411.045	438.31
411.422	443.73
411.8	457.06
412.178	434.01
412.555	439.21
412.933	448.93
413.31	440.34
413.687	447.12
414.065	438.31
414.442	454.13
414.819	470.17
415.197	474.92
415.574	456.39
415.951	460.23
416.328	453.45
416.705	485.09
417.082	442.38
417.46	473.34
417.837	477.63
418.214	493.45
418.591	485.09
418.967	497.52
419.344	498.42
419.721	491.87
420.098	490.51
420.475	477.4
420.852	502.03
421.228	497.97
421.605	513.33
421.982	524.41
422.358	507.68
422.735	528.02
423.111	507.01
423.488	526.44
423.864	508.81
424.241	532.77
424.617	549.27
424.994	524.86
425.37	532.99
425.746	517.4
426.123	548.81
426.499	549.94
426.875	543.16
427.251	531.86
427.627	576.16
428.003	552.65
428.379	581.81
428.756	569.15
429.132	549.27
429.507	564.63
429.883	583.61
430.259	567.34
430.635	580.9
431.011	605.76
431.387	608.02
431.763	615.7
432.138	615.25
432.514	602.82
432.89	603.05
433.265	626.55
433.641	626.1
434.016	613.9
434.392	623.61
434.767	624.74
435.143	615.93
435.518	629.72
435.894	657.96
436.269	640.79
436.644	655.48
437.02	680.34
437.395	648.25
437.77	644.4
438.145	658.87
438.52	687.79
438.895	693.67
439.271	665.19
439.646	700
440.021	699.09
440.395	709.04
440.77	691.18
441.145	701.35
441.52	735.25
441.895	735.02
442.27	708.13
442.645	717.4
443.019	705.87
443.394	737.73
443.769	716.94
444.143	739.99
444.518	755.59
444.892	764.17
445.267	751.75
445.641	749.03
446.016	768.02
446.39	770.73
446.764	764.85
447.139	749.71
447.513	767.34
447.887	772.31
448.262	774.57
448.636	776.83
449.01	783.84
449.384	786.77
449.758	789.94
450.132	821.12
450.506	816.6
450.88	806.89
451.254	804.63
451.628	839.43
452.002	823.83
452.376	819.54
452.75	845.75
453.123	832.65
453.497	836.04
453.871	864.74
454.244	863.38
454.618	850.5
454.992	866.77
455.365	862.93
455.739	893.21
456.112	908.58
456.486	894.79
456.859	905.19
457.232	926.66
457.606	932.31
457.979	941.8
458.352	949.25
458.725	978.41
459.099	962.81
459.472	991.74
459.845	995.36
460.218	1045.98
460.591	1014.56
460.964	1036.26
461.337	1056.82
461.71	1034.22
462.083	1079.19
462.456	1084.17
462.829	1088.69
463.201	1109.25
463.574	1102.25
463.947	1145.86
464.32	1161.68
464.692	1152.64
465.065	1163.49
465.438	1186.31
465.81	1174.56
466.183	1190.83
466.555	1247.33
466.928	1260.43
467.3	1257.5
467.672	1294.33
468.045	1308.57
468.417	1314.22
468.789	1339.3
469.161	1375.01
469.534	1387.44
469.906	1436.47
470.278	1429.02
470.65	1434.21
471.022	1490.71
471.394	1509.24
471.766	1539.3
472.138	1566.19
472.51	1611.16
472.882	1642.12
473.253	1680.76
473.625	1723.47
473.997	1754.21
474.369	1777.71
474.74	1790.59
475.112	1855.22
475.484	1879.4
475.855	1959.62
476.227	1999.17
476.598	2045.72
476.97	2106.74
477.341	2125.49
477.713	2203.23
478.084	2237.13
478.455	2327.75
478.827	2363.91
479.198	2460.85
479.569	2486.84
479.94	2583.11
480.311	2650.23
480.682	2773.84
481.053	2864.23
481.424	2937.9
481.795	2968.18
482.166	3087.73
482.537	3122.3
482.908	3281.4
483.279	3366.37
483.65	3447.49
484.021	3577.21
484.391	3654.27
484.762	3734.94
485.133	3820.59
485.503	3889.29
485.874	4103.97
486.244	4185.33
486.615	4300.13
486.985	4429.39
487.356	4532.66
487.726	4619.44
488.097	4797.06
488.467	4896.95
488.837	5060.56
489.207	5178.07
489.578	5324.73
489.948	5456.03
490.318	5592.3
490.688	5702.8
491.058	5865.06
491.428	5976.92
491.798	6128.78
492.168	6375.1
492.538	6442.67
492.908	6639.27
493.278	6847.86
493.648	6837.24
494.017	7067.06
494.387	7198.81
494.757	7274.74
495.126	7492.59
495.496	7665.46
495.866	7774.84
496.235	7989.07
496.605	8134.38
496.974	8268.16
497.344	8395.16
497.713	8475.38
498.082	8683.97
498.452	8913.79
498.821	8992.89
499.19	9115.14
499.559	9323.5
499.928	9384.29
500.298	9541.57
500.667	9658.18
501.036	9829.93
501.405	9966.64
501.774	10067.43
502.143	10232.17
502.512	10375.45
502.88	10514.43
503.249	10638.94
503.618	10804.36
503.987	10876.68
504.356	11076.45
504.724	11185.37
505.093	11308.76
505.462	11488.64
505.83	11519.82
506.199	11718.46
506.567	11941.51
506.936	11952.58
507.304	12226.92
507.672	12277.77
508.041	12417.2
508.409	12621.72
508.777	12678.66
509.145	12863.29
509.514	12961.59
509.882	13115.26
510.25	13224.41
510.618	13372.88
510.986	13371.75
511.354	13679.09
511.722	13779.88
512.09	13931.96
512.458	13974.22
512.826	14098.06
513.193	14199.75
513.561	14344.83
513.929	14536.92
514.297	14679.52
514.664	14863.69
515.032	14905.05
515.4	15121.31
515.767	15205.83
516.135	15321.08
516.502	15295.54
516.869	15666.38
517.237	15756.32
517.604	15671.81
517.972	15950.22
518.339	16067.28
518.706	16142.3
519.073	16298.91
519.44	16395.4
519.808	16609.86
520.175	16641.5
520.542	16890.3
520.909	16916.07
521.276	17062.73
521.643	17264.08
522.009	17345.43
522.376	17465.88
522.743	17632.88
523.11	17808.92
523.477	18000.11
523.843	18079.43
524.21	18278.52
524.577	18423.6
524.943	18471.73
525.31	18730.71
525.676	18890.48
526.043	18963.02
526.409	19062
526.776	19365.72
527.142	19332.5
527.508	19546.51
527.874	19709.44
528.241	19742.21
528.607	19803.67
528.973	20030.33
529.339	20086.15
529.705	20248.41
530.071	20471.68
530.437	20606.82
530.803	20714.38
531.169	20829.86
531.535	20822.4
531.901	21004.09
532.267	21071.44
532.632	21126.58
532.998	21314.59
533.364	21347.36
533.73	21465.1
534.095	21576.28
534.461	21686.56
534.826	21876.16
535.192	21828.25
535.557	22083.39
535.923	22098.08
536.288	22176.72
536.653	22188.24
537.019	22197.74
537.384	22407
537.749	22468.46
538.114	22662.13
538.479	22563.38
538.845	22734.67
539.21	22752.98
539.575	22882.01
539.94	22933.08
540.305	23063.48
540.67	23046.07
541.034	23156.81
541.399	23345.05
541.764	23328.1
542.129	23445.16
542.494	23430.92
542.858	23645.16
543.223	23536.68
543.587	23797.24
543.952	23742.1
544.316	23825.72
544.681	23841.08
545.045	23910.01
545.41	24130.57
545.774	24150.23
546.138	24189.77
546.503	24352.71
546.867	24315.65
547.231	24447.62
547.595	24569.65
547.959	24610.78
548.324	24604.45
548.688	24651.46
549.052	24825.92
549.416	24893.71
549.779	24918.12
550.143	25043.76
550.507	25098
550.871	25336.86
551.235	25249.18
551.599	25453.47
551.962	25483.3
552.326	25640.58
552.689	25739.79
553.053	25617.53
553.417	25726.91
553.78	26068.82
554.143	25927.81
554.507	26060.91
554.87	26194.01
555.234	26467.23
555.597	26311.07
555.96	26424.07
556.323	26617.51
556.686	26631.97
557.05	26795.13
557.413	26961
557.776	27048.23
558.139	27153.54
558.502	27132.3
558.865	27334.1
559.228	27427.2
559.59	27516.24
559.953	27583.36
560.316	27896.57
560.679	27865.16
561.041	28068.77
561.404	28198.03
561.767	28413.17
562.129	28317.12
562.492	28615.19
562.854	28688.41
563.217	28699.94
563.579	28781.74
563.941	28940.61
564.304	29006.82
564.666	29217.66
565.028	29348.73
565.39	29512.35
565.753	29540.37
566.115	29658.78
566.477	29741.94
566.839	29901.26
567.201	30024.65
567.563	30074.82
567.925	30258.31
568.287	30320.23
568.648	30360.68
569.01	30562.26
569.372	30789.6
569.734	30741.47
570.095	31004.96
570.457	30984.85
570.819	31123.6
571.18	31066.2
571.542	31238.18
571.903	31316.14
572.265	31544.83
572.626	31712.29
572.987	31661.44
573.349	31677.94
573.71	31835.45
574.071	31852.17
574.432	32029.34
574.794	32366.73
575.155	32150.69
575.516	32199.05
575.877	32285.61
576.238	32362.44
576.599	32422.78
576.96	32508.65
577.32	32644.24
577.681	32762.66
578.042	32768.08
578.403	32861.41
578.763	32789.77
579.124	32891.01
579.485	33031.57
579.845	33077
580.206	33020.05
580.566	33150.67
580.927	33138.01
581.287	33233.15
581.648	33131.91
582.008	33402.41
582.368	33356.54
582.728	33366.48
583.089	33261.63
583.449	33346.14
583.809	33432.47
584.169	33455.07
584.529	33329.65
584.889	33630.88
585.249	33495.29
585.609	33312.92
585.969	33607.15
586.329	33613.71
586.688	33554.27
587.048	33682.63
587.408	33623.65
587.768	33416.2
588.127	33507.95
588.487	33649.41
588.846	33888.28
589.206	33675.17
589.565	33664.78
589.925	33848.05
590.284	33736.42
590.643	33826.81
591.003	33912.46
591.362	33934.83
591.721	33837.2
592.08	33983.19
592.44	33963.53
592.799	33917.65
593.158	34003.53
593.517	33947.48
593.876	34104.99
594.235	33950.19
594.593	33942.06
594.952	34149.96
595.311	34078.55
595.67	34139.79
596.029	34388.38
596.387	34402.16
596.746	34324.65
597.104	34347.47
597.463	34272.9
597.822	34298.66
598.18	34275.38
598.538	34351.31
598.897	34516.73
599.255	34337.53
599.613	34797.63
599.972	34510.86
600.33	34635.15
600.688	34628.14
601.046	34674.7
601.404	34742.26
601.762	34729.16
602.12	34905.65
602.478	34849.61
602.836	34895.03
603.194	34844.63
603.552	34891.41
603.91	34824.97
604.268	35113.1
604.625	34931.86
604.983	35118.3
605.341	35034.01
605.698	35251.63
606.056	35237.62
606.413	35272.42
606.771	35426.09
607.128	35395.35
607.485	35304.06
607.843	35374.34
608.2	35572.98
608.557	35716.93
608.914	35518.74
609.272	35688.91
609.629	35782.69
609.986	35975.9
610.343	35793.08
610.7	36070.82
611.057	35996.24
611.414	36066.52
611.771	36036.92
612.127	36169.35
612.484	36145.62
612.841	36306.74
613.198	36187.88
613.554	36172.28
613.911	36535.89
614.267	36501.77
614.624	36422.9
614.98	36525.95
615.337	36727.52
615.693	36777.01
616.05	36684.59
616.406	36755.77
616.762	36720.07
617.118	36674.87
617.475	36734.98
617.831	36953.28
618.187	37099.26
618.543	37096.1
618.899	37242.76
619.255	37390.1
619.611	37195.76
619.967	37309.65
620.323	37415.87
620.678	37346.26
621.034	37262.2
621.39	37312.37
621.746	37244.12
622.101	37776.76
622.457	37369.99
622.812	37464.68
623.168	37570.66
623.523	37661.51
623.879	37776.99
624.234	37693.6
624.589	37733.6
624.945	37749.19
625.3	37751.22
625.655	37714.62
626.01	37810.88
626.365	37762.52
626.72	37864.44
627.075	37694.05
627.43	37771.79
627.785	37729.98
628.14	37858.34
628.495	37875.52
628.85	37898.11
629.205	37743.99
629.559	37975.85
629.914	37740.15
630.269	37987.83
630.623	37817.66
630.978	37680.27
631.332	37808.62
631.687	37899.47
632.041	37740.38
632.396	37960.26
632.75	37650.21
633.104	37637.56
633.459	37699.7
633.813	37770.43
634.167	37738.12
634.521	37581.51
634.875	37663.32
635.229	37703.09
635.583	37515.07
635.937	37491.57
636.291	37613.15
636.645	37426.71
636.999	37391.91
637.352	37527.95
637.706	37289.09
638.06	37340.16
638.413	37436.66
638.767	37359.14
639.121	37374.06
639.474	37067.85
639.828	37151.01
640.181	37210.9
640.534	37386.26
640.888	37163.9
641.241	37101.07
641.594	37054.75
641.947	37198.25
642.301	37080.73
642.654	37127.06
643.007	37205.48
643.36	37164.12
643.713	37094.97
644.066	37094.52
644.419	36855.66
644.771	36694.76
645.124	36384.71
645.477	36246.41
645.83	36168.22
646.182	36002.57
646.535	35913.08
646.888	36000.31
647.24	35603.48
647.593	35897.49
647.945	35825.85
648.298	35623.6
648.65	35519.19
649.002	35405.52
649.355	35661.11
649.707	35684.84
650.059	35761.67
650.411	36114.66
650.763	36189.23
651.115	36556.91
651.467	36513.29
651.819	36423.58
652.171	36350.81
652.523	36314.65
652.875	36370.24
653.227	36198.72
653.578	36415.21
653.93	36360.75
654.282	36230.59
654.633	36143.36
654.985	36323.47
655.337	36113.53
655.688	36153.98
656.039	36356.69
656.391	36059.97
656.742	36144.94
657.094	36069.91
657.445	36164.15
657.796	36129.57
658.147	36022.23
658.498	35977.26
658.849	36148.33
659.2	35886.42
659.551	35944.49
659.902	36094.77
660.253	35961.67
660.604	36050.03
660.955	35713.09
661.306	36033.08
661.656	35950.14
662.007	35912.4
662.358	35859.52
662.708	35958.05
663.059	36019.74
663.409	35783.59
663.76	35939.07
664.11	35956.7
664.461	35975.45
664.811	35879.86
665.161	35927.32
665.511	35743.14
665.862	35800.32
666.212	35977.03
666.562	35949.92
666.912	35736.59
667.262	35763.71
667.612	35788.56
667.962	35772.29
668.312	35659.75
668.662	35802.58
669.011	35668.57
669.361	35742.24
669.711	35685.74
670.06	35631.51
670.41	35555.35
670.76	35607.33
671.109	35707.44
671.459	35631.51
671.808	35542.7
672.157	35745.18
672.507	35457.5
672.856	35395.58
673.205	35613.43
673.554	35468.35
673.904	35405.07
674.253	35595.58
674.602	35518.06
674.951	35039.88
675.3	34912.88
675.649	35464.28
675.998	35282.14
676.346	35223.83
676.695	35495.69
677.044	35254.79
677.393	35320.33
677.741	35361.68
678.09	35268.35
678.438	35213.21
678.787	35282.59
679.135	35099.32
679.484	35005.53
679.832	35028.36
680.181	34934.58
680.529	35033.33
680.877	34844.86
681.225	34894.35
681.573	35059.32
681.922	34724.64
682.27	34776.84
682.618	34710.85
682.966	34779.33
683.314	34819.78
683.661	34625.43
684.009	34484.42
684.357	34463.4
684.705	34370.75
685.053	34477.86
685.4	34357.64
685.748	34191.09
686.095	34208.27
686.443	34085.33
686.79	34046.46
687.138	34056.18
687.485	34052.11
687.832	34049.85
688.18	33998.33
688.527	33863.87
688.874	33672.24
689.221	33697.32
689.568	33652.8
689.915	33579.13
690.262	33578.23
690.609	33390.21
690.956	33343.66
691.303	33330.1
691.65	33200.16
691.997	33117
692.344	32999.94
692.69	33022.08
693.037	33002.88
693.383	32693.5
693.73	32850.34
694.077	32610.8
694.423	32700.06
694.769	32501.87
695.116	32496
695.462	32469.78
695.808	32236.79
696.155	32420.97
696.501	32048.55
696.847	32158.6
697.193	31892.4
697.539	32014.88
697.885	31716.81
698.231	31609.92
698.577	31629.35
698.923	31553.87
699.269	31550.03
699.614	31387.32
699.96	31279.3
700.306	31372.18
700.651	31346.65
700.997	31067.11
701.342	31121.34
701.688	30942.59
702.033	30895.59
702.379	30832.99
702.724	30706.44
703.069	30752.31
703.415	30426.9
703.76	30490.4
704.105	30470.06
704.45	30426.67
704.795	30172.44
705.14	30136.74
705.485	30191.42
705.83	29931.32
706.175	30007.25
706.52	30027.36
706.865	29820.81
707.209	29825.78
707.554	29693.81
707.899	29737.2
708.243	29510.54
708.588	29541.95
708.932	29354.16
709.277	29327.04
709.621	29379.24
709.966	29103.77
710.31	29357.55
710.654	28976.77
710.998	29101.73
711.342	29009.76
711.687	29037.1
712.031	28871.68
712.375	28741.97
712.719	28817.45
713.063	28776.32
713.407	28888.86
713.75	28613.61
714.094	28623.33
714.438	28437.35
714.782	28598.7
715.125	28501.75
715.469	28402.77
715.812	28264.69
716.156	28037.58
716.499	28084.36
716.843	28265.37
717.186	28039.84
717.53	28181.31
717.873	28015.21
718.216	28063.57
718.559	27854.76
718.902	27749.91
719.246	27706.07
719.589	27818.38
719.932	27557.37
720.275	27608.67
720.617	27496.58
720.96	27524.6
721.303	27570.7
721.646	27566.86
721.989	27386.3
722.331	27459.97
722.674	27314.89
723.016	27259.07
723.359	27178.4
723.701	27258.39
724.044	27005.97
724.386	26849.59
724.729	26989.47
725.071	26952.19
725.413	26873.54
725.755	26794.45
726.097	26850.04
726.439	26695.7
726.782	26589.48
727.124	26796.26
727.465	26688.92
727.807	26577.51
728.149	26610.73
728.491	26451.86
728.833	26601.69
729.175	26407.12
729.516	26356.27
729.858	26423.16
730.199	26460
730.541	26365.99
730.882	26297.97
731.224	26344.97
731.565	26166.44
731.906	26208.25
732.248	26185.43
732.589	25988.82
732.93	25981.59
733.271	25995.83
733.612	25972.55
733.953	25986.79
734.294	25842.61
734.635	25816.17
734.976	25874.02
735.317	25744.99
735.658	25806
735.999	25722.84
736.339	25577.76
736.68	25714.71
737.021	25693.01
737.361	25465.45
737.702	25644.88
738.042	25476.97
738.383	25366.92
738.723	25501.83
739.063	25437.2
739.404	25332.79
739.744	25283.3
740.084	25241.27
740.424	25309.29
740.764	25147.04
741.104	25304.09
741.444	24993.37
741.784	25106.59
742.124	25080.82
742.464	24997.44
742.804	24985.01
743.143	24892.58
743.483	24993.37
743.823	24826.37
744.162	24820.04
744.502	24864.33
744.841	24717.67
745.181	24900.26
745.52	24655.98
745.86	24775.75
746.199	24608.29
746.538	24672.25
746.877	24705.01
747.216	24660.27
747.556	24548.63
747.895	24566.94
748.234	24262.54
748.573	24474.29
748.911	24420.95
749.25	24369.66
749.589	24157.91
749.928	24260.96
750.267	24214.41
750.605	24181.64
750.944	24187.74
751.283	24055.77
751.621	23980.97
751.96	23900.06
752.298	23980.06
752.636	23870.23
752.975	23783.23
753.313	23705.27
753.651	23818.94
753.989	23703.23
754.327	23619.85
754.666	23389.57
755.004	23541.66
755.342	23575.55
755.679	23406.29
756.017	23390.25
756.355	23470.47
756.693	23359.74
