Data from hue_20_FLMS001491_21.txt Node
Date: Mon Feb 06 15:33:48 GMT 2017
User: dcchb
Spectrometer: FLMS00149
Trigger mode: 0
Integration Time (sec): 2.000000E-2
Scans to average: 10
Electric dark correction enabled: true
Nonlinearity correction enabled: false
Boxcar width: 0
XAxis mode: Wavelengths
Number of Pixels in Spectrum: 2048
>>>>>Begin Spectral Data<<<<<
341.393	-4.8
341.776	-4.8
342.16	-4.8
342.543	-44.12
342.927	-70.34
343.31	-81.64
343.693	-70.11
344.077	-65.82
344.46	-39.6
344.843	-61.07
345.226	-35.99
345.61	-36.89
345.993	-14.97
346.376	2.88
346.759	-0.28
347.142	31.58
347.525	41.52
347.908	68.42
348.291	48.08
348.674	96.21
349.057	117.68
349.44	135.08
349.823	118.58
350.206	151.8
350.588	183.89
350.971	222.76
351.354	211.24
351.737	234.97
352.119	246.94
352.502	260.28
352.884	281.52
353.267	294.63
353.65	297.34
354.032	289.2
354.414	304.12
354.797	308.64
355.179	309.54
355.562	311.35
355.944	310.22
356.326	335.75
356.709	331.91
357.091	332.14
357.473	361.52
357.855	349.09
358.238	341.4
358.62	340.5
359.002	349.76
359.384	346.38
359.766	347.73
360.148	354.28
360.53	348.63
360.912	332.82
361.294	344.79
361.676	321.97
362.057	335.3
362.439	313.61
362.821	341.18
363.203	324.91
363.584	325.81
363.966	316.77
364.348	332.82
364.729	342.99
365.111	319.26
365.493	318.35
365.874	314.06
366.256	320.84
366.637	300.27
367.019	301.18
367.4	315.19
367.781	300.95
368.163	310.44
368.544	313.61
368.925	306.83
369.306	291.91
369.688	328.52
370.069	317.22
370.45	293.04
370.831	310.44
371.212	306.6
371.593	315.42
371.974	307.28
372.355	332.14
372.736	307.51
373.117	333.95
373.498	322.87
373.879	320.84
374.26	314.51
374.641	320.16
375.021	324.91
375.402	323.78
375.783	329.65
376.163	325.58
376.544	326.04
376.925	330.1
377.305	312.25
377.686	337.56
378.066	316.77
378.447	330.33
378.827	318.35
379.208	334.4
379.588	331.46
379.968	329.2
380.349	308.18
380.729	329.2
381.109	347.28
381.489	337.56
381.87	332.36
382.25	338.24
382.63	344.79
383.01	333.49
383.39	330.78
383.77	331.01
384.15	341.63
384.53	354.06
384.91	367.39
385.29	352.48
385.67	348.63
386.049	347.73
386.429	349.09
386.809	319.94
387.189	363.1
387.568	348.41
387.948	370.33
388.328	351.57
388.707	370.1
389.087	375.98
389.466	363.78
389.846	369.65
390.225	350.22
390.605	375.98
390.984	360.16
391.363	381.63
391.743	378.46
392.122	389.31
392.501	375.07
392.881	379.37
393.26	375.3
393.639	371.91
394.018	387.28
394.397	382.53
394.776	378.01
395.155	392.02
395.534	408.52
395.913	367.17
396.292	382.98
396.671	368.07
397.05	375.53
397.429	394.74
397.808	381.4
398.186	388.18
398.565	394.96
398.944	391.35
399.323	369.2
399.701	396.54
400.08	413.72
400.458	399.71
400.837	404.23
401.215	366.49
401.594	402.64
401.972	413.94
402.351	406.49
402.729	412.14
403.107	392.02
403.486	389.31
403.864	422.76
404.242	411.23
404.62	423.89
404.999	406.94
405.377	427.28
405.755	418.92
406.133	413.27
406.511	389.99
406.889	416.43
407.267	415.75
407.645	419.82
408.023	423.66
408.401	441.29
408.779	435.41
409.156	444.23
409.534	431.8
409.912	451.23
410.29	445.36
410.667	425.47
411.045	446.94
411.422	452.59
411.8	427.95
412.178	450.78
412.555	450.78
412.933	450.78
413.31	474.06
413.687	468.41
414.065	456.88
414.442	466.82
414.819	481.06
415.197	463.89
415.574	490.55
415.951	469.08
416.328	486.26
416.705	491
417.082	476.99
417.46	485.13
417.837	510.66
418.214	491.68
418.591	486.03
418.967	461.85
419.344	481.96
419.721	513.38
420.098	513.15
420.475	517.22
420.852	513.83
421.228	510.44
421.605	497.78
421.982	490.33
422.358	510.89
422.735	516.99
423.111	530.55
423.488	519.03
423.864	527.61
424.241	556.09
424.617	541.62
424.994	549.53
425.37	539.36
425.746	541.17
426.123	552.47
426.499	545.24
426.875	536.88
427.251	547.27
427.627	550.21
428.003	572.36
428.379	543.88
428.756	558.12
429.132	572.13
429.507	585.69
429.883	578.46
430.259	595.18
430.635	596.99
431.011	596.76
431.387	599.25
431.763	592.92
432.138	599.02
432.514	609.42
432.89	602.41
433.265	615.29
433.641	620.94
434.016	606.93
434.392	661.85
434.767	648.51
435.143	652.81
435.518	648.29
435.894	639.02
436.269	675.41
436.644	672.24
437.02	666.82
437.395	666.82
437.77	689.42
438.145	668.4
438.52	670.21
438.895	671.11
439.271	700.72
439.646	691.45
440.021	712.24
440.395	720.38
440.77	706.59
441.145	716.31
441.52	719.92
441.895	734.61
442.27	709.08
442.645	701.85
443.019	717.21
443.394	716.99
443.769	740.71
444.143	729.87
444.518	722.64
444.892	758.79
445.267	741.39
445.641	742.52
446.016	747.04
446.39	761.73
446.764	748.62
447.139	754.5
447.513	741.84
447.887	797.66
448.262	765.57
448.636	767.15
449.01	789.3
449.384	786.36
449.758	772.35
450.132	800.83
450.506	802.63
450.88	809.87
451.254	794.72
451.628	830.43
452.002	818.45
452.376	794.95
452.75	843.09
453.123	831.56
453.497	845.35
453.871	842.41
454.244	874.5
454.618	865.91
454.992	870.2
455.365	866.59
455.739	896.64
456.112	900.94
456.486	894.16
456.859	903.87
457.232	911.33
457.606	923.76
457.979	942.52
458.352	937.55
458.725	942.74
459.099	973.03
459.472	960.14
459.845	1008.96
460.218	1012.35
460.591	987.71
460.964	977.54
461.337	1010.09
461.71	1034.72
462.083	1041.95
462.456	1029.97
462.829	1030.2
463.201	1059.12
463.574	1065
463.947	1102.74
464.32	1116.3
464.692	1114.94
465.065	1123.53
465.438	1144.77
465.81	1158.56
466.183	1171.66
466.555	1187.71
466.928	1163.3
467.3	1217.31
467.672	1212.57
468.045	1217.76
468.417	1251.89
468.789	1258.22
469.161	1262.06
469.534	1287.59
469.906	1285.79
470.278	1331.66
470.65	1340.93
471.022	1366.24
471.394	1369.4
471.766	1404.43
472.138	1397.19
472.51	1432.9
472.882	1443.75
473.253	1469.74
473.625	1478.77
473.997	1520.58
474.369	1526.91
474.74	1538.89
475.112	1618.66
475.484	1634.25
475.855	1644.65
476.227	1660.24
476.598	1697.75
476.97	1749.5
477.341	1749.95
477.713	1793.34
478.084	1801.93
478.455	1857.97
478.827	1883.28
479.198	1914.02
479.569	1979.78
479.94	1981.13
480.311	2012.32
480.682	2067.01
481.053	2097.97
481.424	2165.54
481.795	2173.67
482.166	2219.55
482.537	2264.06
482.908	2310.39
483.279	2327.57
483.65	2390.16
484.021	2447.79
484.391	2448.69
484.762	2539.76
485.133	2542.25
485.503	2563.27
485.874	2664.96
486.244	2656.14
486.615	2718.97
486.985	2768.23
487.356	2831.06
487.726	2826.76
488.097	2902.24
488.467	2901.79
488.837	3034.44
489.207	3056.36
489.578	3076.47
489.948	3138.39
490.318	3161.89
490.688	3197.15
491.058	3261.1
491.428	3281.21
491.798	3364.37
492.168	3468.78
492.538	3461.55
492.908	3500.42
493.278	3547.87
493.648	3542.68
494.017	3579.06
494.387	3617.02
494.757	3660.64
495.126	3758.71
495.496	3716
495.866	3764.14
496.235	3798.94
496.605	3867.64
496.974	3877.13
497.344	3937.47
497.713	3974.75
498.082	3955.55
498.452	4057.92
498.821	4036
499.19	4072.83
499.559	4120.97
499.928	4136.33
500.298	4165.03
500.667	4169.33
501.036	4184.69
501.405	4266.5
501.774	4213.39
502.143	4302.2
502.512	4323.9
502.88	4372.26
503.249	4391.01
503.618	4344.69
503.987	4392.14
504.356	4455.87
504.724	4441.63
505.093	4446.83
505.462	4492.25
505.83	4522.76
506.199	4569.99
506.567	4639.14
506.936	4648.63
507.304	4627.39
507.672	4651.35
508.041	4660.16
508.409	4727.05
508.777	4735.19
509.145	4751.46
509.514	4757.56
509.882	4761.17
510.25	4773.15
510.618	4837.33
510.986	4849.31
511.354	4854.28
511.722	4891.11
512.09	4918.23
512.458	4939.25
512.826	4945.58
513.193	4946.71
513.561	4983.54
513.929	4992.13
514.297	5050.88
514.664	5083.65
515.032	5106.02
515.4	5116.65
515.767	5073.71
516.135	5129.53
516.502	5061.73
516.869	5181.95
517.237	5205.23
517.604	5160.26
517.972	5201.84
518.339	5224.66
518.706	5247.94
519.073	5227.83
519.44	5254.27
519.808	5332.23
520.175	5328.84
520.542	5330.88
520.909	5336.07
521.276	5376.98
521.643	5428.95
522.009	5421.27
522.376	5416.07
522.743	5452.68
523.11	5512.11
523.477	5536.3
523.843	5572.68
524.21	5587.59
524.577	5609.51
524.943	5660.13
525.31	5621.72
525.676	5712.79
526.043	5711.88
526.409	5759.34
526.776	5794.59
527.142	5833.24
527.508	5827.81
527.874	5916.4
528.241	5885.66
528.607	5899.68
528.973	6009.05
529.339	5966.57
529.705	6021.48
530.071	6037.52
530.437	6010.41
530.803	6073.23
531.169	6120.91
531.535	6090.18
531.901	6100.35
532.267	6179.67
532.632	6175.15
532.998	6249.04
533.364	6283.85
533.73	6296.05
534.095	6304.64
534.461	6328.59
534.826	6381.24
535.192	6409.49
535.557	6448.36
535.923	6448.81
536.288	6441.36
536.653	6501.02
537.019	6507.79
537.384	6530.39
537.749	6533.33
538.114	6614.91
538.479	6575.14
538.845	6630.96
539.21	6669.82
539.575	6724.06
539.94	6678.19
540.305	6731.97
540.67	6794.34
541.034	6731.97
541.399	6832.08
541.764	6838.86
542.129	6874.34
542.494	6832.76
542.858	6903.94
543.223	6883.38
543.587	6987.78
543.952	6999.76
544.316	7049.02
544.681	7023.71
545.045	7103.71
545.41	7133.77
545.774	7224.39
546.138	7175.8
546.503	7159.08
546.867	7175.8
547.231	7300.32
547.595	7256.93
547.959	7311.16
548.324	7341.45
548.688	7308
549.052	7368.34
549.416	7368.56
549.779	7363.59
550.143	7416.25
550.507	7493.76
550.871	7476.36
551.235	7507.09
551.599	7592.96
551.962	7554.1
552.326	7557.03
552.689	7648.33
553.053	7596.13
553.417	7632.06
553.78	7803.58
554.143	7685.84
554.507	7756.12
554.87	7749.57
555.234	7797.03
555.597	7839.96
555.96	7880.19
556.323	7848.78
556.686	7919.28
557.05	7894.2
557.413	7969
557.776	7919.74
558.139	8035.89
558.502	7956.34
558.865	8026.17
559.228	8142.55
559.59	8138.71
559.953	8138.03
560.316	8168.54
560.679	8204.25
561.041	8190.46
561.404	8218.48
561.767	8298.26
562.129	8283.79
562.492	8364.24
562.854	8359.72
563.217	8342.77
563.579	8406.28
563.941	8440.85
564.304	8493.51
564.666	8488.08
565.028	8472.04
565.39	8514.07
565.753	8552.49
566.115	8575.76
566.477	8613.5
566.839	8644.46
567.201	8716.1
567.563	8729.88
567.925	8728.08
568.287	8819.37
568.648	8836.77
569.01	8915.42
569.372	8933.27
569.734	8928.07
570.095	8904.34
570.457	8974.4
570.819	9018.92
571.18	9067.95
571.542	9112.02
571.903	9138.46
572.265	9242.86
572.626	9269.76
572.987	9304.56
573.349	9313.37
573.71	9412.8
574.071	9418.23
574.432	9493.93
574.794	9565.12
575.155	9650.09
575.516	9685.34
575.877	9789.06
576.238	9818.22
576.599	9882.4
576.96	9992.22
577.32	10028.15
577.681	10129.39
578.042	10268.83
578.403	10296.62
578.763	10420.91
579.124	10488.26
579.485	10602.83
579.845	10786.78
580.206	10872.88
580.566	11027.9
580.927	11159.65
581.287	11333.88
581.648	11504.05
582.008	11569.58
582.368	11800.54
582.728	11863.59
583.089	12079.17
583.449	12215.44
583.809	12552.61
584.169	12659.95
584.529	12859.72
584.889	13146.49
585.249	13324.56
585.609	13464.22
585.969	13745.12
586.329	13916.87
586.688	14176.29
587.048	14451.31
587.408	14687.69
587.768	15029.38
588.127	15237.06
588.487	15508.46
588.846	15937.15
589.206	16070.03
589.565	16438.16
589.925	16723.57
590.284	17015.32
590.643	17336.66
591.003	17718.57
591.362	18014.84
591.721	18375.73
592.08	18713.58
592.44	19142.27
592.799	19430.85
593.158	19667.45
593.517	19997.38
593.876	20438.5
594.235	20719.62
594.593	21166.62
594.952	21534.07
595.311	21878.46
595.67	22254.5
596.029	22748.5
596.387	23051.54
596.746	23462.6
597.104	23678.42
597.463	24042.7
597.822	24505.06
598.18	24700.09
598.538	25007.2
598.897	25579.61
599.255	25748.19
599.613	26378.01
599.972	26711.33
600.33	27095.95
600.688	27299.79
601.046	27712.89
601.404	28150.62
601.762	28404.85
602.12	28866.53
602.478	29278.72
602.836	29565.72
603.194	29749.67
603.552	30168.64
603.91	30409.99
604.268	30884.33
604.625	31083.42
604.983	31563.63
605.341	31642.95
605.698	32140.34
606.056	32430.05
606.413	32782.36
606.771	33119.3
607.128	33444.49
607.485	33599.51
607.843	33743.69
608.2	34206.95
608.557	34783.89
608.914	34719.93
609.272	35177.1
609.629	35368.96
609.986	35859.57
610.343	35934.82
610.7	36367.57
611.057	36602.82
611.414	36628.58
611.771	37029.03
612.127	37291.84
612.484	37524.38
612.841	37863.58
613.198	37893.41
613.554	38192.61
613.911	38622.66
614.267	38624.01
614.624	38765.48
614.98	39228.06
615.337	39393.71
615.693	39540.37
616.05	39640.94
616.406	40034.37
616.762	40113.24
617.118	40246.79
617.475	40540.57
617.831	40702.38
618.187	40835.25
618.543	41081.58
618.899	41421.45
619.255	41419.87
619.611	41591.84
619.967	41846.3
620.323	42045.39
620.678	42039.74
621.034	42028.22
621.39	42159.06
621.746	42293.29
622.101	42799.5
622.457	42556.34
622.812	42868.65
623.168	43034.74
623.523	43136.66
623.879	43239.26
624.234	43094.18
624.589	43257.79
624.945	43497.33
625.3	43649.87
625.655	43613.03
626.01	43792.24
626.365	43935.06
626.72	43958.56
627.075	44007.6
627.43	44085.56
627.785	43970.31
628.14	44216.63
628.495	44307.48
628.85	44217.76
629.205	44315.39
629.559	44531.2
629.914	44373.69
630.269	44528.49
630.623	44470.19
630.978	44435.61
631.332	44620.69
631.687	44848.48
632.041	44612.33
632.396	44633.35
632.75	44582.27
633.104	44756.51
633.459	44574.59
633.813	44683.29
634.167	44707.92
634.521	44802.61
634.875	44834.7
635.229	44753.57
635.583	44695.27
635.937	44776.39
636.291	44700.24
636.645	44864.07
636.999	44672.89
637.352	44904.98
637.706	44749.05
638.06	44890.74
638.413	44916.28
638.767	44713.8
639.121	44725.55
639.474	44619.79
639.828	44600.8
640.181	44830.86
640.534	44721.48
640.888	44661.37
641.241	44491.43
641.594	44671.54
641.947	44731.65
642.301	44541.37
642.654	44619.34
643.007	44669.5
643.36	44588.83
643.713	44581.82
644.066	44772.55
644.419	44500.69
644.771	44229.29
645.124	43852.8
645.477	43797.89
645.83	43648.97
646.182	43510.66
646.535	43431.57
646.888	43416.88
647.24	43272.48
647.593	43563.54
647.945	43446.03
648.298	43098.47
648.65	43201.97
649.002	43096.21
649.355	43366.26
649.707	43216.21
650.059	43491.91
650.411	43813.25
650.763	43810.54
651.115	44197.65
651.467	44055.28
651.819	44156.07
652.171	44119.01
652.523	44048.95
652.875	44100.03
653.227	43999.24
653.578	44200.36
653.93	44000.14
654.282	43826.36
654.633	43752.24
654.985	43808.51
655.337	43904.78
655.688	43878.34
656.039	44166.01
656.391	43729.42
656.742	43787.72
657.094	43803.31
657.445	43890.54
657.796	43822.29
658.147	43780.94
658.498	43668.4
658.849	43900.94
659.2	43750.43
659.551	43671.79
659.902	43933.7
660.253	43813.03
660.604	43785.01
660.955	43698.23
661.306	43846.93
661.656	43691.45
662.007	43698.46
662.358	43670.43
662.708	43662.52
663.059	43716.53
663.409	43486.26
663.76	43715.86
664.11	43741.17
664.461	43717.89
664.811	43740.94
665.161	43683.99
665.511	43423.21
665.862	43747.27
666.212	43719.25
666.562	43835.63
666.912	43642.41
667.262	43569.65
667.612	43561.51
667.962	43601.28
668.312	43645.58
668.662	43803.54
669.011	43473.15
669.361	43648.97
669.711	43632.02
670.06	43463.43
670.41	43377.33
670.76	43429.31
671.109	43413.72
671.459	43544.11
671.808	43416.43
672.157	43425.47
672.507	43208.98
672.856	43194.06
673.205	43315.87
673.554	43412.14
673.904	43267.05
674.253	43431.8
674.602	43395.86
674.951	42822.77
675.3	42642.66
675.649	43263.44
675.998	43205.59
676.346	43204.46
676.695	43369.42
677.044	42951.81
677.393	43145.25
677.741	43197.68
678.09	43099.38
678.438	43015.54
678.787	42901.87
679.135	42980.96
679.484	42695.54
679.832	42895.99
680.181	42686.05
680.529	42755.43
680.877	42685.15
681.225	42750.23
681.573	42871.81
681.922	42592.5
682.27	42489.22
682.618	42510.46
682.966	42336.91
683.314	42378.04
683.661	42312.96
684.009	42074.77
684.357	42051.04
684.705	41976.92
685.053	42144.37
685.4	42035.9
685.748	41928.56
686.095	41864.15
686.443	41667.77
686.79	41677.04
687.138	41674.33
687.485	41726.3
687.832	41611.73
688.18	41630.26
688.527	41323.38
688.874	41371.06
689.221	41437.72
689.568	41243.15
689.915	41157.96
690.262	41058.98
690.609	40958.19
690.956	40780.34
691.303	40859.89
691.65	40689.04
691.997	40679.33
692.344	40379.67
692.69	40461.25
693.037	40253.12
693.383	39981.72
693.73	40353.68
694.077	39941.27
694.423	40010.42
694.769	39799.12
695.116	39831.44
695.462	39727.94
695.808	39584.67
696.155	39691.33
696.501	39472.13
696.847	39243.66
697.193	39262.87
697.539	39242.98
697.885	38850.9
698.231	38803.67
698.577	38779.26
698.923	38809.09
699.269	38648.64
699.614	38415.43
699.96	38428.09
700.306	38553.05
700.651	38238.03
700.997	38010.02
701.342	38079.39
701.688	37936.57
702.033	37993.29
702.379	37890.92
702.724	37762.11
703.069	37783.36
703.415	37334.78
703.76	37348.57
704.105	37412.29
704.45	37345.18
704.795	37034.45
705.14	37060.66
705.485	37096.37
705.83	36867.67
706.175	36957.62
706.52	36686.66
706.865	36646.21
707.209	36567.57
707.554	36470.85
707.899	36539.32
708.243	36349.04
708.588	36209.16
708.932	36157.64
709.277	36100.24
709.621	36170.29
709.966	35807.36
710.31	35966.46
710.654	35600.14
710.998	35745.67
711.342	35705.22
711.687	35566.47
712.031	35517.65
712.375	35326.47
712.719	35423.64
713.063	35330.31
713.407	35316.53
713.75	35196.31
714.094	35149.53
714.438	34985.69
714.782	35049.42
715.125	34942.08
715.469	34919.48
715.812	34812.81
716.156	34576.66
716.499	34580.05
716.843	34661.86
717.186	34464.12
717.53	34621.41
717.873	34416.21
718.216	34447.63
718.559	34110.46
718.902	34226.84
719.246	34197.69
719.589	34111.81
719.932	34026.62
720.275	33996.34
720.617	33960.41
720.96	33851.26
721.303	33860.75
721.646	33828.66
721.989	33645.16
722.331	33725.16
722.674	33619.85
723.016	33637.25
723.359	33554.09
723.701	33646.74
724.044	33261.89
724.386	33049.92
724.729	33397.03
725.071	33260.31
725.413	33111.62
725.755	33172.18
726.097	33031.62
726.439	32846.99
726.782	32819.42
727.124	32906.65
727.465	32817.16
727.807	32815.13
728.149	32782.81
728.491	32544.62
728.833	32742.59
729.175	32608.58
729.516	32381.01
729.858	32376.95
730.199	32454.68
730.541	32476.6
730.882	32351.86
731.224	32484.29
731.565	32204.97
731.906	32218.08
732.248	32236.16
732.589	32118.65
732.93	32029.61
733.271	31993.45
733.612	32028.48
733.953	32040.01
734.294	31844.76
734.635	31745.78
734.976	31884.75
735.317	31692.9
735.658	31659.68
735.999	31682.73
736.339	31543.75
736.68	31730.41
737.021	31627.59
737.361	31463.07
737.702	31574.93
738.042	31509.85
738.383	31406.8
738.723	31437.53
739.063	31346.46
739.404	31349.63
739.744	31180.59
740.084	31167.94
740.424	31122.29
740.764	31074.38
741.104	31139.69
741.444	31016.98
741.784	30893.59
742.124	30923.2
742.464	30913.25
742.804	30897.66
743.143	30724.79
743.483	30702.87
743.823	30593.04
744.162	30564.34
744.502	30681.62
744.841	30457.22
745.181	30746.25
745.52	30448.63
745.86	30621.29
746.199	30382.42
746.538	30306.72
746.877	30330.22
747.216	30403.44
747.556	30140.17
747.895	30286.15
748.234	30128.87
748.573	30165.25
748.911	30145.14
749.25	30007.29
749.589	29997.35
749.928	30049.1
750.267	30182.2
750.605	29871.25
750.944	29866.05
751.283	29781.76
751.621	29787.18
751.96	29534.99
752.298	29626.06
752.636	29590.35
752.975	29433.07
753.313	29462.22
753.651	29564.82
753.989	29336.12
754.327	29412.96
754.666	29236.91
755.004	29225.62
755.342	29229.68
755.679	29222.9
756.017	29031.72
756.355	29126.86
756.693	29004.83
757.031	28974.77
757.368	28846.42
757.706	28777.04
758.044	28697.04
758.381	28801.45
758.719	28497.73
759.056	28676.7
759.394	28464.05
759.731	28315.36
760.068	28280.56
