Data from hue_130_FLMS001491_00075.txt Node
Date: Tue Feb 07 16:58:04 GMT 2017
User: dcchb
Spectrometer: FLMS00149
Trigger mode: 0
Integration Time (sec): 2.000000E-2
Scans to average: 10
Electric dark correction enabled: true
Nonlinearity correction enabled: false
Boxcar width: 0
XAxis mode: Wavelengths
Number of Pixels in Spectrum: 2048
>>>>>Begin Spectral Data<<<<<
341.393	-3.91
341.776	-3.91
342.16	-3.91
342.543	-73.97
342.927	-70.8
343.31	-77.81
343.693	-84.14
344.077	-65.61
344.46	-64.93
344.843	-40.75
345.226	-36.23
345.61	-33.52
345.993	-19.05
346.376	6.26
346.759	3.32
347.142	-0.3
347.525	39.7
347.908	57.78
348.291	89.64
348.674	102.98
349.057	122.64
349.44	123.99
349.823	142.3
350.206	161.73
350.588	194.27
350.971	187.27
351.354	207.38
351.737	249.87
352.119	249.87
352.502	255.29
352.884	260.26
353.267	295.74
353.65	298.9
354.032	292.8
354.414	302.07
354.797	316.08
355.179	310.43
355.562	317.66
355.944	294.38
356.326	330.77
356.709	337.77
357.091	326.93
357.473	353.82
357.855	339.58
358.238	326.02
358.62	328.06
359.002	367.83
359.384	332.12
359.766	336.87
360.148	318.79
360.53	327.6
360.912	343.65
361.294	333.71
361.676	354.72
362.057	303.65
362.439	327.38
362.821	339.58
363.203	315.18
363.584	323.76
363.966	339.36
364.348	335.97
364.729	327.83
365.111	318.11
365.493	314.72
365.874	307.49
366.256	321.05
366.637	315.18
367.019	324.21
367.4	314.5
367.781	303.65
368.163	300.49
368.544	316.76
368.925	299.36
369.306	305.68
369.688	302.97
370.069	298.9
370.45	317.66
370.831	292.58
371.212	301.84
371.593	325.34
371.974	307.49
372.355	305.01
372.736	332.8
373.117	318.79
373.498	312.46
373.879	310.66
374.26	335.06
374.641	326.25
375.021	316.08
375.402	301.62
375.783	303.2
376.163	307.72
376.544	319.92
376.925	307.04
377.305	323.54
377.686	319.02
378.066	311.79
378.447	331.45
378.827	309.53
379.208	334.61
379.588	328.51
379.968	316.53
380.349	334.61
380.729	344.1
381.109	345.68
381.489	336.87
381.87	333.93
382.25	337.32
382.63	309.3
383.01	340.71
383.39	341.84
383.77	355.85
384.15	335.06
384.53	348.39
384.91	345.68
385.29	358.34
385.67	339.13
386.049	351.78
386.429	365.57
386.809	361.95
387.189	367.6
387.568	352.46
387.948	340.71
388.328	350.65
388.707	347.26
389.087	352.01
389.466	353.82
389.846	344.1
390.225	366.93
390.605	348.85
390.984	371.22
391.363	357.66
391.743	354.04
392.122	362.18
392.501	350.65
392.881	360.15
393.26	378.68
393.639	380.03
394.018	366.93
394.397	380.94
394.776	374.83
395.155	357.89
395.534	362.63
395.913	361.28
396.292	373.03
396.671	379.13
397.05	372.35
397.429	386.13
397.808	388.39
398.186	389.3
398.565	386.13
398.944	376.64
399.323	393.82
399.701	369.64
400.08	399.92
400.458	395.17
400.837	396.3
401.215	378.68
401.594	403.99
401.972	411.9
402.351	393.82
402.729	411.44
403.107	404.89
403.486	403.31
403.864	390.43
404.242	408.73
404.62	404.44
404.999	410.31
405.377	401.73
405.755	398.79
406.133	413.48
406.511	422.97
406.889	420.48
407.267	434.04
407.645	425.91
408.023	409.41
408.401	434.72
408.779	442.18
409.156	453.02
409.534	450.31
409.912	446.47
410.29	441.95
410.667	447.83
411.045	460.93
411.422	442.4
411.8	455.74
412.178	476.75
412.555	453.7
412.933	459.58
413.31	457.09
413.687	476.3
414.065	467.26
414.442	477.88
414.819	481.95
415.197	473.36
415.574	479.46
415.951	497.54
416.328	491.22
416.705	506.13
417.082	504.55
417.46	484.44
417.837	497.54
418.214	485.34
418.591	502.52
418.967	508.39
419.344	500.93
419.721	517.2
420.098	511.1
420.475	519.01
420.852	528.5
421.228	523.76
421.605	537.32
421.982	527.15
422.358	546.58
422.735	547.03
423.111	559.91
423.488	544.1
423.864	531.89
424.241	535.51
424.617	529.18
424.994	537.09
425.37	544.55
425.746	567.82
426.123	557.88
426.499	559.01
426.875	564.66
427.251	578.67
427.627	571.21
428.003	570.31
428.379	600.37
428.756	591.78
429.132	596.3
429.507	607.6
429.883	595.17
430.259	605.34
430.635	585.68
431.011	579.8
431.387	620.03
431.763	644.43
432.138	651.66
432.514	650.08
432.89	641.04
433.265	650.76
433.641	650.08
434.016	639.91
434.392	635.62
434.767	693.47
435.143	687.59
435.518	673.58
435.894	672.23
436.269	675.17
436.644	709.29
437.02	686.01
437.395	706.35
437.77	708.84
438.145	727.14
438.52	717.88
438.895	735.28
439.271	719.68
439.646	730.31
440.021	742.73
440.395	735.96
440.77	730.76
441.145	755.62
441.52	758.55
441.895	769.4
442.27	769.63
442.645	758.33
443.019	789.29
443.394	774.15
443.769	797.42
444.143	770.3
444.518	803.98
444.892	801.94
445.267	819.79
445.641	820.02
446.016	819.12
446.39	814.6
446.764	806.69
447.139	817.99
447.513	830.19
447.887	839.23
448.262	836.97
448.636	841.26
449.01	862.96
449.384	846.01
449.758	873.35
450.132	895.27
450.506	895.95
450.88	885.78
451.254	895.5
451.628	897.31
452.002	883.07
452.376	927.59
452.75	914.93
453.123	937.98
453.497	949.06
453.871	967.59
454.244	966.46
454.618	980.69
454.992	982.5
455.365	991.54
455.739	1006
456.112	1008.49
456.486	1024.31
456.859	1050.3
457.232	1045.78
457.606	1036.06
457.979	1055.04
458.352	1072.44
458.725	1096.85
459.099	1104.53
459.472	1129.84
459.845	1122.84
460.218	1137.75
460.591	1131.88
460.964	1165.32
461.337	1162.38
461.71	1203.51
462.083	1208.94
462.456	1221.37
462.829	1203.29
463.201	1246.22
463.574	1263.62
463.947	1281.48
464.32	1304.75
464.692	1321.93
465.065	1333.91
465.438	1370.29
465.81	1336.62
466.183	1352.66
466.555	1424.3
466.928	1411.42
467.3	1409.16
467.672	1433.79
468.045	1489.16
468.417	1481.92
468.789	1497.74
469.161	1544.07
469.534	1561.92
469.906	1598.08
470.278	1614.35
470.65	1639.21
471.022	1726.44
471.394	1697.06
471.766	1746.78
472.138	1766.44
472.51	1819.54
472.882	1850.95
473.253	1892.53
473.625	1936.38
473.997	1993.1
474.369	1985.41
474.74	2040.1
475.112	2079.87
475.484	2147.44
475.855	2193.54
476.227	2250.04
476.598	2303.82
476.97	2375.46
477.341	2449.13
477.713	2498.17
478.084	2525.29
478.455	2624.04
478.827	2666.3
479.198	2771.16
479.569	2829.01
479.94	2918.5
480.311	2961.21
480.682	3050.02
481.053	3151.94
481.424	3224.03
481.795	3301.09
482.166	3372.5
482.537	3475.54
482.908	3581.3
483.279	3674.64
483.65	3768.87
484.021	3861.52
484.391	3954.63
484.762	4042.08
485.133	4134.96
485.503	4242.53
485.874	4408.63
486.244	4450.89
486.615	4633.71
486.985	4710.99
487.356	4815.85
487.726	4941.72
488.097	5109.17
488.467	5218.32
488.837	5332.9
489.207	5451.09
489.578	5599.33
489.948	5718.65
490.318	5884.29
490.688	5916.61
491.058	6078.19
491.428	6197.73
491.798	6376.48
492.168	6517.95
492.538	6651.96
492.908	6754.55
493.278	6859.64
493.648	6968.56
494.017	7046.75
494.387	7244.71
494.757	7332.17
495.126	7459.39
495.496	7545.49
495.866	7631.82
496.235	7834.53
496.605	7962.66
496.974	8062.09
497.344	8189.54
497.713	8349.31
498.082	8437.22
498.452	8538.91
498.821	8578.01
499.19	8740.94
499.559	8889.64
499.928	8888.28
500.298	9038.11
500.667	9135.73
501.036	9170.31
501.405	9268.61
501.774	9281.95
502.143	9510.19
502.512	9505.89
502.88	9642.61
503.249	9684.42
503.618	9760.58
503.987	9815.49
504.356	9968.71
504.724	10060.91
505.093	10055.48
505.462	10123.96
505.83	10205.76
506.199	10268.81
506.567	10497.96
506.936	10460.9
507.304	10619.09
507.672	10624.51
508.041	10691.17
508.409	10789.25
508.777	10875.12
509.145	10908.34
509.514	10934.11
509.882	11032.86
510.25	11119.41
510.618	11058.4
510.986	11154.66
511.354	11260.2
511.722	11375.9
512.09	11374.09
512.458	11387.43
512.826	11531.83
513.193	11528.89
513.561	11523.24
513.929	11654.76
514.297	11674.88
514.664	11709.45
515.032	11765.95
515.4	11838.04
515.767	11852.5
516.135	11867.19
516.502	11868.09
516.869	11998.71
517.237	12061.99
517.604	11988.77
517.972	12070.35
518.339	12154.41
518.706	12134.07
519.073	12172.26
519.44	12193.96
519.808	12323.22
520.175	12216.11
520.542	12346.27
520.909	12375.42
521.276	12330
521.643	12391.92
522.009	12441.41
522.376	12518.7
522.743	12568.86
523.11	12583.33
523.477	12686.38
523.843	12700.16
524.21	12723.89
524.577	12789.2
524.943	12759.37
525.31	12906.48
525.676	12864
526.043	12940.61
526.409	12916.2
526.776	12993.49
527.142	12969.08
527.508	13027.38
527.874	13024.22
528.241	13032.13
528.607	12995.07
528.973	13013.37
529.339	13051.56
529.705	13058.34
530.071	13178.11
530.437	13158
530.803	13093.82
531.169	13109.42
531.535	13132.01
531.901	13104.67
532.267	13153.71
532.632	13049.98
532.998	13050.66
533.364	13171.33
533.73	13092.47
534.095	13137.89
534.461	13078.91
534.826	13084.78
535.192	13084.56
535.557	13143.76
535.923	12990.55
536.288	13042.75
536.653	13029.64
537.019	12966.59
537.384	12985.12
537.749	13006.82
538.114	12840.27
538.479	12932.02
538.845	12887.73
539.21	12856.31
539.575	12783.77
539.94	12885.24
540.305	12869.87
540.67	12797.78
541.034	12676.66
541.399	12658.35
541.764	12702.65
542.129	12665.59
542.494	12731.8
542.858	12660.61
543.223	12523.67
543.587	12593.95
543.952	12561.41
544.316	12502.2
544.681	12451.13
545.045	12448.19
545.41	12504.01
545.774	12402.77
546.138	12358.93
546.503	12495.42
546.867	12267.63
547.231	12353.5
547.595	12238.93
547.959	12262.21
548.324	12211.81
548.688	12132.72
549.052	12160.97
549.416	12080.29
549.779	12018.6
550.143	12037.13
550.507	12104.02
550.871	12055.43
551.235	11941.08
551.599	12054.08
551.962	11986.51
552.326	11955.77
552.689	11959.16
553.053	11870.8
553.417	11789.68
553.78	11855.66
554.143	11783.12
554.507	11896.79
554.87	11828.09
555.234	11836.23
555.597	11800.75
555.96	11715.1
556.323	11734.31
556.686	11701.99
557.05	11746.29
557.413	11699.28
557.776	11744.25
558.139	11776.12
558.502	11734.76
558.865	11634.88
559.228	11665.61
559.59	11668.32
559.953	11743.35
560.316	11671.94
560.679	11711.03
561.041	11750.81
561.404	11685.95
561.767	11697.47
562.129	11719.17
562.492	11828.54
562.854	11650.47
563.217	11656.12
563.579	11664.71
563.941	11718.72
564.304	11779.05
564.666	11697.25
565.028	11729.11
565.39	11847.75
565.753	11801.2
566.115	11772.05
566.477	11774.08
566.839	11805.04
567.201	11854.53
567.563	11852.5
567.925	11902.67
568.287	11855.66
568.648	11860.41
569.01	11916
569.372	11926.62
569.734	11902.22
570.095	12022.44
570.457	11950.35
570.819	11949.22
571.18	11940.41
571.542	11929.56
571.903	11949.67
572.265	11988.54
572.626	11947.86
572.987	11984.02
573.349	11962.78
573.71	12007.52
574.071	11970.01
574.432	12092.94
574.794	12050.23
575.155	12073.74
575.516	12047.52
575.877	12053.17
576.238	12018.6
576.599	12099.05
576.96	12121.19
577.32	11978.6
577.681	12100.85
578.042	12107.63
578.403	12111.7
578.763	12055.43
579.124	12136.11
579.485	12116.45
579.845	12122.77
580.206	12132.04
580.566	12190.34
580.927	12066.28
581.287	12086.17
581.648	12116.45
582.008	12169.78
582.368	12096.56
582.728	12087.75
583.089	12032.16
583.449	12099.5
583.809	12107.63
584.169	12054.08
584.529	11966.85
584.889	12090.91
585.249	12004.59
585.609	11984.02
585.969	12101.53
586.329	12033.96
586.688	12026.73
587.048	12013.85
587.408	11986.05
587.768	11998.48
588.127	11926.62
588.487	11923.68
588.846	11925.27
589.206	11874.42
589.565	11932.27
589.925	11849.79
590.284	11873.29
590.643	11918.26
591.003	11954.87
591.362	11976.11
591.721	11893.63
592.08	11817.92
592.44	11887.07
592.799	11864.7
593.158	11869.9
593.517	11828.54
593.876	11897.02
594.235	11800.52
594.593	11829.22
594.952	11882.33
595.311	11811.37
595.67	11831.93
596.029	11908.99
596.387	11854.76
596.746	11841.65
597.104	11925.04
597.463	11811.82
597.822	11916.23
598.18	11776.79
598.538	11724.59
598.897	11783.12
599.255	11695.44
599.613	11940.41
599.972	11722.78
600.33	11824.48
600.688	11717.36
601.046	11762.56
601.404	11845.95
601.762	11751.03
602.12	11861.31
602.478	11826.06
602.836	11790.81
603.194	11771.6
603.552	11744.93
603.91	11727.76
604.268	11741.77
604.625	11794.42
604.983	11746.97
605.341	11716.91
605.698	11825.38
606.056	11788.32
606.413	11764.37
606.771	11815.21
607.128	11842.56
607.485	11762.33
607.843	11743.35
608.2	11807.98
608.557	11904.7
608.914	11757.59
609.272	11897.02
609.629	11883.91
609.986	11864.02
610.343	12012.49
610.7	12011.14
611.057	11877.58
611.414	11856.79
611.771	11917.81
612.127	11961.87
612.484	11981.08
612.841	11959.84
613.198	11926.62
613.554	11925.04
613.911	11961.2
614.267	12018.82
614.624	11935.43
614.98	12014.3
615.337	12050.69
615.693	12023.34
616.05	11954.42
616.406	12095.66
616.762	11978.37
617.118	12051.36
617.475	12025.6
617.831	12137.01
618.187	12049.78
618.543	12117.12
618.899	12116.9
619.255	12107.18
619.611	12146.95
619.967	12209.78
620.323	12224.47
620.678	12077.58
621.034	12038.71
621.39	12125.03
621.746	12087.07
622.101	12150.34
622.457	12078.48
622.812	12126.62
623.168	12120.29
623.523	12173.17
623.879	12173.17
624.234	12156.9
624.589	12123.45
624.945	12103.11
625.3	12184.24
625.655	12093.4
626.01	12153.28
626.365	12127.52
626.72	12125.71
627.075	12040.06
627.43	12060.86
627.785	12051.14
628.14	12096.79
628.495	12092.27
628.85	12119.84
629.205	12154.86
629.559	12096.56
629.914	12000.74
630.269	12089.33
630.623	12071.93
630.978	11949.9
631.332	12054.75
631.687	12099.27
632.041	12044.13
632.396	12012.95
632.75	11955.55
633.104	11988.77
633.459	11895.66
633.813	11885.49
634.167	11888.43
634.521	11921.42
634.875	11964.36
635.229	11922.78
635.583	11895.89
635.937	11903.8
636.291	11826.06
636.645	11824.48
636.999	11808.88
637.352	11807.08
637.706	11750.58
638.06	11806.4
638.413	11784.93
638.767	11697.25
639.121	11726.63
639.474	11647.08
639.828	11693.63
640.181	11690.92
640.534	11716.46
640.888	11680.98
641.241	11652.5
641.594	11627.87
641.947	11666.29
642.301	11660.87
642.654	11619.96
643.007	11622.9
643.36	11622.22
643.713	11597.14
644.066	11700.19
644.419	11592.17
644.771	11453.41
645.124	11406.86
645.477	11352.85
645.83	11339.29
646.182	11312.4
646.535	11324.6
646.888	11221.78
647.24	11262.68
647.593	11291.61
647.945	11276.7
648.298	11147.21
648.65	11183.59
649.002	11176.81
649.355	11164.61
649.707	11201.89
650.059	11214.1
650.411	11360.08
650.763	11429.91
651.115	11513.75
651.467	11464.03
651.819	11426.3
652.171	11463.13
652.523	11354.89
652.875	11503.13
653.227	11446.86
653.578	11512.4
653.93	11496.8
654.282	11455.45
654.633	11371.16
654.985	11401.44
655.337	11492.28
655.688	11401.21
656.039	11475.79
656.391	11367.09
656.742	11421.78
657.094	11463.13
657.445	11486.18
657.796	11459.97
658.147	11399.4
658.498	11551.72
658.849	11524.37
659.2	11482.79
659.551	11463.36
659.902	11519.4
660.253	11568.89
660.604	11473.3
660.955	11478.72
661.306	11527.76
661.656	11562.34
662.007	11477.37
662.358	11511.49
662.708	11515.33
663.059	11525.5
663.409	11401.21
663.76	11557.59
664.11	11555.11
664.461	11531.83
664.811	11566.86
665.161	11590.59
665.511	11537.25
665.862	11536.12
666.212	11550.13
666.562	11594.65
666.912	11461.32
667.262	11506.52
667.612	11442.11
667.962	11535.45
668.312	11523.92
668.662	11575.44
669.011	11511.72
669.361	11528.89
669.711	11531.15
670.06	11499.06
670.41	11471.04
670.76	11492.06
671.109	11528.89
671.459	11514.2
671.808	11524.15
672.157	11532.06
672.507	11495.22
672.856	11503.81
673.205	11471.94
673.554	11446.18
673.904	11498.84
674.253	11573.64
674.602	11399.4
674.951	11320.31
675.3	11235.79
675.649	11354.89
675.998	11319.86
676.346	11387.88
676.695	11395.79
677.044	11278.95
677.393	11348.56
677.741	11350.37
678.09	11347.2
678.438	11238.05
678.787	11264.04
679.135	11247.54
679.484	11161.44
679.832	11211.16
680.181	11168.22
680.529	11244.15
680.877	11164.16
681.225	11120.09
681.573	11231.95
681.922	11140.2
682.27	11054.55
682.618	11059.3
682.966	11064.05
683.314	11065.85
683.661	11034.89
684.009	10949.7
684.357	10969.13
684.705	10920.77
685.053	10969.36
685.4	10937.04
685.748	10842.81
686.095	10893.2
686.443	10898.4
686.79	10763.49
687.138	10801.45
687.485	10805.75
687.832	10739.08
688.18	10807.1
688.527	10724.39
688.874	10669.93
689.221	10656.15
689.568	10574.34
689.915	10614.57
690.262	10605.07
690.609	10570.5
690.956	10483.5
691.303	10490.28
691.65	10408.47
691.997	10488.02
692.344	10376.61
692.69	10287.12
693.037	10325.76
693.383	10251.86
693.73	10253.67
694.077	10146.56
694.423	10158.31
694.769	10163.96
695.116	10097.97
695.462	10123.28
695.808	10067.01
696.155	10047.8
696.501	9928.03
696.847	9937.97
697.193	9876.96
697.539	9858.2
697.885	9824.53
698.231	9820.24
698.577	9758.54
698.923	9728.71
699.269	9719
699.614	9584.08
699.96	9610.98
700.306	9594.25
700.651	9600.81
700.997	9575.95
701.342	9504.09
701.688	9486.23
702.033	9423.18
702.379	9403.98
702.724	9437.42
703.069	9433.81
703.415	9361.49
703.76	9333.7
704.105	9286.69
704.45	9273.36
704.795	9200.37
705.14	9142.74
705.485	9183.19
705.83	9116.07
706.175	9134.6
706.52	9046.7
706.865	9058.9
707.209	9021.84
707.554	8913.14
707.899	8956.76
708.243	8916.53
708.588	8919.47
708.932	8866.59
709.277	8840.37
709.621	8825.69
709.966	8797.89
710.31	8829.3
710.654	8703.43
710.998	8754.28
711.342	8744.56
711.687	8704.33
712.031	8624.56
712.375	8688.29
712.719	8606.26
713.063	8602.64
713.407	8648.29
713.75	8599.7
714.094	8617.33
714.438	8551.12
714.782	8550.21
715.125	8479.71
715.469	8520.61
715.812	8439.71
716.156	8427.05
716.499	8411.91
716.843	8445.36
717.186	8332.82
717.53	8388.18
717.873	8413.27
718.216	8401.97
718.559	8358.58
718.902	8312.48
719.246	8371.01
719.589	8267.96
719.932	8261.41
720.275	8316.77
720.617	8355.42
720.96	8270.9
721.303	8246.04
721.646	8289.43
721.989	8263.89
722.331	8300.73
722.674	8272.25
723.016	8259.15
723.359	8259.15
723.701	8271.35
724.044	8208.08
724.386	8142.09
724.729	8217.11
725.071	8163.33
725.413	8195.65
725.755	8142.77
726.097	8129.43
726.439	8054.18
726.782	8074.29
727.124	8205.82
727.465	8179.83
727.807	8156.33
728.149	8098.7
728.491	8093.95
728.833	8129.89
729.175	8052.82
729.516	8094.18
729.858	8117.46
730.199	8100.28
730.541	8038.59
730.882	8084.46
731.224	8124.69
731.565	8025.71
731.906	8061.86
732.248	8074.52
732.589	7987.74
732.93	8008.31
733.271	8003.79
733.612	8016.67
733.953	8068.64
734.294	7997.46
734.635	7985.93
734.976	8073.62
735.317	7978.02
735.658	8027.97
735.999	8039.72
736.339	8093.73
736.68	8049.89
737.021	8028.64
737.361	8034.52
737.702	8084.01
738.042	8088.53
738.383	8088.53
738.723	8084.91
739.063	8065.71
739.404	8134.18
739.744	8076.78
740.084	8152.26
740.424	8135.31
740.764	8130.79
741.104	8122.43
741.444	8207.17
741.784	8114.29
742.124	8227.74
742.464	8196.1
742.804	8210.11
743.143	8231.35
743.483	8246.27
743.823	8202.88
744.162	8266.83
744.502	8341.86
744.841	8314.06
745.181	8389.77
745.52	8365.81
745.86	8456.66
746.199	8490.33
746.538	8524
746.877	8597.9
747.216	8624.56
747.556	8654.17
747.895	8694.84
748.234	8710.21
748.573	8726.25
748.911	8862.75
749.25	8825.91
749.589	8941.39
749.928	9012.57
750.267	9098.67
750.605	9128.05
750.944	9241.49
751.283	9227.94
751.621	9335.73
751.96	9442.84
752.298	9441.26
752.636	9554.25
752.975	9711.54
753.313	9778.2
753.651	9895.26
753.989	9920.35
754.327	9976.16
754.666	10054.13
755.004	10241.69
755.342	10390.16
755.679	10547
756.017	10606.66
756.355	10802.81
756.693	10827.44
757.031	10963.48
757.368	11068.56
757.706	11197.83
758.044	11379.29
758.381	11540.87
758.719	11653.63
759.056	11902.89
759.394	11883.46
759.731	12035.55
760.068	12180.4
