Data from hue_300_FLMS001491_00048.txt Node
Date: Tue Feb 07 15:50:47 GMT 2017
User: dcchb
Spectrometer: FLMS00149
Trigger mode: 0
Integration Time (sec): 2.000000E-2
Scans to average: 10
Electric dark correction enabled: true
Nonlinearity correction enabled: false
Boxcar width: 0
XAxis mode: Wavelengths
Number of Pixels in Spectrum: 2048
>>>>>Begin Spectral Data<<<<<
341.393	2.75
341.776	2.75
342.16	2.75
342.543	-72.27
342.927	-74.31
343.31	-84.7
343.693	-66.85
344.077	-72.5
344.46	-68.2
344.843	-60.97
345.226	-29.11
345.61	-11.93
345.993	-11.93
346.376	0.04
346.759	15.86
347.142	32.13
347.525	40.49
347.908	47.05
348.291	80.27
348.674	90.21
349.057	100.15
349.44	132.69
349.823	131.56
350.206	143.32
350.588	201.84
350.971	178.57
351.354	240.26
351.737	226.93
352.119	239.13
352.502	278.91
352.884	268.28
353.267	287.94
353.65	291.11
354.032	299.92
354.414	310.32
354.797	311.67
355.179	321.62
355.562	306.25
355.944	314.38
356.326	324.1
356.709	333.82
357.091	336.76
357.473	326.14
357.855	326.36
358.238	346.02
358.62	326.59
359.002	326.36
359.384	327.27
359.766	303.99
360.148	337.43
360.53	330.88
360.912	337.43
361.294	325.68
361.676	327.27
362.057	314.61
362.439	323.2
362.821	318.9
363.203	316.64
363.584	313.25
363.966	307.83
364.348	321.84
364.729	312.58
365.111	322.75
365.493	307.15
365.874	332.46
366.256	315.29
366.637	291.79
367.019	306.47
367.4	303.31
367.781	320.71
368.163	310.54
368.544	292.69
368.925	316.87
369.306	318.68
369.688	308.73
370.069	301.05
370.45	300.37
370.831	325.68
371.212	314.84
371.593	314.38
371.974	310.54
372.355	305.8
372.736	287.72
373.117	288.17
373.498	322.29
373.879	301.28
374.26	309.64
374.641	318.45
375.021	305.57
375.402	313.93
375.783	327.04
376.163	330.88
376.544	344.44
376.925	337.43
377.305	297.21
377.686	321.39
378.066	311.22
378.447	327.27
378.827	333.37
379.208	329.3
379.588	331.11
379.968	329.07
380.349	344.21
380.729	342.63
381.109	328.62
381.489	344.21
381.87	336.98
382.25	347.15
382.63	332.91
383.01	344.21
383.39	332.91
383.77	355.51
384.15	342.18
384.53	358.9
384.91	340.15
385.29	365.68
385.67	354.16
386.049	357.1
386.429	349.41
386.809	361.39
387.189	341.95
387.568	365.68
387.948	374.5
388.328	369.52
388.707	373.37
389.087	374.5
389.466	370.65
389.846	377.89
390.225	375.85
390.605	384.67
390.984	384.21
391.363	382.41
391.743	369.52
392.122	374.72
392.501	377.21
392.881	385.79
393.26	387.83
393.639	374.27
394.018	379.02
394.397	402.52
394.776	387.83
395.155	391.9
395.534	410.2
395.913	386.92
396.292	398.22
396.671	399.13
397.05	415.4
397.429	412.69
397.808	386.25
398.186	413.14
398.565	415.85
398.944	409.07
399.323	413.14
399.701	414.27
400.08	449.97
400.458	419.92
400.837	425.12
401.215	408.62
401.594	428.05
401.972	462.63
402.351	444.78
402.729	463.98
403.107	441.61
403.486	449.52
403.864	444.32
404.242	450.65
404.62	447.94
404.999	458.56
405.377	466.02
405.755	477.32
406.133	455.85
406.511	466.92
406.889	501.27
407.267	488.39
407.645	498.11
408.023	510.99
408.401	486.58
408.779	513.93
409.156	517.54
409.534	516.86
409.912	530.65
410.29	553.7
410.667	546.47
411.045	570.2
411.422	557.54
411.8	564.77
412.178	579.69
412.555	581.27
412.933	594.6
413.31	603.19
413.687	612
414.065	627.82
414.442	640.93
414.819	634.15
415.197	637.77
415.574	654.04
415.951	625.11
416.328	666.47
416.705	695.17
417.082	693.36
417.46	696.75
417.837	706.46
418.214	697.88
418.591	723.64
418.967	733.81
419.344	733.36
419.721	759.57
420.098	761.38
420.475	748.05
420.852	761.38
421.228	778.78
421.605	799.57
421.982	803.64
422.358	810.64
422.735	816.07
423.111	808.61
423.488	841.6
423.864	841.15
424.241	866.01
424.617	868.49
424.994	881.83
425.37	878.21
425.746	895.39
426.123	903.97
426.499	913.46
426.875	913.69
427.251	933.58
427.627	952.11
428.003	986.91
428.379	967.7
428.756	980.58
429.132	997.53
429.507	998.21
429.883	1021.03
430.259	1045.66
430.635	1056.96
431.011	1056.51
431.387	1075.27
431.763	1092.67
432.138	1097.19
432.514	1116.4
432.89	1127.02
433.265	1174.25
433.641	1112.78
434.016	1121.59
434.392	1200.46
434.767	1198.2
435.143	1175.83
435.518	1223.74
435.894	1230.52
436.269	1235.72
436.644	1286.11
437.02	1288.6
437.395	1276.62
437.77	1281.14
438.145	1276.17
438.52	1316.84
438.895	1310.74
439.271	1315.04
439.646	1334.92
440.021	1375.37
440.395	1377.18
440.77	1383.96
441.145	1378.54
441.52	1382.38
441.895	1414.24
442.27	1417.86
442.645	1451.3
443.019	1425.54
443.394	1425.99
443.769	1445.2
444.143	1445.2
444.518	1446.11
444.892	1458.08
445.267	1464.18
445.641	1502.6
446.016	1504.18
446.39	1493.56
446.764	1523.17
447.139	1484.07
447.513	1526.78
447.887	1478.87
448.262	1502.38
448.636	1533.34
449.01	1572.66
449.384	1560.23
449.758	1536.5
450.132	1572.88
450.506	1571.53
450.88	1579.44
451.254	1564.75
451.628	1580.11
452.002	1596.61
452.376	1574.46
452.75	1583.05
453.123	1607.91
453.497	1627.12
453.871	1630.73
454.244	1661.92
454.618	1679.09
454.992	1650.39
455.365	1709.6
455.739	1729.49
456.112	1741.92
456.486	1740.79
456.859	1744.4
457.232	1771.97
457.606	1791.18
457.979	1759.09
458.352	1800.9
458.725	1821.46
459.099	1820.56
459.472	1882.93
459.845	1896.49
460.218	1878.41
460.591	1894
460.964	1892.65
461.337	1951.63
461.71	1944.17
462.083	1970.39
462.456	1969.93
462.829	1967.45
463.201	1978.07
463.574	2009.26
463.947	2022.81
464.32	2057.16
464.692	2055.58
465.065	2062.36
465.438	2102.36
465.81	2132.19
466.183	2125.86
466.555	2156.37
466.928	2176.71
467.3	2171.74
467.672	2207.67
468.045	2234.11
468.417	2246.76
468.789	2251.96
469.161	2278.63
469.534	2295.58
469.906	2350.72
470.278	2356.59
470.65	2364.95
471.022	2374.9
471.394	2406.76
471.766	2462.8
472.138	2481.56
472.51	2489.47
472.882	2508.68
473.253	2548
473.625	2563.59
473.997	2621.67
474.369	2633.87
474.74	2664.61
475.112	2674.1
475.484	2698.05
475.855	2755.45
476.227	2747.09
476.598	2803.58
476.97	2826.18
477.341	2861.66
477.713	2898.05
478.084	2919.06
478.455	2953.86
478.827	2972.85
479.198	3031.6
479.569	3053.07
479.94	3091.71
480.311	3124.93
480.682	3169.22
481.053	3230.92
481.424	3248.77
481.795	3272.72
482.166	3293.06
482.537	3345.04
482.908	3383.68
483.279	3441.76
483.65	3438.6
484.021	3522.21
484.391	3519.72
484.762	3528.31
485.133	3553.62
485.503	3611.02
485.874	3669.55
486.244	3691.47
486.615	3728.76
486.985	3768.76
487.356	3824.57
487.726	3851.01
488.097	3855.76
488.467	3919.71
488.837	3989.09
489.207	3975.53
489.578	4033.83
489.948	4073.16
490.318	4109.54
490.688	4172.14
491.058	4207.62
491.428	4220.04
491.798	4211.46
492.168	4328.74
492.538	4305.69
492.908	4341.85
493.278	4420.94
493.648	4345.69
494.017	4451.22
494.387	4482.64
494.757	4486.03
495.126	4539.36
495.496	4578.68
495.866	4588.62
496.235	4624.33
496.605	4655.97
496.974	4675.85
497.344	4691.9
497.713	4745.45
498.082	4715.85
498.452	4765.79
498.821	4741.61
499.19	4795.62
499.559	4848.05
499.928	4839.69
500.298	4854.15
500.667	4909.07
501.036	4898.22
501.405	4975.73
501.774	4962.4
502.143	5006.46
502.512	4958.33
502.88	5008.05
503.249	4978.89
503.618	5008.5
503.987	5028.16
504.356	5109.51
504.724	5176.4
505.093	5136.18
505.462	5107.93
505.83	5142.51
506.199	5189.74
506.567	5204.65
506.936	5248.04
507.304	5183.86
507.672	5293.46
508.041	5294.37
508.409	5314.93
508.777	5321.94
509.145	5406.68
509.514	5378.88
509.882	5443.06
510.25	5395.38
510.618	5422.05
510.986	5487.81
511.354	5539.33
511.722	5475.15
512.09	5520.12
512.458	5542.5
512.826	5574.81
513.193	5585.43
513.561	5579.33
513.929	5626.56
514.297	5643.96
514.664	5678.99
515.032	5683.73
515.4	5735.03
515.767	5701.36
516.135	5755.15
516.502	5702.49
516.869	5810.06
517.237	5768.7
517.604	5759.66
517.972	5810.06
518.339	5828.14
518.706	5813.45
519.073	5853.9
519.44	5881.24
519.808	5883.05
520.175	5890.73
520.542	5961.47
520.909	6014.57
521.276	5954.46
521.643	6014.57
522.009	6128.02
522.376	6093.67
522.743	6161.01
523.11	6170.5
523.477	6177.73
523.843	6258.63
524.21	6274.68
524.577	6275.58
524.943	6326.43
525.31	6367.33
525.676	6396.94
526.043	6446.88
526.409	6455.24
526.776	6490.72
527.142	6502.02
527.508	6523.03
527.874	6547.67
528.241	6598.51
528.607	6605.74
528.973	6670.6
529.339	6684.61
529.705	6724.16
530.071	6785.85
530.437	6835.57
530.803	6766.42
531.169	6878.05
531.535	6866.75
531.901	6904.27
532.267	6918.96
532.632	6984.94
532.998	6991.5
533.364	7038.95
533.73	7017.48
534.095	7103.81
534.461	7098.84
534.826	7136.8
535.192	7185.84
535.557	7102.68
535.923	7262.68
536.288	7193.75
536.653	7225.16
537.019	7240.08
537.384	7266.97
537.749	7315.56
538.114	7359.85
538.479	7348.1
538.845	7358.27
539.21	7371.15
539.575	7513.07
539.94	7474.2
540.305	7525.04
540.67	7621.31
541.034	7577.24
541.399	7658.82
541.764	7670.35
542.129	7656.11
542.494	7699.05
542.858	7767.52
543.223	7789.44
543.587	7870.34
543.952	7851.36
544.316	7904.24
544.681	7893.17
545.045	7925.26
545.41	7942.88
545.774	8019.27
546.138	7995.31
546.503	7995.09
546.867	8073.28
547.231	8092.94
547.595	8139.04
547.959	8115.31
548.324	8094.52
548.688	8155.08
549.052	8200.05
549.416	8254.29
549.779	8252.71
550.143	8232.82
550.507	8377.22
550.871	8356.43
551.235	8328.41
551.599	8379.94
551.962	8464.68
552.326	8382.65
552.689	8477.79
553.053	8441.18
553.417	8510.78
553.78	8577.44
554.143	8475.75
554.507	8577.22
554.87	8636.88
555.234	8698.12
555.597	8620.61
555.96	8718.91
556.323	8657.67
556.686	8692.47
557.05	8783.77
557.413	8727.72
557.776	8856.76
558.139	8874.61
558.502	8793.94
558.865	8925.23
559.228	8927.94
559.59	8906.47
559.953	8969.98
560.316	9080.03
560.679	9009.3
561.041	9111.22
561.404	9093.81
561.767	9190.54
562.129	9147.15
562.492	9200.7
562.854	9175.62
563.217	9205.22
563.579	9319.12
563.941	9325.22
564.304	9346.01
564.666	9343.98
565.028	9411.09
565.39	9421.26
565.753	9472.56
566.115	9500.81
566.477	9488.83
566.839	9567.02
567.201	9633.24
567.563	9598.43
567.925	9650.86
568.287	9683.63
568.648	9717.08
569.01	9672.33
569.372	9836.85
569.734	9804.08
570.095	9861.7
570.457	9953.45
570.819	9956.84
571.18	9947.58
571.542	9984.86
571.903	10021.47
572.265	10192.54
572.626	10178.31
572.987	10196.38
573.349	10164.97
573.71	10292.43
574.071	10452.87
574.432	10489.03
574.794	10552.08
575.155	10532.19
575.516	10649.03
575.877	10649.93
576.238	10710.04
576.599	10858.74
576.96	10944.61
577.32	11033.42
577.681	11078.85
578.042	11168.56
578.403	11280.2
578.763	11412.17
579.124	11587.53
579.485	11679.96
579.845	11829.34
580.206	11851.03
580.566	11994.76
580.927	12117.24
581.287	12348.19
581.648	12404.91
582.008	12641.29
582.368	12783.44
582.728	12905.24
583.089	13065.69
583.449	13264.78
583.809	13462.97
584.169	13556.52
584.529	13741.15
584.889	14093.68
585.249	14235.37
585.609	14358.53
585.969	14603.73
586.329	14868.35
586.688	15108.12
587.048	15304.05
587.408	15462.01
587.768	15755.11
588.127	15958.04
588.487	16287.3
588.846	16631.47
589.206	16715.08
589.565	17085.92
589.925	17334.95
590.284	17753.7
590.643	17908.72
591.003	18226
591.362	18592.55
591.721	18843.84
592.08	19131.29
592.44	19489.7
592.799	19739.41
593.158	19990.48
593.517	20315.44
593.876	20601.76
594.235	20797.91
594.593	21305.02
594.952	21452.36
595.311	21813.93
595.67	22171.44
596.029	22475.84
596.387	22821.14
596.746	23193.56
597.104	23445.75
597.463	23649.59
597.822	24129.8
598.18	24300.42
598.538	24477.36
598.897	24889.56
599.255	25155.54
599.613	25694.28
599.972	25767.05
600.33	26153.93
600.688	26262.63
601.046	26692.22
601.404	27065.55
601.762	27365.2
602.12	27722.48
602.478	27948.46
602.836	28169.7
603.194	28289.92
603.552	28706.63
603.91	28738.04
604.268	29192.72
604.625	29427.74
604.983	29660.28
605.341	29888.07
605.698	30241.73
606.056	30447.6
606.413	30678.78
606.771	31085.78
607.128	31257.53
607.485	31410.97
607.843	31558.76
608.2	32018.64
608.557	32189.25
608.914	32358.51
609.272	32703.82
609.629	32904.71
609.986	33245.5
610.343	33190.36
610.7	33704.01
611.057	33852.49
611.414	33961.86
611.771	34114.17
612.127	34417.89
612.484	34630.32
612.841	34888.84
613.198	34889.75
613.554	35099.23
613.911	35322.5
614.267	35527.47
614.624	35749.84
614.98	35906.89
615.337	36206.55
615.693	36190.05
616.05	36334.45
616.406	36778.74
616.762	36730.6
617.118	36848.34
617.475	36963.59
617.831	37270.25
618.187	37296.01
618.543	37499.4
618.899	37741.87
619.255	37840.4
619.611	37666.17
619.967	38010.79
620.323	38210.56
620.678	38134.63
621.034	38150
621.39	38368.98
621.746	38386.15
622.101	38859.13
622.457	38690.78
622.812	38953.59
623.168	39111.1
623.523	38996.98
623.879	39274.94
624.234	39059.35
624.589	39294.83
624.945	39466.12
625.3	39640.58
625.655	39535.73
626.01	39709.96
626.365	39793.12
626.72	39892.55
627.075	39766.91
627.43	39787.02
627.785	39990.4
628.14	40257.97
628.495	40197.18
628.85	40174.81
629.205	40266.33
629.559	40444.85
629.914	40168.93
630.269	40437.4
630.623	40280.34
630.978	40276.27
631.332	40495.47
631.687	40616.83
632.041	40433.56
632.396	40584.29
632.75	40377.29
633.104	40612.31
633.459	40420.67
633.813	40315.14
634.167	40459.77
634.521	40548.35
634.875	40577.96
635.229	40515.81
635.583	40383.39
635.937	40483.72
636.291	40392.43
636.645	40471.29
636.999	40495.47
637.352	40575.25
637.706	40328.02
638.06	40637.84
638.413	40417.51
638.767	40387
639.121	40445.31
639.474	40409.15
639.828	40384.97
640.181	40398.3
640.534	40426.55
640.888	40313.78
641.241	40272.88
641.594	40206.67
641.947	40292.54
642.301	40353.11
642.654	40387.46
643.007	40519.65
643.36	40313.56
643.713	40274.92
644.066	40397.17
644.419	40309.72
644.771	39956.96
645.124	39616.4
645.477	39549.28
645.83	39357.2
646.182	39182.74
646.535	39191.55
646.888	39357.65
647.24	39021.16
647.593	39296.86
647.945	39180.03
648.298	38938
648.65	38971
649.002	39046.47
649.355	39258.45
649.707	39162.4
650.059	39126.92
650.411	39800.13
650.763	39747.92
651.115	40091.87
651.467	40005.77
651.819	40003.96
652.171	39952.66
652.523	39836.06
652.875	39993.34
653.227	39811.65
653.578	40014.81
653.93	39921.93
654.282	39808.04
654.633	39682.61
654.985	39973.45
655.337	39911.76
655.688	39755.38
656.039	40047.8
656.391	39557.42
656.742	39767.36
657.094	39663.18
657.445	39883.06
657.796	39683.07
658.147	39688.72
658.498	39704.99
658.849	39707.02
659.2	39613.01
659.551	39623.18
659.902	39789.28
660.253	39750.18
660.604	39669.28
660.955	39574.6
661.306	39733.46
661.656	39578.66
662.007	39636.51
662.358	39677.64
662.708	39500.02
663.059	39626.8
663.409	39435.39
663.76	39638.1
664.11	39581.37
664.461	39707.25
664.811	39742.27
665.161	39671.99
665.511	39495.28
665.862	39680.58
666.212	39579.57
666.562	39604.88
666.912	39682.84
667.262	39603.52
667.612	39523.07
667.962	39680.58
668.312	39500.02
668.662	39747.7
669.011	39526.23
669.361	39602.84
669.711	39438.1
670.06	39535.05
670.41	39376.63
670.76	39415.73
671.109	39517.2
671.459	39503.41
671.808	39311.78
672.157	39504.77
672.507	39271.1
672.856	39266.58
673.205	39174.61
673.554	39267.48
673.904	39206.92
674.253	39384.54
674.602	39265.9
674.951	38663.43
675.3	38521.97
675.649	39213.47
675.998	39046.7
676.346	39204.44
676.695	39182.06
677.044	38982.29
677.393	39067.49
677.741	39203.31
678.09	39086.7
678.438	39016.19
678.787	38976.87
679.135	39018
679.484	38874.05
679.832	38794.28
680.181	38719.02
680.529	38859.59
680.877	38686.71
681.225	38617.78
681.573	38808.06
681.922	38566.94
682.27	38419.6
682.618	38451.69
682.966	38293.5
683.314	38463.21
683.661	38327.62
684.009	38178.93
684.357	38153.84
684.705	38006.05
685.053	38049.66
685.4	38005.37
685.748	37726.51
686.095	37870.91
686.443	37731.93
686.79	37641.99
687.138	37747.98
687.485	37688.54
687.832	37555.44
688.18	37696.68
688.527	37449.91
688.874	37430.02
689.221	37377.59
689.568	37251.94
689.915	37118.84
690.262	37191.15
690.609	37153.42
690.956	37001.78
691.303	36858.96
691.65	36856.25
691.997	36745.52
692.344	36661
692.69	36541.91
693.037	36485.64
693.383	36294.91
693.73	36449.93
694.077	36244.97
694.423	36253.1
694.769	36051.07
695.116	36050.17
695.462	35926.1
695.808	35955.93
696.155	35983.28
696.501	35611.54
696.847	35682.72
697.193	35408.38
697.539	35644.98
697.885	35272.11
698.231	35039.12
698.577	35250.64
698.923	35141.27
699.269	35009.07
699.614	34746.25
699.96	34758.45
700.306	34775.85
700.651	34700.6
700.997	34523.88
701.342	34420.15
701.688	34501.51
702.033	34253.38
702.379	34346.94
702.724	34087.73
703.069	34288.18
703.415	33794.18
703.76	33938.59
704.105	33947.62
704.45	33745.82
704.795	33476.68
705.14	33431.48
705.485	33492.72
705.83	33337.02
706.175	33335.89
706.52	33282.56
706.865	33067.87
707.209	33271.03
707.554	32969.57
707.899	33032.85
708.243	32872.4
708.588	32778.84
708.932	32643.7
709.277	32566.64
709.621	32603.25
709.966	32308.35
710.31	32514.67
710.654	32216.14
710.998	32192.19
711.342	32161
711.687	32151.74
712.031	32030.39
712.375	31942.71
712.719	31921.46
713.063	31805.31
713.407	32083.72
713.75	31686.67
714.094	31716.27
714.438	31580.91
714.782	31637.85
715.125	31584.52
715.469	31666.33
715.812	31344.3
716.156	31285.55
716.499	31375.94
716.843	31355.38
717.186	31061.6
717.53	31290.52
717.873	31311.76
718.216	31118.55
718.559	31073.58
718.902	31004.65
719.246	30945.9
719.589	30762.62
719.932	30577.32
720.275	30675.62
720.617	30633.36
720.96	30679.46
721.303	30597.43
721.646	30621.16
721.989	30377.77
722.331	30587.26
722.674	30412.58
723.016	30458
723.359	30319.92
723.701	30406.25
724.044	30017.56
724.386	30042.87
724.729	30186.14
725.071	30080.16
725.413	30033.38
725.755	30075.64
726.097	29774.63
726.439	29585.93
726.782	29853.27
727.124	29922.87
727.465	29626.61
727.807	29723.1
728.149	29618.25
728.491	29567.17
728.833	29661.18
729.175	29484.46
729.516	29424.58
729.858	29396.11
730.199	29339.61
730.541	29326.95
730.882	29186.85
731.224	29385.94
731.565	29151.59
731.906	29245.38
732.248	29170.35
732.589	28936.46
732.93	28878.38
733.271	28937.81
733.612	29022.56
733.953	28863.46
734.294	28746.41
734.635	28687.65
734.976	28879.28
735.317	28710.7
735.658	28728.33
735.999	28746.18
736.339	28529.91
736.68	28767.2
737.021	28598.39
737.361	28537.37
737.702	28670.25
738.042	28488.33
738.383	28354.55
738.723	28615.56
739.063	28317.49
739.404	28367.88
739.744	28326.08
740.084	28214.89
740.424	28369.92
740.764	28289.24
741.104	28275.68
741.444	28141.68
741.784	28112.07
742.124	28159.75
742.464	28164.73
742.804	27983.94
743.143	27882.25
743.483	27868.01
743.823	27820.78
744.162	27815.36
744.502	27817.62
744.841	27839.54
745.181	27748.24
745.52	27744.62
745.86	27723.38
746.199	27729.93
746.538	27780.1
746.877	27614.01
747.216	27604.06
747.556	27603.38
747.895	27523.61
748.234	27489.72
748.573	27446.78
748.911	27398.64
749.25	27494.46
749.589	27321.13
749.928	27286.1
750.267	27376.27
750.605	27240
750.944	27290.4
751.283	27260.79
751.621	27164.07
751.96	27119.56
752.298	27130.4
752.636	27108.26
752.975	26987.13
753.313	26924.53
753.651	26941.93
753.989	26795.5
754.327	26754.59
754.666	26685.67
755.004	26671.88
755.342	26894.25
755.679	26688.61
756.017	26580.36
756.355	26701.04
756.693	26518.44
757.031	26659.68
757.368	26476.18
757.706	26420.82
758.044	26327.26
758.381	26329.97
758.719	26224.21
759.056	26345.11
