Data from hue_170_FLMS001491_00079.txt Node
Date: Tue Feb 07 16:49:11 GMT 2017
User: dcchb
Spectrometer: FLMS00149
Trigger mode: 0
Integration Time (sec): 2.000000E-2
Scans to average: 10
Electric dark correction enabled: true
Nonlinearity correction enabled: false
Boxcar width: 0
XAxis mode: Wavelengths
Number of Pixels in Spectrum: 2048
>>>>>Begin Spectral Data<<<<<
341.393	1.69
341.776	1.69
342.16	1.69
342.543	-77.4
342.927	-75.37
343.31	-67
343.693	-79.21
344.077	-68.13
344.46	-51.64
344.843	-45.54
345.226	-34.69
345.61	-23.16
345.993	-27.91
346.376	16.61
346.759	-3.73
347.142	24.29
347.525	32.43
347.908	64.07
348.291	73.78
348.674	90.28
349.057	99.55
349.44	124.63
349.823	135.93
350.206	168.7
350.588	200.56
350.971	213.21
351.354	222.71
351.737	233.33
352.119	241.69
352.502	265.64
352.884	273.78
353.267	306.55
353.65	263.38
354.032	306.77
354.414	302.25
354.797	303.83
355.179	341.12
355.562	313.78
355.944	326.21
356.326	308.58
356.709	334.12
357.091	331.18
357.473	339.09
357.855	319.65
358.238	341.57
358.62	326.66
359.002	324.85
359.384	339.77
359.766	343.61
360.148	344.51
360.53	347
360.912	334.34
361.294	333.21
361.676	341.8
362.057	317.17
362.439	328.01
362.821	311.07
363.203	329.14
363.584	319.43
363.966	297.05
364.348	330.05
364.729	314.91
365.111	313.55
365.493	323.04
365.874	305.19
366.256	322.14
366.637	306.32
367.019	316.49
367.4	324.62
367.781	327.56
368.163	309.71
368.544	304.29
368.925	310.84
369.306	317.39
369.688	317.17
370.069	308.35
370.45	309.48
370.831	307.45
371.212	304.96
371.593	312.87
371.974	314
372.355	307.68
372.736	318.97
373.117	318.07
373.498	310.61
373.879	315.13
374.26	319.65
374.641	321.23
375.021	310.84
375.402	331.18
375.783	319.65
376.163	308.13
376.544	323.04
376.925	326.21
377.305	327.56
377.686	314
378.066	324.62
378.447	317.39
378.827	339.99
379.208	339.09
379.588	354.91
379.968	325.98
380.349	338.64
380.729	339.31
381.109	339.09
381.489	335.7
381.87	341.35
382.25	349.93
382.63	340.89
383.01	336.83
383.39	344.51
383.77	321.46
384.15	330.5
384.53	341.12
384.91	350.61
385.29	336.83
385.67	346.54
386.049	360.56
386.429	336.83
386.809	349.48
387.189	353.1
387.568	341.57
387.948	333.89
388.328	360.1
388.707	350.61
389.087	342.25
389.466	339.77
389.846	366.66
390.225	358.07
390.605	365.53
390.984	343.61
391.363	359.65
391.743	372.76
392.122	384.51
392.501	361.46
392.881	374.79
393.26	361.23
393.639	353.32
394.018	385.87
394.397	375.02
394.776	366.88
395.155	367.56
395.534	383.83
395.913	378.41
396.292	386.54
396.671	354
397.05	361.46
397.429	380.22
397.808	385.41
398.186	384.28
398.565	384.51
398.944	383.61
399.323	379.09
399.701	391.52
400.08	374.57
400.458	369.37
400.837	412.53
401.215	390.16
401.594	397.39
401.972	391.29
402.351	401.46
402.729	407.79
403.107	390.84
403.486	421.8
403.864	410.05
404.242	405.53
404.62	403.94
404.999	417.5
405.377	412.31
405.755	405.3
406.133	434.9
406.511	432.64
406.889	424.06
407.267	427.45
407.645	447.11
408.023	443.94
408.401	444.17
408.779	448.91
409.156	441.23
409.534	447.11
409.912	469.93
410.29	459.08
410.667	452.76
411.045	445.98
411.422	472.64
411.8	475.81
412.178	487.11
412.555	496.37
412.933	501.79
413.31	508.57
413.687	472.19
414.065	495.24
414.442	494.56
414.819	511.51
415.197	528.01
415.574	497.28
415.951	511.51
416.328	525.97
416.705	540.44
417.082	557.61
417.46	536.82
417.837	528.46
418.214	546.99
418.591	550.61
418.967	562.81
419.344	567.1
419.721	563.94
420.098	554.45
420.475	564.39
420.852	580.44
421.228	576.82
421.605	591.74
421.982	596.71
422.358	592.19
422.735	605.07
423.111	623.15
423.488	610.72
423.864	637.16
424.241	641.68
424.617	632.86
424.994	674.9
425.37	650.72
425.746	671.06
426.123	661.34
426.499	667.21
426.875	675.8
427.251	697.72
427.627	709.25
428.003	696.59
428.379	721.9
428.756	691.85
429.132	722.35
429.507	730.04
429.883	718.29
430.259	731.62
430.635	742.47
431.011	737.27
431.387	767.55
431.763	783.6
432.138	792.63
432.514	777.72
432.89	794.44
433.265	791.96
433.641	851.39
434.016	838.06
434.392	858.17
434.767	852.52
435.143	866.08
435.518	845.74
435.894	874.44
436.269	891.16
436.644	890.03
437.02	878.28
437.395	914.21
437.77	925.96
438.145	929.81
438.52	950.6
438.895	970.93
439.271	946.75
439.646	1000.31
440.021	983.82
440.395	990.37
440.77	1005.28
441.145	988.79
441.52	1037.37
441.895	1005.51
442.27	1030.14
442.645	1024.27
443.019	1035.57
443.394	1078.73
443.769	1086.19
444.143	1047.77
444.518	1069.46
444.892	1084.6
445.267	1095.23
445.641	1104.94
446.016	1098.39
446.39	1123.93
446.764	1122.34
447.139	1147.2
447.513	1167.09
447.887	1149.69
448.262	1127.77
448.636	1142.23
449.01	1180.42
449.384	1190.82
449.758	1184.94
450.132	1205.05
450.506	1246.63
450.88	1243.7
451.254	1222.68
451.628	1249.35
452.002	1255
452.376	1279.4
452.75	1278.27
453.123	1299.06
453.497	1318.72
453.871	1344.71
454.244	1327.08
454.618	1359.17
454.992	1371.83
455.365	1354.88
455.739	1440.53
456.112	1436.91
456.486	1454.31
456.859	1447.53
457.232	1471.94
457.606	1476.23
457.979	1483.46
458.352	1525.5
458.725	1540.86
459.099	1568.66
459.472	1606.17
459.845	1581.31
460.218	1609.79
460.591	1600.52
460.964	1651.82
461.337	1665.61
461.71	1701.54
462.083	1731.82
462.456	1732.72
462.829	1753.74
463.201	1800.52
463.574	1796.22
463.947	1849.33
464.32	1892.27
464.692	1889.1
465.065	1891.59
465.438	1943.11
465.81	1944.47
466.183	1968.42
466.555	2056.1
466.928	2074.41
467.3	2070.12
467.672	2070.57
468.045	2142.43
468.417	2150.34
468.789	2180.39
469.161	2224.91
469.534	2251.81
469.906	2337.23
470.278	2325.25
470.65	2362.08
471.022	2426.72
471.394	2485.25
471.766	2533.83
472.138	2545.58
472.51	2569.31
472.882	2650.89
473.253	2699.25
473.625	2754.84
473.997	2816.31
474.369	2835.97
474.74	2924.56
475.112	2950.54
475.484	3061.05
475.855	3110.77
476.227	3119.13
476.598	3243.87
476.97	3287.48
477.341	3394.37
477.713	3477.54
478.084	3480.47
478.455	3633.24
478.827	3638.21
479.198	3753.91
479.569	3804.53
479.94	3950.07
480.311	4019.67
480.682	4112.77
481.053	4242.49
481.424	4327.91
481.795	4409.04
482.166	4521.35
482.537	4590.27
482.908	4683.38
483.279	4826.43
483.65	4907.78
484.021	5067.32
484.391	5145.51
484.762	5224.83
485.133	5335.79
485.503	5409.46
485.874	5598.84
486.244	5663.47
486.615	5759.96
486.985	5926.74
487.356	6074.3
487.726	6129.9
488.097	6237.46
488.467	6357.23
488.837	6523.56
489.207	6672.71
489.578	6725.59
489.948	6881.74
490.318	6944.34
490.688	7088.29
491.058	7226.82
491.428	7268.4
491.798	7462.06
492.168	7629.29
492.538	7728.95
492.908	7812.34
493.278	7939.57
493.648	7952.22
494.017	8193.34
494.387	8307.47
494.757	8371.87
495.126	8470.85
495.496	8495.03
495.866	8661.58
496.235	8788.13
496.605	8902.25
496.974	8940.67
497.344	9036.49
497.713	9116.94
498.082	9216.14
498.452	9339.3
498.821	9379.75
499.19	9405.06
499.559	9534.55
499.928	9626.75
500.298	9677.6
500.667	9760.53
501.036	9813.41
501.405	9944.71
501.774	9950.36
502.143	10038.95
502.512	10021.32
502.88	10195.1
503.249	10187.64
503.618	10295.21
503.987	10274.87
504.356	10425.38
504.724	10420.86
505.093	10398.94
505.462	10507.41
505.83	10609.78
506.199	10672.37
506.567	10728.64
506.936	10722.09
507.304	10898.13
507.672	10897.23
508.041	10970.67
508.409	11062.65
508.777	11091.57
509.145	11168.41
509.514	11059.48
509.882	11154.85
510.25	11128.63
510.618	11222.42
510.986	11236.43
511.354	11289.53
511.722	11383.09
512.09	11442.52
512.458	11406.14
512.826	11478
513.193	11516.65
513.561	11527.95
513.929	11662.86
514.297	11695.4
514.664	11695.17
515.032	11659.92
515.4	11805
515.767	11773.14
516.135	11794.83
516.502	11702.18
516.869	11923.64
517.237	11845.23
517.604	11855.39
517.972	12011.32
518.339	11878.9
518.706	11866.02
519.073	11954.15
519.44	12019.91
519.808	12031.89
520.175	12024.88
520.542	12141.94
520.909	12175.84
521.276	12104.43
521.643	12164.76
522.009	12160.92
522.376	12274.14
522.743	12133.81
523.11	12337.87
523.477	12336.51
523.843	12338.77
524.21	12470.75
524.577	12424.19
524.943	12463.74
525.31	12467.58
525.676	12541.03
526.043	12564.98
526.409	12444.08
526.776	12602.27
527.142	12484.76
527.508	12548.26
527.874	12523.4
528.241	12557.52
528.607	12527.02
528.973	12628.48
529.339	12558.65
529.705	12606.34
530.071	12590.74
530.437	12569.27
530.803	12564.3
531.169	12586
531.535	12532.89
531.901	12452.67
532.267	12517.98
532.632	12527.02
532.998	12491.08
533.364	12513.46
533.73	12480.69
534.095	12502.16
534.461	12472.33
534.826	12524.53
535.192	12354.59
535.557	12365.89
535.923	12351.88
536.288	12284.76
536.653	12313.69
537.019	12245.67
537.384	12269.62
537.749	12236.63
538.114	12254.25
538.479	12166.57
538.845	12076.41
539.21	12042.28
539.575	11980.36
539.94	11967.03
540.305	12012.9
540.67	11935.39
541.034	11890.2
541.399	11943.08
541.764	11824.89
542.129	11765.23
542.494	11768.62
542.858	11681.39
543.223	11739.47
543.587	11699.24
543.952	11631.22
544.316	11580.83
544.681	11552.35
545.045	11492.92
545.41	11518.45
545.774	11471.9
546.138	11395.29
546.503	11372.7
546.867	11358.46
547.231	11386.71
547.595	11403.88
547.959	11239.37
548.324	11252.47
548.688	11188.52
549.052	11196.88
549.416	11109.43
549.779	11100.39
550.143	11018.58
550.507	11088.86
550.871	11030.78
551.235	10936.1
551.599	10915.08
551.962	10913.5
552.326	10842.54
552.689	10818.13
553.053	10780.62
553.417	10735.88
553.78	10838.02
554.143	10697.01
554.507	10723.9
554.87	10681.19
555.234	10692.49
555.597	10590.34
555.96	10560.29
556.323	10644.13
556.686	10597.8
557.05	10563.23
557.413	10573.39
557.776	10481.87
558.139	10480.29
558.502	10515.54
558.865	10465.6
559.228	10462.66
559.59	10439.16
559.953	10426.05
560.316	10452.95
560.679	10421.08
561.041	10418.14
561.404	10434.87
561.767	10436.22
562.129	10301.99
562.492	10427.86
562.854	10430.8
563.217	10381.08
563.579	10351.03
563.941	10373.17
564.304	10436.67
564.666	10431.03
565.028	10445.49
565.39	10450.91
565.753	10441.42
566.115	10407.97
566.477	10447.52
566.839	10450.23
567.201	10427.18
567.563	10480.06
567.925	10492.94
568.287	10467.18
568.648	10460.18
569.01	10524.58
569.372	10500.85
569.734	10429.22
570.095	10474.19
570.457	10515.09
570.819	10505.83
571.18	10519.84
571.542	10539.27
571.903	10486.62
572.265	10513.06
572.626	10538.82
572.987	10494.98
573.349	10529.55
573.71	10574.07
574.071	10566.84
574.432	10586.95
574.794	10605.94
575.155	10498.37
575.516	10559.16
575.877	10539.5
576.238	10570.68
576.599	10660.4
576.96	10560.51
577.32	10525.94
577.681	10526.39
578.042	10553.96
578.403	10588.76
578.763	10534.07
579.124	10567.29
579.485	10604.58
579.845	10572.94
580.206	10585.37
580.566	10558.25
580.927	10571.13
581.287	10557.58
581.648	10575.43
582.008	10615.65
582.368	10561.87
582.728	10541.3
583.089	10568.42
583.449	10519.16
583.809	10514.41
584.169	10476.9
584.529	10463.34
584.889	10541.3
585.249	10414.53
585.609	10465.83
585.969	10458.14
586.329	10399.16
586.688	10499.95
587.048	10448.2
587.408	10419.05
587.768	10396.9
588.127	10430.35
588.487	10384.47
588.846	10471.93
589.206	10320.29
589.565	10431.7
589.925	10355.55
590.284	10357.35
590.643	10378.15
591.003	10356
591.362	10464.47
591.721	10304.02
592.08	10347.41
592.44	10330.69
592.799	10341.08
593.158	10334.08
593.517	10284.59
593.876	10371.14
594.235	10325.49
594.593	10294.98
594.952	10273.06
595.311	10260.86
595.67	10304.7
596.029	10294.98
596.387	10252.5
596.746	10302.89
597.104	10247.53
597.463	10240.75
597.822	10306.28
598.18	10240.52
598.538	10186.96
598.897	10267.64
599.255	10220.64
599.613	10314.19
599.972	10294.76
600.33	10262.22
600.688	10199.39
601.046	10247.53
601.404	10268.54
601.762	10207.75
602.12	10227.41
602.478	10325.04
602.836	10198.94
603.194	10160.52
603.552	10187.87
603.91	10186.51
604.268	10255.66
604.625	10188.09
604.983	10270.8
605.341	10121.2
605.698	10238.94
606.056	10175.21
606.413	10132.95
606.771	10259.28
607.128	10148.32
607.485	10114.2
607.843	10221.09
608.2	10191.71
608.557	10188.09
608.914	10281.42
609.272	10237.36
609.629	10271.03
609.986	10285.49
610.343	10290.24
610.7	10273.29
611.057	10302.44
611.414	10311.71
611.771	10301.31
612.127	10310.8
612.484	10346.96
612.841	10335.66
613.198	10332.95
613.554	10264.25
613.911	10336.11
614.267	10301.09
614.624	10393.29
614.98	10289.11
615.337	10435.09
615.693	10350.58
616.05	10358.03
616.406	10425.15
616.762	10421.99
617.118	10353.06
617.475	10368.65
617.831	10369.33
618.187	10460.63
618.543	10475.54
618.899	10483.45
619.255	10525.94
619.611	10459.27
619.967	10444.13
620.323	10531.14
620.678	10470.57
621.034	10500.85
621.39	10386.05
621.746	10430.35
622.101	10581.08
622.457	10462.21
622.812	10455.66
623.168	10462.21
623.523	10467.63
623.879	10507.41
624.234	10442.1
624.589	10497.69
624.945	10471.48
625.3	10480.06
625.655	10386.28
626.01	10524.36
626.365	10483
626.72	10485.26
627.075	10457.24
627.43	10407.75
627.785	10392.38
628.14	10439.16
628.495	10434.87
628.85	10377.69
629.205	10323.68
629.559	10416.79
629.914	10393.96
630.269	10396.68
630.623	10381.08
630.978	10317.36
631.332	10367.07
631.687	10353.29
632.041	10378.15
632.396	10413.85
632.75	10304.02
633.104	10300.18
633.459	10280.07
633.813	10290.24
634.167	10324.36
634.521	10282.55
634.875	10318.94
635.229	10234.87
635.583	10215.44
635.937	10233.29
636.291	10255.44
636.645	10280.97
636.999	10230.35
637.352	10196.68
637.706	10193.52
638.06	10199.17
638.413	10085.05
638.767	10157.13
639.121	10114.2
639.474	10113.75
639.828	10086.63
640.181	10070.81
640.534	10059.28
640.888	10079.85
641.241	10046.63
641.594	10018.38
641.947	10055.89
642.301	10050.47
642.654	10103.35
643.007	10047.53
643.36	10047.76
643.713	10013.86
644.066	10085.27
644.419	10000.08
644.771	9979.51
645.124	9847.31
645.477	9848.89
645.83	9783.13
646.182	9751.5
646.535	9705.62
646.888	9752.85
647.24	9702
647.593	9741.1
647.945	9662.46
648.298	9690.71
648.65	9636.24
649.002	9606.64
649.355	9702.91
649.707	9694.1
650.059	9732.74
650.411	9816.13
650.763	9801.89
651.115	9955.78
651.467	9927.76
651.819	9941.09
652.171	9918.5
652.523	9935.9
652.875	9882.79
653.227	9870.14
653.578	9943.81
653.93	9908.33
654.282	9898.84
654.633	9864.94
654.985	9918.95
655.337	9924.82
655.688	9920.53
656.039	9925.5
656.391	9900.19
656.742	9880.98
657.094	9904.71
657.445	9978.38
657.796	9872.17
658.147	9935.22
658.498	9853.41
658.849	9951.04
659.2	9928.21
659.551	9948.55
659.902	9904.94
660.253	9928.21
660.604	9905.62
660.955	9885.73
661.306	9943.35
661.656	9968.66
662.007	9918.04
662.358	9977.25
662.708	9976.8
663.059	9988.55
663.409	9966.63
663.76	10048.66
664.11	9971.38
664.461	10047.31
664.811	9974.31
665.161	10084.59
665.511	9963.69
665.862	10026.52
666.212	9958.27
666.562	10057.25
666.912	10033.3
667.262	9993.52
667.612	10025.84
667.962	10047.98
668.312	10033.07
668.662	9970.47
669.011	9941.55
669.361	10007.08
669.711	10014.76
670.06	9923.69
670.41	9883.92
670.76	9956.69
671.109	9983.13
671.459	9975.67
671.808	9892.06
672.157	9964.6
672.507	9863.36
672.856	9880.08
673.205	9937.7
673.554	9901.32
673.904	9891.83
674.253	9860.42
674.602	9842.79
674.951	9777.26
675.3	9735.9
675.649	9824.49
675.998	9796.47
676.346	9849.35
676.695	9819.06
677.044	9716.47
677.393	9792.17
677.741	9810.93
678.09	9753.98
678.438	9740.87
678.787	9740.87
679.135	9780.87
679.484	9686.86
679.832	9781.32
680.181	9640.09
680.529	9723.25
680.877	9612.97
681.225	9669.24
681.573	9690.48
681.922	9553.53
682.27	9614.32
682.618	9566.87
682.966	9581.33
683.314	9582.69
683.661	9601.22
684.009	9514.67
684.357	9476.7
684.705	9521.9
685.053	9523.03
685.4	9438.28
685.748	9419.3
686.095	9418.17
686.443	9370.04
686.79	9385.18
687.138	9452.97
687.485	9423.59
687.832	9298.4
688.18	9306.53
688.527	9323.71
688.874	9288.46
689.221	9250.04
689.568	9170.95
689.915	9208.91
690.262	9192.19
690.609	9085.98
690.956	9117.39
691.303	9062.25
691.65	9054.34
691.997	9043.49
692.344	8981.12
692.69	8978.86
693.037	8937.51
693.383	8857.96
693.73	8857.06
694.077	8858.41
694.423	8825.64
694.769	8803.27
695.116	8755.59
695.462	8713.33
695.808	8695.7
696.155	8720.11
696.501	8679.43
696.847	8647.8
697.193	8527.12
697.539	8606.21
697.885	8521.24
698.231	8488.7
698.577	8519.66
698.923	8427.46
699.269	8426.78
699.614	8417.52
699.96	8359.22
700.306	8316.05
700.651	8281.93
700.997	8240.8
701.342	8238.99
701.688	8112.67
702.033	8158.09
702.379	8092.78
702.724	8148.6
703.069	8159.9
703.415	8029.05
703.76	7997.64
704.105	8024.99
704.45	7974.82
704.795	7964.88
705.14	7942.28
705.485	7913.8
705.83	7832
706.175	7887.36
706.52	7841.71
706.865	7751.55
707.209	7790.87
707.554	7738.89
707.899	7761.94
708.243	7737.08
708.588	7676.07
708.932	7709.74
709.277	7635.17
709.621	7629.97
709.966	7584.55
710.31	7619.8
710.654	7522.85
710.998	7534.6
711.342	7539.58
711.687	7464.32
712.031	7504.77
712.375	7366.7
712.719	7482.18
713.063	7463.19
713.407	7399.01
713.75	7367.15
714.094	7363.54
714.438	7404.89
714.782	7356.3
715.125	7244.22
715.469	7358.34
715.812	7309.07
716.156	7260.26
716.499	7277.66
716.843	7283.99
717.186	7203.31
717.53	7276.98
717.873	7235.85
718.216	7193.37
718.559	7224.78
718.902	7187.27
719.246	7102.3
719.589	7140.04
719.932	7142.52
720.275	7165.57
720.617	7152.69
720.96	7154.28
721.303	7130.32
721.646	7148.85
721.989	7088.06
722.331	7113.82
722.674	7078.57
723.016	7104.78
723.359	7104.56
723.701	7103.2
724.044	7040.83
724.386	7010.1
724.729	7058.23
725.071	7067.05
725.413	7048.97
725.755	7084.45
726.097	7031.79
726.439	6919.25
726.782	7000.15
727.124	6996.09
727.465	6996.77
727.807	6961.06
728.149	6959.7
728.491	6923.55
728.833	6945.24
729.175	6986.6
729.516	6933.26
729.858	6984.79
730.199	6949.99
730.541	7008.06
730.882	6983.43
731.224	6950.89
731.565	6952.7
731.906	6981.4
732.248	7028.18
732.589	6966.94
732.93	6952.92
733.271	6936.65
733.612	6960.61
733.953	6946.6
734.294	6951.34
734.635	6986.82
734.976	6929.65
735.317	6949.53
735.658	6990.66
735.999	6959.25
736.339	6930.78
736.68	7056.65
737.021	7010.1
737.361	6996.99
737.702	7032.02
738.042	7025.92
738.383	7056.88
738.723	7030.21
739.063	7054.39
739.404	7029.08
739.744	7025.69
740.084	7106.82
740.424	7068.18
740.764	7081.06
741.104	7132.81
741.444	7148.17
741.784	7148.85
742.124	7145.01
742.464	7155.18
742.804	7149.53
743.143	7185.46
743.483	7138.46
743.823	7205.8
744.162	7225.46
744.502	7283.54
744.841	7288.51
745.181	7299.36
745.52	7388.17
745.86	7392.46
746.199	7455.96
746.538	7478.11
746.877	7516.75
747.216	7576.64
747.556	7631.78
747.895	7699.8
748.234	7671.32
748.573	7716.97
748.911	7758.33
749.25	7864.09
749.589	7951.32
749.928	7993.58
750.267	7968.27
750.605	8149.96
750.944	8134.36
751.283	8200.12
751.621	8321.7
751.96	8434.02
752.298	8530.74
752.636	8610.06
752.975	8659.77
753.313	8711.52
753.651	8871.29
753.989	8963.27
754.327	9040.1
754.666	9166.2
755.004	9332.07
755.342	9416.14
755.679	9600.31
756.017	9640.54
756.355	9842.57
756.693	9937.03
757.031	10106.51
757.368	10158.04
757.706	10352.38
758.044	10491.14
758.381	10635.31
758.719	10782.88
759.056	10922.09
759.394	11050.9
759.731	11231.46
760.068	11305.35
760.405	11476.42
760.743	11678.68
761.08	11889.29
761.417	11999.35
761.754	12161.83
