Data from hue_00_FLMS001491_57.txt Node
Date: Mon Feb 06 15:29:55 GMT 2017
User: dcchb
Spectrometer: FLMS00149
Trigger mode: 0
Integration Time (sec): 2.000000E-2
Scans to average: 10
Electric dark correction enabled: true
Nonlinearity correction enabled: false
Boxcar width: 0
XAxis mode: Wavelengths
Number of Pixels in Spectrum: 2048
>>>>>Begin Spectral Data<<<<<
341.393	-26.47
341.776	-26.47
342.16	-26.47
342.543	-63.3
342.927	-79.35
343.31	-80.7
343.693	-75.51
344.077	-73.92
344.46	-57.88
344.843	-48.39
345.226	-44.09
345.61	-31.89
345.993	-16.75
346.376	5.4
346.759	19.18
347.142	12.63
347.525	27.54
347.908	69.12
348.291	71.16
348.674	121.1
349.057	103.02
349.44	124.49
349.823	154.54
350.206	157.26
350.588	204.71
350.971	213.98
351.354	226.63
351.737	228.21
352.119	230.47
352.502	267.08
352.884	263.69
353.267	272.96
353.65	288.33
354.032	277.25
354.414	307.76
354.797	317.48
355.179	319.51
355.562	313.18
355.944	311.83
356.326	329.23
356.709	318.38
357.091	329
357.473	328.1
357.855	343.92
358.238	351.15
358.62	324.93
359.002	331.94
359.384	319.29
359.766	317.03
360.148	332.17
360.53	343.69
360.912	342.79
361.294	327.42
361.676	334.88
362.057	313.18
362.439	330.81
362.821	314.09
363.203	313.86
363.584	318.83
363.966	317.25
364.348	326.97
364.729	311.6
365.111	321.55
365.493	321.77
365.874	310.25
366.256	301.66
366.637	290.59
367.019	292.85
367.4	301.66
367.781	302.56
368.163	297.14
368.544	303.01
368.925	308.66
369.306	333.52
369.688	326.97
370.069	322.9
370.45	296.24
370.831	304.82
371.212	301.43
371.593	303.92
371.974	306.18
372.355	310.92
372.736	322.68
373.117	298.72
373.498	297.14
373.879	321.09
374.26	303.69
374.641	300.53
375.021	335.78
375.402	297.59
375.783	309.57
376.163	303.01
376.544	321.55
376.925	313.18
377.305	294.43
377.686	324.26
378.066	324.93
378.447	316.57
378.827	308.44
379.208	312.28
379.588	322.9
379.968	317.7
380.349	314.54
380.729	310.02
381.109	309.79
381.489	340.53
381.87	344.14
382.25	342.34
382.63	340.3
383.01	341.43
383.39	348.21
383.77	323.35
384.15	332.62
384.53	338.27
384.91	344.37
385.29	340.3
385.67	346.18
386.049	338.49
386.429	347.53
386.809	337.14
387.189	349.79
387.568	337.59
387.948	335.33
388.328	328.32
388.707	365.61
389.087	348.66
389.466	333.75
389.846	341.88
390.225	336.91
390.605	338.95
390.984	325.61
391.363	357.93
391.743	340.75
392.122	354.09
392.501	344.14
392.881	352.05
393.26	370.81
393.639	372.39
394.018	346.4
394.397	354.31
394.776	373.3
395.155	350.7
395.534	344.82
395.913	369.23
396.292	360.19
396.671	339.62
397.05	358.83
397.429	369.91
397.808	350.7
398.186	372.62
398.565	367.42
398.944	362.67
399.323	366.06
399.701	366.74
400.08	358.38
400.458	374.65
400.837	381.2
401.215	376.46
401.594	370.13
401.972	379.85
402.351	378.04
402.729	384.37
403.107	384.59
403.486	387.98
403.864	388.21
404.242	403.58
404.62	385.05
404.999	378.94
405.377	397.7
405.755	378.94
406.133	404.25
406.511	391.15
406.889	401.54
407.267	400.19
407.645	419.17
408.023	415.55
408.401	401.09
408.779	418.49
409.156	427.08
409.534	416.23
409.912	414.88
410.29	426.63
410.667	420.98
411.045	431.82
411.422	434.54
411.8	428.44
412.178	434.99
412.555	432.95
412.933	433.18
413.31	436.34
413.687	446.06
414.065	440.41
414.442	425.27
414.819	467.08
415.197	432.05
415.574	454.65
415.951	434.76
416.328	458.72
416.705	453.75
417.082	448.1
417.46	451.26
417.837	492.39
418.214	479.51
418.591	484.93
418.967	466.17
419.344	471.6
419.721	485.61
420.098	470.24
420.475	470.92
420.852	470.69
421.228	503.24
421.605	498.49
421.982	515.66
422.358	497.13
422.735	507.76
423.111	516.34
423.488	495.1
423.864	533.29
424.241	514.08
424.617	521.54
424.994	521.54
425.37	521.77
425.746	519.96
426.123	511.82
426.499	527.64
426.875	535.32
427.251	535.1
427.627	543.46
428.003	566.06
428.379	545.95
428.756	538.94
429.132	539.17
429.507	564.02
429.883	560.86
430.259	571.48
430.635	575.1
431.011	594.08
431.387	577.36
431.763	600.41
432.138	610.8
432.514	598.83
432.89	594.98
433.265	581.65
433.641	611.93
434.016	620.29
434.392	624.81
434.767	642.67
435.143	635.44
435.518	641.54
435.894	641.76
436.269	630.01
436.644	660.75
437.02	655.32
437.395	662.78
437.77	658.03
438.145	682.21
438.52	679.05
438.895	661.42
439.271	668.2
439.646	689.22
440.021	686.06
440.395	699.61
440.77	674.08
441.145	701.87
441.52	718.82
441.895	699.61
442.27	693.29
442.645	712.95
443.019	718.14
443.394	724.7
443.769	765.6
444.143	717.24
444.518	727.18
444.892	726.96
445.267	748.88
445.641	735.09
446.016	747.52
446.39	764.47
446.764	762.44
447.139	742.78
447.513	757.47
447.887	756.34
448.262	759.95
448.636	759.05
449.01	792.49
449.384	747.07
449.758	753.62
450.132	788.88
450.506	776.9
450.88	783.68
451.254	807.18
451.628	798.37
452.002	801.98
452.376	789.1
452.75	796.11
453.123	831.36
453.497	831.59
453.871	836.79
454.244	847.18
454.618	844.47
454.992	837.69
455.365	852.15
455.739	867.07
456.112	863.45
456.486	854.19
456.859	896.45
457.232	895.32
457.606	883.79
457.979	913.39
458.352	901.64
458.725	900.74
459.099	917.69
459.472	941.19
459.845	940.29
460.218	973.73
460.591	965.37
460.964	981.64
461.337	972.15
461.71	976.67
462.083	997.01
462.456	1013.73
462.829	971.02
463.201	1014.63
463.574	1007.4
463.947	1037.23
464.32	1034.52
464.692	1065.93
465.065	1063.9
465.438	1069.1
465.81	1070
466.183	1080.85
466.555	1111.35
466.928	1104.35
467.3	1096.21
467.672	1136.89
468.045	1150.45
468.417	1151.13
468.789	1175.31
469.161	1190.22
469.534	1207.4
469.906	1195.87
470.278	1242.88
470.65	1229.32
471.022	1271.12
471.394	1283.55
471.766	1294.4
472.138	1285.59
472.51	1318.81
472.882	1360.61
473.253	1358.58
473.625	1379.6
473.997	1421.86
474.369	1424.79
474.74	1426.6
475.112	1452.14
475.484	1485.58
475.855	1506.6
476.227	1505.02
476.598	1546.82
476.97	1575.52
477.341	1571.91
477.713	1592.02
478.084	1632.7
478.455	1690.55
478.827	1718.57
479.198	1759.7
479.569	1723.32
479.94	1808.29
480.311	1787.04
480.682	1842.64
481.053	1906.59
481.424	1909.3
481.795	1938.68
482.166	1989.75
482.537	2032.69
482.908	2032.46
483.279	2063.65
483.65	2123.08
484.021	2155.4
484.391	2177.09
484.762	2160.59
485.133	2182.74
485.503	2242.17
485.874	2292.79
486.244	2308.84
486.615	2386.12
486.985	2370.53
487.356	2452.79
487.726	2468.38
488.097	2490.98
488.467	2518.1
488.837	2568.49
489.207	2580.92
489.578	2653.69
489.948	2681.26
490.318	2735.72
490.688	2714.93
491.058	2774.36
491.428	2824.08
491.798	2859.56
492.168	2882.16
492.538	2872.66
492.908	2944.98
493.278	2976.39
493.648	3001.47
494.017	3026.56
494.387	3036.73
494.757	3069.95
495.126	3099.1
495.496	3158.08
495.866	3167.8
496.235	3215.48
496.605	3234.91
496.974	3244.86
497.344	3264.52
497.713	3280.79
498.082	3357.4
498.452	3405.76
498.821	3357.4
499.19	3423.16
499.559	3436.49
499.928	3463.38
500.298	3476.26
500.667	3505.64
501.036	3492.76
501.405	3539.54
501.774	3521.24
502.143	3600.1
502.512	3596.04
502.88	3601.46
503.249	3626.77
503.618	3659.76
503.987	3635.36
504.356	3691.4
504.724	3724.62
505.093	3736.6
505.462	3721.68
505.83	3751.96
506.199	3725.98
506.567	3860.44
506.936	3821.11
507.304	3868.57
507.672	3892.75
508.041	3874.9
508.409	3891.62
508.777	3928.46
509.145	3963.71
509.514	3951.96
509.882	3985.18
510.25	4016.36
510.618	4024.27
510.986	4006.87
511.354	4034.22
511.722	4096.59
512.09	4091.16
512.458	4091.62
512.826	4108.56
513.193	4116.02
513.561	4109.24
513.929	4159.18
514.297	4218.39
514.664	4203.7
515.032	4223.59
515.4	4243.25
515.767	4249.13
516.135	4280.99
516.502	4286.86
516.869	4330.71
517.237	4309.69
517.604	4279.86
517.972	4305.62
518.339	4384.26
518.706	4356.47
519.073	4344.72
519.44	4383.81
519.808	4478.05
520.175	4430.82
520.542	4502
520.909	4461.55
521.276	4473.98
521.643	4497.03
522.009	4577.03
522.376	4576.8
522.743	4543.58
523.11	4607.99
523.477	4656.12
523.843	4639.62
524.21	4676.46
524.577	4697.48
524.943	4752.62
525.31	4748.1
525.676	4747.19
526.043	4791.03
526.409	4768.66
526.776	4831.26
527.142	4851.14
527.508	4878.49
527.874	4920.52
528.241	4923.01
528.607	4946.06
528.973	5018.37
529.339	4974.08
529.705	5038.94
530.071	5054.53
530.437	5067.18
530.803	5104.47
531.169	5147.63
531.535	5123.23
531.901	5159.38
532.267	5150.34
532.632	5250.23
532.998	5227.86
533.364	5279.61
533.73	5228.76
534.095	5301.08
534.461	5339.27
534.826	5335.88
535.192	5362.99
535.557	5394.18
535.923	5417
536.288	5441.18
536.653	5477.12
537.019	5437.79
537.384	5482.31
537.749	5485.7
538.114	5501.75
538.479	5494.52
538.845	5550.11
539.21	5568.19
539.575	5554.18
539.94	5615.87
540.305	5664.46
540.67	5670.78
541.034	5666.94
541.399	5757.11
541.764	5701.29
542.129	5774.74
542.494	5758.01
542.858	5793.27
543.223	5808.63
543.587	5863.55
543.952	5860.38
544.316	5872.36
544.681	5877.11
545.045	5864.22
545.41	5922.53
545.774	5966.37
546.138	6038.91
546.503	6003.43
546.867	6015.86
547.231	6048.17
547.595	6070.32
547.959	6118.45
548.324	6136.31
548.688	6167.04
549.052	6179.24
549.416	6157.55
549.779	6201.16
550.143	6220.15
550.507	6261.5
550.871	6287.94
551.235	6293.59
551.599	6375.62
551.962	6354.83
552.326	6364.1
552.689	6409.75
553.053	6321.39
553.417	6357.32
553.78	6426.24
554.143	6430.31
554.507	6487.94
554.87	6516.18
555.234	6513.92
555.597	6427.83
555.96	6530.87
556.323	6531.33
556.686	6625.79
557.05	6606.13
557.413	6609.97
557.776	6613.36
558.139	6693.36
558.502	6693.13
558.865	6738.78
559.228	6781.94
559.59	6782.84
559.953	6753.24
560.316	6829.62
560.679	6842.05
561.041	6886.57
561.404	6927.25
561.767	6910.3
562.129	6826.46
562.492	6966.12
562.854	7000.92
563.217	6994.14
563.579	7016.74
563.941	7081.14
564.304	7067.13
564.666	7108.03
565.028	7112.78
565.39	7103.97
565.753	7218.99
566.115	7174.02
566.477	7227.35
566.839	7238.43
567.201	7336.73
567.563	7331.98
567.925	7405.43
568.287	7383.05
568.648	7381.92
569.01	7452.88
569.372	7422.6
569.734	7448.82
570.095	7523.84
570.457	7562.71
570.819	7534.01
571.18	7593.44
571.542	7615.14
571.903	7611.75
572.265	7714.8
572.626	7737.62
572.987	7775.59
573.349	7819.2
573.71	7808.81
574.071	7898.3
574.432	7926.54
574.794	7981.68
575.155	8033.21
575.516	8077.27
575.877	8179.42
576.238	8172.64
576.599	8336.25
576.96	8300.32
577.32	8377.38
577.681	8515.45
578.042	8509.58
578.403	8581.44
578.763	8699.63
579.124	8731.49
579.485	8810.14
579.845	8954.76
580.206	8989.79
580.566	9132.84
580.927	9217.58
581.287	9349.33
581.648	9482.89
582.008	9543.45
582.368	9632.94
582.728	9774.4
583.089	9902.76
583.449	10047.39
583.809	10172.13
584.169	10322.64
584.529	10519.47
584.889	10668.39
585.249	10826.81
585.609	10981.15
585.969	11194.71
586.329	11355.83
586.688	11504.53
587.048	11718.53
587.408	11884.86
587.768	12030.16
588.127	12339.31
588.487	12506.76
588.846	12840.99
589.206	12907.43
589.565	13054.77
589.925	13455.89
590.284	13622.44
590.643	13859.04
591.003	14147.4
591.362	14362.53
591.721	14560.49
592.08	14893.14
592.44	15122.06
592.799	15348.72
593.158	15642.72
593.517	15906.22
593.876	16165.65
594.235	16433.21
594.593	16609.7
594.952	17070.26
595.311	17239.52
595.67	17564.26
596.029	17878.6
596.387	18166.27
596.746	18498.47
597.104	18700.5
597.463	18995.4
597.822	19261.61
598.18	19450.76
598.538	19778.66
598.897	20107.01
599.255	20252.77
599.613	20700.9
599.972	20968.01
600.33	21277.83
600.688	21445.74
601.046	21875.33
601.404	22149.9
601.762	22333.62
602.12	22721.18
602.478	22927.5
602.836	23150.32
603.194	23376.98
603.552	23626.92
603.91	23856.29
604.268	24249.05
604.625	24317.98
604.983	24672.09
605.341	24779.21
605.698	25105.07
606.056	25427.1
606.413	25605.63
606.771	25852.63
607.128	26245.84
607.485	26267.98
607.843	26447.19
608.2	26807.85
608.557	27072.71
608.914	27345.47
609.272	27593.14
609.629	27891.44
609.986	28046.92
610.343	28202.39
610.7	28540.69
611.057	28539.79
611.414	28860.91
611.771	28993.11
612.127	29286.21
612.484	29370.5
612.841	29692.75
613.198	29650.27
613.554	29893.65
613.911	30150.82
614.267	30238.5
614.624	30321.89
614.98	30741.08
615.337	31005.94
615.693	31083.22
616.05	31196.67
616.406	31384.68
616.762	31394.63
617.118	31643.21
617.475	31715.97
617.831	32038.9
618.187	32039.81
618.543	32174.27
618.899	32370.42
619.255	32532
619.611	32574.03
619.967	32821.93
620.323	32919.56
620.678	32931.54
621.034	33018.99
621.39	33131.53
621.746	33082.27
622.101	33574.91
622.457	33325.88
622.812	33457.17
623.168	33739.65
623.523	33771.51
623.879	34042.01
624.234	33872.53
624.589	33938.51
624.945	34150.49
625.3	34177.15
625.655	34311.16
626.01	34422.8
626.365	34507.09
626.72	34405.62
627.075	34521.1
627.43	34603.58
627.785	34545.05
628.14	34685.39
628.495	34897.59
628.85	34874.08
629.205	34744.37
629.559	34937.58
629.914	35013.29
630.269	35045.38
630.623	34995.44
630.978	35048.77
631.332	35173.28
631.687	35186.39
632.041	35110.01
632.396	35198.82
632.75	35133.06
633.104	35232.49
633.459	35074.08
633.813	35132.38
634.167	35143
634.521	35242.43
634.875	35302.32
635.229	35170.35
635.583	35009.9
635.937	35219.16
636.291	35233.62
636.645	35162.89
636.999	35186.17
637.352	35260.29
637.706	35091.93
638.06	35340.06
638.413	35293.96
638.767	35133.74
639.121	35167.86
639.474	35137.8
639.828	35057.81
640.181	35176.67
640.534	35199.95
640.888	35145.71
641.241	35184.58
641.594	35128.31
641.947	35120.4
642.301	35100.74
642.654	35034.08
643.007	35246.28
643.36	35094.42
643.713	34999.73
644.066	35263.23
644.419	35019.84
644.771	34798.15
645.124	34484.49
645.477	34503.47
645.83	34273.19
646.182	34248.34
646.535	33994.33
646.888	34107.55
647.24	34027.78
647.593	34239.98
647.945	34182.8
648.298	33939.64
648.65	33927.44
649.002	33757.5
649.355	34154.33
649.707	34043.37
650.059	34118.17
650.411	34478.84
650.763	34481.55
651.115	34838.38
651.467	34706.86
651.819	34671.38
652.171	34755.67
652.523	34671.15
652.875	34589.34
653.227	34572.85
653.578	34793.41
653.93	34599.06
654.282	34496.01
654.633	34487.43
654.985	34425.73
655.337	34588.21
655.688	34524.49
656.039	34568.1
656.391	34347.77
656.742	34516.13
657.094	34504.38
657.445	34495.11
657.796	34561.32
658.147	34522.91
658.498	34467.99
658.849	34530.82
659.2	34439.52
659.551	34302.8
659.902	34539.18
660.253	34380.08
660.604	34472.06
660.955	34310.71
661.306	34381.67
661.656	34389.35
662.007	34347.54
662.358	34331.72
662.708	34303.48
663.059	34315
663.409	34192.07
663.76	34354.32
664.11	34341.22
664.461	34419.63
664.811	34261.67
665.161	34197.04
665.511	34261.22
665.862	34296.02
666.212	34304.61
666.562	34296.25
666.912	34221.67
667.262	34125.85
667.612	34154.78
667.962	34272.74
668.312	33981.23
668.662	34320.2
669.011	34153.42
669.361	34148.23
669.711	34223.48
670.06	34162.92
670.41	34184.84
670.76	34071.39
671.109	34116.59
671.459	34252.86
671.808	34074.56
672.157	34211.28
672.507	33863.94
672.856	34033.43
673.205	34134.89
673.554	34110.26
673.904	34040.66
674.253	34063.93
674.602	33940.1
674.951	33459.66
675.3	33420.11
675.649	33902.81
675.998	33854
676.346	33962.47
676.695	33909.59
677.044	33691.97
677.393	33827.33
677.741	33923.6
678.09	33697.16
678.438	33757.95
678.787	33730.84
679.135	33683.83
679.484	33520.9
679.832	33547.79
680.181	33331.3
680.529	33632.53
680.877	33554.8
681.225	33410.17
681.573	33650.61
681.922	33433.22
682.27	33212.43
682.618	33315.03
682.966	33267.12
683.314	33155.03
683.661	33219.66
684.009	32890.86
684.357	32962.72
684.705	32861.25
685.053	32999.33
685.4	32939.22
685.748	32668.72
686.095	32854.93
686.443	32677.76
686.79	32592.34
687.138	32695.38
687.485	32735.83
687.832	32612.9
688.18	32693.35
688.527	32416.97
688.874	32397.99
689.221	32242.29
689.568	32360.25
689.915	32252.46
690.262	32065.34
690.609	32116.87
690.956	31930.43
691.303	31921.84
691.65	31764.33
691.997	31858.34
692.344	31512.36
692.69	31619.48
693.037	31665.13
693.383	31404.34
693.73	31468.75
694.077	31270.34
694.423	31304.46
694.769	31162.09
695.116	31143.33
695.462	31045.71
695.808	31007.74
696.155	30958.93
696.501	30734.3
696.847	30877.35
697.193	30479.4
697.539	30701.54
697.885	30403.01
698.231	30443.69
698.577	30379.51
698.923	30281.44
699.269	30169.57
699.614	29975
699.96	29914.67
700.306	30014.32
700.651	29910.37
700.997	29750.6
701.342	29571.4
701.688	29671.28
702.033	29609.59
702.379	29539.76
702.724	29478.52
703.069	29524.85
703.415	29158.75
703.76	29148.13
704.105	29142.26
704.45	29113.56
704.795	28889.16
705.14	28893.45
705.485	29034.91
705.83	28825.88
706.175	28857.29
706.52	28724.64
706.865	28625.43
707.209	28538.43
707.554	28474.48
707.899	28605.1
708.243	28376.17
708.588	28330.53
708.932	28197.65
709.277	28211.66
709.621	28180.47
709.966	28034.49
710.31	28112
710.654	27846.7
710.998	27960.37
711.342	27941.84
711.687	27879.69
712.031	27674.72
712.375	27575.74
712.719	27555.18
713.063	27540.04
713.407	27632.69
713.75	27389.08
714.094	27418.69
714.438	27364.9
714.782	27331.91
715.125	27307.95
715.469	27203.32
715.812	27096.21
716.156	27065.25
716.499	26999.26
716.843	27044.68
717.186	26900.96
717.53	27054.63
717.873	27046.72
718.216	26734.41
718.559	26786.16
718.902	26616.45
719.246	26675.43
719.589	26576.9
719.932	26395.66
720.275	26450.8
720.617	26265.5
720.96	26385.72
721.303	26384.59
721.646	26419.39
721.989	26232.28
722.331	26227.76
722.674	26253.29
723.016	26146.4
723.359	26165.39
723.701	26145.27
724.044	25942.57
724.386	25882.68
724.729	25981.89
725.071	25963.81
725.413	25798.39
725.755	25835
726.097	25652.18
726.439	25618.73
726.782	25721.1
727.124	25628.22
727.465	25641.11
727.807	25556.81
728.149	25467.32
728.491	25434.33
728.833	25516.81
729.175	25482.47
729.516	25307.1
729.858	25302.36
730.199	25280.44
730.541	25210.16
730.882	25240.89
731.224	25238.63
731.565	25064.17
731.906	25067.11
732.248	25226.2
732.589	24957.96
732.93	24912.54
733.271	24983.72
733.612	24855.59
733.953	25034.57
734.294	24867.57
734.635	24814.69
734.976	24795.48
735.317	24629.15
735.658	24688.14
735.999	24659.44
736.339	24586.22
736.68	24727.68
737.021	24667.57
737.361	24420.8
737.702	24553.9
738.042	24552.77
738.383	24505.09
738.723	24458.31
739.063	24359.11
739.404	24417.18
739.744	24371.53
740.084	24359.11
740.424	24260.58
740.764	24183.06
741.104	24235.49
741.444	24172.44
741.784	24048.6
742.124	24104.42
742.464	24229.39
742.804	23970.64
743.143	23886.8
743.483	24059.45
743.823	23767.48
744.162	23800.7
744.502	23925.22
744.841	23752.57
745.181	23861.27
745.52	23762.96
745.86	23779.91
746.199	23655.17
746.538	23682.29
746.877	23679.12
747.216	23673.47
747.556	23610.2
747.895	23622.18
748.234	23530.65
748.573	23458.11
748.911	23355.74
749.25	23483.42
749.589	23326.36
749.928	23335.4
750.267	23389.41
750.605	23184.67
750.944	23237.78
751.283	23096.54
751.621	23182.87
751.96	23093.6
752.298	23091.79
752.636	23055.64
752.975	23020.84
753.313	22880.5
753.651	22983.77
753.989	22777.9
754.327	22799.82
754.666	22709.21
755.004	22773.84
755.342	22741.97
755.679	22750.56
756.017	22602.09
756.355	22699.71
756.693	22612.03
757.031	22497.69
757.368	22398.48
757.706	22381.76
758.044	22337.69
758.381	22347.41
758.719	22252.49
759.056	22260.63
759.394	22200.07
759.731	22071.48
760.068	22027.64
760.405	22076.23
760.743	21814.31
761.08	21994.87
761.417	21795.33
