Data from hue_20_FLMS001491_62.txt Node
Date: Mon Feb 06 15:34:27 GMT 2017
User: dcchb
Spectrometer: FLMS00149
Trigger mode: 0
Integration Time (sec): 2.000000E-2
Scans to average: 10
Electric dark correction enabled: true
Nonlinearity correction enabled: false
Boxcar width: 0
XAxis mode: Wavelengths
Number of Pixels in Spectrum: 2048
>>>>>Begin Spectral Data<<<<<
341.393	-14.62
341.776	-14.62
342.16	-14.62
342.543	-64.11
342.927	-80.61
343.31	-60.72
343.693	-71.11
344.077	-83.09
344.46	-42.64
344.843	-65.46
345.226	-41.96
345.61	-39.25
345.993	-16.65
346.376	3.46
346.759	8.43
347.142	31.71
347.525	54.08
347.908	57.92
348.291	56.11
348.674	82.55
349.057	126.62
349.44	113.06
349.823	139.73
350.206	160.07
350.588	187.18
350.971	198.03
351.354	223.57
351.737	232.83
352.119	245.04
352.502	254.08
352.884	276
353.267	279.39
353.65	290.46
354.032	291.59
354.414	294.98
354.797	307.41
355.179	315.54
355.562	319.38
355.944	337.01
356.326	348.99
356.709	341.53
357.091	325.71
357.473	327.07
357.855	339.72
358.238	363.45
358.62	334.3
359.002	344.24
359.384	327.52
359.766	334.53
360.148	333.4
360.53	324.81
360.912	334.07
361.294	330.01
361.676	330.23
362.057	317.8
362.439	336.33
362.821	317.8
363.203	294.3
363.584	323.45
363.966	324.81
364.348	316.45
364.729	330.23
365.111	309.44
365.493	330.23
365.874	301.53
366.256	329.33
366.637	321.42
367.019	323
367.4	320.74
367.781	316.45
368.163	309.67
368.544	332.94
368.925	310.8
369.306	313.06
369.688	334.98
370.069	320.74
370.45	300.85
370.831	308.54
371.212	303.34
371.593	331.14
371.974	315.54
372.355	286.62
372.736	306.73
373.117	306.73
373.498	325.71
373.879	322.77
374.26	298.37
374.641	304.02
375.021	321.87
375.402	316.9
375.783	301.76
376.163	333.85
376.544	332.27
376.925	323.45
377.305	311.02
377.686	325.94
378.066	341.76
378.447	330.23
378.827	319.38
379.208	335.88
379.588	337.24
379.968	306.73
380.349	314.64
380.729	327.52
381.109	336.11
381.489	325.03
381.87	320.06
382.25	328.65
382.63	340.85
383.01	346.05
383.39	328.88
383.77	357.8
384.15	352.83
384.53	359.38
384.91	333.85
385.29	348.31
385.67	365.26
386.049	360.97
386.429	367.52
386.809	355.77
387.189	344.02
387.568	334.75
387.948	320.97
388.328	352.83
388.707	336.56
389.087	360.74
389.466	338.37
389.846	359.61
390.225	382.43
390.605	357.58
390.984	368.65
391.363	380.63
391.743	371.13
392.122	359.38
392.501	338.37
392.881	372.04
393.26	368.2
393.639	377.69
394.018	368.65
394.397	361.87
394.776	399.16
395.155	354.64
395.534	365.71
395.913	371.13
396.292	374.52
396.671	386.95
397.05	377.24
397.429	382.21
397.808	362.32
398.186	400.74
398.565	379.5
398.944	396.44
399.323	403
399.701	418.82
400.08	376.78
400.458	373.39
400.837	373.39
401.215	378.14
401.594	401.42
401.972	407.97
402.351	409.55
402.729	399.83
403.107	406.84
403.486	377.24
403.864	403.68
404.242	397.12
404.62	409.33
404.999	422.43
405.377	396.44
405.755	396.22
406.133	392.83
406.511	424.69
406.889	413.85
407.267	405.48
407.645	422.88
408.023	424.24
408.401	418.14
408.779	422.21
409.156	424.47
409.534	427.86
409.912	434.64
410.29	422.21
410.667	426.73
411.045	440.74
411.422	434.41
411.8	427.63
412.178	444.35
412.555	440.29
412.933	424.69
413.31	452.04
413.687	459.27
414.065	442.32
414.442	466.95
414.819	475.54
415.197	480.28
415.574	475.76
415.951	483.9
416.328	469.44
416.705	472.15
417.082	480.96
417.46	486.84
417.837	485.93
418.214	480.06
418.591	502.43
418.967	481.87
419.344	494.07
419.721	501.07
420.098	499.27
420.475	505.14
420.852	488.87
421.228	500.4
421.605	519.15
421.982	513.73
422.358	506.5
422.735	477.12
423.111	526.38
423.488	520.06
423.864	540.17
424.241	531.13
424.617	529.55
424.994	546.72
425.37	546.95
425.746	525.25
426.123	518.48
426.499	548.53
426.875	528.42
427.251	554.41
427.627	572.03
428.003	578.36
428.379	536.1
428.756	563.22
429.132	577.91
429.507	574.52
429.883	560.73
430.259	569.77
430.635	598.02
431.011	581.52
431.387	581.07
431.763	588.3
432.138	607.06
432.514	584.46
432.89	595.08
433.265	593.5
433.641	618.13
434.016	628.3
434.392	631.01
434.767	645.93
435.143	614.97
435.518	640.51
435.894	638.47
436.269	632.37
436.644	645.48
437.02	672.6
437.395	675.53
437.77	653.39
438.145	675.76
438.52	684.12
438.895	667.4
439.271	679.6
439.646	679.15
440.021	687.96
440.395	670.34
440.77	678.47
441.145	713.5
441.52	703.1
441.895	701.07
442.27	709.2
442.645	712.59
443.019	721.41
443.394	718.7
443.769	735.64
444.143	716.44
444.518	725.48
444.892	744.68
445.267	744.91
445.641	725.48
446.016	746.72
446.39	747.4
446.764	749.2
447.139	758.24
447.513	763.89
447.887	755.53
448.262	734.51
448.636	744.01
449.01	783.78
449.384	786.49
449.758	787.85
450.132	780.39
450.506	790.56
450.88	789.43
451.254	774.97
451.628	816.09
452.002	839.14
452.376	830.11
452.75	808.41
453.123	796.66
453.497	845.92
453.871	839.6
454.244	849.77
454.618	831.69
454.992	876.43
455.365	867.39
455.739	893.15
456.112	869.43
456.486	890.44
456.859	914.17
457.232	927.5
457.606	907.84
457.979	932.25
458.352	945.58
458.725	954.85
459.099	941.97
459.472	959.37
459.845	974.06
460.218	974.28
460.591	987.84
460.964	978.35
461.337	1019.93
461.71	1031.68
462.083	1062.42
462.456	1011.57
462.829	1019.25
463.201	1053.15
463.574	1037.11
463.947	1077.78
464.32	1074.39
464.692	1094.51
465.065	1107.84
465.438	1112.36
465.81	1147.61
466.183	1127.5
466.555	1165.92
466.928	1139.25
467.3	1162.53
467.672	1174.73
468.045	1194.62
468.417	1236.2
468.789	1192.58
469.161	1248.4
469.534	1260.83
469.906	1306.48
470.278	1282.52
470.65	1307.61
471.022	1319.36
471.394	1351.45
471.766	1339.24
472.138	1393.48
472.51	1379.24
472.882	1426.25
473.253	1448.17
473.625	1454.27
473.997	1457.66
474.369	1502.4
474.74	1493.36
475.112	1539.01
475.484	1579.24
475.855	1594.6
476.227	1583.76
476.598	1640.93
476.97	1652
477.341	1706.01
477.713	1699.91
478.084	1726.8
478.455	1779.46
478.827	1809.29
479.198	1878.44
479.569	1832.34
479.94	1903.52
480.311	1898.55
480.682	1966.57
481.053	2015.84
481.424	2043.18
481.795	2070.3
482.166	2076.85
482.537	2151.2
482.908	2192.56
483.279	2217.64
483.65	2240.24
484.021	2256.51
484.391	2331.99
484.762	2389.16
485.133	2398.88
485.503	2442.04
485.874	2462.83
486.244	2492.21
486.615	2537.86
486.985	2589.16
487.356	2626.44
487.726	2677.29
488.097	2709.6
488.467	2718.64
488.837	2796.16
489.207	2844.29
489.578	2872.09
489.948	2894.01
490.318	2966.09
490.688	2952.54
491.058	3030.95
491.428	3078.86
491.798	3126.09
492.168	3160.67
492.538	3182.13
492.908	3195.92
493.278	3268.46
493.648	3278.18
494.017	3289.7
494.387	3368.57
494.757	3396.37
495.126	3417.83
495.496	3421.68
495.866	3463.93
496.235	3529.02
496.605	3549.58
496.974	3565.4
497.344	3589.35
497.713	3645.17
498.082	3679.52
498.452	3677.71
498.821	3697.83
499.19	3776.92
499.559	3797.03
499.928	3825.28
500.298	3778.28
500.667	3833.19
501.036	3855.34
501.405	3891.49
501.774	3891.95
502.143	3966.97
502.512	3978.72
502.88	4043.35
503.249	4000.42
503.618	4056.46
503.987	4050.13
504.356	4090.13
504.724	4112.28
505.093	4105.27
505.462	4163.58
505.83	4171.71
506.199	4187.53
506.567	4213.75
506.936	4217.36
507.304	4315.89
507.672	4283.12
508.041	4291.26
508.409	4351.82
508.777	4334.19
509.145	4390.01
509.514	4361.09
509.882	4407.86
510.25	4421.88
510.618	4483.34
510.986	4506.84
511.354	4557.01
511.722	4546.62
512.09	4552.04
512.458	4530.57
512.826	4592.49
513.193	4623.9
513.561	4614.64
513.929	4658.93
514.297	4696.22
514.664	4715.65
515.032	4700.29
515.4	4814.63
515.767	4720.85
516.135	4850.56
516.502	4777.35
516.869	4860.73
517.237	4915.2
517.604	4864.12
517.972	4872.03
518.339	4908.42
518.706	4943.22
519.073	4966.04
519.44	4950.67
519.808	4961.97
520.175	5020.28
520.542	5048.07
520.909	5081.07
521.276	5043.78
521.643	5095.3
522.009	5100.73
522.376	5194.74
522.743	5207.62
523.11	5227.5
523.477	5289.2
523.843	5278.58
524.21	5319.7
524.577	5375.3
524.943	5364.9
525.31	5393.6
525.676	5454.16
526.043	5467.27
526.409	5513.82
526.776	5495.75
527.142	5559.92
527.508	5585.91
527.874	5620.26
528.241	5684.21
528.607	5632.01
528.973	5684.44
529.339	5695.51
529.705	5767.15
530.071	5793.36
530.437	5789.97
530.803	5846.24
531.169	5863.42
531.535	5858.67
531.901	5909.29
532.267	5939.58
532.632	5928.5
532.998	6040.36
533.364	6003.53
533.73	6042.85
534.095	6094.83
534.461	6106.8
534.826	6112.23
535.192	6173.69
535.557	6178.44
535.923	6154.49
536.288	6200.81
536.653	6250.53
537.019	6286.23
537.384	6259.12
537.749	6274.48
538.114	6309.28
538.479	6379.34
538.845	6414.59
539.21	6400.13
539.575	6448.49
539.94	6455.49
540.305	6457.3
540.67	6513.35
541.034	6503.18
541.399	6576.17
541.764	6548.37
542.129	6598.77
542.494	6629.05
542.858	6580.69
543.223	6638.99
543.587	6735.26
543.952	6705.43
544.316	6772.55
544.681	6727.58
545.045	6758.31
545.41	6789.27
545.774	6838.53
546.138	6848.48
546.503	6848.93
546.867	6888.25
547.231	6963.28
547.595	6979.55
547.959	6952.2
548.324	7036.72
548.688	7055.7
549.052	7052.99
549.416	7074.01
549.779	7130.73
550.143	7081.47
550.507	7200.56
550.871	7194.01
551.235	7161.24
551.599	7253.44
551.962	7264.74
552.326	7293.89
552.689	7334.34
553.053	7309.48
553.417	7312.65
553.78	7433.55
554.143	7384.28
554.507	7395.36
554.87	7423.83
555.234	7573.88
555.597	7444.17
555.96	7493.21
556.323	7527.56
556.686	7574.56
557.05	7574.33
557.413	7673.09
557.776	7611.4
558.139	7703.6
558.502	7744.27
558.865	7707.21
559.228	7724.16
559.59	7771.84
559.953	7833.08
560.316	7828.57
560.679	7905.63
561.041	7831.05
561.404	7939.3
561.767	7959.18
562.129	7981.78
562.492	8040.76
562.854	8000.76
563.217	8060.88
563.579	8070.14
563.941	8079.41
564.304	8168.44
564.666	8179.29
565.028	8184.26
565.39	8266.29
565.753	8284.6
566.115	8287.99
566.477	8330.7
566.839	8361.21
567.201	8460.87
567.563	8384.26
567.925	8426.06
568.287	8478.72
568.648	8489.11
569.01	8529.11
569.372	8567.3
569.734	8556.23
570.095	8638.94
570.457	8689.56
570.819	8657.24
571.18	8739.05
571.542	8786.96
571.903	8840.29
572.265	8857.46
572.626	8913.28
572.987	8950.57
573.349	8939.04
573.71	9041.87
574.071	9122.54
574.432	9159.6
574.794	9179.49
575.155	9253.61
575.516	9224.69
575.877	9323.67
576.238	9372.48
576.599	9445.92
576.96	9501.06
577.32	9528.18
577.681	9641.85
578.042	9711.23
578.403	9758.91
578.763	9793.71
579.124	9903.99
579.485	10005.68
579.845	10131.1
580.206	10170.42
580.566	10295.85
580.927	10296.98
581.287	10468.95
581.648	10528.16
582.008	10682.28
582.368	10769.28
582.728	10982.83
583.089	11044.53
583.449	11156.16
583.809	11282.26
584.169	11407
584.529	11561.35
584.889	11765.64
585.249	11971.73
585.609	12120.43
585.969	12310.93
586.329	12496.01
586.688	12601.55
587.048	12781.2
587.408	13060.74
587.768	13208.31
588.127	13391.81
588.487	13613.95
588.846	13918.12
589.206	14037.22
589.565	14249.87
589.925	14591.78
590.284	14703.41
590.643	15008.72
591.003	15157.64
591.362	15518.53
591.721	15766.89
592.08	15938.86
592.44	16197.61
592.799	16489.13
593.158	16744.94
593.517	16907.87
593.876	17201.43
594.235	17516.67
594.593	17857.23
594.952	18175.41
595.311	18333.15
595.67	18636.87
596.029	19034.82
596.387	19301.03
596.746	19553.91
597.104	19859.66
597.463	20068.92
597.822	20349.37
598.18	20568.8
598.538	20952.51
598.897	21286.06
599.255	21427.3
599.613	22013.5
599.972	22092.15
600.33	22476.32
600.688	22643.32
601.046	23130.31
601.404	23314.26
601.762	23595.16
602.12	23941.59
602.478	24218.64
602.836	24440.33
603.194	24561.23
603.552	24782.47
603.91	25074.21
604.268	25587.19
604.625	25689.11
604.983	26026.73
605.341	26120.74
605.698	26524.8
606.056	26756.66
606.413	26962.3
606.771	27351.67
607.128	27495.84
607.485	27606.58
607.843	27880.47
608.2	28242.27
608.557	28619.43
608.914	28682.93
609.272	28829.82
609.629	29339.19
609.986	29454.89
610.343	29582.34
610.7	29900.08
611.057	30008.55
611.414	30293.06
611.771	30426.84
612.127	30848.75
612.484	30979.37
612.841	31162.64
613.198	31320.38
613.554	31415.52
613.911	31761.27
614.267	32018.89
614.624	32010.53
614.98	32307.47
615.337	32448.48
615.693	32499.78
616.05	32659.55
616.406	33181.35
616.762	33073.55
617.118	33162.36
617.475	33370.94
617.831	33538.85
618.187	33772.06
618.543	33888.22
618.899	34176.57
619.255	34168.21
619.611	34346.74
619.967	34512.84
620.323	34695.66
620.678	34612.27
621.034	34720.06
621.39	34893.39
621.746	34990.34
622.101	35412.92
622.457	35200.05
622.812	35371.8
623.168	35648.85
623.523	35626.7
623.879	35847.49
624.234	35680.49
624.589	35910.54
624.945	35947.6
625.3	36128.39
625.655	35992.8
626.01	36200.93
626.365	36235.5
626.72	36351.88
627.075	36406.8
627.43	36374.71
627.785	36386.68
628.14	36510.98
628.495	36656.73
628.85	36695.6
629.205	36593.91
629.559	37018.76
629.914	36807.01
630.269	36872.77
630.623	36802.49
630.978	36764.53
631.332	36963.84
631.687	37033.67
632.041	36983.28
632.396	37068.7
632.75	37104.63
633.104	37200.22
633.459	36981.02
633.813	36966.33
634.167	37025.76
634.521	37075.25
634.875	37221.24
635.229	37024.86
635.583	37115.25
635.937	37128.13
636.291	37179.43
636.645	37126.78
636.999	37165.65
637.352	37172.65
637.706	36932.43
638.06	37149.6
638.413	37062.6
638.767	37044.75
639.121	37123.61
639.474	36850.18
639.828	37060.57
640.181	37174.46
640.534	36968.36
640.888	36897.41
641.241	36878.42
641.594	36905.54
641.947	37018.08
642.301	37025.54
642.654	37084.07
643.007	37091.75
643.36	37042.26
643.713	36999.1
644.066	37102.6
644.419	36831.64
644.771	36748.26
645.124	36344.65
645.477	36333.35
645.83	36091.78
646.182	36027.15
646.535	35873.93
646.888	36081.83
647.24	35729.53
647.593	36008.39
647.945	35921.84
648.298	35885.23
648.65	35741.28
649.002	35744.44
649.355	35868.73
649.707	35809.07
650.059	35880.26
650.411	36402.96
650.763	36392.11
651.115	36686.79
651.467	36727.92
651.819	36539.9
652.171	36594.14
652.523	36484.76
652.875	36436.85
653.227	36263.52
653.578	36637.3
653.93	36558.21
654.282	36405.44
654.633	36349.62
654.985	36539.22
655.337	36473.24
655.688	36458.1
656.039	36597.07
656.391	36151.66
656.742	36306.46
657.094	36288.83
657.445	36447.7
657.796	36245.9
658.147	36250.19
658.498	36228.04
658.849	36480.02
659.2	36344.2
659.551	36364.54
659.902	36341.49
660.253	36301.26
660.604	36306.69
660.955	36152.79
661.306	36265.78
661.656	36184.88
662.007	36212.68
662.358	36207.03
662.708	36272.34
663.059	36173.81
663.409	36073.47
663.76	36275.05
664.11	36271.66
664.461	36314.6
664.811	36192.79
665.161	36188.72
665.511	36143.98
665.862	36195.73
666.212	36228.95
666.562	36313.92
666.912	36269.17
667.262	36140.82
667.612	36250.87
667.962	36220.81
668.312	36174.26
668.662	36215.16
669.011	36087.26
669.361	36003.19
669.711	36027.6
670.06	35884.1
670.41	36035.28
670.76	35918
671.109	36177.2
671.459	36004.32
671.808	35927.26
672.157	36166.8
672.507	35856.98
672.856	35862.63
673.205	35901.95
673.554	35871.22
673.904	36014.26
674.253	36065.79
674.602	35832.35
674.951	35351.23
675.3	35191.01
675.649	35717.32
675.998	35711
676.346	35753.03
676.695	35784.89
677.044	35576.08
677.393	35804.55
677.741	35718.91
678.09	35535.63
678.438	35506.93
678.787	35659.7
679.135	35635.29
679.484	35534.05
679.832	35565.46
680.181	35315.53
680.529	35484.11
680.877	35370.21
681.225	35368.63
681.573	35465.35
681.922	35190.56
682.27	35174.51
682.618	35177.68
682.966	35101.52
683.314	35141.29
683.661	35108.53
684.009	34864.24
684.357	34766.61
684.705	34857.01
685.053	35037.12
685.4	34669.67
685.748	34678.48
686.095	34637.35
686.443	34490.24
686.79	34481.88
687.138	34511.48
687.485	34432.61
687.832	34286.17
688.18	34353.52
688.527	34225.39
688.874	34273.97
689.221	34138.38
689.568	34111.26
689.915	33952.62
690.262	33963.92
690.609	33806.87
690.956	33721.67
691.303	33762.12
691.65	33598.06
691.997	33395.58
692.344	33301.34
692.69	33383.15
693.037	33334.34
693.383	33076.94
693.73	33227.22
694.077	33180.89
694.423	33066.55
694.769	32948.36
695.116	32782.94
695.462	32804.86
695.808	32739.55
696.155	32609.38
696.501	32454.13
696.847	32385.89
697.193	32209.85
697.539	32438.31
697.885	32194.7
698.231	32065.67
698.577	32108.38
698.923	31941.83
699.269	31916.29
699.614	31701.84
699.96	31624.55
700.306	31769.18
700.651	31623.65
700.997	31436.53
701.342	31462.97
701.688	31300.04
702.033	31283.54
702.379	31210.32
702.724	31257.1
703.069	31173.26
703.415	30946.83
703.76	31032.25
704.105	30967.17
704.45	30815.53
704.795	30615.08
705.14	30637.23
705.485	30550.45
705.83	30374.19
706.175	30495.77
706.52	30348.2
706.865	30322.89
707.209	30170.12
707.554	30200.63
707.899	30140.3
708.243	29988.66
708.588	29971.03
708.932	29727.2
709.277	29688.1
709.621	29778.27
709.966	29591.38
710.31	29688.56
710.654	29392.07
710.998	29404.27
711.342	29372.41
711.687	29323.82
712.031	29235.46
712.375	29121.79
712.719	29178.74
713.063	29051.96
713.407	29213.54
713.75	29078.85
714.094	29009.93
714.438	28869.37
714.782	28992.3
715.125	28768.13
715.469	28847.45
715.812	28618.53
716.156	28557.29
716.499	28639.54
716.843	28729.94
717.186	28496.04
717.53	28443.62
717.873	28401.36
718.216	28336.05
718.559	28292.43
718.902	28077.52
719.246	28177.18
719.589	28035.49
719.932	27955.49
720.275	28001.37
720.617	27942.61
720.96	27894.7
721.303	27910.52
721.646	27816.06
721.989	27671.21
722.331	27785.55
722.674	27739.68
723.016	27692
723.359	27609.51
723.701	27686.12
724.044	27345.11
724.386	27411.33
724.729	27515.73
725.071	27332.23
725.413	27360.48
725.755	27377.66
726.097	27290.65
726.439	26950.32
726.782	27038.46
727.124	27249.07
727.465	27014.28
727.807	27033.26
728.149	26978.34
728.491	26943.09
728.833	27062.64
729.175	26962.3
729.516	26817.9
729.858	26920.49
730.199	26809.99
730.541	26746.26
730.882	26644.34
731.224	26760.95
731.565	26641.18
731.906	26614.06
732.248	26657.67
732.589	26447.28
732.93	26314.41
733.271	26474.4
733.612	26462.43
733.953	26410.68
734.294	26219.04
734.635	26184.01
734.976	26307.63
735.317	26153.51
735.658	26128.88
735.999	26157.12
736.339	26062.89
736.68	26069.44
737.021	26085.03
737.361	25841.65
737.702	26038.93
738.042	25899.5
738.383	25939.5
738.723	25975.43
739.063	25736.8
739.404	25868.54
739.744	25809.56
740.084	25652.96
740.424	25659.28
740.764	25586.74
741.104	25710.13
741.444	25510.13
741.784	25554.88
742.124	25449.12
742.464	25449.12
742.804	25422.9
743.143	25254.32
743.483	25465.39
743.823	25231.95
744.162	25302.46
744.502	25285.28
744.841	25157.38
745.181	25251.84
745.52	25212.97
745.86	25121.22
746.199	25134.78
746.538	24972.75
746.877	25087.09
747.216	25080.32
747.556	25006.87
747.895	25060.43
748.234	24972.75
748.573	24802.58
748.911	24815.01
749.25	24769.59
749.589	24675.13
749.928	24722.36
750.267	24814.11
750.605	24605.75
750.944	24578.63
751.283	24550.39
751.621	24599.2
751.96	24359.66
752.298	24425.87
752.636	24406.43
752.975	24396.04
753.313	24212.09
753.651	24376.6
753.989	24243.95
754.327	24193.33
754.666	24082.15
755.004	24125.09
755.342	24158.31
755.679	24073.79
756.017	24022.72
756.355	24079.66
756.693	23758.54
757.031	23929.61
757.368	23821.59
757.706	23786.56
758.044	23620.69
758.381	23719.45
758.719	23701.59
759.056	23626.12
759.394	23464.31
759.731	23380.25
760.068	23330.98
760.405	23326.91
760.743	23193.36
