Data from hue_22_FLMS001491_00009.txt Node
Date: Tue Feb 07 17:09:25 GMT 2017
User: dcchb
Spectrometer: FLMS00149
Trigger mode: 0
Integration Time (sec): 2.000000E-2
Scans to average: 10
Electric dark correction enabled: true
Nonlinearity correction enabled: false
Boxcar width: 0
XAxis mode: Wavelengths
Number of Pixels in Spectrum: 2048
>>>>>Begin Spectral Data<<<<<
341.393	-10.47
341.776	-10.47
342.16	-10.47
342.543	-65.15
342.927	-70.8
343.31	-52.95
343.693	-77.36
344.077	-66.51
344.46	-52.05
344.843	-44.14
345.226	-47.75
345.61	-43.69
345.993	-19.28
346.376	0.16
346.759	4.45
347.142	18.69
347.525	27.05
347.908	79.02
348.291	76.09
348.674	84.22
349.057	114.05
349.44	126.93
349.823	144.78
350.206	168.29
350.588	193.82
350.971	202.41
351.354	218.23
351.737	227.04
352.119	248.96
352.502	264.1
352.884	271.11
353.267	257.78
353.65	298.45
354.032	301.16
354.414	291.45
354.797	310.88
355.179	313.37
355.562	312.24
355.944	319.24
356.326	322.63
356.709	341.16
357.091	331.9
357.473	323.76
357.855	326.02
358.238	337.1
358.62	345.68
359.002	338.45
359.384	360.37
359.766	340.49
360.148	341.84
360.53	347.49
360.912	330.54
361.294	326.02
361.676	330.99
362.057	351.11
362.439	328.28
362.821	320.6
363.203	300.71
363.584	317.21
363.966	360.15
364.348	326.47
364.729	340.03
365.111	310.43
365.493	310.43
365.874	306.14
366.256	347.72
366.637	292.58
367.019	324.21
367.4	318.34
367.781	300.26
368.163	319.24
368.544	312.92
368.925	322.86
369.306	315.85
369.688	308.62
370.069	332.35
370.45	310.2
370.831	329.86
371.212	316.31
371.593	309.3
371.974	328.28
372.355	309.75
372.736	324.44
373.117	312.46
373.498	326.7
373.879	309.3
374.26	314.95
374.641	327.83
375.021	319.24
375.402	319.02
375.783	334.38
376.163	309.98
376.544	323.08
376.925	319.47
377.305	310.88
377.686	326.02
378.066	321.5
378.447	323.99
378.827	336.42
379.208	346.59
379.588	315.18
379.968	339.36
380.349	356.3
380.729	319.69
381.109	348.62
381.489	353.37
381.87	319.69
382.25	332.8
382.63	340.03
383.01	360.82
383.39	329.86
383.77	343.42
384.15	338.68
384.53	336.42
384.91	341.16
385.29	345.23
385.67	341.62
386.049	341.39
386.429	335.97
386.809	347.94
387.189	345.23
387.568	353.59
387.948	367.6
388.328	355.85
388.707	357.21
389.087	347.49
389.466	348.17
389.846	378.9
390.225	353.82
390.605	358.34
390.984	359.02
391.363	368.28
391.743	353.59
392.122	366.25
392.501	361.95
392.881	362.63
393.26	379.13
393.639	368.96
394.018	373.03
394.397	370.77
394.776	382.52
395.155	374.61
395.534	370.77
395.913	382.29
396.292	360.37
396.671	378.9
397.05	361.95
397.429	373.93
397.808	375.06
398.186	380.48
398.565	373.25
398.944	383.87
399.323	380.03
399.701	378.22
400.08	384.78
400.458	375.51
400.837	390.88
401.215	391.33
401.594	385.23
401.972	406.92
402.351	391.33
402.729	392.46
403.107	394.5
403.486	410.99
403.864	398.56
404.242	420.03
404.62	420.03
404.999	434.27
405.377	412.57
405.755	416.64
406.133	406.47
406.511	423.42
406.889	415.96
407.267	431.33
407.645	416.64
408.023	432.01
408.401	437.43
408.779	410.31
409.156	436.08
409.534	421.39
409.912	422.74
410.29	463.87
410.667	457.77
411.045	438.79
411.422	432.69
411.8	455.74
412.178	457.09
412.555	459.35
412.933	470.88
413.31	447.38
413.687	455.28
414.065	454.83
414.442	448.05
414.819	468.17
415.197	464.78
415.574	468.62
415.951	474.04
416.328	483.31
416.705	480.59
417.082	508.39
417.46	480.82
417.837	488.28
418.214	490.09
418.591	495.51
418.967	482.4
419.344	487.83
419.721	497.09
420.098	507.71
420.475	507.26
420.852	506.58
421.228	502.74
421.605	507.71
421.982	527.83
422.358	526.24
422.735	523.08
423.111	511.33
423.488	529.18
423.864	550.2
424.241	523.31
424.617	568.05
424.994	540.71
425.37	543.19
425.746	544.77
426.123	521.95
426.499	532.57
426.875	551.1
427.251	555.4
427.627	570.76
428.003	563.76
428.379	562.63
428.756	573.47
429.132	602.4
429.507	590.65
429.883	596.52
430.259	592
430.635	582.51
431.011	594.72
431.387	619.35
431.763	610.31
432.138	599.24
432.514	608.05
432.89	621.38
433.265	610.53
433.641	647.6
434.016	643.75
434.392	642.85
434.767	666.8
435.143	653.47
435.518	655.73
435.894	640.14
436.269	655.73
436.644	664.77
437.02	665.67
437.395	672.23
437.77	701.38
438.145	696.41
438.52	689.18
438.895	713.13
439.271	686.01
439.646	737.76
440.021	701.61
440.395	698.22
440.77	719.01
441.145	703.41
441.52	733.47
441.895	719.68
442.27	729.63
442.645	736.41
443.019	749.51
443.394	742.28
443.769	743.64
444.143	759.68
444.518	744.77
444.892	772.79
445.267	728.27
445.641	753.58
446.016	799.46
446.39	786.8
446.764	774.37
447.139	777.31
447.513	776.41
447.887	759.46
448.262	777.08
448.636	782.73
449.01	802.85
449.384	804.88
449.758	798.55
450.132	806.01
450.506	822.51
450.88	807.82
451.254	787.25
451.628	834.26
452.002	839.68
452.376	829.06
452.75	848.04
453.123	839.46
453.497	857.99
453.871	882.39
454.244	893.01
454.618	872.45
454.992	879
455.365	891.66
455.739	899.79
456.112	930.53
456.486	953.35
456.859	938.21
457.232	937.76
457.606	932.56
457.979	961.71
458.352	953.12
458.725	954.48
459.099	991.32
459.472	1015.72
459.845	996.06
460.218	993.12
460.591	1003.97
460.964	1020.24
461.337	1041.03
461.71	1032.67
462.083	1052.11
462.456	1066.79
462.829	1078.32
463.201	1082.16
463.574	1097.3
463.947	1131.43
464.32	1129.84
464.692	1147.7
465.065	1126.68
465.438	1152.44
465.81	1176.85
466.183	1162.38
466.555	1219.33
466.928	1203.74
467.3	1204.19
467.672	1230.86
468.045	1209.39
468.417	1270.4
468.789	1253.23
469.161	1298.65
469.534	1297.52
469.906	1326.67
470.278	1327.13
470.65	1348.14
471.022	1363.96
471.394	1403.51
471.766	1398.99
472.138	1432.43
472.51	1449.16
472.882	1460
473.253	1506.1
473.625	1490.51
473.997	1537.29
474.369	1544.75
474.74	1574.13
475.112	1585.65
475.484	1615.48
475.855	1637.17
476.227	1660.68
476.598	1723.95
476.97	1713.56
477.341	1765.08
477.713	1811.41
478.084	1799.43
478.455	1853.44
478.827	1843.95
479.198	1925.53
479.569	1908.13
479.94	1969.37
480.311	1982.48
480.682	2025.19
481.053	2106.99
481.424	2135.47
481.795	2150.61
482.166	2175.24
482.537	2198.97
482.908	2231.74
483.279	2319.87
483.65	2293.88
484.021	2359.42
484.391	2378.62
484.762	2419.75
485.133	2454.1
485.503	2480.77
485.874	2543.82
486.244	2558.51
486.615	2620.2
486.985	2671.05
487.356	2730.71
487.726	2715.34
488.097	2788.78
488.467	2812.51
488.837	2880.76
489.207	2963.24
489.578	2921.21
489.948	3018.83
490.318	3047.53
490.688	3107.87
491.058	3140.86
491.428	3137.93
491.798	3162.78
492.168	3279.62
492.538	3299.73
492.908	3324.81
493.278	3369.11
493.648	3407.3
494.017	3423.79
494.387	3528.88
494.757	3512.38
495.126	3533.17
495.496	3555.99
495.866	3624.47
496.235	3653.39
496.605	3628.31
496.974	3659.95
497.344	3708.76
497.713	3751.47
498.082	3800.73
498.452	3852.26
498.821	3881.86
499.19	3870.11
499.559	3965.02
499.928	3934.06
500.298	4013.38
500.667	4055.87
501.036	4065.13
501.405	4033.72
501.774	4068.97
502.143	4101.52
502.512	4133.83
502.88	4134.74
503.249	4176.09
503.618	4209.54
503.987	4244.79
504.356	4280.49
504.724	4243.43
505.093	4341.28
505.462	4325.01
505.83	4347.61
506.199	4360.27
506.567	4427.16
506.936	4401.4
507.304	4473.71
507.672	4526.59
508.041	4519.36
508.409	4527.27
508.777	4563.88
509.145	4561.17
509.514	4632.58
509.882	4619.02
510.25	4650.43
510.618	4682.97
510.986	4671.22
511.354	4703.08
511.722	4783.31
512.09	4790.09
512.458	4812.01
512.826	4840.03
513.193	4838.9
513.561	4871.44
513.929	4863.3
514.297	4902.4
514.664	4960.7
515.032	4969.29
515.4	5016.75
515.767	5013.13
516.135	5096.29
516.502	5009.74
516.869	5078.89
517.237	5107.82
517.604	5077.31
517.972	5132.9
518.339	5190.53
518.706	5150.75
519.073	5200.02
519.44	5211.32
519.808	5248.15
520.175	5235.5
520.542	5312.33
520.909	5396.62
521.276	5245.89
521.643	5363.18
522.009	5337.42
522.376	5426
522.743	5427.36
523.11	5508.71
523.477	5520.69
523.843	5536.96
524.21	5602.04
524.577	5645.2
524.943	5655.6
525.31	5684.07
525.676	5716.16
526.043	5759.55
526.409	5788.25
526.776	5811.08
527.142	5833.22
527.508	5860.57
527.874	5932.65
528.241	5921.81
528.607	5938.08
528.973	5963.39
529.339	6033.22
529.705	6045.19
530.071	6038.19
530.437	6122.48
530.803	6174.23
531.169	6154.8
531.535	6178.07
531.901	6182.59
532.267	6204.29
532.632	6226.43
532.998	6256.26
533.364	6392.76
533.73	6353.66
534.095	6399.76
534.461	6395.92
534.826	6502.36
535.192	6472.08
535.557	6478.4
535.923	6457.16
536.288	6514.11
536.653	6573.54
537.019	6577.84
537.384	6566.76
537.749	6671.39
538.114	6655.35
538.479	6657.61
538.845	6705.06
539.21	6673.65
539.575	6750.94
539.94	6799.98
540.305	6778.73
540.67	6849.47
541.034	6837.26
541.399	6852.18
541.764	6870.03
542.129	6908
542.494	6946.19
542.858	6956.13
543.223	6964.27
543.587	7004.26
543.952	7029.8
544.316	7043.36
544.681	7124.04
545.045	7150.48
545.41	7192.73
545.774	7195.9
546.138	7237.03
546.503	7217.82
546.867	7265.95
547.231	7262.34
547.595	7315.22
547.959	7340.3
548.324	7419.17
548.688	7387.31
549.052	7439.06
549.416	7471.15
549.779	7442.67
550.143	7477.02
550.507	7559.05
550.871	7558.83
551.235	7516.79
551.599	7677.69
551.962	7635.43
552.326	7659.39
552.689	7704.59
553.053	7637.24
553.417	7673.63
553.78	7830.68
554.143	7725.15
554.507	7834.98
554.87	7826.62
555.234	7924.69
555.597	7861.19
555.96	7849.89
556.323	7960.85
556.686	7957.91
557.05	8053.28
557.413	7993.39
557.776	8047.85
558.139	8107.29
558.502	8139.6
558.865	8090.11
559.228	8133.5
559.59	8196.1
559.953	8218.24
560.316	8296.89
560.679	8292.37
561.041	8336.43
561.404	8346.6
561.767	8420.05
562.129	8377.79
562.492	8402.87
562.854	8525.81
563.217	8478.12
563.579	8570.1
563.941	8554.51
564.304	8584.56
564.666	8662.75
565.028	8633.83
565.39	8640.15
565.753	8693.94
566.115	8783.2
566.477	8787.72
566.839	8840.6
567.201	8847.15
567.563	8923.54
567.925	8931.9
568.287	8909.75
568.648	8925.34
569.01	8982.07
569.372	9080.82
569.734	9124.44
570.095	9185.45
570.457	9190.42
570.819	9189.29
571.18	9207.82
571.542	9292.34
571.903	9301.61
572.265	9380.7
572.626	9417.99
572.987	9420.92
573.349	9479
573.71	9545.89
574.071	9644.65
574.432	9660.47
574.794	9769.39
575.155	9705.66
575.516	9787.92
575.877	9825.66
576.238	9922.61
576.599	9977.97
576.96	10095.94
577.32	10067.69
577.681	10232.65
578.042	10220.23
578.403	10278.3
578.763	10416.6
579.124	10494.34
579.485	10585.64
579.845	10694.56
580.206	10783.6
580.566	10863.37
580.927	10950.15
581.287	11095.46
581.648	11182.91
582.008	11412.51
582.368	11412.28
582.728	11658.61
583.089	11756.46
583.449	11892.05
583.809	12012.95
584.169	12225.6
584.529	12321.64
584.889	12590.33
585.249	12628.3
585.609	12833.26
585.969	13119.58
586.329	13240.26
586.688	13474.38
587.048	13717.31
587.408	13892.45
587.768	14110.29
588.127	14350.74
588.487	14474.8
588.846	14883.38
589.206	15005.64
589.565	15269.13
589.925	15524.49
590.284	15825.5
590.643	16061.2
591.003	16340.74
591.362	16704.35
591.721	16846.04
592.08	17148.41
592.44	17455.97
592.799	17705.9
593.158	17966.46
593.517	18460.01
593.876	18565.32
594.235	18876.72
594.593	19271.97
594.952	19535.46
595.311	19649.58
595.67	20122.79
596.029	20599.84
596.387	20843
596.746	21222.65
597.104	21397.33
597.463	21725.69
597.822	22137.88
598.18	22300.36
598.538	22749.84
598.897	23172.2
599.255	23351.86
599.613	23854.9
599.972	24027.32
600.33	24418.27
600.688	24527.42
601.046	24933.51
601.404	25428.64
601.762	25596.77
602.12	26076.08
602.478	26290.54
602.836	26667.02
603.194	26791.54
603.552	27015.04
603.91	27351.98
604.268	27881.46
604.625	27942.47
604.983	28336.13
605.341	28561.44
605.698	28902.67
606.056	29337.01
606.413	29411.59
606.771	29806.38
607.128	30117.33
607.485	30244.56
607.843	30390.09
608.2	30863.07
608.557	31155.27
608.914	31289.95
609.272	31779.66
609.629	31939.43
609.986	32295.58
610.343	32339.42
610.7	32888.56
611.057	32944.6
611.414	33282.22
611.771	33257.59
612.127	33692.38
612.484	33815.09
612.841	34171.01
613.198	34277.67
613.554	34483.77
613.911	34735.97
614.267	34916.98
614.624	35065
614.98	35347.02
615.337	35563.74
615.693	35676.96
616.05	35828.14
616.406	36229.94
616.762	36290.5
617.118	36383.15
617.475	36683.26
617.831	36851.39
618.187	37125.05
618.543	37153.3
618.899	37507.64
619.255	37491.37
619.611	37702.21
619.967	37958.03
620.323	38005.26
620.678	38000.29
621.034	38229.88
621.39	38264.91
621.746	38362.76
622.101	38830.32
622.457	38688.63
622.812	38964.33
623.168	39005.91
623.523	39058.34
623.879	39340.59
624.234	39083.2
624.589	39306.24
624.945	39573.58
625.3	39558.66
625.655	39614.26
626.01	39746
626.365	39830.29
626.72	39710.07
627.075	39858.54
627.43	39922.72
627.785	40029.84
628.14	40208.59
628.495	40285.2
628.85	40301.47
629.205	40168.59
629.559	40538.07
629.914	40476.38
630.269	40406.32
630.623	40380.34
630.978	40380.11
631.332	40704.85
631.687	40868.69
632.041	40598.64
632.396	40741.23
632.75	40712.31
633.104	40772.19
633.459	40529.71
633.813	40687.9
634.167	40750.04
634.521	40705.3
634.875	40788.91
635.229	40855.13
635.583	40725.41
635.937	40681.12
636.291	40703.94
636.645	40799.31
636.999	40685.19
637.352	40870.04
637.706	40740.55
638.06	40736.49
638.413	40745.07
638.767	40784.39
639.121	40903.49
639.474	40516.15
639.828	40580.78
640.181	40722.25
640.534	40676.83
640.888	40795.24
641.241	40646.09
641.594	40657.39
641.947	40712.53
642.301	40594.79
642.654	40635.02
643.007	40676.6
643.36	40753.43
643.713	40583.04
644.066	40907.1
644.419	40561.8
644.771	40254.69
645.124	39861.25
645.477	39872.33
645.83	39742.39
646.182	39737.42
646.535	39510.75
646.888	39598.66
647.24	39434.15
647.593	39839.56
647.945	39551.43
648.298	39344.21
648.65	39355.05
649.002	39217.66
649.355	39449.74
649.707	39441.15
650.059	39591.43
650.411	40000.91
650.763	40108.48
651.115	40449.04
651.467	40319.77
651.819	40232.09
652.171	40293.56
652.523	40159.1
652.875	40258.31
653.227	40117.97
653.578	40261.7
653.93	40280.45
654.282	40100.12
654.633	39905.32
654.985	40037.29
655.337	40038.88
655.688	40120.68
656.039	40164.3
656.391	40129.95
656.742	39951.65
657.094	40172.66
657.445	39990.06
657.796	40105.99
658.147	39941.25
658.498	39959.33
658.849	40165.88
659.2	39961.14
659.551	39953
659.902	40098.76
660.253	39967.47
660.604	39926.11
660.955	39781.71
661.306	39987.58
661.656	39901.71
662.007	39822.84
662.358	40010.85
662.708	39956.84
663.059	39945.77
663.409	39626.68
663.76	39973.12
664.11	39968.82
664.461	39894.47
664.811	39959.33
665.161	39904.64
665.511	39830.97
665.862	39836.62
666.212	39936.96
666.562	39944.87
666.912	39857.86
667.262	39832.55
667.612	39740.13
667.962	39871.88
668.312	39762.27
668.662	39910.52
669.011	39760.47
669.361	39805.89
669.711	39796.85
670.06	39877.52
670.41	39649.51
670.76	39559.12
671.109	39849.28
671.459	39596.63
671.808	39635.95
672.157	39765.44
672.507	39529.06
672.856	39556.4
673.205	39541.26
673.554	39604.09
673.904	39539.45
674.253	39564.54
674.602	39649.51
674.951	39113.03
675.3	38999.13
675.649	39457.87
675.998	39481.6
676.346	39291.1
676.695	39558.44
677.044	39248.84
677.393	39348.73
677.741	39453.36
678.09	39352.12
678.438	39216.53
678.787	39272.8
679.135	39211.1
679.484	39047.49
679.832	39299.46
680.181	39030.54
680.529	39077.77
680.877	38960.26
681.225	38988.28
681.573	39056.3
681.922	38906.7
682.27	38739.02
682.618	38786.03
682.966	38728.85
683.314	38910.54
683.661	38680.27
684.009	38531.35
684.357	38444.34
684.705	38426.94
685.053	38548.75
685.4	38338.13
685.748	38129.77
686.095	38175.87
686.443	37970.68
686.79	37987.18
687.138	38059.04
687.485	38069.44
687.832	37972.04
688.18	38059.49
688.527	37655.21
688.874	37791.25
689.221	37753.29
689.568	37526.85
689.915	37473.97
690.262	37473.29
690.609	37333.86
690.956	37357.37
691.303	37269.01
691.65	37126.18
691.997	37148.56
692.344	36958.28
692.69	36928
693.037	36842.35
693.383	36494.56
693.73	36642.58
694.077	36498.86
694.423	36539.76
694.769	36420.89
695.116	36402.81
695.462	36286.21
695.808	36084.4
696.155	36172.31
696.501	35846.22
696.847	35958.98
697.193	35726.45
697.539	35905.43
697.885	35638.54
698.231	35663.17
698.577	35464.76
698.923	35434.48
699.269	35154.94
699.614	35064.32
699.96	35112
700.306	35184.31
700.651	34810.99
700.997	34717.21
701.342	34695.29
701.688	34661.16
702.033	34577.1
702.379	34448.97
702.724	34369.87
703.069	34500.27
703.415	34173.27
703.76	34182.08
704.105	34202.19
704.45	34081.97
704.795	33962.2
705.14	33791.58
705.485	33784.8
705.83	33747.74
706.175	33751.81
706.52	33613.73
706.865	33617.35
707.209	33434.98
707.554	33301.43
707.899	33437.24
708.243	33180.3
708.588	33070.92
708.932	33025.05
709.277	32929.01
709.621	32871.38
709.966	32683.36
710.31	32742.35
710.654	32559.98
710.998	32640.43
711.342	32671.39
711.687	32471.17
712.031	32397.72
712.375	32331.96
712.719	32305.29
713.063	32323.83
713.407	32344.16
713.75	32104.85
714.094	32159.76
714.438	31973.55
714.782	32106.2
715.125	31951.63
715.469	31870.05
715.812	31766.1
716.156	31657.4
716.499	31561.13
716.843	31501.02
717.186	31541.47
717.53	31537.18
717.873	31648.81
718.216	31454.92
718.559	31330.63
718.902	31176.51
719.246	31350.74
719.589	31179.22
719.932	31033.24
720.275	30999.34
720.617	30931.77
720.96	30778.78
721.303	31041.6
721.646	30952.34
721.989	30622.85
722.331	30838.89
722.674	30718.44
723.016	30679.35
723.359	30577.88
723.701	30636.86
724.044	30404.33
724.386	30299.02
724.729	30467.15
725.071	30394.16
725.413	30350.32
725.755	30243.43
726.097	30157.33
726.439	29967.5
726.782	30107.39
727.124	30183.54
727.465	29972.02
727.807	30039.59
728.149	29953.27
728.491	29853.61
728.833	29955.98
729.175	29810.44
729.516	29728.41
729.858	29824
730.199	29773.84
730.541	29675.08
730.882	29614.29
731.224	29628.75
731.565	29377.46
731.906	29450.91
732.248	29455.2
732.589	29388.76
732.93	29272.61
733.271	29210.46
733.612	29234.87
733.953	29270.12
734.294	29090.69
734.635	29082.55
734.976	29139.05
735.317	28971.37
735.658	29064.7
735.999	29021.99
736.339	28928.89
736.68	29015.66
737.021	28862
737.361	28796.91
737.702	28980.41
738.042	28890.92
738.383	28753.98
738.723	28808.66
739.063	28575.22
739.404	28718.95
739.744	28674.43
740.084	28533.42
740.424	28446.87
740.764	28456.36
741.104	28548.11
741.444	28346.08
741.784	28329.58
742.124	28296.13
742.464	28294.33
742.804	28321.44
743.143	28258.85
743.483	28264.04
743.823	27945.86
744.162	28078.51
744.502	28123.48
744.841	28032.19
745.181	28013.2
745.52	27862.7
745.86	27951.28
746.199	27817.96
746.538	27833.55
746.877	27923.49
747.216	27904.73
747.556	27739.54
747.895	27812.08
748.234	27782.02
748.573	27521.69
748.911	27623.16
749.25	27618.86
749.589	27425.87
749.928	27580.9
750.267	27459.09
750.605	27534.35
750.944	27287.8
751.283	27276.95
751.621	27304.07
751.96	27154.02
752.298	27163.96
752.636	27180.91
752.975	27086.22
753.313	26916.28
753.651	27045.55
753.989	26883.52
754.327	26715.39
754.666	26690.75
755.004	26769.85
755.342	26741.15
755.679	26666.57
756.017	26657.76
756.355	26676.29
756.693	26500.02
757.031	26536.63
757.368	26372.8
757.706	26349.29
758.044	26309.29
758.381	26425.68
758.719	26154.72
759.056	26173.93
759.394	26118.56
759.731	25973.94
760.068	26063.65
760.405	25720.38
760.743	25819.82
