Data from hue_340_FLMS001491_67.txt Node
Date: Mon Feb 06 15:43:27 GMT 2017
User: dcchb
Spectrometer: FLMS00149
Trigger mode: 0
Integration Time (sec): 2.000000E-2
Scans to average: 10
Electric dark correction enabled: true
Nonlinearity correction enabled: false
Boxcar width: 0
XAxis mode: Wavelengths
Number of Pixels in Spectrum: 2048
>>>>>Begin Spectral Data<<<<<
341.393	-6.43
341.776	-6.43
342.16	-6.43
342.543	-43.04
342.927	-68.35
343.31	-55.92
343.693	-64.96
344.077	-74
344.46	-58.18
344.843	-57.27
345.226	-39.65
345.61	-31.74
345.993	-28.35
346.376	-12.08
346.759	0.81
347.142	7.58
347.525	44.42
347.908	60.69
348.291	97.98
348.674	95.49
349.057	115.15
349.44	130.75
349.823	134.59
350.206	173
350.588	211.2
350.971	195.15
351.354	236.05
351.737	230.86
352.119	264.07
352.502	255.94
352.884	267.46
353.267	291.42
353.65	287.35
354.032	300.68
354.414	315.83
354.797	310.4
355.179	301.81
355.562	302.94
355.944	326.67
356.326	317.86
356.709	346.11
357.091	322.15
357.473	338.2
357.855	330.06
358.238	327.8
358.62	337.97
359.002	352.43
359.384	352.43
359.766	338.65
360.148	335.94
360.53	330.97
360.912	328.03
361.294	346.56
361.676	336.39
362.057	330.97
362.439	318.31
362.821	332.55
363.203	362.38
363.584	323.28
363.966	320.57
364.348	333.9
364.729	334.13
365.111	321.47
365.493	302.72
365.874	312.21
366.256	312.89
366.637	322.83
367.019	312.89
367.4	310.63
367.781	307.46
368.163	333.23
368.544	319.67
368.925	303.4
369.306	318.31
369.688	309.72
370.069	311.76
370.45	311.53
370.831	311.08
371.212	304.3
371.593	334.58
371.974	317.18
372.355	324.19
372.736	318.99
373.117	309.5
373.498	302.72
373.879	304.98
374.26	312.89
374.641	320.34
375.021	318.31
375.402	313.34
375.783	299.55
376.163	327.12
376.544	314.92
376.925	326.22
377.305	329.38
377.686	320.8
378.066	321.25
378.447	317.41
378.827	332.1
379.208	315.83
379.588	321.02
379.968	317.18
380.349	328.25
380.729	312.21
381.109	313.34
381.489	334.36
381.87	334.13
382.25	342.49
382.63	319.21
383.01	338.42
383.39	350.85
383.77	329.84
384.15	334.36
384.53	332.32
384.91	335.03
385.29	339.78
385.67	338.42
386.049	337.97
386.429	350.17
386.809	363.06
387.189	337.97
387.568	334.81
387.948	368.7
388.328	361.93
388.707	370.74
389.087	331.42
389.466	354.92
389.846	354.92
390.225	362.15
390.605	336.39
390.984	365.77
391.363	346.33
391.743	396.95
392.122	350.4
392.501	355.15
392.881	340.68
393.26	355.82
393.639	358.76
394.018	375.71
394.397	375.71
394.776	366.45
395.155	359.44
395.534	354.24
395.913	384.07
396.292	378.42
396.671	379.55
397.05	384.75
397.429	389.72
397.808	359.44
398.186	389.5
398.565	376.84
398.944	373.68
399.323	390.85
399.701	398.08
400.08	398.53
400.458	397.18
400.837	403.28
401.215	394.69
401.594	406.67
401.972	391.76
402.351	388.82
402.729	404.41
403.107	428.36
403.486	384.52
403.864	417.74
404.242	399.89
404.62	394.92
404.999	404.86
405.377	409.61
405.755	420.68
406.133	399.21
406.511	413.68
406.889	428.59
407.267	410.96
407.645	432.43
408.023	421.58
408.401	428.82
408.779	445.54
409.156	449.38
409.534	419.55
409.912	418.42
410.29	449.38
410.667	468.59
411.045	452.32
411.422	448.7
411.8	442.6
412.178	453.9
412.555	483.96
412.933	473.56
413.31	468.82
413.687	463.84
414.065	469.04
414.442	481.92
414.819	497.97
415.197	480.57
415.574	482.6
415.951	484.63
416.328	514.46
416.705	504.52
417.082	524.18
417.46	527.57
417.837	532.99
418.214	524.63
418.591	531.41
418.967	519.44
419.344	521.47
419.721	526.21
420.098	529.38
420.475	558.76
420.852	536.38
421.228	559.66
421.605	556.27
421.982	539.32
422.358	567.57
422.735	552.2
423.111	561.02
423.488	588.59
423.864	550.62
424.241	587.68
424.617	589.26
424.994	587.23
425.37	585.42
425.746	603.28
426.123	585.2
426.499	619.09
426.875	594.46
427.251	642.14
427.627	613.22
428.003	623.84
428.379	656.61
428.756	616.16
429.132	665.42
429.507	644.86
429.883	669.49
430.259	658.64
430.635	680.34
431.011	667
431.387	692.31
431.763	704.29
432.138	695.7
432.514	707.68
432.89	700.67
433.265	700
433.641	720.33
434.016	718.53
434.392	720.11
434.767	725.98
435.143	726.44
435.518	756.49
435.894	768.69
436.269	751.07
436.644	758.3
437.02	776.6
437.395	765.98
437.77	779.09
438.145	795.36
438.52	815.25
438.895	804.63
439.271	802.37
439.646	820.44
440.021	812.99
440.395	819.54
440.77	835.13
441.145	836.49
441.52	855.7
441.895	831.07
442.27	844.4
442.645	840.78
443.019	848.47
443.394	846.66
443.769	873.78
444.143	871.06
444.518	877.84
444.892	883.95
445.267	820.9
445.641	853.21
446.016	872.65
446.39	895.02
446.764	881.69
447.139	889.14
447.513	896.83
447.887	884.62
448.262	916.71
448.636	899.31
449.01	908.58
449.384	911.52
449.758	932.31
450.132	908.35
450.506	934.79
450.88	924.17
451.254	928.01
451.628	929.59
452.002	965.3
452.376	950.38
452.75	953.55
453.123	944.28
453.497	971.63
453.871	982.7
454.244	977.5
454.618	1004.62
454.992	978.41
455.365	1016.6
455.739	1053.43
456.112	1027.44
456.486	1047.56
456.859	1025.64
457.232	1051.62
457.606	1054.56
457.979	1081.45
458.352	1060.89
458.725	1077.16
459.099	1087.78
459.472	1087.56
459.845	1118.74
460.218	1112.64
460.591	1110.61
460.964	1108.12
461.337	1151.74
461.71	1123.94
462.083	1158.97
462.456	1205.52
462.829	1169.14
463.201	1217.27
463.574	1177.05
463.947	1194.9
464.32	1219.53
464.692	1230.83
465.065	1241.68
465.438	1260.21
465.81	1271.96
466.183	1249.36
466.555	1286.42
466.928	1257.72
467.3	1311.51
467.672	1288.91
468.045	1318.28
468.417	1339.07
468.789	1342.24
469.161	1353.76
469.534	1360.09
469.906	1406.64
470.278	1424.27
470.65	1425.85
471.022	1450.71
471.394	1451.61
471.766	1504.49
472.138	1487.77
472.51	1490.48
472.882	1525.28
473.253	1559.86
473.625	1584.04
473.997	1579.07
474.369	1601.21
474.74	1582.23
475.112	1644.83
475.484	1668.78
475.855	1676.47
476.227	1692.96
476.598	1726.86
476.97	1743.13
477.341	1760.53
477.713	1812.96
478.084	1799.4
478.455	1871.94
478.827	1842.79
479.198	1908.78
479.569	1898.83
479.94	1940.64
480.311	1974.54
480.682	2016.57
481.053	2050.92
481.424	2047.08
481.795	2080.3
482.166	2097.47
482.537	2167.3
482.908	2173.86
483.279	2193.06
483.65	2251.37
484.021	2282.1
484.391	2273.97
484.762	2280.75
485.133	2332.27
485.503	2370.23
485.874	2415.43
486.244	2438.93
486.615	2478.71
486.985	2501.08
487.356	2525.94
487.726	2552.83
488.097	2585.37
488.467	2633.73
488.837	2644.58
489.207	2668.31
489.578	2730.45
489.948	2743.33
490.318	2761.41
490.688	2781.3
491.058	2826.49
491.428	2877.34
491.798	2853.16
492.168	2916.66
492.538	2913.72
492.908	2955.3
493.278	2962.99
493.648	2991.91
494.017	3066.49
494.387	3089.09
494.757	3084.11
495.126	3075.3
495.496	3139.03
495.866	3112.59
496.235	3148.97
496.605	3201.4
496.974	3214.73
497.344	3243.43
497.713	3272.58
498.082	3248.86
498.452	3323.66
498.821	3291.79
499.19	3317.78
499.559	3367.27
499.928	3325.92
500.298	3441.84
500.667	3388.06
501.036	3441.62
501.405	3476.19
501.774	3470.54
502.143	3492.69
502.512	3511.22
502.88	3536.98
503.249	3502.86
503.618	3558
503.987	3500.83
504.356	3566.36
504.724	3615.17
505.093	3625.12
505.462	3580.37
505.83	3656.08
506.199	3664.66
506.567	3691.33
506.936	3722.06
507.304	3707.15
507.672	3711.22
508.041	3717.09
508.409	3765.45
508.777	3771.1
509.145	3739.01
509.514	3788.28
509.882	3791.21
510.25	3815.85
510.618	3843.64
510.986	3837.99
511.354	3871.21
511.722	3865.34
512.09	3850.65
512.458	3921.83
512.826	3946.24
513.193	3963.64
513.561	3892.68
513.929	3928.16
514.297	3962.06
514.664	3979.23
515.032	4010.19
515.4	4051.32
515.767	4027.82
516.135	4052.22
516.502	4057.65
516.869	4108.04
517.237	4107.59
517.604	4116.63
517.972	4110.75
518.339	4173.35
518.706	4121.6
519.073	4151.88
519.44	4125.22
519.808	4209.51
520.175	4163.41
520.542	4238.43
520.909	4209.51
521.276	4241.15
521.643	4292.44
522.009	4282.27
522.376	4282.95
522.743	4334.93
523.11	4346.68
523.477	4336.28
523.843	4388.71
524.21	4382.16
524.577	4398.43
524.943	4411.31
525.31	4451.99
525.676	4481.37
526.043	4487.47
526.409	4557.75
526.776	4560.69
527.142	4590.97
527.508	4582.61
527.874	4600.68
528.241	4599.78
528.607	4686.11
528.973	4703.51
529.339	4713
529.705	4751.19
530.071	4712.09
530.437	4784.63
530.803	4836.38
531.169	4823.5
531.535	4769.04
531.901	4865.76
532.267	4886.78
532.632	4888.59
532.998	4891.07
533.364	4915.7
533.73	4955.48
534.095	5003.39
534.461	4990.5
534.826	5001.13
535.192	4997.74
535.557	5076.38
535.923	5070.28
536.288	5101.46
536.653	5109.82
537.019	5086.1
537.384	5153.44
537.749	5174
538.114	5181.69
538.479	5209.93
538.845	5209.93
539.21	5197.28
539.575	5208.58
539.94	5199.31
540.305	5299.65
540.67	5303.04
541.034	5306.43
541.399	5362.47
541.764	5413.09
542.129	5364.96
542.494	5451.74
542.858	5385.97
543.223	5480.66
543.587	5453.77
543.952	5443.37
544.316	5550.72
544.681	5513.88
545.045	5524.28
545.41	5592.07
545.774	5633.2
546.138	5581.9
546.503	5644.5
546.867	5676.36
547.231	5722.91
547.595	5708.23
547.959	5739.64
548.324	5769.92
548.688	5753.87
549.052	5803.14
549.416	5833.87
549.779	5792.97
550.143	5809.69
550.507	5876.58
550.871	5866.41
551.235	5839.3
551.599	5890.59
551.962	5905.28
552.326	5946.86
552.689	5959.97
553.053	5996.58
553.417	5972.4
553.78	6034.54
554.143	6065.05
554.507	6012.4
554.87	6099.85
555.234	6138.5
555.597	6070.25
555.96	6139.85
556.323	6170.13
556.686	6154.32
557.05	6210.13
557.413	6207.42
557.776	6197.48
558.139	6278.38
558.502	6261.21
558.865	6289.23
559.228	6346.63
559.59	6334.65
559.953	6377.13
560.316	6414.2
560.679	6367.87
561.041	6382.11
561.404	6503.01
561.767	6559.73
562.129	6485.38
562.492	6536.45
562.854	6551.37
563.217	6548.2
563.579	6568.32
563.941	6663
564.304	6599.05
564.666	6667.75
565.028	6728.09
565.39	6681.08
565.753	6696.9
566.115	6752.27
566.477	6782.55
566.839	6829.55
567.201	6837.24
567.563	6862.77
567.925	6832.04
568.287	6891.7
568.648	6908.42
569.01	6918.59
569.372	6966.72
569.734	7017.8
570.095	6993.84
570.457	7022.54
570.819	7043.56
571.18	7144.12
571.542	7130.34
571.903	7209.2
572.265	7208.98
572.626	7313.16
572.987	7265.25
573.349	7313.38
573.71	7315.64
574.071	7430.89
574.432	7468.41
574.794	7507.73
575.155	7568.97
575.516	7514.96
575.877	7606.71
576.238	7691.68
576.599	7710.43
576.96	7802.86
577.32	7853.71
577.681	7952.69
578.042	8041.95
578.403	8125.56
578.763	8163.75
579.124	8277.88
579.485	8320.36
579.845	8440.58
580.206	8479
580.566	8629.5
580.927	8677.19
581.287	8785.21
581.648	8861.36
582.008	8993.34
582.368	9247.57
582.728	9342.93
583.089	9466.09
583.449	9576.15
583.809	9704.96
584.169	9896.82
584.529	9996.25
584.889	10194.89
585.249	10385.39
585.609	10523.01
585.969	10693.86
586.329	10829.22
586.688	10964.58
587.048	11223.56
587.408	11441.86
587.768	11614.29
588.127	11762.76
588.487	11976.54
588.846	12331.1
589.206	12524.54
589.565	12684.77
589.925	13021.25
590.284	13177.86
590.643	13451.07
591.003	13759.99
591.362	14033.88
591.721	14255.35
592.08	14467.77
592.44	14777.59
592.799	15078.83
593.158	15297.13
593.517	15553.62
593.876	15799.71
594.235	16024.34
594.593	16362.86
594.952	16637.66
595.311	16840.36
595.67	17142.73
596.029	17512.66
596.387	17806.89
596.746	18132.76
597.104	18296.6
597.463	18508.34
597.822	18994.2
598.18	19103.81
598.538	19449.11
598.897	19849.55
599.255	19898.59
599.613	20421.74
599.972	20565.24
600.33	20906.24
600.688	21162.28
601.046	21484.99
601.404	21849.27
601.762	22100.11
602.12	22440.44
602.478	22649.93
602.836	22940.31
603.194	23073.42
603.552	23402
603.91	23553.18
604.268	23867.52
604.625	24041.53
604.983	24380.5
605.341	24492.82
605.698	24796.54
606.056	25132.8
606.413	25273.13
606.771	25675.38
607.128	25921.25
607.485	26010.97
607.843	26250.74
608.2	26574.8
608.557	26861.34
608.914	26901.79
609.272	27356.7
609.629	27454.55
609.986	27850.47
610.343	27842.56
610.7	28285.26
611.057	28426.05
611.414	28567.29
611.771	28733.16
612.127	29115.52
612.484	29233.03
612.841	29423.99
613.198	29436.64
613.554	29725.9
613.911	29996.63
614.267	30230.29
614.624	30147.13
614.98	30471.64
615.337	30880.67
615.693	30900.78
616.05	31161.57
616.406	31311.85
616.762	31278.85
617.118	31353.65
617.475	31495.8
617.831	31750.48
618.187	32014.88
618.543	32046.97
618.899	32289.9
619.255	32540.74
619.611	32380.52
619.967	32660.96
620.323	32798.59
620.678	32718.81
621.034	32881.97
621.39	33099.82
621.746	33044
622.101	33619.81
622.457	33321.06
622.812	33482.86
623.168	33688.51
623.523	33641.73
623.879	33905.22
624.234	33779.35
624.589	34020.02
624.945	34088.5
625.3	34135.05
625.655	34183.64
626.01	34280.58
626.365	34437.64
626.72	34505.89
627.075	34496.85
627.43	34574.81
627.785	34514.7
628.14	34674.47
628.495	34760.8
628.85	34844.63
629.205	34695.26
629.559	34943.84
629.914	34735.03
630.269	34956.95
630.623	35002.37
630.978	34963.5
631.332	35045.53
631.687	35172.54
632.041	35081.01
632.396	35118.98
632.75	35022.48
633.104	35221.57
633.459	35101.8
633.813	35310.61
634.167	35095.25
634.521	35126.21
634.875	35280.1
635.229	35287.79
635.583	35138.64
635.937	35273.55
636.291	35080.79
636.645	35308.35
636.999	35110.39
637.352	35236.49
637.706	35138.19
638.06	35345.86
638.413	35137.73
638.767	35193.78
639.121	35307
639.474	35016.61
639.828	35206.21
640.181	35381.8
640.534	35357.16
640.888	35250.95
641.241	34979.32
641.594	35173.44
641.947	35092.54
642.301	35141.58
642.654	35143.61
643.007	35123.05
643.36	35215.02
643.713	35112.42
644.066	35366.2
644.419	35074.46
644.771	34879.44
645.124	34456.62
645.477	34497.75
645.83	34314.48
646.182	34339.11
646.535	34174.37
646.888	34245.33
647.24	34069.51
647.593	34149.29
647.945	34117.2
648.298	34000.59
648.65	33997.2
649.002	34006.46
649.355	34080.59
649.707	34109.06
650.059	34261.6
650.411	34510.18
650.763	34550.63
651.115	34954.24
651.467	34858.19
651.819	34863.17
652.171	34732.1
652.523	34665.43
652.875	34688.03
653.227	34617.3
653.578	34830.62
653.93	34807.57
654.282	34597.64
654.633	34574.36
654.985	34663.17
655.337	34627.92
655.688	34544.3
656.039	34702.49
656.391	34444.42
656.742	34493.91
657.094	34540.01
657.445	34602.16
657.796	34533.91
658.147	34449.84
658.498	34415.72
658.849	34505.43
659.2	34419.79
659.551	34520.8
659.902	34581.36
660.253	34405.55
660.604	34572.33
660.955	34297.76
661.306	34429.05
661.656	34524.42
662.007	34462.95
662.358	34340.24
662.708	34400.58
663.059	34442.39
663.409	34163.75
663.76	34414.82
664.11	34540.01
664.461	34555.6
664.811	34302.05
665.161	34430.18
665.511	34233.8
665.862	34339.56
666.212	34438.54
666.562	34403.06
666.912	34251.43
667.262	34193.58
667.612	34440.58
667.962	34284.88
668.312	34259.34
668.662	34481.03
669.011	34379.11
669.361	34316.29
669.711	34191.77
670.06	34274.48
670.41	34240.36
670.76	34183.18
671.109	34370.3
671.459	34245.55
671.808	34083.52
672.157	34212.79
672.507	34012.34
672.856	34087.14
673.205	34130.53
673.554	34276.06
673.904	34045.79
674.253	34211.2
674.602	34077.2
674.951	33660.94
675.3	33572.35
675.649	33955.17
675.998	33944.55
676.346	33938.67
676.695	34073.81
677.044	33843.98
677.393	34033.81
677.741	33946.35
678.09	33774.83
678.438	33954.26
678.787	33893.7
679.135	33816.19
679.484	33561.73
679.832	33877.65
680.181	33483.31
680.529	33656.42
680.877	33610.77
681.225	33549.53
681.573	33750.2
681.922	33492.13
682.27	33382.07
682.618	33525.12
682.966	33205.13
683.314	33537.1
683.661	33359.7
684.009	33234.06
684.357	33128.3
684.705	33135.53
685.053	33285.13
685.4	33095.08
685.748	32950
686.095	32941.86
686.443	32728.76
686.79	32792.03
687.138	32891.01
687.485	32779.38
687.832	32685.37
688.18	32727.85
688.527	32495.09
688.874	32579.16
689.221	32463.45
689.568	32390.69
689.915	32319.28
690.262	32286.96
690.609	32184.37
690.956	32029.79
691.303	32072.73
691.65	31986.86
691.997	32012.84
692.344	31814.21
692.69	31822.34
693.037	31795
693.383	31493.54
693.73	31691.5
694.077	31464.16
694.423	31464.16
694.769	31414.44
695.116	31261.9
695.462	31373.54
695.808	31190.04
696.155	31074.34
696.501	30974.45
696.847	30922.93
697.193	30875.93
697.539	30927.45
697.885	30667.34
698.231	30679.55
698.577	30560.68
698.923	30487.24
699.269	30430.74
699.614	30202.27
699.96	30204.3
700.306	30180.8
700.651	30015.38
700.997	29791.43
701.342	29849.29
701.688	29895.16
702.033	29738.33
702.379	29702.62
702.724	29609.74
703.069	29737.2
703.415	29303.31
703.76	29402.07
704.105	29478.45
704.45	29445
704.795	29144.9
705.14	29142.19
705.485	29059.7
705.83	28992.36
706.175	28959.37
706.52	28902.42
706.865	28754.17
707.209	28764.34
707.554	28605.25
707.899	28805.02
708.243	28581.07
708.588	28570.68
708.932	28346.5
709.277	28385.6
709.621	28473.5
709.966	28327.07
710.31	28288.65
710.654	28044.59
710.998	28157.58
711.342	28037.36
711.687	27961.88
712.031	27824.48
712.375	27727.08
712.719	27821.54
713.063	27778.83
713.407	27899.51
713.75	27744.93
714.094	27647.99
714.438	27535
714.782	27642.34
715.125	27454.32
715.469	27516.24
715.812	27298.39
716.156	27182.24
716.499	27095.01
716.843	27244.61
717.186	27102.92
717.53	27233.54
717.873	27161.45
718.216	27079.42
718.559	26898.18
718.902	26789.25
719.246	26848.01
719.589	26632.87
719.932	26709.93
720.275	26617.28
720.617	26632.87
720.96	26538.64
721.303	26570.73
721.646	26569.82
721.989	26380.45
722.331	26415.48
722.674	26348.81
723.016	26305.42
723.359	26185.43
723.701	26297.06
724.044	26187.24
724.386	25935.49
724.729	26238.08
725.071	26178.87
725.413	26061.14
725.755	26020.01
726.097	25840.13
726.439	25803.29
726.782	25745.21
727.124	25865.44
727.465	25769.85
727.807	25742.28
728.149	25622.28
728.491	25716.74
728.833	25709.51
729.175	25575.05
729.516	25561.71
729.858	25426.8
730.199	25616.4
730.541	25483.07
730.882	25410.76
731.224	25416.86
731.565	25294.83
731.906	25329.86
732.248	25332.34
732.589	25242.85
732.93	25057.77
733.271	25082.86
733.612	25197.2
733.953	25132.12
734.294	25035.18
734.635	24935.29
734.976	25030.2
735.317	24949.53
735.658	24842.64
735.999	24808.97
736.339	24855.52
736.68	24794.5
737.021	24649.2
737.361	24655.75
737.702	24753.83
738.042	24697.56
738.383	24597.9
738.723	24705.01
739.063	24524.23
739.404	24509.09
739.744	24442.65
740.084	24409.65
740.424	24366.72
740.764	24448.07
741.104	24506.83
741.444	24264.35
741.784	24249.43
742.124	24268.87
742.464	24186.16
742.804	24094.41
743.143	24152.03
743.483	24157.23
743.823	23900.29
744.162	24008.99
744.502	24036.56
744.841	23841.08
745.181	23887.63
745.52	23859.61
745.86	23986.16
746.199	23856.45
746.538	23850.8
746.877	23831.82
747.216	23885.15
747.556	23800.63
747.895	23738.03
748.234	23673.85
748.573	23581.2
748.911	23507.76
749.25	23604.93
749.589	23547.53
749.928	23444.26
750.267	23519.73
750.605	23365.84
750.944	23397.7
751.283	23271.83
751.621	23322.45
751.96	23198.84
752.298	23116.58
752.636	23100.08
752.975	23099.18
753.313	22991.39
753.651	23052.4
753.989	22894.44
754.327	22866.87
754.666	22724.95
755.004	22881.11
755.342	22722.69
755.679	22792.3
756.017	22606.54
756.355	22671.62
756.693	22471.4
757.031	22655.8
757.368	22440.67
757.706	22475.92
758.044	22237.96
758.381	22386.66
758.719	22220.56
759.056	22300.33
759.394	22228.92
759.731	22046.1
760.068	22143.5
760.405	21908.7
760.743	21893.11
761.08	21901.92
761.417	21805.88
