Data from hue_320_FLMS001491_69.txt Node
Date: Mon Feb 06 15:47:33 GMT 2017
User: dcchb
Spectrometer: FLMS00149
Trigger mode: 0
Integration Time (sec): 2.000000E-2
Scans to average: 10
Electric dark correction enabled: true
Nonlinearity correction enabled: false
Boxcar width: 0
XAxis mode: Wavelengths
Number of Pixels in Spectrum: 2048
>>>>>Begin Spectral Data<<<<<
341.393	-41.52
341.776	-41.52
342.16	-41.52
342.543	-54.63
342.927	-48.98
343.31	-74.29
343.693	-69.77
344.077	-81.3
344.46	-78.13
344.843	-58.7
345.226	-36.55
345.61	-29.77
345.993	10
346.376	-15.99
346.759	17.23
347.142	56.33
347.525	41.19
347.908	33.05
348.291	69.89
348.674	101.07
349.057	115.76
349.44	121.64
349.823	123.67
350.206	174.74
350.588	187.85
350.971	218.13
351.354	225.59
351.737	235.3
352.119	250.45
352.502	259.48
352.884	273.04
353.267	287.05
353.65	275.53
354.032	304
354.414	310.33
354.797	301.97
355.179	317.56
355.562	292.48
355.944	318.69
356.326	315.3
356.709	345.58
357.091	337.67
357.473	339.71
357.855	338.13
358.238	322.53
358.62	327.28
359.002	345.36
359.384	346.49
359.766	340.84
360.148	328.41
360.53	340.39
360.912	337.9
361.294	329.09
361.676	337.9
362.057	343.55
362.439	325.02
362.821	324.57
363.203	345.81
363.584	318.47
363.966	326.83
364.348	340.61
364.729	316.66
365.111	322.76
365.493	330.67
365.874	304
366.256	326.83
366.637	322.31
367.019	331.35
367.4	314.85
367.781	336.09
368.163	310.33
368.544	328.64
368.925	316.43
369.306	312.82
369.688	305.59
370.069	282.53
370.45	297.9
370.831	305.81
371.212	320.5
371.593	320.73
371.974	300.61
372.355	318.92
372.736	308.3
373.117	320.27
373.498	317.56
373.879	305.36
374.26	332.03
374.641	319.82
375.021	341.29
375.402	321.86
375.783	334.96
376.163	306.04
376.544	321.86
376.925	308.3
377.305	325.92
377.686	301.07
378.066	313.49
378.447	318.01
378.827	351.01
379.208	335.87
379.588	324.34
379.968	339.03
380.349	336.77
380.729	320.95
381.109	335.87
381.489	332.25
381.87	339.26
382.25	312.36
382.63	336.54
383.01	339.71
383.39	344
383.77	354.4
384.15	352.59
384.53	356.43
384.91	340.61
385.29	338.8
385.67	344.23
386.049	348.3
386.429	326.38
386.809	320.95
387.189	342.19
387.568	331.35
387.948	378.13
388.328	335.87
388.707	341.52
389.087	353.04
389.466	346.49
389.846	354.17
390.225	353.04
390.605	347.39
390.984	344.45
391.363	353.27
391.743	369.54
392.122	318.24
392.501	339.93
392.881	366.6
393.26	362.53
393.639	359.82
394.018	362.31
394.397	364.57
394.776	351.23
395.155	357.56
395.534	361.18
395.913	389.88
396.292	363.89
396.671	364.57
397.05	360.72
397.429	370.22
397.808	372.93
398.186	381.29
398.565	391.23
398.944	380.39
399.323	373.38
399.701	383.32
400.08	371.35
400.458	375.41
400.837	385.13
401.215	382.87
401.594	379.93
401.972	391.23
402.351	390.1
402.729	405.47
403.107	389.88
403.486	405.47
403.864	404.11
404.242	374.28
404.62	373.15
404.999	387.84
405.377	428.07
405.755	424.23
406.133	414.51
406.511	418.58
406.889	409.99
407.267	421.74
407.645	452.47
408.023	423.55
408.401	436.43
408.779	446.6
409.156	445.02
409.534	433.94
409.912	448.63
410.29	471.46
410.667	444.11
411.045	466.48
411.422	461.74
411.8	466.26
412.178	469.87
412.555	500.38
412.933	499.48
413.31	485.69
413.687	495.64
414.065	512.36
414.442	509.65
414.819	520.04
415.197	521.17
415.574	535.86
415.951	526.37
416.328	534.96
416.705	544.22
417.082	567.05
417.46	543.32
417.837	561.4
418.214	571.79
418.591	582.19
418.967	587.61
419.344	593.49
419.721	594.39
420.098	582.41
420.475	604.33
420.852	623.32
421.228	631.45
421.605	630.77
421.982	608.4
422.358	616.54
422.735	640.27
423.111	656.99
423.488	659.93
423.864	656.54
424.241	685.46
424.617	670.32
424.994	663.54
425.37	667.84
425.746	694.73
426.123	688.17
426.499	710.09
426.875	723.43
427.251	704.44
427.627	707.61
428.003	715.29
428.379	743.54
428.756	736.99
429.132	745.12
429.507	762.52
429.883	779.7
430.259	785.35
430.635	775.4
431.011	760.04
431.387	788.74
431.763	812.92
432.138	828.74
432.514	833.71
432.89	821.96
433.265	837.1
433.641	864.44
434.016	827.38
434.392	884.1
434.767	871.9
435.143	872.35
435.518	912.8
435.894	897.66
436.269	929.07
436.644	890.88
437.02	922.29
437.395	940.82
437.77	928.17
438.145	951.9
438.52	958.9
438.895	970.88
439.271	940.6
439.646	990.31
440.021	977.43
440.395	992.8
440.77	1011.56
441.145	1014.95
441.52	1005.68
441.895	997.77
442.27	1023.53
442.645	1018.56
443.019	1022.4
443.394	1022.85
443.769	1011.1
444.143	1022.63
444.518	1049.07
444.892	1035.96
445.267	1056.75
445.641	1062.85
446.016	1062.18
446.39	1043.19
446.764	1036.64
447.139	1070.31
447.513	1057.43
447.887	1079.35
448.262	1072.57
448.636	1087.94
449.01	1066.92
449.384	1118.9
449.758	1098.33
450.132	1101.95
450.506	1121.16
450.88	1119.58
451.254	1120.48
451.628	1155.73
452.002	1121.83
452.376	1134.94
452.75	1158.67
453.123	1149.63
453.497	1164.77
453.871	1154.38
454.244	1165
454.618	1187.14
454.992	1179.01
455.365	1191.21
455.739	1213.58
456.112	1230.31
456.486	1226.01
456.859	1232.11
457.232	1207.71
457.606	1217.65
457.979	1247.26
458.352	1265.56
458.725	1299.68
459.099	1243.19
459.472	1277.54
459.845	1299.01
460.218	1293.36
460.591	1317.76
460.964	1360.02
461.337	1323.41
461.71	1365.22
462.083	1377.65
462.456	1380.13
462.829	1368.16
463.201	1396.18
463.574	1378.78
463.947	1389.85
464.32	1402.05
464.692	1420.36
465.065	1446.57
465.438	1452.9
465.81	1467.59
466.183	1445.89
466.555	1484.99
466.928	1497.87
467.3	1493.58
467.672	1510.98
468.045	1522.28
468.417	1552.33
468.789	1561.37
469.161	1555.04
469.534	1582.39
469.906	1599.79
470.278	1628.26
470.65	1624.42
471.022	1633.01
471.394	1639.56
471.766	1673.46
472.138	1686.57
472.51	1707.36
472.882	1730.86
473.253	1736.06
473.625	1724.76
473.997	1778.09
474.369	1811.08
474.74	1822.16
475.112	1802.72
475.484	1844.53
475.855	1863.51
476.227	1847.92
476.598	1928.82
476.97	1950.74
477.341	1958.88
477.713	1964.3
478.084	1973.11
478.455	2013.34
478.827	2030.96
479.198	2087.23
479.569	2070.74
479.94	2090.4
480.311	2136.05
480.682	2164.75
481.053	2201.35
481.424	2216.95
481.795	2245.42
482.166	2257.62
482.537	2270.96
482.908	2329.03
483.279	2305.98
483.65	2357.73
484.021	2385.53
484.391	2381.69
484.762	2406.77
485.133	2415.59
485.503	2490.39
485.874	2512.08
486.244	2532.87
486.615	2579.88
486.985	2573.1
487.356	2611.51
487.726	2628.46
488.097	2667.56
488.467	2646.99
488.837	2691.74
489.207	2752.07
489.578	2754.11
489.948	2775.12
490.318	2818.97
490.688	2804.5
491.058	2848.12
491.428	2917.27
491.798	2883.37
492.168	2943.93
492.538	2955.91
492.908	2960.43
493.278	2996.59
493.648	3011.95
494.017	3027.1
494.387	3064.83
494.757	3076.36
495.126	3119.3
495.496	3083.59
495.866	3166.98
496.235	3177.15
496.605	3190.48
496.974	3192.51
497.344	3211.95
497.713	3189.35
498.082	3210.37
498.452	3279.29
498.821	3292.63
499.19	3291.27
499.559	3286.75
499.928	3344.6
500.298	3357.48
500.667	3333.75
501.036	3342.79
501.405	3366.3
501.774	3377.82
502.143	3385.28
502.512	3396.8
502.88	3430.02
503.249	3454.2
503.618	3414.66
503.987	3500.98
504.356	3470.93
504.724	3476.58
505.093	3526.29
505.462	3507.53
505.83	3534.43
506.199	3525.84
506.567	3574.43
506.936	3594.99
507.304	3616.01
507.672	3622.56
508.041	3608.32
508.409	3623.46
508.777	3641.32
509.145	3664.82
509.514	3651.49
509.882	3644.25
510.25	3677.47
510.618	3685.84
510.986	3713.86
511.354	3727.87
511.722	3743.23
512.09	3774.19
512.458	3746.62
512.826	3765.61
513.193	3781.88
513.561	3752.5
513.929	3807.64
514.297	3857.36
514.664	3811.26
515.032	3820.3
515.4	3868.88
515.767	3861.65
516.135	3877.47
516.502	3818.26
516.869	3937.58
517.237	3859.16
517.604	3832.05
517.972	3889.22
518.339	3885.38
518.706	3923.8
519.073	3926.51
519.44	3891.48
519.808	3963.57
520.175	3946.62
520.542	3987.75
520.909	4037.01
521.276	3962.66
521.643	4037.69
522.009	4037.24
522.376	4013.28
522.743	4052.15
523.11	4108.2
523.477	4054.64
523.843	4125.15
524.21	4122.43
524.577	4134.41
524.943	4168.76
525.31	4194.75
525.676	4214.63
526.043	4227.06
526.409	4237.91
526.776	4273.16
527.142	4265.71
527.508	4313.16
527.874	4355.42
528.241	4314.07
528.607	4359.04
528.973	4412.14
529.339	4398.13
529.705	4378.7
530.071	4447.85
530.437	4421.86
530.803	4465.25
531.169	4459.37
531.535	4479.03
531.901	4531.91
532.267	4534.63
532.632	4541.41
532.998	4623.21
533.364	4641.97
533.73	4576.66
534.095	4601.29
534.461	4690.55
534.826	4630.9
535.192	4640.39
535.557	4719.03
535.923	4721.97
536.288	4738.24
536.653	4750.67
537.019	4795.86
537.384	4757.22
537.749	4810.33
538.114	4809.65
538.479	4807.61
538.845	4861.4
539.21	4836.54
539.575	4894.84
539.94	4904.33
540.305	4963.54
540.67	4935.29
541.034	4943.88
541.399	4997.44
541.764	5024.33
542.129	5016.42
542.494	5057.1
542.858	5035.63
543.223	5039.47
543.587	5117.44
543.952	5100.94
544.316	5126.7
544.681	5132.35
545.045	5172.8
545.41	5201.05
545.774	5200.6
546.138	5241.5
546.503	5278.56
546.867	5286.92
547.231	5314.27
547.595	5340.71
547.959	5323.53
548.324	5312.69
548.688	5331.44
549.052	5385.23
549.416	5406.24
549.779	5390.88
550.143	5424.09
550.507	5482.62
550.871	5426.13
551.235	5473.58
551.599	5529.85
551.962	5486.92
552.326	5507.03
552.689	5550.42
553.053	5557.65
553.417	5614.37
553.78	5567.14
554.143	5583.86
554.507	5631.09
554.87	5670.64
555.234	5648.95
555.597	5640.13
555.96	5709.96
556.323	5686.23
556.686	5698.89
557.05	5770.3
557.413	5748.38
557.776	5741.83
558.139	5813.46
558.502	5771.88
558.865	5805.33
559.228	5846.68
559.59	5915.83
559.953	5904.99
560.316	5953.57
560.679	5910.86
561.041	5922.61
561.404	5952.44
561.767	6046.68
562.129	5981.59
562.492	6024.53
562.854	6045.32
563.217	6100.46
563.579	5989.73
563.941	6123.96
564.304	6078.09
564.666	6109.95
565.028	6146.34
565.39	6130.06
565.753	6174.58
566.115	6194.24
566.477	6208.03
566.839	6199.67
567.201	6280.57
567.563	6267.91
567.925	6324.86
568.287	6320.34
568.648	6378.87
569.01	6353.56
569.372	6434.24
569.734	6360.57
570.095	6421.58
570.457	6435.59
570.819	6472.88
571.18	6534.8
571.542	6518.98
571.903	6550.62
572.265	6643.5
572.626	6647.79
572.987	6707.22
573.349	6739.99
573.71	6766.21
574.071	6749.94
574.432	6913.77
574.794	6923.26
575.155	7008.46
575.516	6969.36
575.877	7035.13
576.238	7125.52
576.599	7183.14
576.96	7214.78
577.32	7336.59
577.681	7355.34
578.042	7393.31
578.403	7474.44
578.763	7524.83
579.124	7685.73
579.485	7782.45
579.845	7921.43
580.206	7955.55
580.566	8058.38
580.927	8135.89
581.287	8316.67
581.648	8395.54
582.008	8555.76
582.368	8626.72
582.728	8811.12
583.089	9006.6
583.449	9030.55
583.809	9189.87
584.169	9433.25
584.529	9569.3
584.889	9792.79
585.249	9887.03
585.609	10082.28
585.969	10311.88
586.329	10514.36
586.688	10711.41
587.048	10896.27
587.408	11113.44
587.768	11371.96
588.127	11477.49
588.487	11705.96
588.846	12061.21
589.206	12156.8
589.565	12447.41
589.925	12734.41
590.284	12893.5
590.643	13227.73
591.003	13493.49
591.362	13671.56
591.721	13984.55
592.08	14165.79
592.44	14560.8
592.799	14806.22
593.158	15040.79
593.517	15341.35
593.876	15576.6
594.235	15818.62
594.593	16136.81
594.952	16471.71
595.311	16650.92
595.67	16950.12
596.029	17381.52
596.387	17638.24
596.746	17998.91
597.104	18147.15
597.463	18375.17
597.822	18790.52
598.18	19042.49
598.538	19207.69
598.897	19603.61
599.255	19769.03
599.613	20280.65
599.972	20435.68
600.33	20800.87
600.688	21044.7
601.046	21342.09
601.404	21696.89
601.762	21990.44
602.12	22298
602.478	22584.1
602.836	22804.88
603.194	22805.78
603.552	23157.41
603.91	23358.76
604.268	23702.03
604.625	23823.61
604.983	24200.78
605.341	24384.05
605.698	24635.79
606.056	24942
606.413	25217.7
606.771	25476.22
607.128	25725.48
607.485	25814.29
607.843	26055.19
608.2	26467.84
608.557	26755.51
608.914	26825.11
609.272	27115.73
609.629	27414.48
609.986	27798.87
610.343	27541.25
610.7	27961.58
611.057	28232.99
611.414	28402.93
611.771	28620.32
612.127	28800.43
612.484	28891.73
612.841	29246.97
613.198	29282.22
613.554	29511.37
613.911	29762.21
614.267	29819.84
614.624	30104.12
614.98	30237
615.337	30408.52
615.693	30621.4
616.05	30668.63
616.406	31020.26
616.762	30976.87
617.118	31064.1
617.475	31355.84
617.831	31572.56
618.187	31675.16
618.543	31888.48
618.899	32172.32
619.255	32266.33
619.611	32155.6
619.967	32477.85
620.323	32533.89
620.678	32505.42
621.034	32558.97
621.39	32625.87
621.746	32761.45
622.101	33317.6
622.457	32956.93
622.812	33205.51
623.168	33345.17
623.523	33356.47
623.879	33678.04
624.234	33581.55
624.589	33644.82
624.945	33841.2
625.3	33891.14
625.655	33962.33
626.01	33992.61
626.365	34134.75
626.72	34076.22
627.075	34242.09
627.43	34163.45
627.785	34323
628.14	34344.69
628.495	34407.97
628.85	34555.98
629.205	34405.48
629.559	34613.38
629.914	34579.94
630.269	34587.17
630.623	34570.45
630.978	34714.4
631.332	34753.72
631.687	34951
632.041	34822.42
632.396	34901.51
632.75	34854.51
633.104	34882.98
633.459	34834.85
633.813	34882.08
634.167	34865.35
634.521	34933.6
634.875	35062.41
635.229	35017.89
635.583	34760.95
635.937	34827.39
636.291	34905.13
636.645	34973.6
636.999	34808.63
637.352	34968.18
637.706	34765.02
638.06	35034.84
638.413	34856.32
638.767	34754.85
639.121	34971.79
639.474	34737.45
639.828	34901.06
640.181	34938.57
640.534	34982.64
640.888	34819.25
641.241	34803.66
641.594	34777.67
641.947	34931.34
642.301	34809.08
642.654	34949.42
643.007	34833.04
643.36	34845.02
643.713	34845.02
644.066	35000.72
644.419	34883.21
644.771	34520.28
645.124	34301.08
645.477	34147.41
645.83	34112.61
646.182	33864.48
646.535	33863.57
646.888	33878.49
647.24	33723.24
647.593	33935.89
647.945	33760.52
648.298	33712.16
648.65	33693.86
649.002	33727.08
649.355	33654.31
649.707	33766.63
650.059	33888.2
650.411	34292.26
650.763	34328.19
651.115	34712.36
651.467	34544.01
651.819	34627.62
652.171	34475.53
652.523	34415.87
652.875	34581.52
653.227	34401.64
653.578	34463.11
653.93	34483.44
654.282	34228.99
654.633	34065.38
654.985	34325.93
655.337	34370.9
655.688	34354.63
656.039	34414.97
656.391	34307.85
656.742	34181.53
657.094	34279.16
657.445	34412.48
657.796	34332.26
658.147	34348.98
658.498	34196.67
658.849	34444.35
659.2	34341.07
659.551	34075.54
659.902	34306.27
660.253	34181.3
660.604	34224.47
660.955	34080.52
661.306	34235.54
661.656	34115.54
662.007	34110.12
662.358	34132.27
662.708	34056.11
663.059	33962.78
663.409	33946.06
663.76	34058.14
664.11	34089.1
664.461	34222.21
664.811	34098.14
665.161	34216.11
665.511	33890.24
665.862	34014.08
666.212	34101.76
666.562	34154.86
666.912	34123.91
667.262	34064.02
667.612	33986.06
667.962	34207.97
668.312	34039.39
668.662	34148.31
669.011	34171.59
669.361	34101.98
669.711	34045.71
670.06	33975.21
670.41	33918.71
670.76	33825.38
671.109	33930.69
671.459	33954.87
671.808	33871.26
672.157	33982.67
672.507	33790.81
672.856	33821.31
673.205	33835.1
673.554	34021.08
673.904	33752.16
674.253	34128.88
674.602	33782.9
674.951	33389.01
675.3	33130.03
675.649	33754.42
675.998	33647.08
676.346	33862.89
676.695	33942.21
677.044	33594.65
677.393	33675.78
677.741	33724.37
678.09	33534.99
678.438	33607.76
678.787	33536.8
679.135	33560.08
679.484	33490.25
679.832	33623.35
680.181	33219.75
680.529	33542.23
680.877	33347.43
681.225	33356.47
681.573	33599.85
681.922	33255.91
682.27	33099.98
682.618	33264.72
682.966	32985.63
683.314	33137.94
683.661	33001
684.009	32775.69
684.357	32890.94
684.705	32867.21
685.053	32673.32
685.4	32733.89
685.748	32672.87
686.095	32621.12
686.443	32678.29
686.79	32514
687.138	32523.27
687.485	32490.5
687.832	32384.52
688.18	32369.6
688.527	32222.03
688.874	32264.07
689.221	32168.25
689.568	32089.61
689.915	32084.64
690.262	31968.03
690.609	31926.22
690.956	31878.77
691.303	31838.32
691.65	31705.44
691.997	31773.68
692.344	31563.29
692.69	31455.5
693.037	31500.7
693.383	31184.55
693.73	31423.41
694.077	31243.3
694.423	31121.05
694.769	31093.02
695.116	31064.1
695.462	30918.57
695.808	30836.53
696.155	30783.2
696.501	30733.71
696.847	30693.03
697.193	30428.86
697.539	30535.07
697.885	30315.87
698.231	30291.24
698.577	30285.81
698.923	30282.42
699.269	30166.04
699.614	29832.94
699.96	29795.43
700.306	29810.12
700.651	29767.18
700.997	29667.3
701.342	29623.91
701.688	29624.59
702.033	29484.93
702.379	29477.47
702.724	29410.36
703.069	29433.18
703.415	29121.1
703.76	29278.83
704.105	29127.65
704.45	29115.22
704.795	28940.99
705.14	28846.76
705.485	28830.03
705.83	28708.45
706.175	28732.41
706.52	28683.82
706.865	28550.49
707.209	28506.2
707.554	28429.59
707.899	28411.06
708.243	28312.08
708.588	28354.57
708.932	28061.92
709.277	28089.71
709.621	28108.7
709.966	27929.49
710.31	27976.5
710.654	27860.11
710.998	27756.61
711.342	27860.34
711.687	27768.14
712.031	27715.71
712.375	27547.81
712.719	27536.06
713.063	27577.41
713.407	27553.68
713.75	27359.56
714.094	27414.48
714.438	27242.73
714.782	27312.33
715.125	27186.69
715.469	27293.8
715.812	26973.36
716.156	27093.81
716.499	26956.64
716.843	27073.02
717.186	26883.19
717.53	26919.35
717.873	27031.21
718.216	26860.59
718.559	26711.22
718.902	26540.15
719.246	26689.07
719.589	26525.46
719.932	26507.83
720.275	26445.91
720.617	26374.73
720.96	26390.55
721.303	26251.57
721.646	26367.72
721.989	26190.78
722.331	26254.73
722.674	26133.38
723.016	26151.46
723.359	26060.16
723.701	26115.98
724.044	25967.51
724.386	25792.37
724.729	25882.54
725.071	25821.3
725.413	25805.93
725.755	25833.73
726.097	25787.85
726.439	25544.7
726.782	25674.41
727.124	25711.7
727.465	25534.75
727.807	25436.45
728.149	25424.47
728.491	25435.32
728.833	25388.99
729.175	25432.16
729.516	25310.35
729.858	25296.79
730.199	25401.42
730.541	25189.22
730.882	25218.83
731.224	25164.14
731.565	25096.12
731.906	25041.21
732.248	25096.8
732.589	25002.79
732.93	24821.32
733.271	24875.56
733.612	24901.32
733.953	24870.59
734.294	24681.89
734.635	24718.5
734.976	24801.44
735.317	24623.59
735.658	24647.54
735.999	24594.89
736.339	24576.36
736.68	24622.46
737.021	24529.58
737.361	24518.06
737.702	24536.13
738.042	24480.99
738.383	24482.58
738.723	24408.68
739.063	24375.69
739.404	24256.82
739.744	24399.19
740.084	24188.8
740.424	24269.25
740.764	24101.57
741.104	24203.26
741.444	24085.52
741.784	24084.39
742.124	24084.39
742.464	24010.95
742.804	23911.07
743.143	23943.16
743.483	23945.87
743.823	23732.77
744.162	23732.77
744.502	23751.75
744.841	23640.79
745.181	23776.38
745.52	23758.53
745.86	23752.65
746.199	23617.74
746.538	23670.17
746.877	23539.78
747.216	23624.07
747.556	23506.33
747.895	23482.83
748.234	23421.36
748.573	23364.19
748.911	23354.92
749.25	23310.86
749.589	23273.79
749.928	23237.19
750.267	23309.27
750.605	23147.47
750.944	23155.38
751.283	23025.89
751.621	23036.29
751.96	22865.9
752.298	23006.46
752.636	22985.67
752.975	22754.49
753.313	22752
753.651	22799.23
753.989	22726.69
754.327	22736.41
754.666	22594.04
755.004	22642.17
755.342	22471.56
755.679	22537.77
756.017	22324.89
756.355	22435.4
756.693	22350.66
757.031	22408.73
757.368	22271.56
757.706	22159.47
758.044	22103.88
758.381	22162.41
758.719	22064.34
759.056	21997.44
759.394	21863.44
759.731	21846.94
760.068	21764.23
