Data from hue_230_FLMS001491_00022.txt Node
Date: Tue Feb 07 16:36:59 GMT 2017
User: dcchb
Spectrometer: FLMS00149
Trigger mode: 0
Integration Time (sec): 2.000000E-2
Scans to average: 10
Electric dark correction enabled: true
Nonlinearity correction enabled: false
Boxcar width: 0
XAxis mode: Wavelengths
Number of Pixels in Spectrum: 2048
>>>>>Begin Spectral Data<<<<<
341.393	-16.88
341.776	-16.88
342.16	-16.88
342.543	-43.77
342.927	-68.85
343.31	-72.24
343.693	-67.5
344.077	-62.07
344.46	-57.78
344.843	-42.64
345.226	-39.93
345.61	-42.87
345.993	-30.44
346.376	-11.91
346.759	2.1
347.142	26.06
347.525	36
347.908	60.63
348.291	82.55
348.674	93.4
349.057	126.62
349.44	123.01
349.823	139.05
350.206	157.13
350.588	186.05
350.971	219.05
351.354	208.65
351.737	237.58
352.119	232.61
352.502	261.76
352.884	271.25
353.267	290.23
353.65	290.68
354.032	298.37
354.414	306.05
354.797	304.24
355.179	293.17
355.562	327.29
355.944	337.24
356.326	329.33
356.709	322.32
357.091	313.28
357.473	337.69
357.855	335.66
358.238	314.19
358.62	352.38
359.002	333.85
359.384	308.31
359.766	325.03
360.148	339.5
360.53	323.68
360.912	340.63
361.294	355.54
361.676	336.56
362.057	324.58
362.439	347.18
362.821	331.81
363.203	328.2
363.584	308.54
363.966	321.87
364.348	331.81
364.729	311.02
365.111	307.86
365.493	311.02
365.874	332.49
366.256	310.34
366.637	320.06
367.019	322.1
367.4	283.45
367.781	296.11
368.163	308.99
368.544	305.37
368.925	311.47
369.306	312.6
369.688	305.37
370.069	311.7
370.45	293.62
370.831	301.76
371.212	308.99
371.593	305.6
371.974	299.5
372.355	322.32
372.736	329.55
373.117	312.15
373.498	311.02
373.879	302.44
374.26	307.63
374.641	307.18
375.021	293.85
375.402	320.06
375.783	311.25
376.163	338.14
376.544	315.99
376.925	317.58
377.305	324.13
377.686	335.88
378.066	325.49
378.447	332.49
378.827	344.47
379.208	317.8
379.588	328.2
379.968	330.23
380.349	320.51
380.729	316.67
381.109	311.47
381.489	314.64
381.87	323.68
382.25	334.07
382.63	343.56
383.01	343.34
383.39	317.35
383.77	315.32
384.15	343.56
384.53	332.72
384.91	353.96
385.29	358.48
385.67	332.27
386.049	354.41
386.429	340.17
386.809	337.46
387.189	349.44
387.568	350.34
387.948	368.65
388.328	347.41
388.707	354.41
389.087	370.91
389.466	377.24
389.846	350.34
390.225	338.82
390.605	341.76
390.984	361.64
391.363	365.03
391.743	368.42
392.122	382.66
392.501	388.08
392.881	371.59
393.26	374.98
393.639	356.67
394.018	363
394.397	357.12
394.776	358.25
395.155	372.72
395.534	377.91
395.913	380.4
396.292	401.42
396.671	364.58
397.05	377.01
397.429	410.46
397.808	393.73
398.186	395.99
398.565	389.66
398.944	394.86
399.323	410
399.701	403.68
400.08	399.61
400.458	386.73
400.837	413.17
401.215	409.1
401.594	404.13
401.972	412.94
402.351	407.29
402.729	417.01
403.107	405.26
403.486	424.24
403.864	434.41
404.242	421.75
404.62	452.26
404.999	428.76
405.377	419.72
405.755	442.09
406.133	430.57
406.511	433.96
406.889	422.21
407.267	436.9
407.645	459.27
408.023	467.4
408.401	465.37
408.779	470.79
409.156	501.75
409.534	492.26
409.912	485.71
410.29	495.2
410.667	509.44
411.045	497.46
411.422	510.79
411.8	536.33
412.178	511.02
412.555	520.96
412.933	534.29
413.31	558.47
413.687	552.15
414.065	566.61
414.442	587.17
414.819	577
415.197	584.01
415.574	606.16
415.951	594.86
416.328	590.79
416.705	607.51
417.082	598.7
417.46	612.48
417.837	648.87
418.214	623.33
418.591	622.2
418.967	624.23
419.344	646.38
419.721	657
420.098	669.66
420.475	641.86
420.852	672.37
421.228	682.76
421.605	709.66
421.982	692.93
422.358	668.75
422.735	705.36
423.111	733.16
423.488	713.5
423.864	767.06
424.241	774.97
424.617	778.36
424.994	778.36
425.37	778.58
425.746	808.64
426.123	799.37
426.499	810.22
426.875	831.01
427.251	817
427.627	848.41
428.003	872.82
428.379	881.63
428.756	882.31
429.132	875.53
429.507	870.1
429.883	919.37
430.259	911.01
430.635	913.04
431.011	936.32
431.387	978.12
431.763	969.54
432.138	973.83
432.514	989.2
432.89	961.63
433.265	1015.19
433.641	1045.47
434.016	1039.14
434.392	1055.64
434.767	1085.24
435.143	1081.4
435.518	1072.13
435.894	1125.24
436.269	1134.73
436.644	1139.93
437.02	1186.48
437.395	1169.76
437.77	1200.27
438.145	1243.88
438.52	1213.82
438.895	1234.84
439.271	1250.89
439.646	1283.88
440.021	1313.48
440.395	1309.41
440.77	1350.77
441.145	1318.23
441.52	1398.23
441.895	1364.78
442.27	1341.28
442.645	1376.98
443.019	1390.77
443.394	1391.45
443.769	1408.17
444.143	1419.02
444.518	1455.85
444.892	1465.79
445.267	1450.65
445.641	1478.22
446.016	1477.77
446.39	1484.33
446.764	1497.21
447.139	1504.44
447.513	1522.06
447.887	1526.81
448.262	1550.76
448.636	1549.18
449.01	1575.17
449.384	1593.02
449.758	1553.7
450.132	1617.2
450.506	1620.82
450.88	1632.57
451.254	1630.54
451.628	1657.43
452.002	1680.03
452.376	1682.51
452.75	1678.44
453.123	1718.67
453.497	1735.17
453.871	1739.01
454.244	1756.63
454.618	1790.08
454.992	1803.41
455.365	1813.81
455.739	1870.98
456.112	1839.34
456.486	1861.04
456.859	1857.2
457.232	1932.22
457.606	1908.95
457.979	1927.7
458.352	1979.23
458.725	2017.42
459.099	1988.49
459.472	2050.86
459.845	2071.88
460.218	2075.5
460.591	2100.81
460.964	2101.48
461.337	2100.58
461.71	2181.93
462.083	2190.3
462.456	2203.85
462.829	2219.45
463.201	2262.38
463.574	2275.04
463.947	2243.63
464.32	2306.68
464.692	2328.82
465.065	2391.19
465.438	2395.26
465.81	2418.99
466.183	2461.02
466.555	2483.17
466.928	2492.21
467.3	2513.68
467.672	2536.73
468.045	2612.21
468.417	2594.58
468.789	2585.99
469.161	2622.15
469.534	2682.26
469.906	2697.63
470.278	2731.52
470.65	2729.72
471.022	2810.39
471.394	2861.69
471.766	2865.76
472.138	2908.69
472.51	2958.64
472.882	3007.45
473.253	3021.23
473.625	3038.63
473.997	3091.74
474.369	3153.66
474.74	3150.5
475.112	3220.32
475.484	3255.35
475.855	3307.78
476.227	3318.18
476.598	3425.07
476.97	3406.99
477.341	3505.97
477.713	3535.34
478.084	3574.67
478.455	3644.72
478.827	3650.14
479.198	3778.73
479.569	3788.45
479.94	3848.56
480.311	3869.57
480.682	3909.35
481.053	3983.47
481.424	4040.64
481.795	4102.11
482.166	4143.01
482.537	4222.33
482.908	4238.38
483.279	4315.21
483.65	4333.06
484.021	4396.79
484.391	4510.46
484.762	4537.13
485.133	4552.95
485.503	4557.46
485.874	4705.03
486.244	4680.17
486.615	4814.41
486.985	4860.51
487.356	4924.46
487.726	4920.62
488.097	4954.06
488.467	5012.37
488.837	5140.05
489.207	5178.01
489.578	5232.25
489.948	5250.33
490.318	5300.72
490.688	5337.33
491.058	5395.86
491.428	5465.69
491.798	5504.11
492.168	5643.09
492.538	5630.21
492.908	5648.51
493.278	5730.77
493.648	5737.77
494.017	5775.06
494.387	5826.58
494.757	5814.38
495.126	5939.8
495.496	5939.12
495.866	5947.94
496.235	6003.53
496.605	6072
496.974	6084.2
497.344	6126.24
497.713	6193.13
498.082	6193.81
498.452	6233.35
498.821	6274.48
499.19	6256.18
499.559	6352.45
499.928	6363.29
500.298	6353.8
500.667	6414.37
501.036	6396.96
501.405	6436.51
501.774	6436.96
502.143	6492.56
502.512	6468.6
502.88	6557.41
503.249	6564.64
503.618	6561.71
503.987	6639.67
504.356	6630.86
504.724	6648.48
505.093	6646
505.462	6658.65
505.83	6736.16
506.199	6778.88
506.567	6800.34
506.936	6796.73
507.304	6831.08
507.672	6867.46
508.041	6863.84
508.409	6940
508.777	6883.96
509.145	6909.49
509.514	6911.08
509.882	6909.27
510.25	6968.25
510.618	7009.15
510.986	7013.45
511.354	7122.82
511.722	7044.86
512.09	7165.98
512.458	7130.5
512.826	7166.44
513.193	7137.51
513.561	7160.33
513.929	7170.5
514.297	7255.02
514.664	7234.46
515.032	7275.36
515.4	7339.31
515.767	7287.34
516.135	7331.18
516.502	7204.85
516.869	7354.68
517.237	7355.81
517.604	7330.05
517.972	7384.74
518.339	7372.08
518.706	7376.15
519.073	7422.47
519.44	7397.84
519.808	7425.86
520.175	7459.54
520.542	7482.36
520.909	7477.39
521.276	7428.12
521.643	7515.35
522.009	7500.89
522.376	7553.77
522.743	7596.26
523.11	7597.61
523.477	7611.4
523.843	7664.95
524.21	7638.51
524.577	7722.58
524.943	7696.59
525.31	7732.52
525.676	7717.83
526.043	7780.88
526.409	7814.1
526.776	7825.85
527.142	7825.63
527.508	7859.75
527.874	7856.14
528.241	7861.56
528.607	7835.34
528.973	7861.11
529.339	7829.24
529.705	7901.33
530.071	7937.49
530.437	7891.84
530.803	7930.71
531.169	7967.77
531.535	7869.02
531.901	7836.7
532.267	7881.67
532.632	7893.2
532.998	7937.94
533.364	7972.74
533.73	7906.08
534.095	7936.81
534.461	7925.51
534.826	7937.49
535.192	7937.04
535.557	8011.61
535.923	7943.36
536.288	7945.85
536.653	7914.89
537.019	7906.3
537.384	7935
537.749	7854.33
538.114	7918.05
538.479	7873.08
538.845	7963.7
539.21	7825.85
539.575	7813.42
539.94	7916.25
540.305	7889.35
540.67	7832.41
541.034	7817.27
541.399	7890.26
541.764	7894.78
542.129	7825.18
542.494	7804.84
542.858	7822.46
543.223	7781.33
543.587	7784.95
543.952	7807.77
544.316	7791.28
544.681	7812.29
545.045	7749.02
545.41	7788.79
545.774	7770.26
546.138	7770.26
546.503	7784.27
546.867	7729.58
547.231	7772.07
547.595	7764.39
547.959	7699.76
548.324	7686.87
548.688	7663.15
549.052	7675.35
549.416	7689.81
549.779	7556.03
550.143	7676.93
550.507	7626.54
550.871	7659.53
551.235	7687.55
551.599	7697.95
551.962	7596.03
552.326	7620.66
552.689	7651.62
553.053	7617.5
553.417	7584.73
553.78	7614.79
554.143	7585.86
554.507	7589.93
554.87	7681.68
555.234	7655.46
555.597	7587.22
555.96	7587.22
556.323	7609.59
556.686	7617.05
557.05	7660.89
557.413	7639.42
557.776	7641
558.139	7695.46
558.502	7625.63
558.865	7671.28
559.228	7630.83
559.59	7659.53
559.953	7652.07
560.316	7761.22
560.679	7764.61
561.041	7813.42
561.404	7723.94
561.767	7811.16
562.129	7751.28
562.492	7798.96
562.854	7817.72
563.217	7823.59
563.579	7788.79
563.941	7873.31
564.304	7857.27
564.666	7845.74
565.028	7876.47
565.39	7864.72
565.753	7951.05
566.115	7881.67
566.477	7959.41
566.839	7990.82
567.201	7975
567.563	7989.47
567.925	8038.05
568.287	8044.38
568.648	8050.71
569.01	8066.75
569.372	8065.17
569.734	8101.55
570.095	8142
570.457	8130.93
570.819	8139.74
571.18	8141.33
571.542	8166.86
571.903	8148.1
572.265	8164.15
572.626	8183.81
572.987	8242.57
573.349	8235.11
573.71	8260.64
574.071	8316.01
574.432	8314.65
574.794	8446.85
575.155	8367.08
575.516	8273.53
575.877	8356.24
576.238	8382
576.599	8431.26
576.96	8377.93
577.32	8435.56
577.681	8471.49
578.042	8443.46
578.403	8433.07
578.763	8498.6
579.124	8585.38
579.485	8626.06
579.845	8588.55
580.206	8587.64
580.566	8580.86
580.927	8549
581.287	8643.46
581.648	8611.82
582.008	8683.01
582.368	8616.34
582.728	8652.95
583.089	8643.91
583.449	8680.07
583.809	8690.24
584.169	8712.16
584.529	8706.73
584.889	8792.16
585.249	8881.87
585.609	8782.66
585.969	8796.22
586.329	8754.87
586.688	8820.18
587.048	8836.9
587.408	8796.68
587.768	8821.99
588.127	8807.97
588.487	8869.89
588.846	8912.6
589.206	8862.44
589.565	8851.59
589.925	8918.48
590.284	8888.42
590.643	8910.57
591.003	8960.96
591.362	8988.31
591.721	8903.11
592.08	8950.8
592.44	8948.08
592.799	8962.77
593.158	8963.68
593.517	8981.98
593.876	8979.72
594.235	8975.2
594.593	9044.35
594.952	9046.61
595.311	8985.82
595.67	8991.02
596.029	9063.79
596.387	9131.13
596.746	9124.12
597.104	9047.74
597.463	9088.87
597.822	9094.07
598.18	9086.61
598.538	9029.21
598.897	9151.02
599.255	9056.1
599.613	9224.91
599.972	9149.89
600.33	9210.22
600.688	9154.18
601.046	9119.15
601.404	9193.95
601.762	9201.86
602.12	9192.82
602.478	9260.39
602.836	9206.61
603.194	9247.06
603.552	9230.56
603.91	9165.48
604.268	9270.11
604.625	9222.2
604.983	9224.91
605.341	9197.34
605.698	9258.81
606.056	9317.79
606.413	9283.44
606.771	9288.41
607.128	9282.76
607.485	9281.63
607.843	9342.88
608.2	9319.15
608.557	9305.81
608.914	9296.55
609.272	9364.8
609.629	9393.5
609.986	9398.24
610.343	9340.84
610.7	9410.67
611.057	9320.96
611.414	9351.24
611.771	9385.59
612.127	9325.93
612.484	9392.59
612.841	9450.9
613.198	9438.01
613.554	9404.57
613.911	9455.42
614.267	9464
614.624	9449.99
614.98	9473.95
615.337	9525.24
615.693	9474.4
616.05	9441.86
616.406	9526.37
616.762	9479.37
617.118	9494.96
617.475	9532.48
617.831	9484.12
618.187	9512.59
618.543	9458.8
618.899	9596.2
619.255	9524.34
619.611	9558.01
619.967	9626.03
620.323	9604.11
620.678	9602.3
621.034	9546.49
621.39	9537.22
621.746	9508.52
622.101	9625.81
622.457	9529.54
622.812	9603.43
623.168	9600.5
623.523	9579.03
623.879	9637.78
624.234	9548.52
624.589	9589.87
624.945	9563.43
625.3	9585.13
625.655	9588.75
626.01	9590.78
626.365	9571.8
626.72	9515.75
627.075	9588.97
627.43	9620.38
627.785	9607.05
628.14	9595.52
628.495	9659.48
628.85	9563.21
629.205	9514.4
629.559	9532.25
629.914	9523.66
630.269	9522.08
630.623	9540.16
630.978	9501.74
631.332	9530.89
631.687	9518.92
632.041	9514.4
632.396	9451.12
632.75	9466.71
633.104	9387.85
633.459	9447.28
633.813	9401.63
634.167	9395.3
634.521	9438.69
634.875	9433.49
635.229	9306.72
635.583	9365.7
635.937	9394.85
636.291	9273.73
636.645	9329.09
636.999	9332.48
637.352	9374.97
637.706	9260.17
638.06	9304.23
638.413	9267.85
638.767	9223.1
639.121	9311.69
639.474	9231.92
639.828	9261.3
640.181	9254.74
640.534	9239.38
640.888	9287.96
641.241	9181.98
641.594	9240.05
641.947	9195.54
642.301	9211.58
642.654	9230.34
643.007	9122.99
643.36	9167.06
643.713	9150.34
644.066	9182.2
644.419	9083.67
644.771	9055.65
645.124	8953.06
645.477	8944.69
645.83	8901.31
646.182	8910.57
646.535	8905.6
646.888	8911.7
647.24	8841.19
647.593	8874.64
647.945	8862.66
648.298	8816.79
648.65	8834.19
649.002	8793.96
649.355	8829.44
649.707	8798.71
650.059	8815.43
650.411	9000.74
650.763	8940.63
651.115	9019.72
651.467	9098.59
651.819	8930.91
652.171	9017.01
652.523	8976.33
652.875	8962.09
653.227	8954.19
653.578	9050.45
653.93	8964.35
654.282	8894.53
654.633	8896.11
654.985	8968.2
655.337	8946.05
655.688	8981.76
656.039	9003.22
656.391	8980.85
656.742	8920.97
657.094	8978.82
657.445	8927.97
657.796	8970.46
658.147	8964.35
658.498	8986.95
658.849	8961.19
659.2	8906.28
659.551	8951.02
659.902	8960.74
660.253	9004.81
660.604	9000.06
660.955	8924.13
661.306	8986.5
661.656	8964.81
662.007	8968.87
662.358	8963.68
662.708	9050.45
663.059	9009.55
663.409	8904.92
663.76	9027.4
664.11	9014.07
664.461	9048.65
664.811	9028.08
665.161	8960.29
665.511	9002.55
665.862	8995.99
666.212	9033.28
666.562	9062.66
666.912	8979.5
667.262	8981.76
667.612	8982.43
667.962	9021.3
668.312	8931.14
668.662	9027.63
669.011	8936.11
669.361	8979.27
669.711	8988.76
670.06	8951.93
670.41	8939.27
670.76	8938.59
671.109	8930.46
671.459	9000.51
671.808	8900.63
672.157	8931.36
672.507	8838.48
672.856	8831.02
673.205	8883.45
673.554	8885.71
673.904	8869.67
674.253	8911.47
674.602	8919.38
674.951	8775.89
675.3	8704.25
675.649	8822.66
675.998	8880.74
676.346	8787.18
676.695	8814.53
677.044	8752.61
677.393	8793.51
677.741	8804.36
678.09	8790.12
678.438	8759.16
678.787	8788.31
679.135	8768.88
679.484	8732.04
679.832	8727.52
680.181	8737.24
680.529	8761.42
680.877	8727.52
681.225	8667.19
681.573	8725.04
681.922	8673.29
682.27	8642.78
682.618	8658.6
682.966	8684.81
683.314	8645.72
683.661	8614.08
684.009	8548.77
684.357	8560.75
684.705	8505.84
685.053	8571.6
685.4	8517.13
685.748	8455.44
686.095	8406.63
686.443	8487.76
686.79	8397.59
687.138	8400.75
687.485	8444.37
687.832	8335.22
688.18	8394.43
688.527	8306.29
688.874	8331.6
689.221	8291.15
689.568	8268.33
689.915	8259.29
690.262	8235.79
690.609	8152.85
690.956	8201.21
691.303	8091.84
691.65	8166.18
691.997	8139.97
692.344	8131.61
692.69	8095.9
693.037	8028.11
693.383	7949.01
693.73	8035.57
694.077	7970.48
694.423	7932.97
694.769	7936.13
695.116	7894.1
695.462	7851.62
695.808	7825.85
696.155	7845.06
696.501	7761.67
696.847	7776.82
697.193	7743.6
697.539	7784.27
697.885	7648.91
698.231	7636.71
698.577	7685.97
698.923	7648.91
699.269	7619.53
699.614	7630.38
699.96	7537.95
700.306	7556.71
700.651	7514.68
700.997	7433.1
701.342	7488.91
701.688	7423.38
702.033	7422.93
702.379	7391.51
702.724	7360.78
703.069	7378.41
703.415	7258.64
703.76	7246.66
704.105	7221.58
704.45	7197.4
704.795	7154.46
705.14	7154.23
705.485	7140.22
705.83	7115.59
706.175	7116.95
706.52	7068.81
706.865	7084.63
707.209	7100.9
707.554	7046.44
707.899	7108.58
708.243	7048.92
708.588	6923.73
708.932	6979.32
709.277	6907.91
709.621	6961.47
709.966	6914.92
710.31	6924.86
710.654	6830.85
710.998	6808.03
711.342	6870.62
711.687	6826.11
712.031	6785.2
712.375	6733.9
712.719	6820.68
713.063	6780.23
713.407	6772.32
713.75	6767.12
714.094	6765.09
714.438	6751.76
714.782	6709.27
715.125	6677.64
715.469	6698.2
715.812	6659.78
716.156	6643.74
716.499	6690.52
716.843	6657.07
717.186	6600.8
717.53	6660.46
717.873	6631.08
718.216	6593.34
718.559	6566.45
718.902	6545.44
719.246	6572.78
719.589	6560.58
719.932	6523.06
720.275	6511.54
720.617	6537.3
720.96	6474.48
721.303	6521.26
721.646	6541.14
721.989	6453.46
722.331	6502.95
722.674	6470.63
723.016	6502.27
723.359	6485.55
723.701	6487.58
724.044	6439.22
724.386	6457.75
724.729	6431.09
725.071	6473.35
725.413	6463.4
725.755	6441.26
726.097	6431.99
726.439	6398.77
726.782	6424.08
727.124	6439.22
727.465	6380.24
727.807	6396.96
728.149	6389.73
728.491	6410.07
728.833	6334.59
729.175	6347.25
729.516	6333.24
729.858	6333.69
730.199	6408.04
730.541	6389.51
730.882	6318.77
731.224	6311.54
731.565	6358.1
731.906	6309.74
732.248	6319
732.589	6348.15
732.93	6326.46
733.271	6321.03
733.612	6344.54
733.953	6288.27
734.294	6305.44
734.635	6274.26
734.976	6336.18
735.317	6313.12
735.658	6318.77
735.999	6316.74
736.339	6299.11
736.68	6276.52
737.021	6402.61
737.361	6323.97
737.702	6346.8
738.042	6320.58
738.383	6350.19
738.723	6354.48
739.063	6344.54
739.404	6366
739.744	6323.75
740.084	6365.55
740.424	6328.49
740.764	6404.65
741.104	6413.46
741.444	6355.84
741.784	6381.15
742.124	6427.25
742.464	6441.94
742.804	6456.85
743.143	6455.72
743.483	6443.74
743.823	6428.83
744.162	6451.65
744.502	6554.47
744.841	6529.62
745.181	6552.44
745.52	6546.57
745.86	6602.83
746.199	6610.07
746.538	6566.23
746.877	6601.48
747.216	6662.04
747.556	6716.05
747.895	6747.01
748.234	6728.48
748.573	6734.36
748.911	6793.34
749.25	6877.18
749.589	6897.29
749.928	6927.57
750.267	6959.21
750.605	7029.94
750.944	7080.56
751.283	7090.51
751.621	7212.99
751.96	7183.16
752.298	7312.42
752.636	7390.61
752.975	7412.98
753.313	7473.77
753.651	7558.97
753.989	7634.45
754.327	7672.19
754.666	7761.67
755.004	7851.84
755.342	7933.87
755.679	8017.03
756.017	8125.28
756.355	8224.26
756.693	8297.25
757.031	8420.41
757.368	8459.51
757.706	8552.39
758.044	8720.97
758.381	8793.74
758.719	8902.66
759.056	8993.28
759.394	9096.33
759.731	9191.69
760.068	9288.41
760.405	9396.21
760.743	9553.27
761.08	9683.21
761.417	9706.03
761.754	9831.22
762.091	10050.65
762.428	10140.37
762.765	10167.03
763.102	10405.67
763.438	10416.97
763.775	10546.46
764.112	10731.09
764.449	10826.9
764.785	10922.5
765.122	10984.87
765.458	11084.98
765.795	11142.6
766.131	11281.58
766.467	11381.69
766.804	11441.35
767.14	11588.69
767.476	11668.46
767.812	11789.37
768.148	11876.37
768.485	11919.98
768.821	11959.3
769.157	12089.24
769.492	12213.99
