Data from hue_150_FLMS001491_00028.txt Node
Date: Tue Feb 07 16:53:50 GMT 2017
User: dcchb
Spectrometer: FLMS00149
Trigger mode: 0
Integration Time (sec): 2.000000E-2
Scans to average: 10
Electric dark correction enabled: true
Nonlinearity correction enabled: false
Boxcar width: 0
XAxis mode: Wavelengths
Number of Pixels in Spectrum: 2048
>>>>>Begin Spectral Data<<<<<
341.393	-17.2
341.776	-17.2
342.16	-17.2
342.543	-48.39
342.927	-41.16
343.31	-73.25
343.693	-69.86
344.077	-73.25
344.46	-58.33
344.843	-65.34
345.226	-23.76
345.61	-38.22
345.993	-24.66
346.376	-7.71
346.759	4.49
347.142	38.16
347.525	46.75
347.908	55.11
348.291	85.17
348.674	98.05
349.057	106.64
349.44	123.36
349.823	138.95
350.206	148.44
350.588	211.04
350.971	220.98
351.354	225.73
351.737	220.08
352.119	258.27
352.502	255.33
352.884	277.93
353.267	279.74
353.65	280.87
354.032	303.01
354.414	285.61
354.797	310.25
355.179	319.29
355.562	299.17
355.944	323.35
356.326	346.63
356.709	327.65
357.091	348.66
357.473	338.49
357.855	326.97
358.238	337.82
358.62	309.79
359.002	324.93
359.384	334.65
359.766	346.63
360.148	324.93
360.53	351.37
360.912	333.75
361.294	343.92
361.676	330.13
362.057	319.29
362.439	336.01
362.821	319.96
363.203	324.48
363.584	318.16
363.966	310.92
364.348	335.33
364.729	352.28
365.111	313.64
365.493	315.9
365.874	333.07
366.256	318.38
366.637	337.59
367.019	313.41
367.4	299.85
367.781	306.86
368.163	314.77
368.544	321.77
368.925	298.27
369.306	331.49
369.688	325.39
370.069	320.42
370.45	313.18
370.831	316.12
371.212	323.81
371.593	307.08
371.974	329.23
372.355	302.34
372.736	316.35
373.117	330.13
373.498	298.72
373.879	325.39
374.26	336.46
374.641	306.18
375.021	325.39
375.402	321.09
375.783	309.12
376.163	322.68
376.544	336.69
376.925	331.04
377.305	300.08
377.686	316.35
378.066	301.88
378.447	319.51
378.827	338.72
379.208	332.39
379.588	338.72
379.968	326.97
380.349	357.48
380.729	329.68
381.109	347.31
381.489	325.39
381.87	366.97
382.25	331.26
382.63	339.85
383.01	349.57
383.39	334.43
383.77	364.71
384.15	344.14
384.53	346.18
384.91	336.01
385.29	351.83
385.67	356.12
386.049	354.76
386.429	358.15
386.809	337.59
387.189	346.86
387.568	361.77
387.948	346.86
388.328	358.38
388.707	357.25
389.087	364.71
389.466	359.28
389.846	363.35
390.225	360.41
390.605	354.99
390.984	376.46
391.363	366.29
391.743	368.32
392.122	397.7
392.501	388.21
392.881	379.17
393.26	380.75
393.639	390.92
394.018	393.63
394.397	410.13
394.776	386.85
395.155	383.69
395.534	396.57
395.913	392.73
396.292	410.58
396.671	397.02
397.05	395.44
397.429	396.57
397.808	384.59
398.186	396.12
398.565	405.16
398.944	399.74
399.323	403.58
399.701	399.06
400.08	426.4
400.458	404.48
400.837	422.79
401.215	407.64
401.594	431.82
401.972	407.19
402.351	418.94
402.729	410.36
403.107	417.59
403.486	427.08
403.864	433.86
404.242	455.1
404.62	433.18
404.999	436.12
405.377	452.39
405.755	436.57
406.133	432.28
406.511	431.37
406.889	457.81
407.267	450.36
407.645	460.3
408.023	460.75
408.401	450.58
408.779	456.91
409.156	455.78
409.534	462.11
409.912	467.98
410.29	496
410.667	485.38
411.045	458.49
411.422	485.38
411.8	474.08
412.178	505.72
412.555	484.48
412.933	495.55
413.31	510.69
413.687	508.88
414.065	524.93
414.442	524.48
414.819	509.11
415.197	503.46
415.574	535.1
415.951	529.22
416.328	536.68
416.705	535.32
417.082	540.75
417.46	543.69
417.837	539.84
418.214	531.26
418.591	555.89
418.967	546.62
419.344	544.14
419.721	537.13
420.098	554.99
420.475	580.52
420.852	588.43
421.228	582.78
421.605	565.83
421.982	569.9
422.358	574.87
422.735	587.3
423.111	597.24
423.488	604.02
423.864	600.41
424.241	627.07
424.617	626.17
424.994	646.06
425.37	594.53
425.746	644.25
426.123	624.14
426.499	652.61
426.875	648.54
427.251	654.42
427.627	660.07
428.003	669.56
428.379	664.59
428.756	649.67
429.132	687.19
429.507	685.38
429.883	668.65
430.259	697.35
430.635	684.93
431.011	704.36
431.387	713.85
431.763	719.73
432.138	718.14
432.514	756.11
432.89	729.9
433.265	733.96
433.641	743.91
434.016	759.27
434.392	761.31
434.767	787.07
435.143	785.71
435.518	780.52
435.894	784.81
436.269	800.18
436.644	808.31
437.02	810.35
437.395	819.84
437.77	820.74
438.145	837.46
438.52	825.49
438.895	846.96
439.271	839.27
439.646	874.3
440.021	871.81
440.395	863.9
440.77	867.07
441.145	884.24
441.52	883.11
441.895	907.52
442.27	914.75
442.645	905.48
443.019	928.53
443.394	929.89
443.769	919.5
444.143	915.2
444.518	954.07
444.892	929.44
445.267	960.62
445.641	941.19
446.016	953.84
446.39	955.43
446.764	967.4
447.139	984.35
447.513	992.49
447.887	1010.57
448.262	1007.85
448.636	1014.41
449.01	1001.53
449.384	1008.08
449.758	1004.47
450.132	1025.26
450.506	1055.99
450.88	1038.81
451.254	1046.05
451.628	1062.77
452.002	1083.33
452.376	1096.21
452.75	1131.02
453.123	1110
453.497	1126.5
453.871	1099.83
454.244	1178.7
454.618	1175.76
454.992	1160.17
455.365	1154.07
455.739	1212.6
456.112	1229.54
456.486	1229.77
456.859	1219.6
457.232	1247.85
457.606	1247.17
457.979	1271.35
458.352	1296.43
458.725	1310.67
459.099	1348.18
459.472	1335.53
459.845	1339.6
460.218	1366.04
460.591	1380.73
460.964	1389.31
461.337	1405.58
461.71	1430.44
462.083	1448.52
462.456	1468.86
462.829	1488.75
463.201	1491.23
463.574	1508.86
463.947	1510.67
464.32	1585.24
464.692	1594.28
465.065	1615.97
465.438	1648.97
465.81	1644.45
466.183	1679.7
466.555	1702.75
466.928	1725.35
467.3	1711.11
467.672	1764.67
468.045	1823.65
468.417	1818.46
468.789	1841.28
469.161	1908.17
469.534	1884.89
469.906	1954.27
470.278	1995.4
470.65	1966.02
471.022	2042.86
471.394	2068.39
471.766	2116.3
472.138	2145.23
472.51	2202.85
472.882	2232.23
473.253	2273.36
473.625	2307.26
473.997	2385.45
474.369	2389.51
474.74	2441.94
475.112	2521.04
475.484	2543.41
475.855	2617.3
476.227	2662.27
476.598	2747.7
476.97	2801.03
477.341	2857.3
477.713	2957.18
478.084	2995.15
478.455	3117.63
478.827	3140
479.198	3243.73
479.569	3293.22
479.94	3415.25
480.311	3463.16
480.682	3606.43
481.053	3692.3
481.424	3769.59
481.795	3823.15
482.166	3953.77
482.537	4085.74
482.908	4153.53
483.279	4262.46
483.65	4352.63
484.021	4540.42
484.391	4556.46
484.762	4620.42
485.133	4786.51
485.503	4854.76
485.874	4999.39
486.244	5113.28
486.615	5244.58
486.985	5362.32
487.356	5529.32
487.726	5666.04
488.097	5755.75
488.467	5854.06
488.837	6028.74
489.207	6155.29
489.578	6352.35
489.948	6449.75
490.318	6614.26
490.688	6660.36
491.058	6801.15
491.428	7025.32
491.798	7110.07
492.168	7279.33
492.538	7388.48
492.908	7497.85
493.278	7654.23
493.648	7709.15
494.017	7932.64
494.387	8084.73
494.757	8181.68
495.126	8282.69
495.496	8404.04
495.866	8517.04
496.235	8657.15
496.605	8849.68
496.974	8870.47
497.344	9042.45
497.713	9116.34
498.082	9186.4
498.452	9396.11
498.821	9448.99
499.19	9604.92
499.559	9689.43
499.928	9780.96
500.298	9862.76
500.667	9989.54
501.036	10014.62
501.405	10209.19
501.774	10196.09
502.143	10335.97
502.512	10427.04
502.88	10522.41
503.249	10561.73
503.618	10658.9
503.987	10745.9
504.356	10832.46
504.724	10873.36
505.093	10979.57
505.462	10949.51
505.83	11109.28
506.199	11167.14
506.567	11362.16
506.936	11356.06
507.304	11518.76
507.672	11574.81
508.041	11581.81
508.409	11709.72
508.777	11835.59
509.145	11784.07
509.514	11814.12
509.882	11950.84
510.25	12031.29
510.618	12035.36
510.986	12096.38
511.354	12170.73
511.722	12310.61
512.09	12336.14
512.458	12299.76
512.826	12527.33
513.193	12534.78
513.561	12511.73
513.929	12546.53
514.297	12612.07
514.664	12673.99
515.032	12727.77
515.4	12916.24
515.767	12786.3
516.135	12870.37
516.502	12761.44
516.869	12972.74
517.237	13039.4
517.604	12880.54
517.972	13099.29
518.339	13145.84
518.706	13168.67
519.073	13166.63
519.44	13200.75
519.808	13346.97
520.175	13256.8
520.542	13347.19
520.909	13409.11
521.276	13343.58
521.643	13473.97
522.009	13483.23
522.376	13503.35
522.743	13535.89
523.11	13662.89
523.477	13789.44
523.843	13805.48
524.21	13835.31
524.577	13840.74
524.943	13880.96
525.31	13938.59
525.676	14054.52
526.043	14080.96
526.409	14080.73
526.776	14203.67
527.142	14172.25
527.508	14104.23
527.874	14126.83
528.241	14144.46
528.607	14176.77
528.973	14195.98
529.339	14234.63
529.705	14233.95
530.071	14363.89
530.437	14308.52
530.803	14231.46
531.169	14398.92
531.535	14298.8
531.901	14172.93
532.267	14268.75
532.632	14347.39
532.998	14406.37
533.364	14398.92
533.73	14306.04
534.095	14365.92
534.461	14298.58
534.826	14285.25
535.192	14276.21
535.557	14357.11
535.923	14236.43
536.288	14273.72
536.653	14285.47
537.019	14161.41
537.384	14225.36
537.749	14134.97
538.114	14166.15
538.479	14117.34
538.845	14208.64
539.21	14117.79
539.575	14114.63
539.94	14027.85
540.305	14118.47
540.67	14031.02
541.034	14052.71
541.399	13977.46
541.764	13983.56
542.129	13932.03
542.494	13943.11
542.858	13917.8
543.223	13893.17
543.587	13958.7
543.952	13812.49
544.316	13789.21
544.681	13784.24
545.045	13765.94
545.41	13796.67
545.774	13752.83
546.138	13662.21
546.503	13674.64
546.867	13614.98
547.231	13664.7
547.595	13644.81
547.959	13633.96
548.324	13486.85
548.688	13623.12
549.052	13520.97
549.416	13563.91
549.779	13501.54
550.143	13417.47
550.507	13540.41
550.871	13406.85
551.235	13402.11
551.599	13360.75
551.962	13402.56
552.326	13347.42
552.689	13383.12
553.053	13264.26
553.417	13301.09
553.78	13368.43
554.143	13212.51
554.507	13361.88
554.87	13244.37
555.234	13313.75
555.597	13231.26
555.96	13233.52
556.323	13224.71
556.686	13152.17
557.05	13249.79
557.413	13250.47
557.776	13287.31
558.139	13233.97
558.502	13184.26
558.865	13226.52
559.228	13233.07
559.59	13287.53
559.953	13273.97
560.316	13312.62
560.679	13257.7
561.041	13271.49
561.404	13250.92
561.767	13393.29
562.129	13223.8
562.492	13338.15
562.854	13303.8
563.217	13412.5
563.579	13278.72
563.941	13373.18
564.304	13396.23
564.666	13457.7
565.028	13408.43
565.39	13432.84
565.753	13520.07
566.115	13466.74
566.477	13485.49
566.839	13569.56
567.201	13534.53
567.563	13578.15
567.925	13596
568.287	13548.09
568.648	13586.96
569.01	13627.86
569.372	13715.54
569.734	13526.4
570.095	13706.05
570.457	13728.42
570.819	13714.87
571.18	13687.52
571.542	13728.65
571.903	13746.28
572.265	13711.7
572.626	13788.08
572.987	13773.17
573.349	13816.11
573.71	13885.26
574.071	13768.2
574.432	13883.22
574.794	13896.33
575.155	13896.56
575.516	13859.95
575.877	13954.63
576.238	13885.71
576.599	13924.8
576.96	13897.69
577.32	13877.8
577.681	13911.47
578.042	13918.7
578.403	13988.08
578.763	13965.71
579.124	14004.58
579.485	14018.81
579.845	14003.9
580.206	14082.09
580.566	13933.39
580.927	13979.49
581.287	13981.53
581.648	14062.43
582.008	14062.88
582.368	13988.98
582.728	14065.36
583.089	13997.8
583.449	14002.99
583.809	14042.09
584.169	13941.75
584.529	13947.85
584.889	14038.92
585.249	13935.65
585.609	13956.89
585.969	14003.9
586.329	13908.76
586.688	13918.25
587.048	13869.89
587.408	13851.81
587.768	13867.86
588.127	13800.06
588.487	13814.3
588.846	13901.08
589.206	13795.09
589.565	13858.82
589.925	13817.69
590.284	13857.01
590.643	13894.52
591.003	13918.7
591.362	13838.7
591.721	13879.61
592.08	13893.84
592.44	13854.52
592.799	13713.06
593.158	13758.93
593.517	13874.86
593.876	13836.67
594.235	13764.81
594.593	13820.4
594.952	13892.71
595.311	13796.22
595.67	13799.16
596.029	13859.27
596.387	13787.63
596.746	13909.44
597.104	13685.94
597.463	13693.4
597.822	13808.2
598.18	13760.97
598.538	13759.16
598.897	13774.3
599.255	13670.35
599.613	13854.07
599.972	13762.77
600.33	13867.63
600.688	13777.46
601.046	13781.98
601.404	13920.51
601.762	13795.99
602.12	13882.09
602.478	13828.99
602.836	13731.59
603.194	13800.06
603.552	13833.28
603.91	13798.48
604.268	13847.29
604.625	13781.3
604.983	13831.7
605.341	13814.52
605.698	13822.89
606.056	13842.32
606.413	13792.83
606.771	13845.94
607.128	13803.22
607.485	13778.59
607.843	13767.97
608.2	13888.19
608.557	13897.69
608.914	13818.59
609.272	13948.08
609.629	13864.47
609.986	13968.19
610.343	13941.98
610.7	14012.94
611.057	13937.46
611.414	13940.62
611.771	13856.33
612.127	14016.1
612.484	14009.55
612.841	14042.31
613.198	13920.28
613.554	14020.85
613.911	14115.08
614.267	14013.61
614.624	13969.77
614.98	14032.37
615.337	14052.71
615.693	14054.52
616.05	14080.96
616.406	14107.4
616.762	14120.28
617.118	14071.24
617.475	14080.73
617.831	14176.77
618.187	14151.24
618.543	14195.98
618.899	14258.13
619.255	14179.94
619.611	14186.94
619.967	14212.48
620.323	14257
620.678	14204.12
621.034	14166.38
621.39	14099.94
621.746	14108.53
622.101	14350.1
622.457	14179.49
622.812	14222.42
623.168	14301.74
623.523	14297.67
623.879	14210.9
624.234	14208.86
624.589	14208.19
624.945	14289.99
625.3	14231.01
625.655	14153.72
626.01	14163.67
626.365	14181.75
626.72	14129.77
627.075	14223.55
627.43	14225.13
627.785	14203.44
628.14	14177.9
628.495	14146.04
628.85	14178.58
629.205	14145.36
629.559	14219.03
629.914	14147.17
630.269	14067.4
630.623	14118.02
630.978	14141.52
631.332	14089.77
631.687	14160.73
632.041	14177.45
632.396	13986.5
632.75	13997.34
633.104	14045.25
633.459	13935.65
633.813	14011.58
634.167	13909.66
634.521	13917.35
634.875	13976.78
635.229	13965.71
635.583	13849.1
635.937	13831.92
636.291	13885.26
636.645	13786.28
636.999	13834.64
637.352	13868.31
637.706	13733.17
638.06	13839.83
638.413	13802.77
638.767	13786.95
639.121	13809.1
639.474	13706.5
639.828	13734.53
640.181	13705.15
640.534	13758.48
640.888	13717.35
641.241	13649.56
641.594	13661.31
641.947	13667.86
642.301	13644.13
642.654	13655.66
643.007	13570.69
643.36	13623.12
643.713	13598.94
644.066	13576.11
644.419	13547.64
644.771	13464.93
645.124	13325.95
645.477	13291.15
645.83	13227.87
646.182	13213.18
646.535	13197.36
646.888	13140.87
647.24	13041.44
647.593	13163.47
647.945	13149
648.298	13058.16
648.65	13021.1
649.002	13009.8
649.355	13145.84
649.707	13102.23
650.059	13155.78
650.411	13319.62
650.763	13338.38
651.115	13480.07
651.467	13397.81
651.819	13439.17
652.171	13402.11
652.523	13400.07
652.875	13385.16
653.227	13312.39
653.578	13452.95
653.93	13465.61
654.282	13325.95
654.633	13363.46
654.985	13380.41
655.337	13327.53
655.688	13355.1
656.039	13415.66
656.391	13299.96
656.742	13377.7
657.094	13332.95
657.445	13379.73
657.796	13393.07
658.147	13356.23
658.498	13361.65
658.849	13324.14
659.2	13327.98
659.551	13323.01
659.902	13330.92
660.253	13389.9
660.604	13372.95
660.955	13369.79
661.306	13348.77
661.656	13374.99
662.007	13478.94
662.358	13367.3
662.708	13358.94
663.059	13377.02
663.409	13289.34
663.76	13509.22
664.11	13430.13
664.461	13448.66
664.811	13379.96
665.161	13387.87
665.511	13290.92
665.862	13410.01
666.212	13459.96
666.562	13414.99
666.912	13322.79
667.262	13311.03
667.612	13389.9
667.962	13398.94
668.312	13342.22
668.662	13431.03
669.011	13438.26
669.361	13361.2
669.711	13273.52
670.06	13312.62
670.41	13383.35
670.76	13290.24
671.109	13355.78
671.459	13408.66
671.808	13271.26
672.157	13297.02
672.507	13258.83
672.856	13358.94
673.205	13277.81
673.554	13338.6
673.904	13209.79
674.253	13281.66
674.602	13319.85
674.951	13082.34
675.3	13050.7
675.649	13175.9
675.998	13193.75
676.346	13216.35
676.695	13294.99
677.044	12987.2
677.393	13201.66
677.741	13074.43
678.09	13093.86
678.438	12995.34
678.787	13090.48
679.135	13087.99
679.484	12977.26
679.832	12963.7
680.181	12970.7
680.529	12990.36
680.877	12972.96
681.225	12985.17
681.573	13044.15
681.922	12902.91
682.27	12836.92
682.618	12940.65
682.966	12868.79
683.314	12823.82
683.661	12803.48
684.009	12709.02
684.357	12749.24
684.705	12692.52
685.053	12682.35
685.4	12738.62
685.748	12600.77
686.095	12612.75
686.443	12578.4
686.79	12535.69
687.138	12565.52
687.485	12519.64
687.832	12530.04
688.18	12476.48
688.527	12440.1
688.874	12374.79
689.221	12381.12
689.568	12367.1
689.915	12302.47
690.262	12280.33
690.609	12265.19
690.956	12151.97
691.303	12201.46
691.65	12092.08
691.997	12111.74
692.344	12038.3
692.69	12004.63
693.037	11956.04
693.383	11864.97
693.73	11910.62
694.077	11822.26
694.423	11822.49
694.769	11814.12
695.116	11771.87
695.462	11694.35
695.808	11695.48
696.155	11664.75
696.501	11539.78
696.847	11600.12
697.193	11471.99
697.539	11473.12
697.885	11461.82
698.231	11434.47
698.577	11420.69
698.923	11323.29
699.269	11271.99
699.614	11240.81
699.96	11168.49
700.306	11212.56
700.651	11161.49
700.997	11130.75
701.342	11065.44
701.688	11064.54
702.033	11027.03
702.379	10972.56
702.724	10972.56
703.069	10926.92
703.415	10799.46
703.76	10767.6
704.105	10763.08
704.45	10771.21
704.795	10711.78
705.14	10699.58
705.485	10707.03
705.83	10665.91
706.175	10597.21
706.52	10521.95
706.865	10610.09
707.209	10490.54
707.554	10462.3
707.899	10557.66
708.243	10481.28
708.588	10362.41
708.932	10300.49
709.277	10324.9
709.621	10317.21
709.966	10302.75
710.31	10287.84
710.654	10225.01
710.998	10222.98
711.342	10145.92
711.687	10171.23
712.031	10131.91
712.375	10076.77
712.719	10081.29
713.063	10060.27
713.407	10047.39
713.75	10067.73
714.094	9986.83
714.438	10004.91
714.782	9992.03
715.125	9933.27
715.469	9933.27
715.812	9898.24
716.156	9776.89
716.499	9811.24
716.843	9890.33
717.186	9786.38
717.53	9843.78
717.873	9836.55
718.216	9824.8
718.559	9690.34
718.902	9712.26
719.246	9716.33
719.589	9727.4
719.932	9679.27
720.275	9690.11
720.617	9681.3
720.96	9700.96
721.303	9667.97
721.646	9690.34
721.989	9620.51
722.331	9610.34
722.674	9622.09
723.016	9599.49
723.359	9538.03
723.701	9574.41
724.044	9611.92
724.386	9491.47
724.729	9597.01
725.071	9566.73
725.413	9535.99
725.755	9491.25
726.097	9497.8
726.439	9421.19
726.782	9408.09
727.124	9465.94
727.465	9514.3
727.807	9458.25
728.149	9474.07
728.491	9405.37
728.833	9443.79
729.175	9374.64
729.516	9366.51
729.858	9415.54
730.199	9390.46
730.541	9343.23
730.882	9326.73
731.224	9350.46
731.565	9293.96
731.906	9325.83
732.248	9359.27
732.589	9352.49
732.93	9369.89
733.271	9332.61
733.612	9368.54
733.953	9340.29
734.294	9288.32
734.635	9305.72
734.976	9339.84
735.317	9305.49
735.658	9332.16
735.999	9287.86
736.339	9285.6
736.68	9336.22
737.021	9273.85
737.361	9285.38
737.702	9317.24
738.042	9231.14
738.383	9254.64
738.723	9308.88
739.063	9333.96
739.404	9385.94
739.744	9316.11
740.084	9332.83
740.424	9365.83
740.764	9392.72
741.104	9380.29
741.444	9388.88
741.784	9362.89
742.124	9400.85
742.464	9411.7
742.804	9432.49
743.143	9449.89
743.483	9476.33
743.823	9481.76
744.162	9489.44
744.502	9459.16
744.841	9499.16
745.181	9613.73
745.52	9564.24
745.86	9650.34
746.199	9635.65
746.538	9695.76
746.877	9758.59
747.216	9832.48
747.556	9792.93
747.895	9849.43
748.234	9892.37
748.573	9894.85
748.911	9913.84
749.25	9998.8
749.589	10104.34
749.928	10122.42
750.267	10225.24
750.605	10242.19
750.944	10309.76
751.283	10327.84
751.621	10489.87
751.96	10457.55
752.298	10578.45
752.636	10686.24
752.975	10765.56
753.313	10789.97
753.651	10894.37
753.989	10959.23
754.327	11107.7
754.666	11136.63
755.004	11281.48
755.342	11440.57
755.679	11529.84
756.017	11633.79
756.355	11768.48
756.693	11858.42
757.031	12039.2
757.368	12057.28
757.706	12284.39
