Data from hue_190_FLMS001491_00039.txt Node
Date: Tue Feb 07 16:45:13 GMT 2017
User: dcchb
Spectrometer: FLMS00149
Trigger mode: 0
Integration Time (sec): 2.000000E-2
Scans to average: 10
Electric dark correction enabled: true
Nonlinearity correction enabled: false
Boxcar width: 0
XAxis mode: Wavelengths
Number of Pixels in Spectrum: 2048
>>>>>Begin Spectral Data<<<<<
341.393	-9.89
341.776	-9.89
342.16	-9.89
342.543	-52.37
342.927	-58.93
343.31	-87.4
343.693	-73.84
344.077	-75.42
344.46	-55.31
344.843	-51.47
345.226	-35.87
345.61	-26.16
345.993	-27.06
346.376	-4.69
346.759	8.42
347.142	38.02
347.525	48.87
347.908	54.52
348.291	82.09
348.674	103.56
349.057	101.75
349.44	131.8
349.823	145.82
350.206	153.72
350.588	177.9
350.971	205.02
351.354	229.43
351.737	253.84
352.119	264.46
352.502	264
352.884	274.17
353.267	297.9
353.65	271.24
354.032	291.57
354.414	307.17
354.797	308.07
355.179	311.46
355.562	305.36
355.944	313.72
356.326	318.92
356.709	331.8
357.091	302.65
357.473	332.25
357.855	320.27
358.238	352.14
358.62	359.14
359.002	324.79
359.384	327.96
359.766	333.61
360.148	315.75
360.53	324.12
360.912	334.51
361.294	310.33
361.676	334.74
362.057	318.01
362.439	325.02
362.821	316.88
363.203	329.99
363.584	337.45
363.966	325.7
364.348	333.16
364.729	301.07
365.111	313.72
365.493	304.23
365.874	337.67
366.256	314.62
366.637	306.94
367.019	306.49
367.4	310.78
367.781	304.23
368.163	304.23
368.544	299.03
368.925	307.39
369.306	313.49
369.688	315.75
370.069	302.87
370.45	310.1
370.831	319.14
371.212	299.71
371.593	283.44
371.974	313.72
372.355	294.29
372.736	304.46
373.117	312.82
373.498	335.41
373.879	312.59
374.26	327.05
374.641	333.83
375.021	314.85
375.402	316.21
375.783	320.95
376.163	310.78
376.544	322.53
376.925	320.73
377.305	320.73
377.686	315.08
378.066	329.77
378.447	329.77
378.827	320.05
379.208	334.96
379.588	327.96
379.968	341.06
380.349	314.85
380.729	323.44
381.109	328.18
381.489	327.51
381.87	322.53
382.25	347.84
382.63	333.16
383.01	337.67
383.39	321.18
383.77	352.82
384.15	339.93
384.53	344.23
384.91	353.27
385.29	337.67
385.67	346.94
386.049	345.81
386.429	373.15
386.809	347.39
387.189	317.11
387.568	355.75
387.948	341.06
388.328	339.48
388.707	376.09
389.087	337.45
389.466	355.75
389.846	360.95
390.225	357.79
390.605	371.57
390.984	376.09
391.363	360.72
391.743	337.9
392.122	388.75
392.501	369.99
392.881	363.21
393.26	368.18
393.639	375.41
394.018	352.36
394.397	361.63
394.776	389.65
395.155	394.85
395.534	380.16
395.913	391.91
396.292	393.49
396.671	413.6
397.05	379.03
397.429	354.62
397.808	388.97
398.186	375.64
398.565	373.61
398.944	398.01
399.323	381.52
399.701	396.43
400.08	398.24
400.458	404.79
400.837	408.63
401.215	412.02
401.594	413.15
401.972	410.22
402.351	403.44
402.729	400.95
403.107	418.58
403.486	412.02
403.864	421.51
404.242	431.01
404.62	423.32
404.999	434.62
405.377	455.64
405.755	448.63
406.133	425.36
406.511	445.24
406.889	448.63
407.267	459.03
407.645	459.03
408.023	451.57
408.401	464.68
408.779	475.52
409.156	459.03
409.534	467.84
409.912	483.21
410.29	503.55
410.667	505.58
411.045	537.22
411.422	500.83
411.8	520.49
412.178	527.05
412.555	546.93
412.933	539.48
413.31	544.45
413.687	571.79
414.065	564.79
414.442	546.48
414.819	586.03
415.197	569.31
415.574	574.96
415.951	605.24
416.328	625.58
416.705	610.66
417.082	604.33
417.46	621.06
417.837	642.53
418.214	637.55
418.591	653.15
418.967	669.87
419.344	657.21
419.721	674.16
420.098	699.02
420.475	695.63
420.852	715.29
421.228	700.83
421.605	720.04
421.982	731.11
422.358	750.55
422.735	778.34
423.111	777.44
423.488	801.62
423.864	775.86
424.241	815.85
424.617	803.65
424.994	823.31
425.37	855.4
425.746	851.33
426.123	897.66
426.499	879.13
426.875	901.95
427.251	917.55
427.627	928.85
428.003	937.43
428.379	925.68
428.756	945.34
429.132	932.24
429.507	960.26
429.883	1002.74
430.259	995.51
430.635	973.82
431.011	1009.52
431.387	1062.18
431.763	1028.05
432.138	1062.18
432.514	1043.87
432.89	1090.65
433.265	1121.61
433.641	1134.49
434.016	1142.17
434.392	1176.52
434.767	1209.52
435.143	1165.9
435.518	1263.07
435.894	1238.67
436.269	1275.96
436.644	1278.89
437.02	1328.84
437.395	1322.96
437.77	1360.02
438.145	1352.11
438.52	1396.86
438.895	1404.99
439.271	1414.48
439.646	1435.95
440.021	1493.12
440.395	1500.13
440.77	1474.82
441.145	1506.46
441.52	1547.13
441.895	1550.75
442.27	1597.98
442.645	1612.22
443.019	1615.61
443.394	1636.17
443.769	1641.14
444.143	1629.39
444.518	1660.13
444.892	1672.1
445.267	1706.23
445.641	1742.16
446.016	1698.99
446.39	1737.86
446.764	1741.03
447.139	1755.94
447.513	1758.43
447.887	1804.3
448.262	1828.03
448.636	1797.52
449.01	1857.86
449.384	1854.02
449.758	1858.76
450.132	1912.1
450.506	1907.8
450.88	1917.52
451.254	1947.58
451.628	1969.27
452.002	1995.26
452.376	2028.48
452.75	1996.61
453.123	2018.99
453.497	2049.04
453.871	2090.4
454.244	2124.29
454.618	2152.54
454.992	2175.82
455.365	2191.86
455.739	2237.74
456.112	2229.38
456.486	2305.08
456.859	2282.48
457.232	2333.1
457.606	2355.25
457.979	2370.62
458.352	2438.64
458.725	2422.37
459.099	2449.03
459.472	2550.5
459.845	2518.63
460.218	2554.79
460.591	2593.66
460.964	2580.78
461.337	2667.11
461.71	2697.84
462.083	2684.73
462.456	2729.7
462.829	2776.71
463.201	2797.05
463.574	2796.82
463.947	2868.68
464.32	2917.04
464.692	2942.8
465.065	2981.45
465.438	3021.9
465.81	3020.77
466.183	3074.1
466.555	3143.02
466.928	3167.88
467.3	3181.89
467.672	3242.91
468.045	3333.98
468.417	3330.36
468.789	3335.56
469.161	3412.85
469.534	3454.88
469.906	3555.67
470.278	3567.65
470.65	3602.67
471.022	3645.16
471.394	3763.57
471.766	3733.29
472.138	3807.87
472.51	3885.15
472.882	3994.3
473.253	3984.58
473.625	4097.8
473.997	4181.19
474.369	4212.15
474.74	4215.76
475.112	4337.12
475.484	4436.1
475.855	4463.44
476.227	4505.7
476.598	4606.49
476.97	4685.36
477.341	4792.25
477.713	4880.38
478.084	4897.78
478.455	5004.67
478.827	5058.23
479.198	5237.66
479.569	5219.35
479.94	5387.26
480.311	5448.73
480.682	5540.93
481.053	5651.89
481.424	5821.6
481.795	5837.19
482.166	5900.01
482.537	6017.07
482.908	6108.6
483.279	6208.48
483.65	6317.63
484.021	6442.15
484.391	6525.76
484.762	6560.56
485.133	6643.72
485.503	6770.27
485.874	6927.11
486.244	6914.9
486.615	7065.86
486.985	7108.12
487.356	7251.62
487.726	7298.17
488.097	7507.43
488.467	7530.48
488.837	7709.68
489.207	7798.72
489.578	7927.76
489.948	7869.68
490.318	8073.74
490.688	8054.53
491.058	8149.9
491.428	8306.28
491.798	8367.07
492.168	8514.41
492.538	8544.24
492.908	8622.65
493.278	8767.96
493.648	8771.58
494.017	8894.96
494.387	8935.64
494.757	9051.8
495.126	9085.92
495.496	9100.61
495.866	9205.46
496.235	9254.05
496.605	9313.94
496.974	9409.98
497.344	9382.41
497.713	9476.64
498.082	9544.44
498.452	9701.5
498.821	9622.4
499.19	9614.49
499.559	9698.78
499.928	9792.79
500.298	9763.87
500.667	9882.28
501.036	9844.32
501.405	9950.3
501.774	9915.95
502.143	10015.16
502.512	10038.89
502.88	10089.06
503.249	10099.23
503.618	10159.56
503.987	10169.96
504.356	10136.06
504.724	10258.09
505.093	10233.46
505.462	10227.81
505.83	10306.45
506.199	10384.42
506.567	10557.29
506.936	10399.78
507.304	10536.95
507.672	10469.16
508.041	10556.84
508.409	10641.13
508.777	10668.93
509.145	10731.3
509.514	10663.28
509.882	10600.91
510.25	10626.44
510.618	10714.58
510.986	10675.71
511.354	10842.03
511.722	10843.39
512.09	10841.13
512.458	10835.93
512.826	10855.14
513.193	10895.59
513.561	10929.71
513.929	10960.45
514.297	10919.77
514.664	11013.78
515.032	11052.42
515.4	11040.67
515.767	11002.48
516.135	11078.64
516.502	10961.58
516.869	11046.32
517.237	11084.74
517.604	11037.28
517.972	11057.84
518.339	11115.02
518.706	11103.04
519.073	11139.2
519.44	11159.76
519.808	11195.92
520.175	11097.39
520.542	11196.6
520.909	11225.3
521.276	11164.06
521.643	11207.45
522.009	11170.16
522.376	11255.35
522.743	11226.2
523.11	11222.81
523.477	11300.1
523.843	11244.73
524.21	11289.48
524.577	11229.37
524.943	11270.95
525.31	11299.65
525.676	11341.23
526.043	11307.33
526.409	11303.49
526.776	11412.64
527.142	11318.85
527.508	11336.93
527.874	11318.18
528.241	11327.22
528.607	11285.64
528.973	11336.93
529.339	11207.45
529.705	11268.23
530.071	11276.82
530.437	11201.8
530.803	11249.48
531.169	11251.29
531.535	11121.35
531.901	11119.09
532.267	11159.09
532.632	11163.6
532.998	11077.51
533.364	11047.45
533.73	11005.87
534.095	10991.41
534.461	11010.84
534.826	10979.43
535.192	10937.62
535.557	10946.44
535.923	10883.61
536.288	10785.76
536.653	10829.15
537.019	10684.07
537.384	10691.98
537.749	10604.98
538.114	10555.03
538.479	10509.16
538.845	10504.19
539.21	10495.15
539.575	10514.81
539.94	10374.92
540.305	10434.36
540.67	10326.11
541.034	10257.64
541.399	10242.27
541.764	10146.46
542.129	10167.02
542.494	10082.73
542.858	10034.59
543.223	9981.04
543.587	10032.79
543.952	9917.76
544.316	9860.81
544.681	9805.45
545.045	9745.34
545.41	9714.15
545.774	9623.98
546.138	9599.8
546.503	9580.82
546.867	9507.83
547.231	9480.94
547.595	9491.78
547.959	9442.75
548.324	9374.73
548.688	9292.92
549.052	9235.52
549.416	9206.37
549.779	9199.81
550.143	9216.09
550.507	9091.57
550.871	9042.53
551.235	8985.58
551.599	8993.27
551.962	8927.28
552.326	8904.91
552.689	8922.08
553.053	8759.6
553.417	8799.83
553.78	8820.62
554.143	8727.74
554.507	8664.91
554.87	8614.29
555.234	8703.78
555.597	8570
555.96	8609.32
556.323	8544.24
556.686	8500.85
557.05	8506.5
557.413	8454.52
557.776	8416.78
558.139	8377.01
558.502	8314.64
558.865	8359.38
559.228	8358.48
559.59	8320.29
559.953	8330.46
560.316	8299.5
560.679	8262.44
561.041	8245.94
561.404	8251.59
561.767	8243.46
562.129	8189.67
562.492	8213.63
562.854	8189.67
563.217	8122.1
563.579	8184.47
563.941	8153.29
564.304	8145.61
564.666	8108.54
565.028	8124.59
565.39	8134.53
565.753	8160.97
566.115	8094.76
566.477	8127.75
566.839	8089.11
567.201	8147.41
567.563	8126.4
567.925	8110.8
568.287	8077.58
568.648	8053.4
569.01	8123.46
569.372	8112.16
569.734	8081.43
570.095	8090.24
570.457	8120.75
570.819	8119.84
571.18	8077.58
571.542	8073.06
571.903	8100.63
572.265	8089.11
572.626	8060.18
572.987	8080.3
573.349	8067.64
573.71	8011.82
574.071	8075.55
574.432	8103.57
574.794	8090.01
575.155	8069.45
575.516	8055.21
575.877	8100.86
576.238	8089.79
576.599	8106.96
576.96	8055.66
577.32	8065.83
577.681	8069.22
578.042	8030.58
578.403	8061.54
578.763	8103.12
579.124	8026.29
579.485	8027.42
579.845	8050.01
580.206	8079.84
580.566	7984.93
580.927	8011.82
581.287	8007.53
581.648	7975.67
582.008	8009.34
582.368	7989
582.728	8016.79
583.089	7976.8
583.449	7947.64
583.809	7949
584.169	7989.68
584.529	7934.31
584.889	7988.77
585.249	7925.05
585.609	7890.47
585.969	7919.85
586.329	7910.81
586.688	7841.88
587.048	7881.43
587.408	7856.12
587.768	7870.58
588.127	7796.91
588.487	7836.91
588.846	7899.06
589.206	7820.64
589.565	7777.03
589.925	7862.45
590.284	7799.4
590.643	7808.89
591.003	7843.69
591.362	7847.99
591.721	7801.21
592.08	7786.07
592.44	7814.09
592.799	7774.99
593.158	7738.84
593.517	7760.08
593.876	7758.5
594.235	7744.94
594.593	7750.81
594.952	7712.17
595.311	7658.39
595.67	7759.85
596.029	7767.76
596.387	7682.57
596.746	7725.28
597.104	7645.96
597.463	7645.96
597.822	7675.11
598.18	7664.71
598.538	7618.39
598.897	7651.38
599.255	7620.65
599.613	7739.74
599.972	7683.47
600.33	7651.61
600.688	7653.87
601.046	7659.06
601.404	7683.47
601.762	7607.99
602.12	7680.76
602.478	7684.37
602.836	7672.17
603.194	7650.02
603.552	7625.84
603.91	7635.79
604.268	7560.99
604.625	7544.26
604.983	7577.71
605.341	7556.24
605.698	7637.14
606.056	7642.79
606.413	7651.15
606.771	7608.9
607.128	7650.02
607.485	7642.79
607.843	7553.53
608.2	7715.11
608.557	7682.79
608.914	7615
609.272	7638.27
609.629	7625.62
609.986	7652.51
610.343	7637.14
610.7	7738.84
611.057	7688.22
611.414	7590.37
611.771	7630.14
612.127	7668.33
612.484	7685.28
612.841	7689.35
613.198	7617.03
613.554	7627.43
613.911	7690.48
614.267	7660.65
614.624	7670.82
614.98	7662
615.337	7716.01
615.693	7731.83
616.05	7723.02
616.406	7805.95
616.762	7732.06
617.118	7670.14
617.475	7708.33
617.831	7688.67
618.187	7757.14
618.543	7748.55
618.899	7724.83
619.255	7771.6
619.611	7747.2
619.967	7795.33
620.323	7833.3
620.678	7782.22
621.034	7775.22
621.39	7774.99
621.746	7746.75
622.101	7795.56
622.457	7757.82
622.812	7718.05
623.168	7725.96
623.523	7740.64
623.879	7726.63
624.234	7795.33
624.589	7715.56
624.945	7795.78
625.3	7744.71
625.655	7776.8
626.01	7696.13
626.365	7724.83
626.72	7709.01
627.075	7716.24
627.43	7720.76
627.785	7695.9
628.14	7740.87
628.495	7749.01
628.85	7704.26
629.205	7675.11
629.559	7734.09
629.914	7695.9
630.269	7683.24
630.623	7631.49
630.978	7590.59
631.332	7706.29
631.687	7638.95
632.041	7666.75
632.396	7691.15
632.75	7637.14
633.104	7646.18
633.459	7627.43
633.813	7612.51
634.167	7581.55
634.521	7600.99
634.875	7531.61
635.229	7590.14
635.583	7539.97
635.937	7512.63
636.291	7525.73
636.645	7582.68
636.999	7432.63
637.352	7451.39
637.706	7463.36
638.06	7468.56
638.413	7451.39
638.767	7483.93
639.121	7507.43
639.474	7409.13
639.828	7352.18
640.181	7494.1
640.534	7461.78
640.888	7434.44
641.241	7359.19
641.594	7419.07
641.947	7372.74
642.301	7372.07
642.654	7425.62
643.007	7412.52
643.36	7399.41
643.713	7389.01
644.066	7370.26
644.419	7363.48
644.771	7328.45
645.124	7281.22
645.477	7237.15
645.83	7216.14
646.182	7202.35
646.535	7121.23
646.888	7189.25
647.24	7083.26
647.593	7178.62
647.945	7153.77
648.298	7040.32
648.65	7076.71
649.002	7063.83
649.355	7115.35
649.707	7099.53
650.059	7167.78
650.411	7244.61
650.763	7232.18
651.115	7298.4
651.467	7277.38
651.819	7254.1
652.171	7296.14
652.523	7225.86
652.875	7264.27
653.227	7231.96
653.578	7354.89
653.93	7318.73
654.282	7298.4
654.633	7241
654.985	7309.69
655.337	7278.28
655.688	7273.99
656.039	7332.07
656.391	7275.35
656.742	7309.92
657.094	7300.88
657.445	7281.67
657.796	7288.23
658.147	7322.58
658.498	7270.37
658.849	7291.84
659.2	7263.59
659.551	7273.99
659.902	7308.11
660.253	7328.45
660.604	7368
660.955	7294.55
661.306	7296.14
661.656	7331.84
662.007	7297.72
662.358	7361.9
662.708	7340.65
663.059	7330.03
663.409	7292.29
663.76	7361.22
664.11	7362.12
664.461	7372.52
664.811	7387.21
665.161	7331.16
665.511	7332.97
665.862	7384.04
666.212	7351.95
666.562	7384.95
666.912	7388.79
667.262	7377.26
667.612	7368.68
667.962	7377.04
668.312	7364.61
668.662	7396.25
669.011	7345.4
669.361	7358.28
669.711	7285.51
670.06	7339.52
670.41	7357.15
670.76	7233.31
671.109	7372.74
671.459	7363.93
671.808	7369.13
672.157	7361.67
672.507	7269.02
672.856	7276.7
673.205	7292.52
673.554	7303.59
673.904	7238.96
674.253	7314.89
674.602	7334.55
674.951	7169.81
675.3	7193.77
675.649	7229.92
675.998	7244.39
676.346	7230.37
676.695	7251.62
677.044	7225.86
677.393	7229.92
677.741	7253.43
678.09	7236.48
678.438	7219.75
678.787	7165.97
679.135	7168
679.484	7132.07
679.832	7169.13
680.181	7145.41
680.529	7111.73
680.877	7101.11
681.225	7097.72
681.573	7134.78
681.922	7101.79
682.27	7071.96
682.618	7083.03
682.966	7052.75
683.314	7060.66
683.661	6997.16
684.009	6966.88
684.357	7047.78
684.705	6982.7
685.053	6984.05
685.4	6932.08
685.748	6937.73
686.095	6883.49
686.443	6857.73
686.79	6887.56
687.138	6815.47
687.485	6878.29
687.832	6807.34
688.18	6860.22
688.527	6782.25
688.874	6755.59
689.221	6776.6
689.568	6700.9
689.915	6725.53
690.262	6675.14
690.609	6679.65
690.956	6663.61
691.303	6664.51
691.65	6604.85
691.997	6636.72
692.344	6542.03
692.69	6533.44
693.037	6514.91
693.383	6486.21
693.73	6493.9
694.077	6439.21
694.423	6390.62
694.769	6419.32
695.116	6385.43
695.462	6452.77
695.808	6349.04
696.155	6358.31
696.501	6318.53
696.847	6260.91
697.193	6273.11
697.539	6309.95
697.885	6284.19
698.231	6204.41
698.577	6240.12
698.923	6203.74
699.269	6188.37
699.614	6084.42
699.96	6139.78
700.306	6128.03
700.651	6055.49
700.997	5978.66
701.342	5993.57
701.688	5936.17
702.033	5952.89
702.379	5980.69
702.724	5954.93
703.069	5950.63
703.415	5888.72
703.76	5814.82
704.105	5878.55
704.45	5875.83
704.795	5810.07
705.14	5770.07
705.485	5774.82
705.83	5737.98
706.175	5737.76
706.52	5699.12
706.865	5718.32
707.209	5674.03
707.554	5633.81
707.899	5700.7
708.243	5641.72
708.588	5606.24
708.932	5608.95
709.277	5588.38
709.621	5570.76
709.966	5555.16
710.31	5526.24
710.654	5479.91
710.998	5525.79
711.342	5545.9
711.687	5521.27
712.031	5456.18
712.375	5451.21
712.719	5429.29
713.063	5428.16
713.407	5421.83
713.75	5362.63
714.094	5410.54
714.438	5336.41
714.782	5374.15
715.125	5383.87
715.469	5352.46
715.812	5339.58
716.156	5330.31
716.499	5286.92
716.843	5320.82
717.186	5292.12
717.53	5274.72
717.873	5337.32
718.216	5287.83
718.559	5272.01
718.902	5231.56
719.246	5277.66
719.589	5314.49
719.932	5239.24
720.275	5251.9
720.617	5252.12
720.96	5250.77
721.303	5259.58
721.646	5277.43
721.989	5220.03
722.331	5241.5
722.674	5252.57
723.016	5235.63
723.359	5206.25
723.701	5281.73
724.044	5173.48
724.386	5172.8
724.729	5175.06
725.071	5157.21
725.413	5152.01
725.755	5212.12
726.097	5140.03
726.439	5151.33
726.782	5182.75
727.124	5154.95
727.465	5187.94
727.807	5148.17
728.149	5136.87
728.491	5124.89
728.833	5164.89
729.175	5152.24
729.516	5121.05
729.858	5121.5
730.199	5141.39
730.541	5147.94
730.882	5150.88
731.224	5138
731.565	5147.49
731.906	5151.79
732.248	5151.79
732.589	5116.98
732.93	5083.54
733.271	5144.55
733.612	5158.11
733.953	5153.82
734.294	5184.33
734.635	5181.62
734.976	5164.44
735.317	5167.38
735.658	5113.82
735.999	5139.81
736.339	5135.06
736.68	5192.91
737.021	5109.98
737.361	5173.93
737.702	5141.39
738.042	5146.59
738.383	5171.22
738.723	5221.16
739.063	5212.35
739.404	5197.89
739.744	5227.04
740.084	5251.44
740.424	5239.01
740.764	5258.9
741.104	5286.47
741.444	5358.11
741.784	5277.88
742.124	5317.66
742.464	5318.79
742.804	5335.06
743.143	5328.05
743.483	5367.6
743.823	5388.39
744.162	5450.53
744.502	5445.11
744.841	5462.74
745.181	5540.02
745.52	5535.96
745.86	5543.19
746.199	5538.89
746.538	5648.72
746.877	5677.87
747.216	5720.36
747.556	5714.26
747.895	5822.05
748.234	5801.03
748.573	5801.03
748.911	5877.42
749.25	5956.74
749.589	6020.92
749.928	6098.2
750.267	6137.3
750.605	6201.7
750.944	6242.38
751.283	6271.76
751.621	6376.61
751.96	6508.36
752.298	6519.21
752.636	6635.14
752.975	6766.66
753.313	6787
753.651	6934.11
753.989	7055.24
754.327	7088.91
754.666	7190.38
755.004	7321.22
755.342	7454.1
755.679	7579.97
756.017	7725.28
756.355	7843.47
756.693	7961.88
757.031	8090.69
757.368	8219.5
757.706	8340.18
758.044	8514.86
758.381	8739.94
758.719	8854.51
759.056	8967.73
759.394	9183.09
759.731	9287.5
760.068	9422.41
760.405	9590.76
760.743	9671.21
761.08	9940.13
761.417	10079.79
761.754	10271.65
762.091	10373.34
762.428	10610.85
762.765	10690.62
763.102	10952.31
763.438	11030.95
763.775	11160.89
764.112	11419.64
764.449	11592.52
764.785	11770.82
765.122	11899.18
765.458	12039.51
765.795	12152.05
766.131	12374.19
766.467	12474.53
