Data from hue_320_FLMS001491_79.txt Node
Date: Mon Feb 06 15:47:41 GMT 2017
User: dcchb
Spectrometer: FLMS00149
Trigger mode: 0
Integration Time (sec): 2.000000E-2
Scans to average: 10
Electric dark correction enabled: true
Nonlinearity correction enabled: false
Boxcar width: 0
XAxis mode: Wavelengths
Number of Pixels in Spectrum: 2048
>>>>>Begin Spectral Data<<<<<
341.393	-18.02
341.776	-18.02
342.16	-18.02
342.543	-75.42
342.927	-61.41
343.31	-74.29
343.693	-68.87
344.077	-58.25
344.46	-65.03
344.843	-59.15
345.226	-35.65
345.61	-37.23
345.993	-24.8
346.376	-15.31
346.759	20.62
347.142	47.51
347.525	30.79
347.908	42.09
348.291	88.19
348.674	92.94
349.057	116.44
349.44	123.67
349.823	134.74
350.206	159.83
350.588	186.94
350.971	221.75
351.354	240.5
351.737	214.29
352.119	234.63
352.502	264.23
352.884	268.07
353.267	269.88
353.65	292.25
354.032	298.35
354.414	297.68
354.797	280.05
355.179	330.67
355.562	316.21
355.944	318.92
356.326	321.4
356.709	341.97
357.091	330.9
357.473	349.43
357.855	322.76
358.238	331.35
358.62	339.26
359.002	326.6
359.384	326.38
359.766	338.58
360.148	351.69
360.53	356.66
360.912	344.45
361.294	330.67
361.676	327.05
362.057	347.84
362.439	334.74
362.821	332.7
363.203	327.05
363.584	305.59
363.966	326.15
364.348	289.99
364.729	327.73
365.111	322.08
365.493	316.88
365.874	313.95
366.256	291.12
366.637	309.43
367.019	292.93
367.4	321.86
367.781	314.85
368.163	322.31
368.544	301.07
368.925	302.65
369.306	310.33
369.688	318.69
370.069	307.39
370.45	309.2
370.831	313.04
371.212	299.26
371.593	312.14
371.974	304.23
372.355	308.75
372.736	301.74
373.117	315.3
373.498	327.05
373.879	311.91
374.26	287.05
374.641	294.29
375.021	310.56
375.402	331.8
375.783	319.37
376.163	317.11
376.544	318.01
376.925	328.41
377.305	327.51
377.686	317.34
378.066	325.7
378.447	320.95
378.827	324.12
379.208	333.16
379.588	331.57
379.968	304.68
380.349	332.7
380.729	337.45
381.109	319.37
381.489	327.73
381.87	315.98
382.25	335.87
382.63	334.06
383.01	322.31
383.39	337.45
383.77	329.31
384.15	340.84
384.53	342.19
384.91	310.56
385.29	310.78
385.67	341.97
386.049	342.19
386.429	337.9
386.809	347.62
387.189	337
387.568	349.88
387.948	349.43
388.328	339.26
388.707	343.78
389.087	352.82
389.466	358.01
389.846	365.92
390.225	361.63
390.605	369.76
390.984	359.14
391.363	357.79
391.743	349.43
392.122	352.59
392.501	350.56
392.881	373.38
393.26	372.48
393.639	354.85
394.018	355.3
394.397	384
394.776	354.17
395.155	383.78
395.534	367.05
395.913	371.12
396.292	376.32
396.671	379.03
397.05	366.6
397.429	390.1
397.808	390.1
398.186	371.8
398.565	384.68
398.944	372.7
399.323	377.67
399.701	385.13
400.08	393.94
400.458	373.83
400.837	403.89
401.215	392.14
401.594	380.84
401.972	409.54
402.351	393.94
402.729	396.88
403.107	384.68
403.486	406.6
403.864	409.54
404.242	390.1
404.62	428.07
404.999	399.14
405.377	416.54
405.755	420.38
406.133	431.23
406.511	421.74
406.889	427.84
407.267	429.88
407.645	438.24
408.023	459.48
408.401	447.28
408.779	442.53
409.156	438.92
409.534	457.67
409.912	448.41
410.29	464.23
410.667	468.07
411.045	493.15
411.422	467.16
411.8	487.05
412.178	488.86
412.555	478.91
412.933	499.03
413.31	496.09
413.687	530.21
414.065	513.26
414.442	539.93
414.819	544.67
415.197	534.28
415.574	529.53
415.951	524.34
416.328	536.77
416.705	540.61
417.082	564.56
417.46	565.47
417.837	558.01
418.214	574.73
418.591	587.39
418.967	571.57
419.344	596.88
419.721	590.78
420.098	601.85
420.475	598.46
420.852	616.31
421.228	635.52
421.605	624.45
421.982	639.14
422.358	654.05
422.735	675.07
423.111	633.03
423.488	677.55
423.864	644.79
424.241	683.2
424.617	655.86
424.994	666.71
425.37	666.48
425.746	683.88
426.123	702.41
426.499	699.25
426.875	722.3
427.251	702.18
427.627	725.24
428.003	743.54
428.379	739.7
428.756	765.69
429.132	734.95
429.507	784.22
429.883	799.13
430.259	788.28
430.635	787.15
431.011	798.45
431.387	792.8
431.763	812.01
432.138	794.84
432.514	803.88
432.89	804.78
433.265	853.82
433.641	831.45
434.016	866.25
434.392	901.5
434.767	917.09
435.143	889.75
435.518	894.95
435.894	874.61
436.269	906.02
436.644	919.13
437.02	914.38
437.395	928.17
437.77	918.9
438.145	970.2
438.52	949.41
438.895	959.58
439.271	979.01
439.646	981.95
440.021	1000.03
440.395	1011.78
440.77	1016.98
441.145	990.54
441.52	1012.46
441.895	1016.3
442.27	1016.3
442.645	1024.66
443.019	1020.14
443.394	1031.67
443.769	1052.23
444.143	1007.71
444.518	1061.05
444.892	1055.85
445.267	1044.77
445.641	1092.68
446.016	1057.2
446.39	1070.31
446.764	1065.11
447.139	1053.36
447.513	1091.1
447.887	1085
448.262	1094.27
448.636	1092.46
449.01	1092.46
449.384	1110.31
449.758	1106.47
450.132	1101.04
450.506	1127.03
450.88	1126.13
451.254	1117.32
451.628	1155.51
452.002	1117.09
452.376	1141.72
452.75	1141.5
453.123	1153.25
453.497	1157.31
453.871	1188.05
454.244	1213.36
454.618	1186.92
454.992	1216.97
455.365	1204.54
455.739	1214.26
456.112	1230.98
456.486	1238.44
456.859	1233.7
457.232	1258.78
457.606	1257.88
457.979	1284.77
458.352	1296.97
458.725	1261.72
459.099	1323.86
459.472	1341.26
459.845	1362.05
460.218	1312.34
460.591	1329.51
460.964	1334.03
461.337	1353.47
461.71	1376.29
462.083	1378.78
462.456	1385.56
462.829	1406.12
463.201	1407.25
463.574	1388.95
463.947	1401.6
464.32	1421.71
464.692	1447.02
465.065	1453.8
465.438	1471.66
465.81	1504.42
466.183	1495.38
466.555	1503.29
466.928	1510.07
467.3	1523.63
467.672	1535.16
468.045	1583.97
468.417	1586.91
468.789	1586.23
469.161	1569.96
469.534	1591.2
469.906	1630.3
470.278	1605.66
470.65	1639.56
471.022	1671.65
471.394	1698.77
471.766	1699.45
472.138	1721.82
472.51	1728.15
472.882	1760.01
473.253	1723.85
473.625	1777.18
473.997	1805.43
474.369	1823.96
474.74	1826.22
475.112	1841.36
475.484	1869.84
475.855	1903.28
476.227	1901.02
476.598	1948.71
476.97	1987.57
477.341	1951.87
477.713	1992.77
478.084	1980.12
478.455	2085.65
478.827	2067.57
479.198	2130.17
479.569	2098.76
479.94	2161.36
480.311	2139.89
480.682	2167.01
481.053	2273.67
481.424	2270.73
481.795	2264.4
482.166	2291.97
482.537	2301.46
482.908	2366.1
483.279	2403.16
483.65	2406.32
484.021	2422.59
484.391	2448.58
484.762	2456.94
485.133	2481.35
485.503	2527
485.874	2554.57
486.244	2562.25
486.615	2601.34
486.985	2588.01
487.356	2632.08
487.726	2651.06
488.097	2698.29
488.467	2716.82
488.837	2748.68
489.207	2773.77
489.578	2829.81
489.948	2821.68
490.318	2860.55
490.688	2864.39
491.058	2902.35
491.428	2920.88
491.798	2952.97
492.168	2994.55
492.538	3004.27
492.908	3026.19
493.278	3046.98
493.648	3075.23
494.017	3078.17
494.387	3131.95
494.757	3106.87
495.126	3148.67
495.496	3149.8
495.866	3170.37
496.235	3223.7
496.605	3204.04
496.974	3242.68
497.344	3282
497.713	3263.93
498.082	3291.27
498.452	3308.67
498.821	3308.44
499.19	3270.03
499.559	3375.79
499.928	3365.62
500.298	3385.05
500.667	3411.94
501.036	3414.88
501.405	3432.51
501.774	3431.6
502.143	3459.17
502.512	3440.64
502.88	3465.95
503.249	3475.9
503.618	3472.51
503.987	3539.85
504.356	3513.41
504.724	3533.75
505.093	3512.51
505.462	3537.36
505.83	3571.04
506.199	3610.81
506.567	3622.79
506.936	3638.83
507.304	3622.33
507.672	3629.34
508.041	3670.02
508.409	3666.4
508.777	3666.17
509.145	3732.61
509.514	3697.81
509.882	3744.59
510.25	3742.56
510.618	3729.45
510.986	3728.09
511.354	3770.13
511.722	3801.09
512.09	3769
512.458	3808.54
512.826	3856.23
513.193	3825.94
513.561	3841.99
513.929	3843.12
514.297	3877.47
514.664	3880.41
515.032	3882.67
515.4	3883.8
515.767	3875.21
516.135	3950.46
516.502	3938.03
516.869	3919.5
517.237	3936.68
517.604	3901.87
517.972	4013.06
518.339	3997.01
518.706	3936.45
519.073	3946.62
519.44	3983.45
519.808	4032.94
520.175	4003.57
520.542	4074.3
520.909	4077.46
521.276	4088.31
521.643	4053.96
522.009	4102.32
522.376	4155.2
522.743	4158.37
523.11	4150
523.477	4189.55
523.843	4208.31
524.21	4188.19
524.577	4245.59
524.943	4308.87
525.31	4265.26
525.676	4318.81
526.043	4307.97
526.409	4342.54
526.776	4380.05
527.142	4356.33
527.508	4384.35
527.874	4406.72
528.241	4435.42
528.607	4425.02
528.973	4488.07
529.339	4445.59
529.705	4554.29
530.071	4528.07
530.437	4609.43
530.803	4549.77
531.169	4626.38
531.535	4619.82
531.901	4601.52
532.267	4647.17
532.632	4646.94
532.998	4671.57
533.364	4686.03
533.73	4652.36
534.095	4738.24
534.461	4741.4
534.826	4740.72
535.192	4763.1
535.557	4832.02
535.923	4834.05
536.288	4859.82
536.653	4903.66
537.019	4854.84
537.384	4911.11
537.749	4922.19
538.114	4922.86
538.479	4974.84
538.845	4941.62
539.21	4953.6
539.575	4971.45
539.94	5046.25
540.305	5087.15
540.67	5032.01
541.034	5076.31
541.399	5083.54
541.764	5124.67
542.129	5127.61
542.494	5144.33
542.858	5177.32
543.223	5197.89
543.587	5292.57
543.952	5231.11
544.316	5210.99
544.681	5283.08
545.045	5282.86
545.41	5324.66
545.774	5362.85
546.138	5400.14
546.503	5393.14
546.867	5361.05
547.231	5462.74
547.595	5493.25
547.959	5460.25
548.324	5477.88
548.688	5522.85
549.052	5524.43
549.416	5517.43
549.779	5556.75
550.143	5601.72
550.507	5574.15
550.871	5581.83
551.235	5587.71
551.599	5668.38
551.962	5680.59
552.326	5677.42
552.689	5727.59
553.053	5698.44
553.417	5703.86
553.78	5768.49
554.143	5783.86
554.507	5838.55
554.87	5844.65
555.234	5863.41
555.597	5780.24
555.96	5825.44
556.323	5903.63
556.686	5855.72
557.05	5926
557.413	5940.69
557.776	5864.54
558.139	5970.75
558.502	5979.56
558.865	5933.46
559.228	5973.91
559.59	6075.83
559.953	6011.2
560.316	6039.22
560.679	6128.48
561.041	6122.83
561.404	6173.45
561.767	6152.66
562.129	6168.26
562.492	6202.61
562.854	6231.76
563.217	6161.48
563.579	6243.73
563.941	6251.64
564.304	6288.93
564.666	6323.28
565.028	6327.57
565.39	6338.19
565.753	6421.58
566.115	6407.35
566.477	6403.28
566.839	6420.68
567.201	6434.46
567.563	6457.51
567.925	6512.65
568.287	6492.54
568.648	6548.58
569.01	6556.04
569.372	6577.74
569.734	6584.74
570.095	6683.72
570.457	6686.43
570.819	6748.58
571.18	6737.28
571.542	6805.98
571.903	6841.23
572.265	6831.74
572.626	6854.34
572.987	6872.87
573.349	6998.52
573.71	7010.04
574.071	7038.97
574.432	7100.21
574.794	7136.37
575.155	7163.94
575.516	7208.68
575.877	7239.64
576.238	7282.12
576.599	7390.6
576.96	7482.57
577.32	7517.6
577.681	7619.97
578.042	7688.44
578.403	7710.59
578.763	7856.12
579.124	7817.7
579.485	8030.13
579.845	8139.28
580.206	8166.85
580.566	8290.69
580.927	8390.57
581.287	8544.24
581.648	8632.15
582.008	8776.32
582.368	8885.02
582.728	9050.21
583.089	9188.97
583.449	9359.58
583.809	9419.47
584.169	9601.16
584.529	9696.07
584.889	10025.56
585.249	10070.07
585.609	10215.38
585.969	10468.03
586.329	10701.92
586.688	10887
587.048	11073.89
587.408	11280.44
587.768	11535.57
588.127	11690.14
588.487	11913.87
588.846	12141.43
589.206	12320.86
589.565	12578.26
589.925	12873.84
590.284	13033.16
590.643	13342.76
591.003	13691.22
591.362	13966.47
591.721	14134.15
592.08	14441.48
592.44	14768.48
592.799	14993.79
593.158	15217.74
593.517	15474.23
593.876	15819.98
594.235	15989.92
594.593	16402.11
594.952	16669.45
595.311	16869.9
595.67	17244.57
596.029	17680.5
596.387	17974.27
596.746	18151.44
597.104	18364.32
597.463	18687.25
597.822	19009.27
598.18	19248.14
598.538	19560.67
598.897	19901
599.255	19958.18
599.613	20522.23
599.972	20749.12
600.33	21064.81
600.688	21320.85
601.046	21636.1
601.404	21912.7
601.762	22166.48
602.12	22390.88
602.478	22778.44
602.836	22888.95
603.194	23090.75
603.552	23398.09
603.91	23638.08
604.268	23940.22
604.625	24093.89
604.983	24457.94
605.341	24637.15
605.698	24950.13
606.056	25293.85
606.413	25608.42
606.771	25842.31
607.128	26010.45
607.485	26055.42
607.843	26310.33
608.2	26785.34
608.557	26988.5
608.914	27099.91
609.272	27485.66
609.629	27613.12
609.986	27890.62
610.343	27937.4
610.7	28319.31
611.057	28492.87
611.414	28715.01
611.771	28847.21
612.127	29205.62
612.484	29180.76
612.841	29489.22
613.198	29578.71
613.554	29759.27
613.911	30014.63
614.267	30247.62
614.624	30308.64
614.98	30469.76
615.337	30774.61
615.693	30768.96
616.05	31014.38
616.406	31283.75
616.762	31240.14
617.118	31483.07
617.475	31614.82
617.831	31787.24
618.187	31896.62
618.543	31978.42
618.899	32380.22
619.255	32407.79
619.611	32447.79
619.967	32675.58
620.323	32866.54
620.678	32990.38
621.034	32968.23
621.39	33049.81
621.746	33179.75
622.101	33622
622.457	33346.98
622.812	33536.58
623.168	33729.11
623.523	33692.73
623.879	34018.82
624.234	33866.28
624.589	34061.99
624.945	34104.7
625.3	34240.06
625.655	34316.89
626.01	34432.82
626.365	34513.95
626.72	34474.86
627.075	34563.44
627.43	34655.87
627.785	34575.42
628.14	34722.99
628.495	34719.14
628.85	34942.41
629.205	34702.42
629.559	35012.24
629.914	34988.52
630.269	35072.13
630.623	35018.34
630.978	34996.88
631.332	35254.95
631.687	35278
632.041	35179.7
632.396	35385.11
632.75	35200.26
633.104	35280.26
633.459	35164.56
633.813	35218.34
634.167	35291.56
634.521	35269.64
634.875	35397.77
635.229	35399.13
635.583	35212.69
635.937	35285.68
636.291	35237.32
636.645	35470.54
636.999	35244.33
637.352	35501.04
637.706	35226.47
638.06	35399.13
638.413	35365.91
638.767	35319.81
639.121	35341.5
639.474	35206.36
639.828	35267.38
640.181	35324.55
640.534	35311.9
640.888	35225.8
641.241	35116.65
641.594	35207.94
641.947	35419.01
642.301	35158
642.654	35223.76
643.007	35248.62
643.36	35225.57
643.713	35110.32
644.066	35423.53
644.419	35139.92
644.771	35011.57
645.124	34776.54
645.477	34584.23
645.83	34432.6
646.182	34346.5
646.535	34212.49
646.888	34349.89
647.24	34237.57
647.593	34282.77
647.945	34109.89
648.298	34072.38
648.65	34106.05
649.002	34116
649.355	34225.37
649.707	34127.07
650.059	34272.6
650.411	34590.56
650.763	34768.18
651.115	35002.98
651.467	34929.99
651.819	34940.38
652.171	34903.55
652.523	34886.37
652.875	34904.45
653.227	34705.58
653.578	34869.87
653.93	35011.57
654.282	34765.7
654.633	34583.78
654.985	34721.18
655.337	34795.07
655.688	34793.94
656.039	34790.55
656.391	34558.47
656.742	34652.25
657.094	34643.67
657.445	34800.95
657.796	34678.47
658.147	34528.19
658.498	34626.94
658.849	34593.72
659.2	34650.67
659.551	34630.78
659.902	34627.17
660.253	34590.79
660.604	34625.59
660.955	34460.85
661.306	34584.01
661.656	34534.52
662.007	34569.32
662.358	34498.81
662.708	34652.25
663.059	34485.25
663.409	34206.84
663.76	34541.52
664.11	34486.38
664.461	34655.87
664.811	34519.6
665.161	34556.44
665.511	34491.58
665.862	34474.63
666.212	34664.23
666.562	34673.5
666.912	34586.94
667.262	34510.79
667.612	34507.85
667.962	34673.95
668.312	34426.27
668.662	34718.01
669.011	34468.98
669.361	34482.77
669.711	34454.97
670.06	34226.05
670.41	34360.28
670.76	34362.77
671.109	34487.96
671.459	34440.05
671.808	34340.4
672.157	34434.86
672.507	34149.22
672.856	34240.29
673.205	34382.88
673.554	34400.51
673.904	34181.76
674.253	34414.07
674.602	34255.43
674.951	33840.52
675.3	33727.98
675.649	34173.17
675.998	34164.36
676.346	34223.56
676.695	34382.88
677.044	33943.34
677.393	34078.03
677.741	34230.57
678.09	33991.25
678.438	33913.97
678.787	34079.61
679.135	34100.4
679.484	33837.36
679.832	33958.03
680.181	33718.49
680.529	33930.92
680.877	33868.32
681.225	33759.39
681.573	33974.3
681.922	33729.11
682.27	33577.7
682.618	33674.43
682.966	33528.44
683.314	33684.82
683.661	33491.15
684.009	33454.54
684.357	33314.21
684.705	33241.44
685.053	33305.17
685.4	33297.94
685.748	33138.85
686.095	33096.81
686.443	32994.22
686.79	33040.54
687.138	32946.53
687.485	33125.74
687.832	32821.11
688.18	32851.4
688.527	32763.94
688.874	32648.69
689.221	32481.24
689.568	32585.64
689.915	32508.81
690.262	32570.05
690.609	32348.81
690.956	32331.18
691.303	32148.36
691.65	32065.65
691.997	32234.46
692.344	31859.11
692.69	31808.49
693.037	31907.24
693.383	31693.01
693.73	31777.98
694.077	31636.06
694.423	31628.15
694.769	31579.79
695.116	31514.03
695.462	31528.27
695.808	31338.89
696.155	31293.7
696.501	31086.7
696.847	31198.56
697.193	30946.14
697.539	30995.85
697.885	30808.29
698.231	30679.7
698.577	30636.77
698.923	30573.94
699.269	30573.72
699.614	30302.31
699.96	30187.51
700.306	30328.98
700.651	30147.74
700.997	30075.65
701.342	30130.79
701.688	29974.18
702.033	29970.79
702.379	29877.24
702.724	29814.19
703.069	29930.79
703.415	29479.28
703.76	29567.19
704.105	29659.16
704.45	29456.91
704.795	29235.22
705.14	29261.89
705.485	29230.93
705.83	29176.69
706.175	29209.68
706.52	29185.28
706.865	28971.5
707.209	28990.25
707.554	28805.85
707.899	28920.43
708.243	28786.42
708.588	28762.69
708.932	28518.18
709.277	28506.65
709.621	28577.16
709.966	28369.71
710.31	28439.76
710.654	28208.13
710.998	28310.72
711.342	28299.88
711.687	28133.78
712.031	27989.38
712.375	27974.01
712.719	28100.33
713.063	27808.36
713.407	28011.98
713.75	27882.71
714.094	27809.72
714.438	27753.23
714.782	27712.77
715.125	27569.95
715.469	27548.03
715.812	27444.53
716.156	27367.47
716.499	27317.53
716.843	27359.56
717.186	27303.29
717.53	27354.82
717.873	27285.44
718.216	27254.48
718.559	27131.55
718.902	26880.71
719.246	27006.8
719.589	26908.5
719.932	26881.38
720.275	26870.99
720.617	26777.66
720.96	26717.32
721.303	26733.36
721.646	26715.96
721.989	26581.05
722.331	26799.58
722.674	26552.13
723.016	26607.49
723.359	26482.07
723.701	26417.67
724.044	26305.58
724.386	26248.63
724.729	26342.19
725.071	26158.92
725.413	26168.63
725.755	26205.7
726.097	26097.68
726.439	25974.06
726.782	26059.71
727.124	26101.52
727.465	25982.65
727.807	25927.51
728.149	25856.1
728.491	25802.99
728.833	25900.39
729.175	25683.45
729.516	25702.43
729.858	25745.37
730.199	25660.85
730.541	25592.15
730.882	25683.9
731.224	25647.29
731.565	25382.21
731.906	25546.96
732.248	25460.4
732.589	25359.39
732.93	25275.55
733.271	25361.88
733.612	25264.02
733.953	25261.31
734.294	25191.48
734.635	25116.23
734.976	25186.06
735.317	25001.88
735.658	25005.73
735.999	25032.62
736.339	24983.58
736.68	25021.09
737.021	24930.02
737.361	24790.59
737.702	24904.03
738.042	24833.08
738.383	24721.89
738.723	24786.98
739.063	24722.12
739.404	24751.27
739.744	24589.69
740.084	24530.03
740.424	24636.7
740.764	24519.86
741.104	24652.29
741.444	24584.72
741.784	24429.92
742.124	24474.67
742.464	24426.98
742.804	24299.98
743.143	24250.27
743.483	24322.58
743.823	24136.82
744.162	24188.12
744.502	24198.97
744.841	24128.01
745.181	24131.63
745.52	24075.36
745.86	24072.87
746.199	23911.52
746.538	23957.39
746.877	23959.88
747.216	24055.02
747.556	23865.87
747.895	23801.01
748.234	23810.5
748.573	23732.77
748.911	23659.77
749.25	23741.13
749.589	23595.59
749.928	23700.45
750.267	23551.53
750.605	23564.18
750.944	23562.6
751.283	23444.19
751.621	23473.79
751.96	23315.15
752.298	23299.33
752.636	23226.79
752.975	23211.2
753.313	23136.85
753.651	23206
753.989	23069.51
754.327	23070.41
754.666	23054.82
755.004	22917.42
755.342	23032.22
755.679	22846.69
756.017	22769.63
756.355	22773.69
756.693	22732.11
757.031	22769.18
757.368	22598.11
757.706	22526.92
758.044	22475.4
758.381	22523.53
758.719	22342.97
759.056	22362.18
759.394	22255.29
759.731	22228.17
760.068	22180.72
