Data from hue_28_FLMS001491_00014.txt Node
Date: Tue Feb 07 17:16:55 GMT 2017
User: dcchb
Spectrometer: FLMS00149
Trigger mode: 0
Integration Time (sec): 2.000000E-2
Scans to average: 10
Electric dark correction enabled: true
Nonlinearity correction enabled: false
Boxcar width: 0
XAxis mode: Wavelengths
Number of Pixels in Spectrum: 2048
>>>>>Begin Spectral Data<<<<<
341.393	-30.35
341.776	-30.35
342.16	-30.35
342.543	-74.42
342.927	-89.56
343.31	-46.85
343.693	-100.41
344.077	-73.06
344.46	-64.25
344.843	-56.11
345.226	-39.62
345.61	-38.49
345.993	-2.78
346.376	-5.27
346.759	10.78
347.142	36.31
347.525	36.31
347.908	54.39
348.291	77.89
348.674	102.75
349.057	108.4
349.44	100.94
349.823	147.04
350.206	158.57
350.588	194.5
350.971	200.6
351.354	222.07
351.737	234.05
352.119	269.75
352.502	241.73
352.884	248.96
353.267	266.82
353.65	303.88
354.032	307.94
354.414	304.78
354.797	330.99
355.179	312.92
355.562	324.44
355.944	337.77
356.326	345.68
356.709	334.16
357.091	329.64
357.473	338.45
357.855	328.28
358.238	350.88
358.62	329.64
359.002	324.67
359.384	328.51
359.766	334.38
360.148	324.89
360.53	351.78
360.912	347.49
361.294	345.91
361.676	316.31
362.057	336.64
362.439	333.93
362.821	323.31
363.203	308.85
363.584	315.18
363.966	305.01
364.348	319.24
364.729	316.76
365.111	328.06
365.493	321.5
365.874	307.94
366.256	323.76
366.637	296.64
367.019	300.03
367.4	302.52
367.781	307.27
368.163	326.25
368.544	311.33
368.925	312.69
369.306	306.14
369.688	317.66
370.069	307.27
370.45	311.11
370.831	300.49
371.212	326.7
371.593	327.6
371.974	303.2
372.355	308.62
372.736	316.08
373.117	324.44
373.498	313.37
373.879	317.89
374.26	305.91
374.641	302.75
375.021	304.33
375.402	313.59
375.783	318.79
376.163	333.93
376.544	354.04
376.925	319.02
377.305	349.07
377.686	314.95
378.066	316.08
378.447	325.57
378.827	321.5
379.208	333.71
379.588	348.62
379.968	331.22
380.349	310.2
380.729	310.2
381.109	340.71
381.489	326.93
381.87	336.19
382.25	305.68
382.63	336.87
383.01	344.78
383.39	334.16
383.77	333.25
384.15	369.64
384.53	341.62
384.91	333.03
385.29	329.86
385.67	356.53
386.049	357.89
386.429	365.57
386.809	328.28
387.189	328.06
387.568	341.84
387.948	375.74
388.328	348.39
388.707	335.97
389.087	349.07
389.466	373.93
389.846	365.8
390.225	363.31
390.605	366.47
390.984	364.44
391.363	335.51
391.743	384.33
392.122	386.13
392.501	368.51
392.881	365.12
393.26	372.35
393.639	366.7
394.018	373.03
394.397	363.08
394.776	364.44
395.155	369.19
395.534	385.68
395.913	383.2
396.292	370.32
396.671	373.93
397.05	368.96
397.429	364.44
397.808	387.72
398.186	412.8
398.565	399.92
398.944	377.77
399.323	392.91
399.701	389.52
400.08	385.91
400.458	393.37
400.837	389.75
401.215	392.24
401.594	388.17
401.972	401.95
402.351	394.95
402.729	404.89
403.107	387.49
403.486	385
403.864	402.4
404.242	418
404.62	400.82
404.999	403.76
405.377	411.67
405.755	421.84
406.133	413.48
406.511	420.94
406.889	422.97
407.267	387.49
407.645	414.61
408.023	426.81
408.401	419.58
408.779	442.63
409.156	408.05
409.534	421.84
409.912	444.21
410.29	449.41
410.667	443.08
411.045	464.32
411.422	449.41
411.8	451.67
412.178	467.71
412.555	439.69
412.933	464.32
413.31	472.01
413.687	462.06
414.065	474.49
414.442	460.03
414.819	486.7
415.197	469.52
415.574	474.95
415.951	461.61
416.328	475.85
416.705	464.78
417.082	453.93
417.46	467.71
417.837	498.22
418.214	506.13
418.591	502.06
418.967	498.22
419.344	499.35
419.721	509.07
420.098	517.2
420.475	506.13
420.852	495.28
421.228	535.28
421.605	513.81
421.982	557.65
422.358	508.84
422.735	539.58
423.111	529.18
423.488	521.72
423.864	540.71
424.241	536.41
424.617	527.15
424.994	526.47
425.37	532.12
425.746	572.34
426.123	557.88
426.499	524.21
426.875	555.17
427.251	559.24
427.627	566.92
428.003	569.86
428.379	570.54
428.756	577.32
429.132	608.27
429.507	579.58
429.883	599.46
430.259	593.13
430.635	590.65
431.011	587.26
431.387	620.7
431.763	626.35
432.138	631.78
432.514	645.56
432.89	647.82
433.265	616.86
433.641	643.53
434.016	674.04
434.392	651.66
434.767	634.94
435.143	641.04
435.518	681.27
435.894	678.33
436.269	678.78
436.644	695.28
437.02	692.57
437.395	697.99
437.77	672.23
438.145	703.87
438.52	701.83
438.895	693.7
439.271	739.57
439.646	712.45
440.021	732.79
440.395	718.1
440.77	722.4
441.145	726.69
441.52	739.12
441.895	747.03
442.27	735.96
442.645	741.38
443.019	770.76
443.394	740.93
443.769	773.69
444.143	772.56
444.518	771.43
444.892	776.18
445.267	745.22
445.641	780.02
446.016	773.92
446.39	793.81
446.764	812.11
447.139	789.97
447.513	795.16
447.887	801.72
448.262	799.46
448.636	821.15
449.01	795.61
449.384	807.59
449.758	817.08
450.132	810.76
450.506	833.35
450.88	849.4
451.254	854.6
451.628	830.42
452.002	858.21
452.376	865.67
452.75	843.3
453.123	876.29
453.497	880.36
453.871	909.06
454.244	906.8
454.618	898.44
454.992	913.58
455.365	907.02
455.739	953.35
456.112	949.28
456.486	935.27
456.859	954.03
457.232	928.72
457.606	952.45
457.979	963.75
458.352	1017.3
458.725	1012.56
459.099	1020.47
459.472	1025.21
459.845	1022.28
460.218	1029.51
460.591	1051.65
460.964	1039.9
461.337	1060.01
461.71	1070.18
462.083	1128.94
462.456	1089.17
462.829	1102.95
463.201	1145.89
463.574	1119.45
463.947	1128.94
464.32	1159.9
464.692	1155.15
465.065	1185.89
465.438	1186.34
465.81	1201.93
466.183	1227.47
466.555	1279.67
466.928	1234.47
467.3	1272.21
467.672	1287.13
468.045	1313.34
468.417	1335.71
468.789	1298.88
469.161	1341.59
469.534	1373
469.906	1398.08
470.278	1432.89
470.65	1415.49
471.022	1456.16
471.394	1466.56
471.766	1490.29
472.138	1462.94
472.51	1522.83
472.882	1572.54
473.253	1568.93
473.625	1603.05
473.997	1659.55
474.369	1634.46
474.74	1669.94
475.112	1683.73
475.484	1717.17
475.855	1771.63
476.227	1784.74
476.598	1832.2
476.97	1847.79
477.341	1862.93
477.713	1907.68
478.084	1921.23
478.455	1998.29
478.827	2011.85
479.198	2064.96
479.569	2075.36
479.94	2146.77
480.311	2161.91
480.682	2238.97
481.053	2269.47
481.424	2344.73
481.795	2347.89
482.166	2393.54
482.537	2447.1
482.908	2486.87
483.279	2531.39
483.65	2563.25
484.021	2665.4
484.391	2697.26
484.762	2735.68
485.133	2762.34
485.503	2815.45
485.874	2864.26
486.244	2957.59
486.615	2963.02
486.985	3031.71
487.356	3095.22
487.726	3142.45
488.097	3234.19
488.467	3236.91
488.837	3300.41
489.207	3355.77
489.578	3410.91
489.948	3478.48
490.318	3540.63
490.688	3556.45
491.058	3589.44
491.428	3690.45
491.798	3727.06
492.168	3807.96
492.538	3863.1
492.908	3892.26
493.278	3975.42
493.648	3945.59
494.017	4008.41
494.387	4091.8
494.757	4143.1
495.126	4179.25
495.496	4198.24
495.866	4245.02
496.235	4306.48
496.605	4369.08
496.974	4382.64
497.344	4444.33
497.713	4475.52
498.082	4523.43
498.452	4580.83
498.821	4596.19
499.19	4612.69
499.559	4722.52
499.928	4727.04
500.298	4750.99
500.667	4781.95
501.036	4802.06
501.405	4851.33
501.774	4836.41
502.143	4842.06
502.512	4935.39
502.88	4942.85
503.249	4953.7
503.618	4980.59
503.987	5023.07
504.356	5068.72
504.724	5111.89
505.093	5110.3
505.462	5192.79
505.83	5224.2
506.199	5268.49
506.567	5315.27
506.936	5370.41
507.304	5392.78
507.672	5334.48
508.041	5423.52
508.409	5463.51
508.777	5499.45
509.145	5573.34
509.514	5471.65
509.882	5538.77
510.25	5582.16
510.618	5612.21
510.986	5609.73
511.354	5711.64
511.722	5738.31
512.09	5761.59
512.458	5738.54
512.826	5813.56
513.193	5879.77
513.561	5787.35
513.929	5870.96
514.297	5948.02
514.664	5955.25
515.032	5935.59
515.4	5993.67
515.767	6046.32
516.135	6030.51
516.502	5978.98
516.869	6112.99
517.237	6082.93
517.604	6083.61
517.972	6183.5
518.339	6164.74
518.706	6201.57
519.073	6198.86
519.44	6265.08
519.808	6282.93
520.175	6248.13
520.542	6381.23
520.909	6344.62
521.276	6322.93
521.643	6424.85
522.009	6497.61
522.376	6534.22
522.743	6572.41
523.11	6606.99
523.477	6640.88
523.843	6687.21
524.21	6686.53
524.577	6722.01
524.943	6782.58
525.31	6762.46
525.676	6855.34
526.043	6884.04
526.409	6926.53
526.776	6952.74
527.142	6917.94
527.508	7006.98
527.874	7036.81
528.241	7030.03
528.607	7056.69
528.973	7192.51
529.339	7217.82
529.705	7222.34
530.071	7232.28
530.437	7329
530.803	7364.26
531.169	7417.36
531.535	7339.62
531.901	7464.37
532.267	7414.2
532.632	7516.12
532.998	7489.22
533.364	7593.18
533.73	7582.78
534.095	7694.19
534.461	7633.4
534.826	7674.3
535.192	7681.76
535.557	7811.02
535.923	7776.22
536.288	7873.39
536.653	7893.73
537.019	7898.03
537.384	7945.94
537.749	7971.7
538.114	7982.32
538.479	8013.5
538.845	8032.03
539.21	8032.26
539.575	8061.64
539.94	8086.5
540.305	8233.61
540.67	8132.6
541.034	8182.54
541.399	8309.99
541.764	8296.21
542.129	8321.52
542.494	8343.44
542.858	8404.68
543.223	8413.27
543.587	8419.82
543.952	8443.1
544.316	8449.2
544.681	8498.46
545.045	8509.99
545.41	8646.93
545.774	8657.78
546.138	8651
546.503	8707.5
546.867	8706.59
547.231	8813.26
547.595	8755.86
547.959	8877.44
548.324	8871.11
548.688	8879.47
549.052	8915.85
549.416	8980.71
549.779	8921.5
550.143	9013.93
550.507	9076.98
550.871	9070.65
551.235	9065.23
551.599	9026.36
551.962	9111.78
552.326	9260.7
552.689	9202.17
553.053	9231.1
553.417	9277.88
553.78	9359.23
554.143	9321.94
554.507	9352.23
554.87	9380.25
555.234	9514.48
555.597	9408.72
555.96	9516.29
556.323	9472
556.686	9521.03
557.05	9541.15
557.413	9601.03
557.776	9603.07
558.139	9681.26
558.502	9696.17
558.865	9727.81
559.228	9787.69
559.59	9812.78
559.953	9840.35
560.316	9936.39
560.679	9880.57
561.041	9989.5
561.404	9998.99
561.767	10050.29
562.129	10036.95
562.492	10171.87
562.854	10089.16
563.217	10177.97
563.579	10149.49
563.941	10257.06
564.304	10273.33
564.666	10241.92
565.028	10299.09
565.39	10347.23
565.753	10409.6
566.115	10404.4
566.477	10495.02
566.839	10514.68
567.201	10551.97
567.563	10524.62
567.925	10650.27
568.287	10577.05
568.648	10758.74
569.01	10702.7
569.372	10860.66
569.734	10798.29
570.095	10916.48
570.457	10880.1
570.819	10977.49
571.18	10957.16
571.542	11043.71
571.903	11051.84
572.265	11088.68
572.626	11213.19
572.987	11212.97
573.349	11268.33
573.71	11326.86
574.071	11396.01
574.432	11514.88
574.794	11557.14
575.155	11627.65
575.516	11628.55
575.877	11744.03
576.238	11840.52
576.599	11889.56
576.96	12004.81
577.32	11994.64
577.681	12205.26
578.042	12230.34
578.403	12369.1
578.763	12410
579.124	12523.67
579.485	12648.41
579.845	12796.43
580.206	12912.36
580.566	13025.8
580.927	13149.41
581.287	13307.6
581.648	13367.26
582.008	13598.89
582.368	13720.25
582.728	13821.94
583.089	14020.8
583.449	14105.32
583.809	14371.08
584.169	14580.11
584.529	14728.58
584.889	15021.68
585.249	15110.27
585.609	15239.75
585.969	15612.4
586.329	15748.22
586.688	15979.4
587.048	16153.85
587.408	16434.98
587.768	16637.01
588.127	16930.78
588.487	17132.36
588.846	17469.07
589.206	17634.72
589.565	17873.36
589.925	18165.33
590.284	18395.6
590.643	18805.99
591.003	19053.44
591.362	19389.93
591.721	19613.65
592.08	19874.66
592.44	20159.17
592.799	20426.96
593.158	20673.51
593.517	20893.17
593.876	21335.19
594.235	21349.42
594.593	21865.57
594.952	22180.82
595.311	22408.83
595.67	22702.84
596.029	23166.55
596.387	23511.85
596.746	23630.72
597.104	24006.08
597.463	24201.78
597.822	24581.43
598.18	24732.84
598.538	25169.44
598.897	25464.8
599.255	25594.51
599.613	26315.4
599.972	26252.57
600.33	26623.64
600.688	26763.52
601.046	27208.25
601.404	27595.81
601.762	27805.75
602.12	28180.43
602.478	28500.87
602.836	28727.54
603.194	28800.75
603.552	29268.31
603.91	29390.12
604.268	29674.18
604.625	29733.16
604.983	30161.4
605.341	30270.77
605.698	30621.05
606.056	30968.38
606.413	31148.26
606.771	31544.86
607.128	31802.93
607.485	31836.83
607.843	32148.91
608.2	32477.49
608.557	32562.69
608.914	32771.95
609.272	33152.28
609.629	33338.94
609.986	33809.44
610.343	33763.56
610.7	33975.99
611.057	34270.21
611.414	34359.03
611.771	34601.28
612.127	34900.71
612.484	34962.17
612.841	35274.48
613.198	35341.15
613.554	35573.23
613.911	35882.38
614.267	35856.61
614.624	36109.94
614.98	36321.69
615.337	36552.19
615.693	36652.52
616.05	36798.06
616.406	37126.41
616.762	37047.09
617.118	37279.18
617.475	37292.51
617.831	37680.75
618.187	37828.99
618.543	37956.45
618.899	38173.39
619.255	38235.76
619.611	38299.49
619.967	38551.46
620.323	38754.16
620.678	38604.11
621.034	38534.96
621.39	38880.04
621.746	38837.55
622.101	39297.88
622.457	39112.12
622.812	39254.26
623.168	39371.32
623.523	39458.33
623.879	39650.19
624.234	39561.38
624.589	39720.69
624.945	39693.8
625.3	40053.11
625.655	39917.75
626.01	40164.3
626.365	40240
626.72	40109.84
627.075	40290.17
627.43	40371.52
627.785	40316.61
628.14	40377.85
628.495	40561.35
628.85	40495.59
629.205	40454.91
629.559	40705.3
629.914	40656.71
630.269	40731.51
630.623	40654.45
630.978	40660.1
631.332	40779.65
631.687	40985.29
632.041	40737.84
632.396	40944.84
632.75	40748.69
633.104	40829.36
633.459	40740.78
633.813	40664.4
634.167	40830.49
634.521	40953.2
634.875	40886.54
635.229	40786.43
635.583	40677.73
635.937	40814
636.291	40815.81
636.645	40855.13
636.999	40789.37
637.352	40837.73
637.706	40748.24
638.06	40959.98
638.413	40897.84
638.767	40901
639.121	40941.68
639.474	40635.47
639.828	40796.37
640.181	40693.1
640.534	40793.43
640.888	40692.64
641.241	40648.35
641.594	40589.14
641.947	40830.49
642.301	40619.65
642.654	40665.98
643.007	40647.9
643.36	40641.12
643.713	40670.5
644.066	40642.7
644.419	40564.29
644.771	40371.3
645.124	40050.4
645.477	39896.28
645.83	39691.54
646.182	39557.08
646.535	39438.21
646.888	39620.13
647.24	39428.5
647.593	39523.86
647.945	39509.62
648.298	39331.78
648.65	39275.73
649.002	39218.56
649.355	39445.9
649.707	39280.48
650.059	39513.92
650.411	40002.72
650.763	39902.38
651.115	40497.4
651.467	40329.49
651.819	40290.85
652.171	40125.65
652.523	40136.5
652.875	40043.62
653.227	40034.36
653.578	40316.84
653.93	40203.62
654.282	39911.2
654.633	39901.03
654.985	40087.01
655.337	40111.42
655.688	40065.32
656.039	40234.58
656.391	39882.5
656.742	40070.51
657.094	40107.8
657.445	40220.79
657.796	39919.33
658.147	40045.2
658.498	40057.41
658.849	40013.11
659.2	40063.73
659.551	39873.23
659.902	40097.86
660.253	40026.22
660.604	39997.75
660.955	39824.64
661.306	39935.38
661.656	39962.95
662.007	39853.34
662.358	39924.98
662.708	39945.32
663.059	39946.22
663.409	39675.27
663.76	39961.82
664.11	39898.99
664.461	40081.14
664.811	39863.29
665.161	39935.15
665.511	39746.68
665.862	39819.9
666.212	39944.64
666.562	39963.62
666.912	39875.72
667.262	39758.43
667.612	39784.65
667.962	39917.75
668.312	39818.54
668.662	40073
669.011	39844.53
669.361	39851.76
669.711	39843.85
670.06	39708.49
670.41	39634.37
670.76	39762.5
671.109	39762.05
671.459	39802.27
671.808	39595.27
672.157	39693.57
672.507	39393.02
672.856	39594.59
673.205	39477.99
673.554	39576.06
673.904	39431.89
674.253	39745.1
674.602	39518.44
674.951	39035.51
675.3	38802.75
675.649	39378.55
675.998	39405.67
676.346	39417.42
676.695	39536.74
677.044	39263.98
677.393	39421.49
677.741	39472.11
678.09	39246.13
678.438	39353.24
678.787	39350.31
679.135	39327.26
679.484	39125.45
679.832	39179.01
680.181	38996.87
680.529	39137.88
680.877	38970.88
681.225	39041.39
681.573	39181.95
681.922	38963.2
682.27	38880.71
682.618	38861.05
682.966	38656.31
683.314	38997.32
683.661	38811.79
684.009	38572.7
684.357	38445.7
684.705	38588.29
685.053	38358.02
685.4	38462.42
685.748	38382.2
686.095	38363.89
686.443	38090.23
686.79	38038.25
687.138	38122.54
687.485	38059.27
687.832	37969.78
688.18	37986.73
688.527	37823.12
688.874	37727.3
689.221	37653.18
689.568	37608.66
689.915	37424.93
690.262	37568.43
690.609	37366.86
690.956	37238.5
691.303	37307.65
691.65	37149.01
691.997	37083.25
692.344	36932.29
692.69	36902.24
693.037	36898.17
693.383	36678.06
693.73	36774.33
694.077	36544.96
694.423	36570.49
694.769	36303.38
695.116	36417.05
695.462	36320.78
695.808	36232.65
696.155	36302.7
696.501	36005.31
696.847	35995.14
697.193	35778.88
697.539	35921.92
697.885	35575.04
698.231	35450.07
698.577	35545.66
698.923	35573.91
699.269	35263.41
699.614	35148.38
699.96	35200.81
700.306	35143.19
700.651	34971.21
700.997	34817.09
701.342	34782.97
701.688	34804.44
702.033	34622.97
702.379	34556.53
702.724	34519.47
703.069	34751.56
703.415	34234.06
703.76	34199.03
704.105	34234.28
704.45	34379.14
704.795	34027.74
705.14	33760.4
705.485	33854.86
705.83	33744.13
706.175	33821.86
706.52	33705.26
706.865	33523.34
707.209	33481.76
707.554	33430.01
707.899	33505.72
708.243	33260.75
708.588	33295.55
708.932	32887.43
709.277	33091.26
709.621	32946.41
709.966	32793.42
710.31	32867.31
710.654	32652.63
710.998	32696.02
711.342	32667.32
711.687	32532.41
712.031	32297.61
712.375	32397.04
712.719	32314.56
713.063	32249.7
713.407	32365.63
713.75	32117.73
714.094	32024.62
714.438	32013.55
714.782	32065.53
715.125	31868.7
715.469	32009.71
715.812	31716.84
716.156	31681.81
716.499	31617.4
716.843	31638.19
717.186	31500.12
717.53	31733.11
717.873	31651.98
718.216	31499.44
718.559	31466.22
718.902	31219.45
719.246	31332.21
719.589	31162.05
719.932	31101.26
720.275	31178.54
720.617	31070.98
720.96	30925.67
721.303	30996.63
721.646	30924.99
721.989	30747.82
722.331	30914.37
722.674	30709.86
723.016	30798.67
723.359	30737.2
723.701	30766.58
724.044	30626.24
724.386	30430.09
724.729	30647.03
725.071	30456.3
725.413	30430.32
725.755	30436.64
726.097	30307.38
726.439	30093.38
726.782	30149.42
727.124	30228.51
727.465	29981.51
727.807	30027.39
728.149	30000.95
728.491	29930.89
728.833	30017.67
729.175	29843.44
729.516	29860.84
729.858	29747.17
730.199	29809.54
730.541	29590.56
730.882	29733.16
731.224	29737
731.565	29611.81
731.906	29711.24
732.248	29520.51
732.589	29499.49
732.93	29351.93
733.271	29407.07
733.612	29500.17
733.953	29437.35
734.294	29196.9
734.635	29244.36
734.976	29193.29
735.317	28988.32
735.658	29093.85
735.999	29071.48
736.339	29017.92
736.68	29138.15
737.021	28893.86
737.361	28833.52
737.702	28986.06
738.042	28777.7
738.383	28831.49
738.723	28880.07
739.063	28756.91
739.404	28702
739.744	28726.63
740.084	28500.42
740.424	28587.43
740.764	28537.26
741.104	28666.29
741.444	28468.56
741.784	28331.61
742.124	28458.62
742.464	28328.45
742.804	28230.15
743.143	28246.64
743.483	28131.62
743.823	28161.9
744.162	28093.43
744.502	28195.12
744.841	27957.39
745.181	27998.29
745.52	27904.05
745.86	27963.04
746.199	27897.95
746.538	27901.34
746.877	27851.85
747.216	27907.44
747.556	27804.4
747.895	27774.57
748.234	27779.31
748.573	27591.75
748.911	27683.95
749.25	27497.29
749.589	27428.36
749.928	27556.04
750.267	27614.12
750.605	27504.06
750.944	27454.57
751.283	27347.68
751.621	27451.18
751.96	27236.28
752.298	27145.43
752.636	27158.09
752.975	27126.22
753.313	27133.23
753.651	27219.78
753.989	26962.61
754.327	26944.98
754.666	26793.12
755.004	26793.35
755.342	26893.91
755.679	26699.34
756.017	26581.38
756.355	26683.07
756.693	26560.81
757.031	26633.81
757.368	26441.04
757.706	26295.28
758.044	26198.56
758.381	26273.59
758.719	26232.01
759.056	26081.28
759.394	26131.45
759.731	25866.37
