Data from hue_26_FLMS001491_00093.txt Node
Date: Tue Feb 07 17:14:50 GMT 2017
User: dcchb
Spectrometer: FLMS00149
Trigger mode: 0
Integration Time (sec): 2.000000E-2
Scans to average: 10
Electric dark correction enabled: true
Nonlinearity correction enabled: false
Boxcar width: 0
XAxis mode: Wavelengths
Number of Pixels in Spectrum: 2048
>>>>>Begin Spectral Data<<<<<
341.393	-24.79
341.776	-24.79
342.16	-24.79
342.543	-59.36
342.927	-58.01
343.31	-66.82
343.693	-62.53
344.077	-65.92
344.46	-62.98
344.843	-64.11
345.226	-35.86
345.61	-11.68
345.993	-38.12
346.376	-7.61
346.759	25.15
347.142	19.28
347.525	43.46
347.908	41.65
348.291	90.46
348.674	97.47
349.057	98.15
349.44	121.2
349.823	144.25
350.206	180.4
350.588	212.04
350.971	236
351.354	247.75
351.737	233.28
352.119	267.86
352.502	297.01
352.884	279.39
353.267	292.94
353.65	297.01
354.032	308.31
354.414	326.39
354.797	350.34
355.179	329.55
355.562	345.6
355.944	346.05
356.326	353.51
356.709	307.86
357.091	355.77
357.473	358.71
357.855	356.45
358.238	349.44
358.62	376.33
359.002	354.19
359.384	345.15
359.766	363.22
360.148	366.84
360.53	385.15
360.912	353.28
361.294	353.28
361.676	363.45
362.057	327.07
362.439	355.09
362.821	344.24
363.203	345.6
363.584	347.41
363.966	370.68
364.348	339.5
364.729	338.82
365.111	338.59
365.493	337.24
365.874	334.53
366.256	336.78
366.637	327.52
367.019	334.75
367.4	315.32
367.781	345.82
368.163	356.9
368.544	353.73
368.925	356.67
369.306	347.86
369.688	333.85
370.069	333.85
370.45	350.12
370.831	328.42
371.212	345.82
371.593	356.45
371.974	354.64
372.355	357.12
372.736	351.7
373.117	338.82
373.498	312.6
373.879	365.03
374.26	358.93
374.641	328.42
375.021	355.77
375.402	352.6
375.783	331.81
376.163	345.82
376.544	360.06
376.925	356.9
377.305	370
377.686	351.47
378.066	344.24
378.447	371.59
378.827	343.79
379.208	365.48
379.588	375.2
379.968	366.84
380.349	369.55
380.729	375.43
381.109	400.06
381.489	373.17
381.87	392.83
382.25	366.61
382.63	378.82
383.01	385.82
383.39	389.66
383.77	374.98
384.15	391.02
384.53	379.95
384.91	384.24
385.29	377.46
385.67	386.95
386.049	413.39
386.429	381.3
386.809	391.02
387.189	402.55
387.568	414.3
387.948	401.64
388.328	395.31
388.707	413.39
389.087	395.09
389.466	410.91
389.846	408.87
390.225	397.8
390.605	395.77
390.984	424.92
391.363	407.74
391.743	426.05
392.122	421.75
392.501	419.49
392.881	445.71
393.26	421.75
393.639	423.34
394.018	424.01
394.397	419.04
394.776	438.48
395.155	431.47
395.534	458.14
395.913	437.8
396.292	431.25
396.671	455.88
397.05	426.5
397.429	454.75
397.808	458.82
398.186	431.02
398.565	436.44
398.944	458.36
399.323	454.3
399.701	455.88
400.08	450.45
400.458	476.22
400.837	485.26
401.215	488.65
401.594	479.83
401.972	487.29
402.351	477.57
402.729	497.01
403.107	510.34
403.486	500.85
403.864	486.39
404.242	487.29
404.62	481.41
404.999	487.06
405.377	484.8
405.755	521.41
406.133	527.06
406.511	524.12
406.889	517.12
407.267	526.38
407.645	516.22
408.023	503.33
408.401	534.29
408.779	523.9
409.156	524.58
409.534	509.89
409.912	544.46
410.29	554.63
410.667	553.28
411.045	552.6
411.422	559.83
411.8	565.03
412.178	575.87
412.555	566.61
412.933	579.26
413.31	583.11
413.687	611.13
414.065	609.77
414.442	596.67
414.819	604.57
415.197	599.83
415.574	617.91
415.951	626.95
416.328	612.03
416.705	624.69
417.082	631.24
417.46	631.69
417.837	613.16
418.214	649.55
418.591	662.2
418.967	658.81
419.344	648.42
419.721	673.95
420.098	638.47
420.475	683.44
420.852	689.09
421.228	660.84
421.605	691.35
421.982	708.3
422.358	689.32
422.735	712.14
423.111	685.25
423.488	694.52
423.864	694.97
424.241	737.23
424.617	710.79
424.994	735.19
425.37	725.48
425.746	743.55
426.123	737.23
426.499	757.11
426.875	763.89
427.251	766.38
427.627	777.9
428.003	784.91
428.379	802.08
428.756	803.21
429.132	801.41
429.507	819.48
429.883	790.11
430.259	838.47
430.635	823.33
431.011	817.9
431.387	826.49
431.763	882.31
432.138	854.06
432.514	883.44
432.89	894.28
433.265	872.59
433.641	897
434.016	903.55
434.392	893.61
434.767	934.06
435.143	947.16
435.518	950.1
435.894	937.22
436.269	986.71
436.644	961.18
437.02	964.79
437.395	974.06
437.77	1007.95
438.145	1026.26
438.52	1015.86
438.895	990.78
439.271	1003.43
439.646	1028.29
440.021	1044.11
440.395	1045.69
440.77	1034.85
441.145	1049.08
441.52	1068.74
441.895	1061.96
442.27	1095.64
442.645	1116.88
443.019	1106.26
443.394	1087.95
443.769	1089.08
444.143	1098.12
444.518	1143.09
444.892	1134.05
445.267	1127.5
445.641	1163.2
446.016	1159.81
446.39	1142.87
446.764	1141.74
447.139	1155.97
447.513	1158.91
447.887	1176.99
448.262	1190.32
448.636	1214.95
449.01	1210.43
449.384	1212.02
449.758	1201.62
450.132	1232.81
450.506	1216.99
450.88	1228.96
451.254	1253.15
451.628	1263.54
452.002	1295.4
452.376	1290.21
452.75	1283.88
453.123	1321.62
453.497	1306.02
453.871	1325.23
454.244	1376.08
454.618	1366.59
454.992	1394.84
455.365	1381.28
455.739	1395.29
456.112	1418.11
456.486	1401.39
456.859	1443.87
457.232	1460.15
457.606	1479.58
457.979	1495.17
458.352	1501.5
458.725	1550.99
459.099	1557.54
459.472	1570.88
459.845	1596.19
460.218	1591.22
460.591	1623.3
460.964	1619.24
461.337	1689.29
461.71	1663.08
462.083	1703.08
462.456	1709.86
462.829	1730.42
463.201	1732.23
463.574	1778.1
463.947	1765
464.32	1797.09
464.692	1853.13
465.065	1865.33
465.438	1847.03
465.81	1886.8
466.183	1935.84
466.555	1986.91
466.928	1972.22
467.3	1976.29
467.672	2001.83
468.045	2006.57
468.417	2041.15
468.789	2086.57
469.161	2106.46
469.534	2136.29
469.906	2162.5
470.278	2194.36
470.65	2229.16
471.022	2262.38
471.394	2336.73
471.766	2354.58
472.138	2362.04
472.51	2395.04
472.882	2419.22
473.253	2460.34
473.625	2519.33
473.997	2583.05
474.369	2598.19
474.74	2620.11
475.112	2691.3
475.484	2689.27
475.855	2767.68
476.227	2771.75
476.598	2918.41
476.97	2917.06
477.341	2956.15
477.713	3060.78
478.084	3070.05
478.455	3190.5
478.827	3223.49
479.198	3324.05
479.569	3322.24
479.94	3423.26
480.311	3431.39
480.682	3539.19
481.053	3561.78
481.424	3666.87
481.795	3762.91
482.166	3809.24
482.537	3862.79
482.908	3959.51
483.279	3952.51
483.65	4101.21
484.021	4124.26
484.391	4227.08
484.762	4306.62
485.133	4346.62
485.503	4389.79
485.874	4532.15
486.244	4581.19
486.615	4639.95
486.985	4731.92
487.356	4797.91
487.726	4860.96
488.097	4999.04
488.467	5003.33
488.837	5132.37
489.207	5226.15
489.578	5261.63
489.948	5336.65
490.318	5462.53
490.688	5450.77
491.058	5570.77
491.428	5669.3
491.798	5743.65
492.168	5868.39
492.538	5908.62
492.908	5901.38
493.278	5993.81
493.648	6075.62
494.017	6162.39
494.387	6212.56
494.757	6258.89
495.126	6356.74
495.496	6402.16
495.866	6430.86
496.235	6475.15
496.605	6566.68
496.974	6633.12
497.344	6684.19
497.713	6702.72
498.082	6815.48
498.452	6907.69
498.821	6929.15
499.19	6969.6
499.559	7044.86
499.928	7122.82
500.298	7110.84
500.667	7212.08
501.036	7182.93
501.405	7325.08
501.774	7287.56
502.143	7403.27
502.512	7371.85
502.88	7470.16
503.249	7547.67
503.618	7569.14
503.987	7673.54
504.356	7611.4
504.724	7718.96
505.093	7772.07
505.462	7829.47
505.83	7853.65
506.199	7923.48
506.567	7998.05
506.936	8033.53
507.304	8078.28
507.672	8059.52
508.041	8120.99
508.409	8178.84
508.777	8183.13
509.145	8269.46
509.514	8323.69
509.882	8327.76
510.25	8343.35
510.618	8431.04
510.986	8466.97
511.354	8582.9
511.722	8590.58
512.09	8697.92
512.458	8599.39
512.826	8785.38
513.193	8866.96
513.561	8782.66
513.929	8843
514.297	8838.48
514.664	8970.91
515.032	8952.38
515.4	8986.95
515.767	9129.1
516.135	9170
516.502	9093.16
516.869	9246.38
517.237	9282.99
517.604	9276.66
517.972	9290.45
518.339	9325.02
518.706	9376.55
519.073	9392.59
519.44	9466.26
519.808	9556.2
520.175	9522.31
520.542	9669.42
520.909	9693.15
521.276	9643.88
521.643	9793.71
522.009	9794.62
522.376	9937.66
522.743	9975.4
523.11	10068.28
523.477	10118.22
523.843	10189.41
524.21	10195.06
524.577	10302.85
524.943	10298.56
525.31	10374.26
525.676	10418.55
526.043	10476.63
526.409	10550.08
526.776	10671.65
527.142	10747.58
527.508	10743.29
527.874	10843.18
528.241	10872.33
528.607	10891.08
528.973	11033.68
529.339	11038.65
529.705	11199.55
530.071	11188.48
530.437	11357.29
530.803	11302.15
531.169	11451.97
531.535	11405.87
531.901	11445.19
532.267	11484.06
532.632	11594.79
532.998	11568.13
533.364	11671.18
533.73	11651.52
534.095	11793.88
534.461	11748.69
534.826	11910.49
535.192	11927.44
535.557	12093.76
535.923	11952.3
536.288	12123.37
536.653	12146.87
537.019	12107.77
537.384	12166.76
537.749	12298.5
538.114	12298.5
538.479	12334.44
538.845	12480.87
539.21	12413.98
539.575	12414.66
539.94	12518.16
540.305	12530.59
540.67	12633.64
541.034	12700.53
541.399	12753.86
541.764	12797.02
542.129	12856.23
542.494	12890.58
542.858	12887.64
543.223	12908.21
543.587	13052.83
543.952	13076.34
544.316	13177.13
544.681	13074.08
545.045	13274.98
545.41	13317.91
545.774	13377.8
546.138	13372.15
546.503	13430
546.867	13522.88
547.231	13594.29
547.595	13613.72
547.959	13691.01
548.324	13616.21
548.688	13697.79
549.052	13735.75
549.416	13818.24
549.779	13812.59
550.143	13924.22
550.507	14044.9
550.871	13969.87
551.235	13984.56
551.599	14086.25
551.962	14180.94
552.326	14191.56
552.689	14350.65
553.053	14190.43
553.417	14231.11
553.78	14506.58
554.143	14346.59
554.507	14477.2
554.87	14521.5
555.234	14655.5
555.597	14642.85
555.96	14620.03
556.323	14666.8
556.686	14682.85
557.05	14780.02
557.413	14821.6
557.776	14923.29
558.139	15023.63
558.502	15086.23
558.865	15142.5
559.228	15169.84
559.59	15195.15
559.953	15240.57
560.316	15373
560.679	15348.14
561.041	15516.27
561.404	15507.46
561.767	15636.95
562.129	15584.29
562.492	15784.06
562.854	15735.48
563.217	15756.04
563.579	15801.24
563.941	15905.42
564.304	15854.34
564.666	16057.95
565.028	15998.52
565.39	16060.21
565.753	16272.86
566.115	16196.93
566.477	16360.32
566.839	16389.92
567.201	16365.74
567.563	16523.25
567.925	16633.08
568.287	16661.33
568.648	16679.41
569.01	16756.47
569.372	16893.64
569.734	16833.75
570.095	16996.23
570.457	16976.57
570.819	17046.63
571.18	17134.31
571.542	17189.9
571.903	17290.69
572.265	17311.71
572.626	17440.29
572.987	17427.63
573.349	17616.78
573.71	17624.92
574.071	17719.6
574.432	17878.24
574.794	18079.82
575.155	18154.17
575.516	18126.6
575.877	18236.2
576.238	18289.08
576.599	18457.89
576.96	18581.5
577.32	18598.23
577.681	18723.65
578.042	18922.06
578.403	18923.87
578.763	19051.55
579.124	19386.23
579.485	19554.13
579.845	19626.9
580.206	19692.66
580.566	19812.21
580.927	20056.72
581.287	20298.52
581.648	20348.46
582.008	20672.3
582.368	20743.93
582.728	21043.59
583.089	21187.76
583.449	21445.38
583.809	21592.05
584.169	21873.39
584.529	22158.81
584.889	22436.77
585.249	22555.64
585.609	22733.26
585.969	23192.23
586.329	23279.01
586.688	23608.04
587.048	23916.96
587.408	24031.53
587.768	24414.57
588.127	24621.57
588.487	25078.96
588.846	25610.47
589.206	25621.54
589.565	25963.68
589.925	26461.07
590.284	26652.93
590.643	27179.69
591.003	27453.36
591.362	27849.51
591.721	28266.9
592.08	28563.61
592.44	28876.6
592.799	29194.56
593.158	29626.86
593.517	30011.26
593.876	30409.21
594.235	30696.66
594.593	31067.73
594.952	31607.83
595.311	31792.46
595.67	32216.17
596.029	32694.58
596.387	33064.51
596.746	33457.95
597.104	33637.15
597.463	34053.86
597.822	34616.79
598.18	34871.7
598.538	35278.24
598.897	35861.73
599.255	35905.12
599.613	36706.9
599.972	36767.47
600.33	37337.85
600.688	37579.65
601.046	37957.94
601.404	38440.19
601.762	38884.92
602.12	39187.97
602.478	39538.92
602.836	39932.81
603.194	40075.85
603.552	40413.25
603.91	40601.49
604.268	41034.02
604.625	41286.22
604.983	41829.93
605.341	41835.13
605.698	42372.06
606.056	42773.64
606.413	42986.74
606.771	43365.26
607.128	43607.51
607.485	43652.03
607.843	44042.53
608.2	44396.87
608.557	44958.21
608.914	44944.2
609.272	45373.57
609.629	45596.39
609.986	45903.04
610.343	45972.87
610.7	46416.48
611.057	46604.04
611.414	46705.28
611.771	47002.22
612.127	47202.67
612.484	47466.85
612.841	47833.16
613.198	47816.67
613.554	47992.03
613.911	48316.77
614.267	48376.88
614.624	48530.77
614.98	48806.7
615.337	49132.11
615.693	49095.28
616.05	49437.87
616.406	49582.27
616.762	49584.53
617.118	49639.22
617.475	49786.11
617.831	50124.4
618.187	50232.65
618.543	50403.27
618.899	50612.3
619.255	50644.16
619.611	50748.34
619.967	50966.41
620.323	51047.09
620.678	51062.23
621.034	51055.9
621.39	51075.11
621.746	51232.4
622.101	51619.5
622.457	51438.94
622.812	51629.67
623.168	51665.38
623.523	51782.89
623.879	51960.74
624.234	51814.53
624.589	51983.34
624.945	52054.3
625.3	52063.11
625.655	52170.9
626.01	52290
626.365	52377.9
626.72	52356.66
627.075	52308.3
627.43	52362.08
627.785	52426.71
628.14	52575.86
628.495	52646.37
628.85	52619.48
629.205	52512.81
629.559	52805.46
629.914	52699.02
630.269	52676.88
630.623	52633.04
630.978	52622.42
631.332	52874.84
631.687	52800.94
632.041	52777.67
632.396	52849.75
632.75	52721.17
633.104	52788.97
633.459	52763.66
633.813	52753.03
634.167	52790.09
634.521	52796.65
634.875	52840.72
635.229	52866.7
635.583	52732.47
635.937	52810.21
636.291	52769.98
636.645	52875.97
636.999	52786.93
637.352	52793.94
637.706	52668.74
638.06	52878.45
638.413	52766.59
638.767	52665.8
639.121	52700.38
639.474	52613.38
639.828	52662.19
640.181	52681.17
640.534	52799.59
640.888	52766.37
641.241	52558.24
641.594	52678.91
641.947	52821.28
642.301	52682.3
642.654	52694.5
643.007	52677.1
643.36	52704.45
643.713	52616.09
644.066	52710.32
644.419	52529.76
644.771	52339.49
645.124	52036.89
645.477	51994.18
645.83	51895.2
646.182	51756.45
646.535	51691.82
646.888	51746.28
647.24	51512.16
647.593	51774.75
647.945	51688.2
648.298	51605.72
648.65	51484.37
649.002	51433.97
649.355	51537.02
649.707	51524.14
650.059	51662.89
650.411	52113.5
650.763	52097.46
651.115	52405.7
651.467	52173.61
651.819	52277.11
652.171	52183.11
652.523	52097.46
652.875	52266.04
653.227	52061.3
653.578	52265.59
653.93	52102.66
654.282	52058.59
654.633	51998.7
654.985	52080.51
655.337	52069.21
655.688	52186.72
656.039	52237.57
656.391	51888.42
656.742	52013.62
657.094	51941.53
657.445	52140.85
657.796	51964.35
658.147	51991.02
658.498	51957.57
658.849	52079.61
659.2	52082.09
659.551	51833.74
659.902	52099.94
660.253	51876.22
660.604	52054.3
660.955	51851.36
661.306	51901.76
661.656	51877.58
662.007	51956.44
662.358	51893.85
662.708	51918.93
663.059	51931.81
663.409	51711.93
663.76	52026.73
664.11	51958.7
664.461	52061.3
664.811	51985.37
665.161	51894.3
665.511	51882.32
665.862	51802.1
666.212	51963.45
666.562	51932.49
666.912	51907.41
667.262	51796.9
667.612	51786.96
667.962	51844.13
668.312	51797.35
668.662	51922.55
669.011	51789.9
669.361	51785.6
669.711	51779.05
670.06	51672.38
670.41	51658.37
670.76	51579.28
671.109	51737.47
671.459	51643.91
671.808	51641.65
672.157	51708.77
672.507	51412.5
672.856	51489.34
673.205	51465.61
673.554	51630.35
673.904	51526.63
674.253	51742.66
674.602	51589
674.951	51116.47
675.3	51012.74
675.649	51525.72
675.998	51461.09
676.346	51447.98
676.695	51663.12
677.044	51323.24
677.393	51499.28
677.741	51483.24
678.09	51321.21
678.438	51297.93
678.787	51283.92
679.135	51346.74
679.484	51149.69
679.832	51230.81
680.181	51085.51
680.529	51135.68
680.877	51046.64
681.225	51012.74
681.573	51159.4
681.922	50882.57
682.27	50776.14
682.618	50874.21
682.966	50855.46
683.314	50825.63
683.661	50789.7
684.009	50517.39
684.357	50617.72
684.705	50436.94
685.053	50534.34
685.4	50497.05
685.748	50323.27
686.095	50292.08
686.443	50160.33
686.79	50174.12
687.138	50223.61
687.485	50118.98
687.832	49887.35
688.18	50031.98
688.527	49826.56
688.874	49887.8
689.221	49788.14
689.568	49599.9
689.915	49619.1
690.262	49725.09
690.609	49566
690.956	49278.77
691.303	49367.59
691.65	49122.62
691.997	49117.2
692.344	48924.43
692.69	48994.94
693.037	48883.98
693.383	48606.25
693.73	48887.15
694.077	48608.74
694.423	48550.43
694.769	48460.72
695.116	48412.36
695.462	48247.39
695.808	48204.68
696.155	48129.2
696.501	47814.63
696.847	47900.28
697.193	47703.68
697.539	47866.38
697.885	47540.06
698.231	47481.99
698.577	47523.57
698.923	47498.26
699.269	47198.6
699.614	46995.45
699.96	46980.98
700.306	47062.34
700.651	46833.42
700.997	46710.93
701.342	46657.83
701.688	46614.66
702.033	46510.49
702.379	46414.22
702.724	46321.11
703.069	46414.67
703.415	45845.64
703.76	46022.82
704.105	45949.6
704.45	45827.57
704.795	45561.36
705.14	45494.47
705.485	45482.49
705.83	45307.81
706.175	45486.33
706.52	45408.14
706.865	45224.42
707.209	45197.53
707.554	44875.73
707.899	45052.45
708.243	44701.72
708.588	44724.32
708.932	44493.59
709.277	44473.7
709.621	44374.95
709.966	44126.14
710.31	44324.78
710.654	43864
710.998	44162.75
711.342	44037.1
711.687	43992.81
712.031	43809.31
712.375	43506.5
712.719	43625.82
713.063	43600.73
713.407	43690
713.75	43497.01
714.094	43420.4
714.438	43184.92
714.782	43301.76
715.125	43003.91
715.469	43141.54
715.812	42914.42
716.156	42784.26
716.499	42718.5
716.843	42860.41
717.186	42500.42
717.53	42742.22
717.873	42716.24
718.216	42446.41
718.559	42391.05
718.902	42108.34
719.246	42344.95
719.589	42081
719.932	42071.51
720.275	42044.39
720.617	41912.19
720.96	41837.39
721.303	41941.34
721.646	41963.94
721.989	41490.96
722.331	41686.88
722.674	41586.32
723.016	41545.87
723.359	41524.63
723.701	41584.29
724.044	41303.62
724.386	41096.84
724.729	41159.89
725.071	41208.03
725.413	41153.56
725.755	40989.28
726.097	40931.2
726.439	40727.81
726.782	40716.74
727.124	40806.46
727.465	40551.77
727.807	40602.62
728.149	40432.91
728.491	40335.06
728.833	40495.5
729.175	40427.03
729.516	40337.09
729.858	40253.7
730.199	40344.32
730.541	40103.87
730.882	40012.35
731.224	40146.81
731.565	39912.02
731.906	39967.38
732.248	40102.29
732.589	39832.7
732.93	39751.34
733.271	39709.76
733.612	39697.11
733.953	39554.06
734.294	39646.26
734.635	39597
734.976	39609.88
735.317	39499.6
735.658	39542.53
735.999	39419.6
736.339	39154.07
736.68	39299.15
737.021	39279.04
737.361	38993.62
737.702	39229.55
738.042	39072.72
738.383	38877.92
738.723	39017.58
739.063	38852.83
739.404	38852.83
739.744	38846.96
740.084	38622.78
740.424	38717.92
740.764	38606.97
741.104	38663.69
741.444	38502.11
741.784	38372.39
742.124	38550.92
742.464	38411.26
742.804	38300.53
743.143	38197.94
743.483	38122.68
743.823	37887.44
744.162	38077.26
744.502	38001.56
744.841	37857.83
745.181	37981.22
745.52	37915.01
745.86	37739.87
746.199	37809.92
746.538	37776.25
746.877	37713.43
747.216	37680.89
747.556	37655.8
747.895	37649.25
748.234	37489.03
748.573	37506.43
748.911	37313.44
749.25	37434.34
749.589	37213.1
749.928	37234.57
750.267	37329.48
750.605	37157.74
750.944	37081.58
751.283	36917.74
751.621	37106.67
751.96	36772.66
752.298	36801.81
752.636	36907.12
752.975	36615.61
753.313	36456.29
753.651	36718.43
753.989	36488.83
754.327	36508.94
754.666	36143.3
755.004	36381.03
755.342	36266.46
755.679	36129.74
756.017	35985.57
756.355	36072.57
756.693	35953.7
757.031	35972.68
757.368	35619.47
