Data from hue_200_FLMS001491_00021.txt Node
Date: Tue Feb 07 16:43:02 GMT 2017
User: dcchb
Spectrometer: FLMS00149
Trigger mode: 0
Integration Time (sec): 2.000000E-2
Scans to average: 10
Electric dark correction enabled: true
Nonlinearity correction enabled: false
Boxcar width: 0
XAxis mode: Wavelengths
Number of Pixels in Spectrum: 2048
>>>>>Begin Spectral Data<<<<<
341.393	0.11
341.776	0.11
342.16	0.11
342.543	-46.89
342.927	-48.02
343.31	-67
343.693	-85.31
344.077	-63.84
344.46	-74.69
344.843	-57.29
345.226	-56.61
345.61	-38.08
345.993	4.86
346.376	-3.73
346.759	14.8
347.142	28.36
347.525	43.28
347.908	64.74
348.291	76.04
348.674	94.57
349.057	119.88
349.44	145.65
349.823	144.97
350.206	154.23
350.588	196.04
350.971	209.37
351.354	199.66
351.737	238.98
352.119	254.12
352.502	260.9
352.884	293.89
353.267	301.12
353.65	274.46
354.032	303.38
354.414	308.58
354.797	312.42
355.179	326.88
355.562	298.86
355.944	315.58
356.326	342.02
356.709	333.44
357.091	361.46
357.473	354
357.855	331.4
358.238	340.22
358.62	342.7
359.002	339.77
359.384	332.53
359.766	353.78
360.148	318.75
360.53	359.88
360.912	321.23
361.294	302.25
361.676	334.57
362.057	339.09
362.439	333.66
362.821	327.56
363.203	332.31
363.584	339.09
363.966	336.6
364.348	322.36
364.729	327.11
365.111	319.88
365.493	329.37
365.874	328.01
366.256	311.29
366.637	304.74
367.019	315.58
367.4	313.55
367.781	325.98
368.163	316.71
368.544	311.29
368.925	324.4
369.306	311.52
369.688	331.63
370.069	317.84
370.45	330.27
370.831	329.82
371.212	318.52
371.593	315.13
371.974	300.22
372.355	283.95
372.736	315.58
373.117	318.52
373.498	315.58
373.879	304.96
374.26	319.65
374.641	303.38
375.021	319.88
375.402	312.2
375.783	331.4
376.163	294.79
376.544	325.75
376.925	330.5
377.305	335.7
377.686	334.79
378.066	343.61
378.447	318.97
378.827	336.15
379.208	330.5
379.588	327.11
379.968	321.23
380.349	333.44
380.729	337.05
381.109	357.17
381.489	328.01
381.87	338.18
382.25	331.18
382.63	347
383.01	334.12
383.39	352.65
383.77	352.87
384.15	336.83
384.53	373.21
384.91	346.77
385.29	340.89
385.67	357.39
386.049	360.33
386.429	357.62
386.809	356.26
387.189	362.14
387.568	337.73
387.948	365.75
388.328	356.26
388.707	360.1
389.087	368.01
389.466	363.72
389.846	350.84
390.225	372.31
390.605	370.05
390.984	366.21
391.363	388.35
391.743	369.14
392.122	380.22
392.501	377.05
392.881	411.63
393.26	385.87
393.639	378.86
394.018	378.41
394.397	366.66
394.776	408.69
395.155	372.31
395.534	376.15
395.913	382.93
396.292	402.36
396.671	410.05
397.05	401.68
397.429	372.98
397.808	403.04
398.186	401.23
398.565	415.24
398.944	405.53
399.323	410.05
399.701	414.34
400.08	396.94
400.458	423.6
400.837	419.09
401.215	431.74
401.594	440.55
401.972	424.51
402.351	421.12
402.729	429.71
403.107	435.81
403.486	427.9
403.864	440.33
404.242	440.78
404.62	435.58
404.999	444.85
405.377	473.55
405.755	470.16
406.133	454.11
406.511	482.36
406.889	466.32
407.267	480.78
407.645	483.04
408.023	494.56
408.401	491.4
408.779	509.93
409.156	497.95
409.534	501.79
409.912	496.15
410.29	531.17
410.667	538.18
411.045	551.06
411.422	565.07
411.8	551.96
412.178	575.69
412.555	604.39
412.933	601.68
413.31	588.12
413.687	595.13
414.065	607.33
414.442	624.05
414.819	638.06
415.197	637.16
415.574	661.79
415.951	660.21
416.328	647.1
416.705	693.65
417.082	673.77
417.46	700.43
417.837	697.04
418.214	734.78
418.591	744.73
418.967	720.77
419.344	752.86
419.721	743.14
420.098	768.68
420.475	774.1
420.852	785.18
421.228	792.86
421.605	801.22
421.982	820.2
422.358	847.77
422.735	848.23
423.111	863.37
423.488	921.22
423.864	875.8
424.241	950.14
424.617	924.83
424.994	938.62
425.37	956.92
425.746	1007.54
426.123	991.95
426.499	1002.57
426.875	1003.02
427.251	1057.94
427.627	1054.1
428.003	1033.98
428.379	1085.28
428.756	1100.2
429.132	1088.9
429.507	1148.33
429.883	1128.22
430.259	1120.76
430.635	1156.47
431.011	1205.96
431.387	1219.29
431.763	1206.63
432.138	1203.25
432.514	1251.61
432.89	1294.99
433.265	1266.52
433.641	1318.04
434.016	1318.95
434.392	1354.2
434.767	1394.88
435.143	1393.07
435.518	1426.97
435.894	1491.15
436.269	1495.89
436.644	1502.22
437.02	1525.5
437.395	1532.05
437.77	1587.19
438.145	1622.67
438.52	1628.77
438.895	1665.15
439.271	1690.46
439.646	1736.11
440.021	1738.37
440.395	1786.73
440.77	1753.51
441.145	1823.57
441.52	1837.8
441.895	1884.36
442.27	1860.86
442.645	1887.07
443.019	1923.68
443.394	1919.16
443.769	1958.48
444.143	1968.42
444.518	2013.85
444.892	2000.74
445.267	2037.57
445.641	2052.04
446.016	2067.4
446.39	2081.87
446.764	2117.12
447.139	2089.32
447.513	2157.8
447.887	2155.31
448.262	2138.36
448.636	2185.82
449.01	2194.63
449.384	2216.33
449.758	2255.87
450.132	2275.99
450.506	2289.09
450.88	2280.28
451.254	2291.58
451.628	2346.72
452.002	2390.11
452.376	2395.08
452.75	2397.11
453.123	2409.32
453.497	2479.6
453.871	2489.77
454.244	2520.05
454.618	2563.21
454.992	2587.16
455.365	2543.55
455.739	2686.14
456.112	2671.46
456.486	2690.44
456.859	2720.49
457.232	2778.8
457.606	2777.67
457.979	2813.15
458.352	2916.65
458.725	2915.74
459.099	2902.18
459.472	2972.92
459.845	2999.58
460.218	3023.31
460.591	3036.87
460.964	3028.06
461.337	3125.23
461.71	3175.17
462.083	3236.19
462.456	3198.67
462.829	3237.09
463.201	3269.41
463.574	3289.97
463.947	3344.21
464.32	3423.07
464.692	3439.57
465.065	3460.81
465.438	3541.94
465.81	3559.79
466.183	3590.98
466.555	3663.29
466.928	3710.07
467.3	3683.18
467.672	3772.44
468.045	3814.93
468.417	3893.8
468.789	3893.57
469.161	3968.37
469.534	3980.8
469.906	4071.42
470.278	4117.74
470.65	4120
471.022	4204.75
471.394	4322.49
471.766	4319.1
472.138	4358.87
472.51	4451.52
472.882	4491.29
473.253	4549.15
473.625	4588.92
473.997	4747.11
474.369	4716.37
474.74	4754.11
475.112	4865.75
475.484	4937.84
475.855	4988.23
476.227	5038.17
476.598	5164.27
476.97	5204.04
477.341	5347.99
477.713	5437.03
478.084	5461.89
478.455	5558.61
478.827	5588.21
479.198	5776.23
479.569	5743.24
479.94	5884.48
480.311	5942.1
480.682	6028.2
481.053	6131.93
481.424	6236.79
481.795	6288.76
482.166	6381.41
482.537	6405.37
482.908	6510.45
483.279	6610.79
483.65	6713.16
484.021	6753.38
484.391	6880.61
484.762	6972.59
485.133	7013.04
485.503	7078.12
485.874	7233.14
486.244	7257.1
486.615	7415.06
486.985	7442.4
487.356	7590.2
487.726	7709.06
488.097	7798.55
488.467	7747.25
488.837	7947.25
489.207	8074.7
489.578	8124.19
489.948	8211.65
490.318	8343.85
490.688	8327.13
491.058	8414.13
491.428	8561.92
491.798	8592.43
492.168	8757.17
492.538	8700.45
492.908	8798.07
493.278	8911.74
493.648	8936.83
494.017	8952.87
494.387	9090.5
494.757	9153.09
495.126	9196.26
495.496	9158.29
495.866	9250.27
496.235	9320.09
496.605	9323.03
496.974	9425.4
497.344	9475.12
497.713	9503.14
498.082	9607.54
498.452	9645.74
498.821	9711.04
499.19	9668.56
499.559	9728.44
499.928	9821.32
500.298	9833.07
500.667	9863.13
501.036	9820.87
501.405	9989.91
501.774	9989
502.143	9978.83
502.512	10071.94
502.88	10138.83
503.249	10074.65
503.618	10106.97
503.987	10116.46
504.356	10122.33
504.724	10194.87
505.093	10164.59
505.462	10243.46
505.83	10252.72
506.199	10282.33
506.567	10391.48
506.936	10384.47
507.304	10453.17
507.672	10436
508.041	10453.62
508.409	10553.06
508.777	10561.19
509.145	10577.46
509.514	10550.34
509.882	10558.71
510.25	10596.22
510.618	10585.37
510.986	10679.83
511.354	10755.99
511.722	10698.81
512.09	10762.54
512.458	10651.36
512.826	10750.34
513.193	10801.41
513.561	10767.29
513.929	10855.42
514.297	10853.84
514.664	10927.51
515.032	10840.73
515.4	10917.34
515.767	10971.35
516.135	10972.93
516.502	10872.6
516.869	10940.84
517.237	10977.45
517.604	10897
517.972	11011.12
518.339	11005.7
518.706	10993.04
519.073	10954.4
519.44	10983.55
519.808	11025.36
520.175	11039.82
520.542	11040.95
520.909	11094.51
521.276	11028.52
521.643	11053.16
522.009	11072.14
522.376	11132.02
522.743	11085.25
523.11	11178.35
523.477	11111.01
523.843	11188.52
524.21	11224
524.577	11321.85
524.943	11205.92
525.31	11282.98
525.676	11230.55
526.043	11248.86
526.409	11164.34
526.776	11292.25
527.142	11206.82
527.508	11234.17
527.874	11257.44
528.241	11261.74
528.607	11287.05
528.973	11216.09
529.339	11134.28
529.705	11247.27
530.071	11246.6
530.437	11234.17
530.803	11166.83
531.169	11191.68
531.535	11060.84
531.901	11087.51
532.267	11089.09
532.632	11122.31
532.998	11068.52
533.364	11054.06
533.73	11048.41
534.095	11048.41
534.461	11042.76
534.826	10937.9
535.192	10897.45
535.557	10987.17
535.923	10950.33
536.288	10923.44
536.653	10864.91
537.019	10749.89
537.384	10739.27
537.749	10689.1
538.114	10715.09
538.479	10610.46
538.845	10613.62
539.21	10579.95
539.575	10539.72
539.94	10503.11
540.305	10466.73
540.67	10406.62
541.034	10302.67
541.399	10330.01
541.764	10300.18
542.129	10246.85
542.494	10148.09
542.858	10223.35
543.223	10099.28
543.587	10135.44
543.952	10057.02
544.316	10052.96
544.681	10029
545.045	9939.96
545.41	9953.07
545.774	9983.58
546.138	9894.09
546.503	9841.66
546.867	9778.84
547.231	9732.29
547.595	9749.69
547.959	9640.76
548.324	9652.51
548.688	9539.07
549.052	9564.38
549.416	9488.45
549.779	9514.67
550.143	9411.62
550.507	9405.74
550.871	9331.85
551.235	9240.77
551.599	9338.17
551.962	9252.3
552.326	9154.9
552.689	9242.58
553.053	9132.98
553.417	9139.76
553.78	9175.69
554.143	8986.32
554.507	9059.54
554.87	9033.1
555.234	9050.72
555.597	9011.63
555.96	8940.22
556.323	8976.37
556.686	8874.91
557.05	8888.01
557.413	8916.04
557.776	8824.74
558.139	8869.03
558.502	8801.24
558.865	8802.82
559.228	8829.71
559.59	8810.5
559.953	8801.24
560.316	8831.97
560.679	8847.11
561.041	8778.64
561.404	8765.76
561.767	8777.28
562.129	8743.61
562.492	8730.96
562.854	8690.73
563.217	8644.18
563.579	8654.8
563.941	8729.15
564.304	8739.09
564.666	8758.53
565.028	8667.23
565.39	8660.45
565.753	8729.83
566.115	8753.78
566.477	8715.36
566.839	8704.74
567.201	8759.66
567.563	8720.11
567.925	8782.93
568.287	8662.48
568.648	8699.09
569.01	8726.66
569.372	8787.9
569.734	8810.95
570.095	8803.72
570.457	8811.63
570.819	8729.6
571.18	8761.92
571.542	8746.32
571.903	8719.43
572.265	8754.69
572.626	8749.04
572.987	8797.17
573.349	8804.85
573.71	8793.78
574.071	8740
574.432	8857.96
574.794	8820.9
575.155	8813.89
575.516	8765.76
575.877	8843.72
576.238	8821.58
576.599	8915.36
576.96	8806.44
577.32	8847.11
577.681	8887.34
578.042	8828.13
578.403	8838.98
578.763	8893.44
579.124	8894.12
579.485	8860.22
579.845	8899.09
580.206	8868.13
580.566	8831.07
580.927	8859.54
581.287	8866.77
581.648	8826.1
582.008	8811.41
582.368	8804.18
582.728	8770.05
583.089	8895.02
583.449	8792.65
583.809	8810.5
584.169	8846.43
584.529	8793.1
584.889	8902.25
585.249	8771.18
585.609	8721.69
585.969	8921.01
586.329	8762.37
586.688	8777.96
587.048	8816.15
587.408	8766.44
587.768	8794.68
588.127	8862.48
588.487	8714.69
588.846	8788.81
589.206	8732.99
589.565	8761.46
589.925	8768.02
590.284	8798.75
590.643	8689.15
591.003	8813.44
591.362	8798.3
591.721	8838.52
592.08	8716.95
592.44	8748.81
592.799	8750.62
593.158	8711.07
593.517	8726.21
593.876	8741.35
594.235	8699.77
594.593	8674.46
594.952	8665.2
595.311	8644.86
595.67	8700.45
596.029	8744.52
596.387	8708.36
596.746	8637.63
597.104	8697.96
597.463	8730.5
597.822	8693.67
598.18	8694.35
598.538	8685.08
598.897	8659.09
599.255	8650.28
599.613	8716.04
599.972	8695.25
600.33	8645.54
600.688	8698.42
601.046	8714.01
601.404	8767.34
601.762	8688.02
602.12	8738.87
602.478	8683.05
602.836	8678.98
603.194	8638.3
603.552	8680.34
603.91	8618.87
604.268	8648.25
604.625	8605.08
604.983	8688.7
605.341	8643.95
605.698	8713.1
606.056	8727.12
606.413	8657.29
606.771	8720.56
607.128	8736.83
607.485	8643.73
607.843	8666.55
608.2	8654.57
608.557	8690.05
608.914	8701.13
609.272	8732.76
609.629	8759.66
609.986	8690.05
610.343	8745.42
610.7	8767.79
611.057	8701.13
611.414	8761.92
611.771	8671.07
612.127	8755.14
612.484	8745.87
612.841	8793.33
613.198	8774.35
613.554	8718.98
613.911	8801.24
614.267	8768.47
614.624	8772.54
614.98	8840.33
615.337	8790.39
615.693	8858.86
616.05	8756.94
616.406	8899.99
616.762	8785.64
617.118	8812.54
617.475	8770.05
617.831	8867.45
618.187	8794.46
618.543	8840.56
618.899	8881.46
619.255	8836.26
619.611	8862.7
619.967	8852.08
620.323	8895.47
620.678	8798.75
621.034	8835.36
621.39	8831.75
621.746	8817.73
622.101	8871.74
622.457	8823.16
622.812	8884.17
623.168	8868.81
623.523	8860.9
623.879	8883.27
624.234	8871.97
624.589	8914.23
624.945	8851.86
625.3	8918.52
625.655	8909.71
626.01	8908.35
626.365	8837.85
626.72	8868.58
627.075	8835.36
627.43	8841.91
627.785	8795.81
628.14	8861.8
628.495	8805.98
628.85	8824.29
629.205	8747
629.559	8808.92
629.914	8805.08
630.269	8791.29
630.623	8756.04
630.978	8758.53
631.332	8797.4
631.687	8791.29
632.041	8834.68
632.396	8743.84
632.75	8754.46
633.104	8753.78
633.459	8634.01
633.813	8711.3
634.167	8673.11
634.521	8683.27
634.875	8635.14
635.229	8643.05
635.583	8643.5
635.937	8625.65
636.291	8628.81
636.645	8615.03
636.999	8576.16
637.352	8657.74
637.706	8568.25
638.06	8645.76
638.413	8591.98
638.767	8513.34
639.121	8515.82
639.474	8525.09
639.828	8527.12
640.181	8543.84
640.534	8549.72
640.888	8485.77
641.241	8417.52
641.594	8451.19
641.947	8497.74
642.301	8508.82
642.654	8440.8
643.007	8438.08
643.36	8450.51
643.713	8463.17
644.066	8495.48
644.419	8453.22
644.771	8335.04
645.124	8373.23
645.477	8306.11
645.83	8231.31
646.182	8192.67
646.535	8204.42
646.888	8165.55
647.24	8172.55
647.593	8239.22
647.945	8141.37
648.298	8133.91
648.65	8149.28
649.002	8132.55
649.355	8168.94
649.707	8129.39
650.059	8191.99
650.411	8290.97
650.763	8285.09
651.115	8439.21
651.467	8443.51
651.819	8347.01
652.171	8352.44
652.523	8288.03
652.875	8321.48
653.227	8330.52
653.578	8336.39
653.93	8389.72
654.282	8280.12
654.633	8327.35
654.985	8368.93
655.337	8355.6
655.688	8320.12
656.039	8361.7
656.391	8280.12
656.742	8328.26
657.094	8335.04
657.445	8375.94
657.796	8302.95
658.147	8333
658.498	8268.6
658.849	8373.23
659.2	8373.45
659.551	8334.81
659.902	8351.98
660.253	8378.65
660.604	8396.5
660.955	8361.25
661.306	8359.67
661.656	8364.19
662.007	8335.94
662.358	8337.52
662.708	8396.28
663.059	8391.3
663.409	8365.09
663.76	8368.25
664.11	8467.69
664.461	8428.37
664.811	8384.07
665.161	8381.36
665.511	8418.42
665.862	8451.19
666.212	8400.12
666.562	8363.51
666.912	8403.73
667.262	8394.24
667.612	8414.36
667.962	8438.08
668.312	8374.81
668.662	8435.37
669.011	8436.05
669.361	8410.97
669.711	8374.58
670.06	8378.65
670.41	8336.16
670.76	8316.5
671.109	8417.52
671.459	8361.93
671.808	8309.5
672.157	8333
672.507	8385.88
672.856	8314.02
673.205	8307.69
673.554	8293
673.904	8236.51
674.253	8352.66
674.602	8335.71
674.951	8203.29
675.3	8139.33
675.649	8257.97
675.998	8288.71
676.346	8281.25
676.695	8301.59
677.044	8227.69
677.393	8242.38
677.741	8274.7
678.09	8210.74
678.438	8221.14
678.787	8199.22
679.135	8161.71
679.484	8146.11
679.832	8197.86
680.181	8111.54
680.529	8086.68
680.877	8102.05
681.225	8086
681.573	8121.71
681.922	7996.96
682.27	8094.59
682.618	8072.44
682.966	7984.99
683.314	8020.24
683.661	8008.04
684.009	8044.2
684.357	8001.48
684.705	7920.36
685.053	7974.14
685.4	7941.37
685.748	7935.5
686.095	7822.28
686.443	7829.96
686.79	7821.6
687.138	7854.82
687.485	7835.39
687.832	7840.81
688.18	7816.63
688.527	7801.49
688.874	7726.24
689.221	7796.74
689.568	7721.72
689.915	7725.56
690.262	7619.8
690.609	7677.43
690.956	7596.52
691.303	7599.24
691.65	7551.1
691.997	7585.22
692.344	7414.61
692.69	7524.43
693.037	7494.15
693.383	7441.05
693.73	7411.9
694.077	7441.05
694.423	7373.03
694.769	7341.84
695.116	7328.28
695.462	7290.54
695.808	7302.75
696.155	7314.27
696.501	7230.88
696.847	7246.93
697.193	7171.68
697.539	7178
697.885	7074.05
698.231	7046.71
698.577	7130.1
698.923	7045.58
699.269	7055.97
699.614	7015.52
699.96	6980.95
700.306	6964
700.651	6939.37
700.997	6869.76
701.342	6881.74
701.688	6897.78
702.033	6859.37
702.379	6814.85
702.724	6753.16
703.069	6791.57
703.415	6726.49
703.76	6714.51
704.105	6739.37
704.45	6690.33
704.795	6675.87
705.14	6653.95
705.485	6656.44
705.83	6615.76
706.175	6545.03
706.52	6557.68
706.865	6532.6
707.209	6533.95
707.554	6437.46
707.899	6519.94
708.243	6421.87
708.588	6480.85
708.932	6417.12
709.277	6384.13
709.621	6368.31
709.966	6399.49
710.31	6350.68
710.654	6310.46
710.998	6263.68
711.342	6341.42
711.687	6274.98
712.031	6266.16
712.375	6234.3
712.719	6246.28
713.063	6239.95
713.407	6272.94
713.75	6172.15
714.094	6123.12
714.438	6168.54
714.782	6138.03
715.125	6168.54
715.469	6166.28
715.812	6125.15
716.156	6098.48
716.499	6107.3
716.843	6152.95
717.186	6100.74
717.53	6086.28
717.873	6128.77
718.216	6078.15
718.559	6048.54
718.902	6058.48
719.246	6044.93
719.589	5990.24
719.932	6009.45
720.275	6011.03
720.617	6065.04
720.96	6023.23
721.303	6046.96
721.646	5964.48
721.989	5985.04
722.331	6015.55
722.674	5994.31
723.016	5933.97
723.359	5952.27
723.701	5976
724.044	5947.3
724.386	5914.76
724.729	5948.43
725.071	5906.17
725.413	5941.88
725.755	5985.94
726.097	5908.88
726.439	5846.96
726.782	5910.69
727.124	5948.88
727.465	5928.32
727.807	5901.88
728.149	5837.02
728.491	5910.24
728.833	5885.38
729.175	5822.11
729.516	5864.14
729.858	5830.24
730.199	5879.73
730.541	5858.94
730.882	5795.21
731.224	5881.77
731.565	5854.2
731.906	5840.41
732.248	5919.05
732.589	5834.08
732.93	5827.3
733.271	5797.02
733.612	5859.85
733.953	5904.14
734.294	5833.86
734.635	5836.57
734.976	5909.11
735.317	5938.71
735.658	5924.7
735.999	5869.34
736.339	5847.87
736.68	5904.14
737.021	5907.75
737.361	5937.13
737.702	5940.07
738.042	5876.79
738.383	5922.44
738.723	5915.66
739.063	5928.32
739.404	5970.13
739.744	5873.18
740.084	5926.51
740.424	5934.42
740.764	5967.87
741.104	6018.03
741.444	5996.79
741.784	5991.14
742.124	5972.16
742.464	6039.73
742.804	6015.77
743.143	6014.87
743.483	6050.12
743.823	6088.09
744.162	6079.28
744.502	6172.61
744.841	6155.66
745.181	6204.92
745.52	6233.85
745.86	6266.39
746.199	6225.49
746.538	6325.37
746.877	6411.47
747.216	6388.65
747.556	6419.38
747.895	6431.58
748.234	6480.62
748.573	6561.97
748.911	6581.18
749.25	6629.32
749.589	6682.65
749.928	6811.69
750.267	6801.97
750.605	6841.74
750.944	6909.31
751.283	6987.05
751.621	7095.75
751.96	7124.9
752.298	7201.96
752.636	7365.8
752.975	7415.74
753.313	7526.24
753.651	7630.87
753.989	7729.4
754.327	7810.08
754.666	7858.44
755.004	7961.49
755.342	8223.85
755.679	8275.38
756.017	8418.65
756.355	8540.91
756.693	8595.14
757.031	8831.97
757.368	8907.9
757.706	9016.83
758.044	9134.34
758.381	9337.27
758.719	9516.47
759.056	9738.16
759.394	9832.17
759.731	9978.83
760.068	10141.09
760.405	10270.35
760.743	10388.77
761.08	10612.94
761.417	10824.24
761.754	10987.39
762.091	11119.14
762.428	11316.65
762.765	11397.1
763.102	11641.16
763.438	11848.62
763.775	11953.92
764.112	12154.14
764.449	12383.74
764.785	12601.82
765.122	12668.25
765.458	12843.17
765.795	12993.22
766.131	13113.67
766.467	13378.29
766.804	13428.46
767.14	13575.8
