Data from hue_210_FLMS001491_00038.txt Node
Date: Tue Feb 07 16:41:07 GMT 2017
User: dcchb
Spectrometer: FLMS00149
Trigger mode: 0
Integration Time (sec): 2.000000E-2
Scans to average: 10
Electric dark correction enabled: true
Nonlinearity correction enabled: false
Boxcar width: 0
XAxis mode: Wavelengths
Number of Pixels in Spectrum: 2048
>>>>>Begin Spectral Data<<<<<
341.393	-2.88
341.776	-2.88
342.16	-2.88
342.543	-58.7
342.927	-68.87
343.31	-52.37
343.693	-83.33
344.077	-73.61
344.46	-37.68
344.843	-49.66
345.226	-54.41
345.61	-14.63
345.993	-9.66
346.376	-12.37
346.759	7.51
347.142	8.64
347.525	49.09
347.908	54.07
348.291	75.31
348.674	97.91
349.057	95.2
349.44	132.03
349.823	135.42
350.206	155.76
350.588	183.1
350.971	209.99
351.354	228.07
351.737	255.42
352.119	276.43
352.502	274.63
352.884	270.56
353.267	265.59
353.65	292.7
354.032	288.86
354.414	311.23
354.797	284.34
355.179	305.13
355.562	328.41
355.944	316.43
356.326	327.28
356.709	326.15
357.091	303.33
357.473	311.01
357.855	336.09
358.238	338.13
358.62	339.48
359.002	322.31
359.384	335.41
359.766	328.18
360.148	344.91
360.53	327.28
360.912	337.67
361.294	324.79
361.676	315.53
362.057	339.93
362.439	343.78
362.821	318.24
363.203	327.96
363.584	343.55
363.966	318.24
364.348	323.21
364.729	321.4
365.111	307.39
365.493	315.98
365.874	297
366.256	312.82
366.637	313.72
367.019	313.72
367.4	316.21
367.781	313.27
368.163	321.4
368.544	302.87
368.925	314.62
369.306	320.5
369.688	301.29
370.069	324.12
370.45	301.07
370.831	314.62
371.212	321.86
371.593	309.88
371.974	322.99
372.355	300.16
372.736	315.75
373.117	314.17
373.498	298.81
373.879	290.67
374.26	311.91
374.641	327.73
375.021	314.62
375.402	312.36
375.783	308.52
376.163	300.16
376.544	321.4
376.925	330.67
377.305	332.25
377.686	338.58
378.066	335.64
378.447	307.85
378.827	333.16
379.208	341.97
379.588	321.4
379.968	315.75
380.349	330.22
380.729	320.95
381.109	320.95
381.489	325.25
381.87	344
382.25	334.28
382.63	329.99
383.01	344
383.39	345.36
383.77	353.95
384.15	339.71
384.53	365.24
384.91	344
385.29	336.32
385.67	367.96
386.049	371.12
386.429	362.53
386.809	350.33
387.189	356.21
387.568	346.71
387.948	347.62
388.328	345.13
388.707	367.05
389.087	372.02
389.466	358.69
389.846	362.98
390.225	350.33
390.605	374.96
390.984	383.55
391.363	390.1
391.743	367.73
392.122	380.16
392.501	365.92
392.881	376.09
393.26	395.07
393.639	387.62
394.018	369.76
394.397	400.05
394.776	385.13
395.155	396.43
395.534	387.84
395.913	382.42
396.292	401.4
396.671	388.07
397.05	391.46
397.429	395.07
397.808	394.17
398.186	394.17
398.565	418.58
398.944	425.36
399.323	417.9
399.701	432.59
400.08	416.77
400.458	400.72
400.837	433.72
401.215	426.03
401.594	450.21
401.972	422.64
402.351	447.5
402.729	446.15
403.107	435.53
403.486	434.85
403.864	439.82
404.242	447.05
404.62	464.23
404.999	437.79
405.377	466.48
405.755	474.62
406.133	449.99
406.511	470.1
406.889	469.2
407.267	499.93
407.645	501.06
408.023	498.57
408.401	522.98
408.779	508.52
409.156	502.42
409.534	521.85
409.912	527.73
410.29	529.99
410.667	539.93
411.045	540.16
411.422	560.72
411.8	584
412.178	581.74
412.555	595.07
412.933	586.71
413.31	619.02
413.687	633.71
414.065	632.81
414.442	626.48
414.819	624.67
415.197	650.43
415.574	647.95
415.951	667.84
416.328	683.88
416.705	684.33
417.082	693.6
417.46	721.17
417.837	726.59
418.214	706.7
418.591	740.83
418.967	724.56
419.344	741.05
419.721	740.83
420.098	782.63
420.475	779.25
420.852	805.01
421.228	826.25
421.605	813.37
421.982	796.19
422.358	833.03
422.735	840.49
423.111	889.98
423.488	875.97
423.864	905.57
424.241	939.47
424.617	905.8
424.994	961.16
425.37	972.23
425.746	986.47
426.123	999.58
426.499	993.48
426.875	1024.89
427.251	1028.05
427.627	1049.97
428.003	1043.19
428.379	1081.38
428.756	1061.05
429.132	1119.12
429.507	1136.07
429.883	1148.27
430.259	1151.89
430.635	1170.2
431.011	1173.81
431.387	1169.97
431.763	1201.83
432.138	1212.68
432.514	1227.82
432.89	1258.78
433.265	1280.47
433.641	1311.89
434.016	1322.73
434.392	1336.97
434.767	1382.62
435.143	1379
435.518	1427.36
435.894	1432.79
436.269	1463.29
436.644	1502.39
437.02	1518.89
437.395	1497.87
437.77	1554.37
438.145	1600.01
438.52	1636.85
438.895	1653.57
439.271	1661.26
439.646	1716.17
440.021	1716.62
440.395	1715.72
440.77	1731.08
441.145	1778.99
441.52	1808.37
441.895	1822.38
442.27	1857.41
442.645	1821.93
443.019	1875.94
443.394	1880.46
443.769	1939.44
444.143	1946.22
444.518	1963.17
444.892	1956.62
445.267	1971.3
445.641	2007.91
446.016	2037.52
446.39	2042.26
446.764	2025.99
447.139	2047.69
447.513	2074.35
447.887	2090.62
448.262	2084.75
448.636	2147.57
449.01	2138.76
449.384	2170.85
449.758	2177.17
450.132	2210.62
450.506	2237.06
450.88	2254.01
451.254	2251.07
451.628	2260.79
452.002	2291.52
452.376	2298.98
452.75	2385.98
453.123	2356.15
453.497	2356.38
453.871	2425.3
454.244	2436.15
454.618	2444.74
454.992	2503.49
455.365	2506.43
455.739	2534.68
456.112	2565.86
456.486	2611.51
456.859	2647.67
457.232	2648.35
457.606	2637.05
457.979	2713.88
458.352	2766.09
458.725	2806.08
459.099	2758.4
459.472	2869.81
459.845	2892.41
460.218	2879.08
460.591	2903.03
460.964	2921.11
461.337	2963.14
461.71	3063.48
462.083	3079.3
462.456	3140.76
462.829	3127.43
463.201	3159.3
463.574	3156.81
463.947	3228.45
464.32	3289.01
464.692	3302.34
465.065	3298.5
465.438	3412.17
465.81	3446.07
466.183	3456.91
466.555	3511.6
466.928	3533.52
467.3	3561.77
467.672	3578.04
468.045	3682.22
468.417	3664.14
468.789	3729
469.161	3757.47
469.534	3795.21
469.906	3881.08
470.278	3924.93
470.65	3954.75
471.022	3999.27
471.394	4118.37
471.766	4161.53
472.138	4172.38
472.51	4221.41
472.882	4342.09
473.253	4321.3
473.625	4426.38
473.997	4458.24
474.369	4483.33
474.74	4584.34
475.112	4580.95
475.484	4666.6
475.855	4758.8
476.227	4782.76
476.598	4907.72
476.97	4944.56
477.341	5051.9
477.713	5118.57
478.084	5158.56
478.455	5243.99
478.827	5301.16
479.198	5460.93
479.569	5457.99
479.94	5568.95
480.311	5631.09
480.682	5729.62
481.053	5851.88
481.424	5910.18
481.795	5944.08
482.166	6073.57
482.537	6096.85
482.908	6299.33
483.279	6271.76
483.65	6365.76
484.021	6531.86
484.391	6533.44
484.762	6537.06
485.133	6667
485.503	6751.29
485.874	6862.02
486.244	6929.82
486.615	6994.22
486.985	7056.14
487.356	7176.82
487.726	7212.75
488.097	7413.87
488.467	7392.63
488.837	7507.66
489.207	7601.21
489.578	7719.85
489.948	7757.37
490.318	7892.05
490.688	7868.78
491.058	7988.55
491.428	8132.5
491.798	8144.48
492.168	8253.17
492.538	8291.82
492.908	8373.62
493.278	8439.61
493.648	8489.32
494.017	8582.88
494.387	8650
494.757	8621.07
495.126	8761.18
495.496	8747.62
495.866	8759.37
496.235	8849.32
496.605	8882.76
496.974	9005.24
497.344	9005.7
497.713	9102.64
498.082	9129.99
498.452	9210.44
498.821	9256.54
499.19	9214.05
499.559	9254.5
499.928	9301.05
500.298	9349.64
500.667	9470.32
501.036	9442.52
501.405	9458.11
501.774	9493.14
502.143	9589.41
502.512	9582.4
502.88	9681.84
503.249	9614.94
503.618	9696.07
503.987	9685.68
504.356	9754.83
504.724	9818.1
505.093	9768.39
505.462	9821.72
505.83	9824.2
506.199	9863.75
506.567	9998.44
506.936	9943.07
507.304	10051.32
507.672	10063.29
508.041	10081.83
508.409	10120.47
508.777	10142.39
509.145	10169.73
509.514	10195.49
509.882	10257.64
510.25	10221.26
510.618	10260.58
510.986	10280.69
511.354	10353.46
511.722	10460.12
512.09	10441.14
512.458	10285.21
512.826	10458.54
513.193	10484.75
513.561	10408.37
513.929	10428.03
514.297	10506.9
514.664	10604.07
515.032	10571.08
515.4	10605.43
515.767	10650.4
516.135	10594.58
516.502	10553.45
516.869	10695.37
517.237	10706.89
517.604	10656.5
517.972	10716.16
518.339	10788.02
518.706	10740.57
519.073	10722.03
519.44	10683.84
519.808	10767.01
520.175	10691.75
520.542	10844.07
520.909	10867.34
521.276	10782.82
521.643	10809.04
522.009	10884.52
522.376	10866.66
522.743	10896.95
523.11	10992.08
523.477	10931.29
523.843	10983.5
524.21	11024.85
524.577	11065.08
524.943	11044.06
525.31	11105.08
525.676	11113.89
526.043	11106.66
526.409	11161.12
526.776	11170.84
527.142	11167.67
527.508	11172.87
527.874	11170.61
528.241	11195.69
528.607	11237.95
528.973	11150.5
529.339	11182.81
529.705	11230.72
530.071	11272.53
530.437	11202.25
530.803	11236.6
531.169	11243.6
531.535	11165.86
531.901	11158.41
532.267	11138.52
532.632	11186.2
532.998	11112.98
533.364	11117.73
533.73	11075.92
534.095	11162.93
534.461	11108.01
534.826	11083.61
535.192	11091.74
535.557	11119.76
535.923	11072.08
536.288	11008.58
536.653	10965.19
537.019	10935.14
537.384	10970.84
537.749	10926.32
538.114	10973.33
538.479	10917.74
538.845	10878.87
539.21	10795.7
539.575	10825.31
539.94	10770.39
540.305	10826.21
540.67	10768.59
541.034	10759.32
541.399	10692.2
541.764	10650.62
542.129	10635.48
542.494	10668.93
542.858	10541.25
543.223	10523.85
543.587	10622.15
543.952	10512.55
544.316	10487.46
544.681	10407.47
545.045	10407.01
545.41	10429.84
545.774	10430.06
546.138	10388.26
546.503	10414.92
546.867	10311.65
547.231	10335.15
547.595	10258.54
547.959	10295.83
548.324	10190.3
548.688	10164.99
549.052	10196.17
549.416	10074.14
549.779	10081.6
550.143	10060.36
550.507	10091.32
550.871	10040.47
551.235	9960.92
551.599	9992.79
551.962	9998.66
552.326	9981.49
552.689	9966.35
553.053	9890.64
553.417	9844.54
553.78	9957.31
554.143	9850.42
554.507	9867.37
554.87	9803.19
555.234	9856.29
555.597	9746.24
555.96	9798.67
556.323	9815.62
556.686	9719.57
557.05	9719.35
557.413	9728.16
557.776	9692.23
558.139	9708.5
558.502	9724.55
558.865	9676.19
559.228	9766.13
559.59	9729.07
559.953	9628.5
560.316	9672.8
560.679	9737.88
561.041	9688.84
561.404	9715.51
561.767	9724.55
562.129	9637.77
562.492	9741.5
562.854	9675.73
563.217	9676.64
563.579	9706.92
563.941	9772.45
564.304	9691.55
564.666	9792.34
565.028	9689.52
565.39	9736.98
565.753	9806.58
566.115	9776.52
566.477	9765.22
566.839	9736.98
567.201	9848.16
567.563	9798.67
567.925	9806.13
568.287	9807.03
568.648	9829.18
569.01	9863.07
569.372	9868.5
569.734	9760.03
570.095	9869.63
570.457	9844.54
570.819	9908.95
571.18	9872.79
571.542	9851.32
571.903	9872.79
572.265	9983.07
572.626	9930.64
572.987	9972
573.349	9963.86
573.71	9969.29
574.071	10046.12
574.432	10009.51
574.794	10076.18
575.155	9990.98
575.516	10067.14
575.877	10076.18
576.238	10024.2
576.599	10062.84
576.96	10057.19
577.32	10102.84
577.681	10083.86
578.042	10086.34
578.403	10148.94
578.763	10113.01
579.124	10093.8
579.485	10161.6
579.845	10188.26
580.206	10216.74
580.566	10190.75
580.927	10244.53
581.287	10261.71
581.648	10199.34
582.008	10186.91
582.368	10225.32
582.728	10284.31
583.089	10253.8
583.449	10282.95
583.809	10320.24
584.169	10255.83
584.529	10269.39
584.889	10382.16
585.249	10256.51
585.609	10245.89
585.969	10296.06
586.329	10281.82
586.688	10349.84
587.048	10259.45
587.408	10254.7
587.768	10319.56
588.127	10326.11
588.487	10264.87
588.846	10301.03
589.206	10263.06
589.565	10316.17
589.925	10386.9
590.284	10385.55
590.643	10299.9
591.003	10352.33
591.362	10394.59
591.721	10287.47
592.08	10360.24
592.44	10407.92
592.799	10385.77
593.158	10310.97
593.517	10353.68
593.876	10424.42
594.235	10311.2
594.593	10338.77
594.952	10311.65
595.311	10375.38
595.67	10355.04
596.029	10416.28
596.387	10424.42
596.746	10461.25
597.104	10395.94
597.463	10349.84
597.822	10446.34
598.18	10378.99
598.538	10349.61
598.897	10394.59
599.255	10367.24
599.613	10454.7
599.972	10377.86
600.33	10402.72
600.688	10412.21
601.046	10373.57
601.404	10446.34
601.762	10428.48
602.12	10490.85
602.478	10424.64
602.836	10520.68
603.194	10426
603.552	10440.01
603.91	10466
604.268	10484.98
604.625	10350.97
604.983	10458.09
605.341	10417.86
605.698	10422.38
606.056	10490.4
606.413	10465.09
606.771	10461.93
607.128	10516.39
607.485	10476.84
607.843	10472.1
608.2	10584.86
608.557	10547.58
608.914	10522.49
609.272	10524.3
609.629	10465.77
609.986	10526.56
610.343	10552.1
610.7	10598.65
611.057	10475.94
611.414	10612.21
611.771	10567.01
612.127	10553.23
612.484	10543.96
612.841	10682.49
613.198	10568.59
613.554	10563.39
613.911	10610.62
614.267	10644.07
614.624	10663.96
614.98	10606.56
615.337	10677.29
615.693	10654.92
616.05	10613.79
616.406	10631.42
616.762	10616.05
617.118	10715.71
617.475	10690.85
617.831	10677.74
618.187	10712.32
618.543	10785.76
618.899	10731.53
619.255	10718.87
619.611	10661.02
619.967	10717.97
620.323	10757.29
620.678	10737.63
621.034	10712.09
621.39	10712.09
621.746	10755.03
622.101	10782.15
622.457	10724.07
622.812	10683.62
623.168	10748.93
623.523	10763.16
623.879	10824.63
624.234	10716.84
624.589	10727.91
624.945	10804.52
625.3	10754.35
625.655	10776.95
626.01	10753.9
626.365	10819.66
626.72	10779.89
627.075	10691.98
627.43	10776.27
627.785	10699.89
628.14	10709.83
628.495	10755.71
628.85	10711.19
629.205	10671.87
629.559	10763.39
629.914	10712.54
630.269	10761.58
630.623	10671.41
630.978	10668.93
631.332	10697.85
631.687	10617.63
632.041	10640.68
632.396	10636.16
632.75	10671.19
633.104	10590.96
633.459	10542.38
633.813	10547.58
634.167	10608.82
634.521	10517.97
634.875	10563.85
635.229	10557.52
635.583	10483.4
635.937	10440.69
636.291	10484.07
636.645	10435.94
636.999	10402.04
637.352	10466.67
637.706	10414.7
638.06	10480.01
638.413	10343.51
638.767	10345.32
639.121	10352.33
639.474	10294.02
639.828	10345.77
640.181	10306
640.534	10352.55
640.888	10245.21
641.241	10283.4
641.594	10314.59
641.947	10310.52
642.301	10300.8
642.654	10256.06
643.007	10314.59
643.36	10276.17
643.713	10247.24
644.066	10306.45
644.419	10226.23
644.771	10200.69
645.124	10038.89
645.477	10136.74
645.83	9993.69
646.182	9938.55
646.535	9881.15
646.888	9910.08
647.24	9918.21
647.593	9932
647.945	9934.48
648.298	9859.91
648.65	9847.26
649.002	9845.67
649.355	9907.14
649.707	9920.02
650.059	9939.91
650.411	10031.21
650.763	10019.68
651.115	10137.87
651.467	10135.61
651.819	10103.29
652.171	10085.89
652.523	10039.11
652.875	10097.87
653.227	10040.92
653.578	10103.29
653.93	10050.41
654.282	9971.09
654.633	10034.59
654.985	10081.15
655.337	10101.26
655.688	10106.46
656.039	10134.03
656.391	9988.27
656.742	10035.27
657.094	10072.33
657.445	10049.06
657.796	10103.97
658.147	10037.98
658.498	10092.22
658.849	10095.61
659.2	10126.8
659.551	10056.74
659.902	10135.84
660.253	10048.38
660.604	10148.94
660.955	10045.67
661.306	10115.5
661.656	10111.43
662.007	10127.93
662.358	10110.98
662.708	10087.47
663.059	10096.51
663.409	10056.74
663.76	10161.6
664.11	10111.88
664.461	10166.79
664.811	10171.77
665.161	10158.66
665.511	10146.68
665.862	10180.58
666.212	10186.68
666.562	10162.73
666.912	10118.43
667.262	10075.05
667.612	10119.11
667.962	10093.12
668.312	10167.47
668.662	10127.93
669.011	10144.2
669.361	10176.06
669.711	10130.86
670.06	10122.28
670.41	10070.3
670.76	10059.68
671.109	10082.5
671.459	10065.78
671.808	10106.46
672.157	10055.16
672.507	10013.13
672.856	10004.09
673.205	10122.95
673.554	10113.46
673.904	10089.73
674.253	10137.87
674.602	10025.78
674.951	9908.04
675.3	9869.85
675.649	10002.96
675.998	9967.03
676.346	9947.14
676.695	10036.85
677.044	9930.64
677.393	10000.47
677.741	9940.81
678.09	9899.91
678.438	9887.93
678.787	9936.07
679.135	9917.99
679.484	9875.73
679.832	9835.05
680.181	9816.07
680.529	9814.71
680.877	9796.86
681.225	9817.2
681.573	9820.14
681.922	9733.13
682.27	9735.85
682.618	9752.12
682.966	9582.18
683.314	9658.79
683.661	9633.02
684.009	9625.11
684.357	9598.9
684.705	9575.62
685.053	9598
685.4	9499.69
685.748	9502.63
686.095	9448.4
686.443	9486.59
686.79	9434.38
687.138	9491.33
687.485	9408.4
687.832	9399.81
688.18	9322.3
688.527	9401.17
688.874	9300.83
689.221	9373.82
689.568	9284.78
689.915	9328.17
690.262	9257.89
690.609	9193.49
690.956	9124.11
691.303	9148.06
691.65	9128.4
691.997	9095.64
692.344	9059.25
692.69	9066.03
693.037	8995.3
693.383	8968.63
693.73	9011.8
694.077	8941.74
694.423	8934.51
694.769	8882.08
695.116	8880.73
695.462	8842.99
695.808	8826.04
696.155	8736.1
696.501	8721.64
696.847	8681.41
697.193	8657.23
697.539	8672.6
697.885	8580.85
698.231	8535.43
698.577	8559.15
698.923	8546.27
699.269	8465.37
699.614	8469.89
699.96	8432.6
700.306	8422.89
700.651	8375.88
700.997	8351.7
701.342	8314.41
701.688	8339.05
702.033	8268.54
702.379	8292.27
702.724	8166.17
703.069	8221.08
703.415	8135.89
703.76	8010.24
704.105	8066.06
704.45	8103.8
704.795	8076
705.14	7982.45
705.485	7972.95
705.83	7891.6
706.175	7952.39
706.52	7914.2
706.865	7905.39
707.209	7820.64
707.554	7822.9
707.899	7803.69
708.243	7762.56
708.588	7831.71
708.932	7707.88
709.277	7754.2
709.621	7681.66
709.966	7668.1
710.31	7657.48
710.654	7605.73
710.998	7629.23
711.342	7586.75
711.687	7567.32
712.031	7457.94
712.375	7490.26
712.719	7556.02
713.063	7503.36
713.407	7552.85
713.75	7482.12
714.094	7518.05
714.438	7466.3
714.782	7445.51
715.125	7424.49
715.469	7410.94
715.812	7396.25
716.156	7342.46
716.499	7343.14
716.843	7332.97
717.186	7292.97
717.53	7333.65
717.873	7323.71
718.216	7310.15
718.559	7291.16
718.902	7275.57
719.246	7281.22
719.589	7301.56
719.932	7217.27
720.275	7238.74
720.617	7207.32
720.96	7194.22
721.303	7189.25
721.646	7190.6
721.989	7162.13
722.331	7236.48
722.674	7122.58
723.016	7174.33
723.359	7108.12
723.701	7203.71
724.044	7052.07
724.386	7085.97
724.729	7105.63
725.071	7115.35
725.413	7065.86
725.755	7128
726.097	7042.58
726.439	7042.36
726.782	7052.98
727.124	7039.42
727.465	7041.68
727.807	7026.31
728.149	7032.41
728.491	7027.22
728.833	7019.76
729.175	6992.87
729.516	6977.05
729.858	7034.67
730.199	7047.33
730.541	7043.49
730.882	7004.62
731.224	7039.19
731.565	6951.06
731.906	7046.65
732.248	7012.3
732.589	6992.42
732.93	6991.74
733.271	6942.47
733.612	6989.25
733.953	7010.49
734.294	6943.15
734.635	6999.65
734.976	7003.49
735.317	6985.18
735.658	7024.28
735.999	6978.4
736.339	7006.2
736.68	7008.01
737.021	7037.16
737.361	6986.09
737.702	7037.84
738.042	6971.17
738.383	7022.02
738.723	7018.18
739.063	6980.44
739.404	7004.17
739.744	7031.96
740.084	7005.75
740.424	7064.05
740.764	7020.21
741.104	7117.16
741.444	7102.02
741.784	7147.67
742.124	7111.73
742.464	7147.21
742.804	7157.83
743.143	7214.1
743.483	7197.83
743.823	7158.96
744.162	7208.91
744.502	7286.64
744.841	7267.44
745.181	7356.7
745.52	7353.54
745.86	7422.91
746.199	7384.95
746.538	7471.72
746.877	7445.51
747.216	7498.84
747.556	7517.15
747.895	7615.45
748.234	7661.32
748.573	7689.12
748.911	7781.09
749.25	7844.37
749.589	7877.82
749.928	7939.73
750.267	8036.68
750.605	8077.81
750.944	8094.31
751.283	8183.57
751.621	8291.14
751.96	8279.39
752.298	8399.38
752.636	8557.12
752.975	8518.25
753.313	8691.81
753.651	8715.53
753.989	8856.55
754.327	8984.23
754.666	9043.43
755.004	9184.22
755.342	9276.65
755.679	9451.79
756.017	9476.19
756.355	9752.79
756.693	9762.06
757.031	10017.65
757.368	10077.98
757.706	10240.92
758.044	10334.47
758.381	10431.42
758.719	10670.51
759.056	10825.53
759.394	11012.42
759.731	11140.33
760.068	11303.04
760.405	11456.25
760.743	11595.23
761.08	11755.45
761.417	11961.1
761.754	12080.64
