Data from hue_340_FLMS001491_75.txt Node
Date: Mon Feb 06 15:43:35 GMT 2017
User: dcchb
Spectrometer: FLMS00149
Trigger mode: 0
Integration Time (sec): 2.000000E-2
Scans to average: 10
Electric dark correction enabled: true
Nonlinearity correction enabled: false
Boxcar width: 0
XAxis mode: Wavelengths
Number of Pixels in Spectrum: 2048
>>>>>Begin Spectral Data<<<<<
341.393	-9.05
341.776	-9.05
342.16	-9.05
342.543	-57.87
342.927	-65.55
343.31	-56.74
343.693	-83.63
344.077	-48.15
344.46	-56.51
344.843	-45.44
345.226	-45.44
345.61	-29.62
345.993	-20.13
346.376	-1.37
346.759	-15.15
347.142	25.07
347.525	51.28
347.908	57.84
348.291	59.65
348.674	96.93
349.057	111.4
349.44	112.3
349.823	129.02
350.206	153.88
350.588	204.73
350.971	203.82
351.354	235.46
351.737	226.87
352.119	220.55
352.502	261.45
352.884	269.58
353.267	256.48
353.65	299.19
354.032	306.19
354.414	301.9
354.797	296.7
355.179	310.49
355.562	315.91
355.944	303.03
356.326	332.41
356.709	325.63
357.091	348.9
357.473	329.24
357.855	349.58
358.238	342.12
358.62	315.91
359.002	315.23
359.384	320.66
359.766	340.99
360.148	352.97
360.53	342.12
360.912	317.94
361.294	331.5
361.676	329.24
362.057	329.24
362.439	337.6
362.821	299.41
363.203	318.85
363.584	322.01
363.966	332.18
364.348	322.69
364.729	343.25
365.111	330.15
365.493	322.92
365.874	313.2
366.256	305.97
366.637	317.72
367.019	312.07
367.4	305.51
367.781	316.59
368.163	331.95
368.544	305.29
368.925	301.67
369.306	304.61
369.688	318.85
370.069	309.36
370.45	325.85
370.831	312.07
371.212	321.79
371.593	289.24
371.974	303.03
372.355	298.96
372.736	311.62
373.117	320.88
373.498	290.83
373.879	328.79
374.26	301.67
374.641	322.01
375.021	309.81
375.402	318.4
375.783	317.27
376.163	338.73
376.544	324.5
376.925	318.85
377.305	327.21
377.686	325.18
378.066	344.38
378.447	312.75
378.827	327.21
379.208	321.33
379.588	338.28
379.968	325.4
380.349	329.02
380.729	326.53
381.109	336.47
381.489	352.29
381.87	349.81
382.25	348
382.63	325.63
383.01	330.82
383.39	340.32
383.77	355.68
384.15	335.57
384.53	341.67
384.91	349.58
385.29	334.67
385.67	331.5
386.049	347.77
386.429	333.76
386.809	354.78
387.189	356.36
387.568	342.12
387.948	342.8
388.328	340.32
388.707	367.43
389.087	358.85
389.466	364.95
389.846	356.36
390.225	366.3
390.605	351.39
390.984	348
391.363	366.98
391.743	352.07
392.122	378.96
392.501	402.46
392.881	362.01
393.26	369.92
393.639	384.16
394.018	360.88
394.397	353.87
394.776	362.01
395.155	388.9
395.534	381.9
395.913	365.85
396.292	363.59
396.671	380.77
397.05	391.39
397.429	396.13
397.808	378.96
398.186	369.02
398.565	386.64
398.944	378.73
399.323	387.55
399.701	389.81
400.08	388.45
400.458	409.69
400.837	397.04
401.215	411.73
401.594	413.99
401.972	406.98
402.351	420.54
402.729	396.13
403.107	380.99
403.486	413.99
403.864	421.67
404.242	417.83
404.62	418.51
404.999	410.14
405.377	423.7
405.755	456.47
406.133	434.78
406.511	438.62
406.889	432.97
407.267	426.87
407.645	441.56
408.023	432.52
408.401	439.07
408.779	430.26
409.156	437.04
409.534	447.66
409.912	456.7
410.29	475.45
410.667	439.97
411.045	474.78
411.422	449.92
411.8	481.1
412.178	490.59
412.555	489.24
412.933	482.69
413.31	498.73
413.687	490.82
414.065	504.83
414.442	515.9
414.819	537.37
415.197	526.07
415.574	526.3
415.951	514.1
416.328	521.55
416.705	534.21
417.082	546.41
417.46	540.54
417.837	563.13
418.214	542.57
418.591	576.69
418.967	582.57
419.344	564.94
419.721	576.92
420.098	577.15
420.475	568.11
420.852	592.06
421.228	584.15
421.605	582.12
421.982	577.82
422.358	602.91
422.735	620.53
423.111	616.01
423.488	615.56
423.864	620.99
424.241	631.61
424.617	622.34
424.994	631.61
425.37	622.12
425.746	661.66
426.123	649.01
426.499	648.78
426.875	651.72
427.251	667.99
427.627	661.89
428.003	665.96
428.379	682.91
428.756	696.01
429.132	687.2
429.507	708.89
429.883	718.16
430.259	716.58
430.635	744.6
431.011	710.93
431.387	733.75
431.763	750.7
432.138	757.03
432.514	740.53
432.89	753.41
433.265	778.04
433.641	788.67
434.016	803.58
434.392	791.15
434.767	805.84
435.143	792.28
435.518	830.7
435.894	804.48
436.269	830.02
436.644	841.55
437.02	862.56
437.395	840.19
437.77	857.14
438.145	874.54
438.52	858.72
438.895	860.98
439.271	886.29
439.646	888.1
440.021	904.14
440.395	899.4
440.77	895.33
441.145	872.28
441.52	891.49
441.895	927.19
442.27	919.74
442.645	917.02
443.019	935.1
443.394	936.46
443.769	939.85
444.143	947.31
444.518	961.99
444.892	960.41
445.267	964.71
445.641	972.84
446.016	997.7
446.39	972.84
446.764	986.17
447.139	976.46
447.513	988.43
447.887	985.72
448.262	1000.86
448.636	1003.35
449.01	1001.09
449.384	1010.35
449.758	1007.19
450.132	1037.47
450.506	1023.69
450.88	997.7
451.254	1046.51
451.628	1042.22
452.002	1065.04
452.376	1060.75
452.75	1070.47
453.123	1066.85
453.497	1086.28
453.871	1108.21
454.244	1129.67
454.618	1087.87
454.992	1136.91
455.365	1129
455.739	1142.78
456.112	1169.67
456.486	1158.37
456.859	1174.19
457.232	1188.66
457.606	1167.86
457.979	1191.59
458.352	1201.54
458.725	1193.85
459.099	1233.85
459.472	1233.4
459.845	1246.05
460.218	1251.03
460.591	1264.36
460.964	1277.01
461.337	1306.17
461.71	1340.74
462.083	1316.79
462.456	1336
462.829	1355.2
463.201	1349.33
463.574	1344.36
463.947	1356.56
464.32	1357.92
464.692	1415.09
465.065	1382.32
465.438	1445.82
465.81	1463
466.183	1447.86
466.555	1472.26
466.928	1498.03
467.3	1499.38
467.672	1496.22
468.045	1525.6
468.417	1541.64
468.789	1565.82
469.161	1564.01
469.534	1580.51
469.906	1614.86
470.278	1625.71
470.65	1668.19
471.022	1661.41
471.394	1701.18
471.766	1721.3
472.138	1732.82
472.51	1745.93
472.882	1767.4
473.253	1795.19
473.625	1807.62
473.997	1860.73
474.369	1853.95
474.74	1920.61
475.112	1907.51
475.484	1946.6
475.855	1942.99
476.227	2007.62
476.598	2018.24
476.97	2041.97
477.341	2088.07
477.713	2096.65
478.084	2077.9
478.455	2154.28
478.827	2184.79
479.198	2226.82
479.569	2242.19
479.94	2307.5
480.311	2322.64
480.682	2345.69
481.053	2423.42
481.424	2442.86
481.795	2448.51
482.166	2508.17
482.537	2532.8
482.908	2560.37
483.279	2589.97
483.65	2633.59
484.021	2664.55
484.391	2659.12
484.762	2735.96
485.133	2752.91
485.503	2779.57
485.874	2842.17
486.244	2891.44
486.615	2939.34
486.985	2961.26
487.356	3056.85
487.726	3029.28
488.097	3073.58
488.467	3090.98
488.837	3149.73
489.207	3170.75
489.578	3217.98
489.948	3276.06
490.318	3308.15
490.688	3300.69
491.058	3357.41
491.428	3401.03
491.798	3411.87
492.168	3482.15
492.538	3504.53
492.908	3594.69
493.278	3622.72
493.648	3626.33
494.017	3623.85
494.387	3660.68
494.757	3689.15
495.126	3774.12
495.496	3763.5
495.866	3764.86
496.235	3814.8
496.605	3873.56
496.974	3866.78
497.344	3921.24
497.713	3912.2
498.082	3925.98
498.452	3959.66
498.821	3985.87
499.19	3998.07
499.559	4032.2
499.928	4071.29
500.298	4078.52
500.667	4114.23
501.036	4062.03
501.405	4127.33
501.774	4154.68
502.143	4235.58
502.512	4201.46
502.88	4218.18
503.249	4219.31
503.618	4251.4
503.987	4334.56
504.356	4334.79
504.724	4336.82
505.093	4311.51
505.462	4349.48
505.83	4355.35
506.199	4416.14
506.567	4468.57
506.936	4418.4
507.304	4473.31
507.672	4492.75
508.041	4517.38
508.409	4523.71
508.777	4551.96
509.145	4618.4
509.514	4566.65
509.882	4582.24
510.25	4596.48
510.618	4631.73
510.986	4646.42
511.354	4714.44
511.722	4675.8
512.09	4763.02
512.458	4735.45
512.826	4781.33
513.193	4787.2
513.561	4804.15
513.929	4851.84
514.297	4804.61
514.664	4883.25
515.032	4882.34
515.4	4927.09
515.767	4913.53
516.135	4892.51
516.502	4941.55
516.869	5030.81
517.237	5005.28
517.604	4972.51
517.972	5067.88
518.339	5099.29
518.706	5089.57
519.073	5040.31
519.44	5085.05
519.808	5126.4
520.175	5119.4
520.542	5152.62
520.909	5169.79
521.276	5142.22
521.643	5184.48
522.009	5264.48
522.376	5249.79
522.743	5307.87
523.11	5295.89
523.477	5371.6
523.843	5347.19
524.21	5392.61
524.577	5426.74
524.943	5402.56
525.31	5515.1
525.676	5552.61
526.043	5580.4
526.409	5584.92
526.776	5628.31
527.142	5606.17
527.508	5640.29
527.874	5704.02
528.241	5730
528.607	5697.69
528.973	5801.87
529.339	5786.73
529.705	5849.55
530.071	5859.49
530.437	5911.69
530.803	5915.31
531.169	5946.27
531.535	5930
531.901	5990.34
532.267	6021.07
532.632	6051.35
532.998	6082.76
533.364	6100.62
533.73	6137.9
534.095	6141.97
534.461	6233.72
534.826	6214.74
535.192	6185.59
535.557	6285.24
535.923	6275.75
536.288	6335.19
536.653	6315.3
537.019	6334.96
537.384	6388.29
537.749	6425.58
538.114	6458.8
538.479	6472.36
538.845	6436.65
539.21	6483.43
539.575	6528.4
539.94	6515.07
540.305	6566.37
540.67	6519.36
541.034	6616.99
541.399	6655.63
541.764	6668.51
542.129	6675.06
542.494	6736.31
542.858	6707.61
543.223	6779.69
543.587	6822.41
543.952	6810.65
544.316	6899.69
544.681	6859.24
545.045	6859.92
545.41	6978.11
545.774	7003.64
546.138	7005.45
546.503	6941.72
546.867	6984.89
547.231	7055.39
547.595	7061.5
547.959	7087.03
548.324	7166.13
548.688	7113.92
549.052	7157.54
549.416	7204.09
549.779	7226.46
550.143	7233.02
550.507	7312.56
550.871	7253.35
551.235	7268.27
551.599	7366.8
551.962	7395.5
552.326	7363.18
552.689	7428.27
553.053	7408.15
553.417	7479.79
553.78	7502.39
554.143	7442.05
554.507	7598.2
554.87	7503.29
555.234	7637.07
555.597	7624.64
555.96	7584.42
556.323	7670.74
556.686	7718.65
557.05	7722.27
557.413	7727.24
557.776	7763.4
558.139	7767.92
558.502	7782.83
558.865	7835.49
559.228	7848.82
559.59	7895.37
559.953	7866.22
560.316	8021.02
560.679	7974.47
561.041	8047.23
561.404	8062.15
561.767	8089.72
562.129	8101.92
562.492	8129.04
562.854	8129.94
563.217	8145.08
563.579	8178.53
563.941	8220.11
564.304	8256.27
564.666	8371.74
565.028	8324.29
565.39	8293.1
565.753	8345.98
566.115	8355.02
566.477	8449.93
566.839	8437.5
567.201	8512.76
567.563	8486.99
567.925	8607.67
568.287	8556.15
568.648	8542.59
569.01	8618.29
569.372	8802.47
569.734	8689.93
570.095	8733.77
570.457	8756.82
570.819	8800.21
571.18	8883.59
571.542	8911.16
571.903	8925.63
572.265	9025.74
572.626	9029.13
572.987	9124.04
573.349	9100.54
573.71	9206.52
574.071	9229.12
574.432	9268.89
574.794	9382.56
575.155	9403.13
575.516	9387.76
575.877	9531.71
576.238	9576.23
576.599	9659.84
576.96	9652.84
577.32	9733.97
577.681	9861.42
578.042	10010.8
578.403	10022.77
578.763	10098.25
579.124	10185.25
579.485	10287.85
579.845	10387.74
580.206	10410.79
580.566	10534.85
580.927	10635.19
581.287	10823.43
581.648	10926.03
582.008	11092.35
582.368	11232.46
582.728	11358.56
583.089	11445.11
583.449	11637.65
583.809	11817.53
584.169	11940.46
584.529	12192.66
584.889	12439.43
585.249	12549.71
585.609	12678.07
585.969	12891.4
586.329	13088.46
586.688	13280.54
587.048	13501.55
587.408	13585.39
587.768	13901.32
588.127	14056.11
588.487	14344.69
588.846	14606.38
589.206	14673.5
589.565	14940.38
589.925	15231
590.284	15520.93
590.643	15729.74
591.003	15977.19
591.362	16443.62
591.721	16637.51
592.08	16843.38
592.44	17220.78
592.799	17389.81
593.158	17699.86
593.517	17945.28
593.876	18243.12
594.235	18553.17
594.593	18714.97
594.952	19112.25
595.311	19377.78
595.67	19624.55
596.029	20075.39
596.387	20294.59
596.746	20579.78
597.104	20703.62
597.463	21062.93
597.822	21458.4
598.18	21669.92
598.538	21964.38
598.897	22251.15
599.255	22314.65
599.613	23008.42
599.972	23055.88
600.33	23453.15
600.688	23641.17
601.046	24029.18
601.404	24359.12
601.762	24443.18
602.12	24932.21
602.478	25214.24
602.836	25392.76
603.194	25454.01
603.552	25815.58
603.91	26022.8
604.268	26396.35
604.625	26518.84
604.983	26869.34
605.341	26992.27
605.698	27370.11
606.056	27613.72
606.413	27744.12
606.771	28167.83
607.128	28343.42
607.485	28548.84
607.843	28648.5
608.2	29070.41
608.557	29327.12
608.914	29463.84
609.272	29904.51
609.629	30031.06
609.986	30355.8
610.343	30277.16
610.7	30759.4
611.057	30897.93
611.414	31105.83
611.771	31173.4
612.127	31545.82
612.484	31699.94
612.841	31891.58
613.198	31983.55
613.554	31956.43
613.911	32429.42
614.267	32595.06
614.624	32720.03
614.98	33071.88
615.337	33290.64
615.693	33190.75
616.05	33268.49
616.406	33582.83
616.762	33514.13
617.118	33861.92
617.475	33822.6
617.831	34192.76
618.187	34279.54
618.543	34456.71
618.899	34783.93
619.255	34833.65
619.611	34748.45
619.967	35141.89
620.323	35155.45
620.678	35210.36
621.034	35258.95
621.39	35272.05
621.746	35426.4
622.101	35874.3
622.457	35584.36
622.812	35862.32
623.168	35959.72
623.523	36028.64
623.879	36247.62
624.234	36030
624.589	36222.54
624.945	36458.69
625.3	36514.51
625.655	36439.03
626.01	36634.5
626.365	36769.64
626.72	36776.42
627.075	36812.58
627.43	37011.67
627.785	37003.31
628.14	36972.57
628.495	37048.5
628.85	37166.01
629.205	37196.3
629.559	37310.19
629.914	37120.59
630.269	37283.98
630.623	37277.88
630.978	37277.65
631.332	37364.43
631.687	37529.62
632.041	37400.36
632.396	37469.28
632.75	37314.26
633.104	37464.31
633.459	37366.24
633.813	37494.59
634.167	37445.55
634.521	37481.26
634.875	37495.95
635.229	37430.64
635.583	37378.89
635.937	37481.49
636.291	37435.16
636.645	37436.74
636.999	37346.35
637.352	37529.39
637.706	37328.04
638.06	37509.51
638.413	37446.91
638.767	37439.68
639.121	37514.93
639.474	37214.37
639.828	37403.07
640.181	37427.7
640.534	37556.74
640.888	37268.38
641.241	37224.32
641.594	37321.04
641.947	37494.82
642.301	37445.55
642.654	37270.42
643.007	37420.02
643.36	37320.36
643.713	37418.66
644.066	37505.44
644.419	37297.99
644.771	37066.58
645.124	36724.67
645.477	36756.76
645.83	36434.73
646.182	36293.49
646.535	36363.78
646.888	36254.85
647.24	36158.36
647.593	36468.63
647.945	36357.9
648.298	36077.91
648.65	36040.62
649.002	35969.66
649.355	36158.36
649.707	36148.19
650.059	36357.22
650.411	36765.12
650.763	36769.87
651.115	37044.44
651.467	37044.44
651.819	36931.44
652.171	36972.8
652.523	36844.67
652.875	36964.21
653.227	36723.77
653.578	37033.59
653.93	36896.19
654.282	36732.35
654.633	36713.14
654.985	36769.64
655.337	36748.4
655.688	36795.85
656.039	36850.99
656.391	36648.97
656.742	36691.9
657.094	36683.77
657.445	36793.59
657.796	36706.59
658.147	36628.85
658.498	36670.43
658.849	36712.92
659.2	36749.3
659.551	36582.75
659.902	36652.81
660.253	36646.71
660.604	36684.9
660.955	36485.35
661.306	36698.68
661.656	36502.75
662.007	36512.47
662.358	36571.68
662.708	36652.13
663.059	36408.75
663.409	36390.44
663.76	36521.96
664.11	36554.05
664.461	36681.96
664.811	36676.08
665.161	36662.98
665.511	36478.8
665.862	36504.11
666.212	36508.18
666.562	36566.26
666.912	36450.78
667.262	36435.19
667.612	36580.27
667.962	36605.58
668.312	36383.21
668.662	36649.64
669.011	36358.35
669.361	36513.38
669.711	36469.99
670.06	36483.55
670.41	36274.51
670.76	36404.23
671.109	36529.65
671.459	36457.33
671.808	36326.04
672.157	36422.53
672.507	36246.26
672.856	36237.68
673.205	36323.32
673.554	36359.48
673.904	36237.9
674.253	36275.87
674.602	36255.3
674.951	35771.02
675.3	35556.57
675.649	36162.42
675.998	36070.9
676.346	36031.35
676.695	36185.7
677.044	35815.54
677.393	36020.06
677.741	36057.34
678.09	36047.17
678.438	35884.92
678.787	36056.44
679.135	35967.18
679.484	35649.67
679.832	35877.91
680.181	35725.15
680.529	35808.08
680.877	35773.28
681.225	35740.29
681.573	35954.52
681.922	35563.34
682.27	35531.03
682.618	35536.23
682.966	35479.05
683.314	35580.29
683.661	35414.87
684.009	35282.45
684.357	35144.15
684.705	35241.09
685.053	35166.52
685.4	35082.45
685.748	34974.21
686.095	35072.96
686.443	34848.79
686.79	34874.1
687.138	34854.44
687.485	34777.83
687.832	34758.62
688.18	34748.68
688.527	34625.74
688.874	34588.68
689.221	34382.81
689.568	34330.16
689.915	34300.55
690.262	34246.54
690.609	34227.56
690.956	34141.01
691.303	34105.53
691.65	33891.98
691.997	34002.71
692.344	33655.82
692.69	33804.52
693.037	33703.73
693.383	33500.35
693.73	33542.61
694.077	33321.14
694.423	33487.69
694.769	33313.23
695.116	33125.89
695.462	33155.5
695.808	33069.4
696.155	33019.46
696.501	32852.91
696.847	32863.53
697.193	32681.61
697.539	32715.28
697.885	32661.5
698.231	32494.05
698.577	32495.4
698.923	32481.39
699.269	32248.86
699.614	32159.59
699.96	32071.91
700.306	32108.29
700.651	31908.53
700.997	31926.83
701.342	31854.74
701.688	31729.1
702.033	31593.28
702.379	31521.64
702.724	31594.18
703.069	31634.86
703.415	31190.35
703.76	31307.86
704.105	31332.27
704.45	31210.24
704.795	31102.22
705.14	30994.65
705.485	30806.41
705.83	30730.93
706.175	30780.42
706.52	30664.26
706.865	30655.68
707.209	30630.14
707.554	30487.32
707.899	30581.33
708.243	30401.22
708.588	30311.96
708.932	30180.44
709.277	30231.51
709.621	30138.85
709.966	30030.38
710.31	29960.55
710.654	29696.38
710.998	29690.5
711.342	29879.2
711.687	29765.76
712.031	29667
712.375	29492.54
712.719	29549.49
713.063	29563.28
713.407	29557.85
713.75	29352.89
714.094	29349.5
714.438	29272.66
714.782	29306.56
715.125	28954.48
715.469	29151.54
715.812	28954.93
716.156	28931.65
716.499	28886.01
716.843	28941.82
717.186	28728.27
717.53	28848.04
717.873	28772.34
718.216	28787.03
718.559	28569.63
718.902	28412.35
719.246	28554.94
719.589	28491.44
719.932	28314.04
720.275	28271.56
720.617	28323.99
720.96	28277.43
721.303	28210.77
721.646	28271.78
721.989	28081.51
722.331	28118.34
722.674	28110.43
723.016	28081.96
723.359	27874.96
723.701	28019.81
724.044	27819.59
724.386	27761.97
724.729	27765.58
725.071	27747.5
725.413	27710.44
725.755	27770.56
726.097	27544.57
726.439	27412.37
726.782	27359.49
727.124	27503.9
727.465	27392.94
727.807	27375.09
728.149	27241.53
728.491	27247.18
728.833	27286.27
729.175	27217.12
729.516	27093.28
729.858	27123.57
730.199	27193.85
730.541	27070.91
730.882	27061.2
731.224	27106.84
731.565	26907.98
731.906	26926.28
732.248	26853.74
732.589	26741.66
732.93	26675.44
733.271	26698.94
733.612	26558.84
733.953	26794.08
734.294	26529.23
734.635	26481.55
734.976	26653.75
735.317	26444.71
735.658	26473.64
735.999	26489.46
736.339	26280.65
736.68	26509.12
737.021	26324.94
737.361	26223.48
737.702	26263.48
738.042	26310.03
738.383	26134.89
738.723	26244.49
739.063	26143.71
739.404	26220.09
739.744	26001.56
740.084	26105.51
740.424	26052.18
740.764	25931.28
741.104	26073.65
741.444	25888.34
741.784	25738.29
742.124	25734.9
742.464	25718.41
742.804	25843.83
743.143	25575.13
743.483	25701.23
743.823	25470.5
744.162	25580.56
744.502	25626.88
744.841	25352.31
745.181	25588.69
745.52	25463.27
745.86	25414.01
746.199	25499.88
746.538	25455.14
746.877	25292.65
747.216	25364.06
747.556	25278.64
747.895	25235.25
748.234	25181.92
748.573	25040.46
748.911	25134.92
749.25	24986
749.589	24904.42
749.928	24976.96
750.267	25011.98
750.605	24993.9
750.944	24896.05
751.283	24769.5
751.621	24731.54
751.96	24672.11
752.298	24640.47
752.636	24669.17
752.975	24528.15
753.313	24488.16
753.651	24491.32
753.989	24490.64
754.327	24301.49
754.666	24204.32
755.004	24248.16
755.342	24369.97
755.679	24150.76
756.017	24030.54
756.355	24116.87
756.693	23973.37
757.031	24067.6
757.368	23934.5
757.706	23793.03
758.044	23839.36
758.381	23815.86
758.719	23738.8
759.056	23746.48
759.394	23625.81
759.731	23487.96
760.068	23408.18
760.405	23380.39
