Data from hue_330_FLMS001491_99.txt Node
Date: Mon Feb 06 15:46:12 GMT 2017
User: dcchb
Spectrometer: FLMS00149
Trigger mode: 0
Integration Time (sec): 2.000000E-2
Scans to average: 10
Electric dark correction enabled: true
Nonlinearity correction enabled: false
Boxcar width: 0
XAxis mode: Wavelengths
Number of Pixels in Spectrum: 2048
>>>>>Begin Spectral Data<<<<<
341.393	-15.04
341.776	-15.04
342.16	-15.04
342.543	-42.61
342.927	-55.49
343.31	-81.93
343.693	-75.61
344.077	-68.15
344.46	-76.28
344.843	-47.81
345.226	-56.4
345.61	-24.76
345.993	-30.86
346.376	-22.95
346.759	13.21
347.142	42.36
347.525	44.84
347.908	59.98
348.291	85.29
348.674	112.64
349.057	126.42
349.44	124.62
349.823	129.59
350.206	151.28
350.588	196.25
350.971	202.13
351.354	212.75
351.737	220.43
352.119	233.77
352.502	253.2
352.884	288.23
353.267	272.41
353.65	290.71
354.032	307.44
354.414	322.12
354.797	316.93
355.179	320.54
355.562	305.63
355.944	319.64
356.326	323.93
356.709	336.36
357.091	340.43
357.473	338.62
357.855	317.83
358.238	329.81
358.62	336.81
359.002	336.59
359.384	339.75
359.766	345.4
360.148	342.91
360.53	348.56
360.912	329.36
361.294	329.58
361.676	327.55
362.057	342.24
362.439	342.01
362.821	319.64
363.203	328.68
363.584	328.23
363.966	299.98
364.348	299.75
364.729	324.38
365.111	310.6
365.493	324.16
365.874	303.14
366.256	304.27
366.637	307.66
367.019	305.63
367.4	311.73
367.781	320.54
368.163	292.97
368.544	335.01
368.925	313.99
369.306	332.52
369.688	312.63
370.069	321.22
370.45	307.21
370.831	305.85
371.212	304.95
371.593	317.38
371.974	307.21
372.355	305.85
372.736	302.46
373.117	308.11
373.498	343.82
373.879	323.71
374.26	295.68
374.641	288
375.021	319.41
375.402	294.55
375.783	304.95
376.163	324.84
376.544	340.43
376.925	320.77
377.305	321.22
377.686	321.22
378.066	329.36
378.447	307.89
378.827	330.49
379.208	325.06
379.588	333.2
379.968	350.15
380.349	341.33
380.729	326.42
381.109	325.51
381.489	339.07
381.87	342.69
382.25	329.13
382.63	332.07
383.01	346.98
383.39	345.63
383.77	339.3
384.15	338.85
384.53	349.02
384.91	323.03
385.29	348.56
385.67	344.04
386.049	343.82
386.429	333.65
386.809	346.53
387.189	346.98
387.568	341.11
387.948	329.58
388.328	365.06
388.707	336.36
389.087	339.98
389.466	360.99
389.846	346.76
390.225	351.73
390.605	381.11
390.984	341.11
391.363	368.68
391.743	362.8
392.122	362.12
392.501	358.96
392.881	357.38
393.26	382.46
393.639	368.68
394.018	347.21
394.397	381.56
394.776	373.87
395.155	352.41
395.534	377.94
395.913	372.74
396.292	384.95
396.671	397.83
397.05	363.25
397.429	378.85
397.808	403.7
398.186	368
398.565	410.94
398.944	405.74
399.323	375
399.701	398.05
400.08	413.42
400.458	409.35
400.837	393.99
401.215	394.66
401.594	399.64
401.972	384.5
402.351	417.04
402.729	408.22
403.107	412.52
403.486	396.25
403.864	435.34
404.242	403.03
404.62	415.91
404.999	418.17
405.377	415.91
405.755	420.2
406.133	421.78
406.511	423.82
406.889	444.83
407.267	485.28
407.645	457.26
408.023	426.53
408.401	445.28
408.779	453.42
409.156	436.25
409.534	467.21
409.912	450.93
410.29	448.45
410.667	484.38
411.045	482.35
411.422	470.59
411.8	505.85
412.178	492.29
412.555	486.87
412.933	498.84
413.31	514.89
413.687	503.36
414.065	504.27
414.442	522.57
414.819	536.81
415.197	549.01
415.574	539.07
415.951	551.5
416.328	536.36
416.705	550.82
417.082	558.95
417.46	564.38
417.837	564.83
418.214	578.84
418.591	589.46
418.967	589.91
419.344	584.26
419.721	600.76
420.098	608.22
420.475	616.58
420.852	613.42
421.228	625.85
421.605	639.18
421.982	627.2
422.358	664.49
422.735	670.36
423.111	652.29
423.488	660.87
423.864	653.42
424.241	674.66
424.617	673.98
424.994	673.53
425.37	676.92
425.746	680.76
426.123	682.57
426.499	708.33
426.875	707.65
427.251	715.33
427.627	730.93
428.003	739.51
428.379	739.74
428.756	769.57
429.132	746.29
429.507	756.69
429.883	768.89
430.259	811.6
430.635	769.57
431.011	793.3
431.387	807.08
431.763	817.25
432.138	818.38
432.514	827.42
432.89	821.77
433.265	851.38
433.641	852.96
434.016	869.68
434.392	871.49
434.767	888.44
435.143	883.92
435.518	913.3
435.894	910.36
436.269	930.02
436.644	917.59
437.02	938.61
437.395	953.29
437.77	950.81
438.145	925.05
438.52	942.22
438.895	966.63
439.271	948.32
439.646	1014.31
440.021	1005.04
440.395	1000.52
440.77	999.85
441.145	996.23
441.52	1040.07
441.895	1017.25
442.27	1010.24
442.645	1030.81
443.019	1033.52
443.394	1045.27
443.769	1040.3
444.143	1038.49
444.518	1080.75
444.892	1066.06
445.267	1051.6
445.641	1065.61
446.016	1043.91
446.39	1073.52
446.764	1103.12
447.139	1101.99
447.513	1081.88
447.887	1092.73
448.262	1086.62
448.636	1094.08
449.01	1122.78
449.384	1128.88
449.758	1108.54
450.132	1116.23
450.506	1148.54
450.88	1137.92
451.254	1116.91
451.628	1151.48
452.002	1151.71
452.376	1163.46
452.75	1165.94
453.123	1187.86
453.497	1195.1
453.871	1192.61
454.244	1181.99
454.618	1195.32
454.992	1224.93
455.365	1205.26
455.739	1231.03
456.112	1240.29
456.486	1262.44
456.859	1280.07
457.232	1281.65
457.606	1270.8
457.979	1271.93
458.352	1296.56
458.725	1313.74
459.099	1324.36
459.472	1329.56
459.845	1339.5
460.218	1343.57
460.591	1374.53
460.964	1397.12
461.337	1397.12
461.71	1376.79
462.083	1394.41
462.456	1400.74
462.829	1422.21
463.201	1432.6
463.574	1446.16
463.947	1441.42
464.32	1525.93
464.692	1480.06
465.065	1487.29
465.438	1494.07
465.81	1546.95
466.183	1538.59
466.555	1554.41
466.928	1547.63
467.3	1563
467.672	1581.98
468.045	1606.84
468.417	1640.96
468.789	1645.48
469.161	1643.22
469.534	1667.17
469.906	1678.25
470.278	1692.26
470.65	1711.69
471.022	1734.97
471.394	1765.25
471.766	1763.44
472.138	1800.05
472.51	1837.11
472.882	1843.21
473.253	1878.24
473.625	1852.48
473.997	1888.86
474.369	1919.82
474.74	1927.05
475.112	1948.75
475.484	1981.06
475.855	2010.89
476.227	1983.78
476.598	2061.74
476.97	2068.52
477.341	2087.95
477.713	2140.16
478.084	2150.78
478.455	2172.47
478.827	2222.19
479.198	2266.03
479.569	2255.18
479.94	2313.48
480.311	2324.11
480.682	2375.63
481.053	2377.66
481.424	2421.73
481.795	2437.1
482.166	2489.98
482.537	2514.38
482.908	2539.69
483.279	2576.98
483.65	2601.39
484.021	2643.42
484.391	2693.59
484.762	2698.56
485.133	2706.69
485.503	2753.25
485.874	2794.38
486.244	2786.47
486.615	2858.78
486.985	2909.63
487.356	2926.58
487.726	2953.24
488.097	3011.55
488.467	3018.55
488.837	3028.04
489.207	3096.06
489.578	3120.92
489.948	3166.12
490.318	3209.73
490.688	3215.38
491.058	3234.36
491.428	3298.77
491.798	3343.97
492.168	3406.34
492.538	3350.07
492.908	3407.92
493.278	3439.1
493.648	3427.81
494.017	3480.23
494.387	3488.59
494.757	3548.25
495.126	3539.44
495.496	3571.98
495.866	3611.76
496.235	3638.65
496.605	3656.27
496.974	3660.79
497.344	3722.03
497.713	3729.94
498.082	3744.86
498.452	3790.06
498.821	3743.28
499.19	3797.06
499.559	3818.76
499.928	3851.97
500.298	3823.5
500.667	3870.51
501.036	3894.01
501.405	3905.31
501.774	3914.12
502.143	3948.02
502.512	3934.68
502.88	3966.32
503.249	3992.76
503.618	3969.94
503.987	4030.05
504.356	4101.01
504.724	4036.38
505.093	4014.23
505.462	4060.78
505.83	4082.7
506.199	4147.33
506.567	4146.2
506.936	4155.24
507.304	4144.85
507.672	4215.81
508.041	4219.42
508.409	4257.39
508.777	4231.17
509.145	4259.42
509.514	4285.64
509.882	4276.82
510.25	4297.16
510.618	4346.65
510.986	4309.36
511.354	4328.57
511.722	4384.62
512.09	4380.55
512.458	4384.39
512.826	4385.97
513.193	4397.72
513.561	4424.39
513.929	4462.58
514.297	4513.2
514.664	4458.29
515.032	4467.1
515.4	4530.83
515.767	4557.72
516.135	4515.69
516.502	4532.41
516.869	4560.43
517.237	4561.56
517.604	4580.09
517.972	4583.03
518.339	4617.6
518.706	4549.13
519.073	4574.44
519.44	4637.49
519.808	4717.26
520.175	4680.88
520.542	4744.15
520.909	4707.32
521.276	4720.88
521.643	4727.88
522.009	4770.82
522.376	4781.22
522.743	4827.54
523.11	4860.54
523.477	4869.58
523.843	4833.87
524.21	4918.16
524.577	4915
524.943	5006.52
525.31	4951.61
525.676	4978.27
526.043	5001.1
526.409	5030.02
526.776	5111.15
527.142	5072.51
527.508	5141.66
527.874	5173.3
528.241	5189.79
528.607	5135.33
528.973	5206.29
529.339	5193.41
529.705	5258.27
530.071	5294.65
530.437	5311.37
530.803	5346.62
531.169	5366.51
531.535	5357.02
531.901	5393.86
532.267	5390.01
532.632	5425.27
532.998	5461.2
533.364	5466.17
533.73	5484.7
534.095	5522.67
534.461	5538.71
534.826	5632.04
535.192	5614.41
535.557	5632.04
535.923	5628.65
536.288	5642.21
536.653	5723.34
537.019	5694.86
537.384	5699.38
537.749	5753.62
538.114	5767.86
538.479	5760.85
538.845	5779.16
539.21	5806.5
539.575	5839.04
539.94	5858.25
540.305	5909.1
540.67	5880.62
541.034	5928.08
541.399	5921.07
541.764	6006.95
542.129	5970.11
542.494	6027.29
542.858	6037
543.223	6061.86
543.587	6114.51
543.952	6079.26
544.316	6147.51
544.681	6142.31
545.045	6197.22
545.41	6208.52
545.774	6226.38
546.138	6241.97
546.503	6272.48
546.867	6272.25
547.231	6375.3
547.595	6336.66
547.959	6369.2
548.324	6371.91
548.688	6412.59
549.052	6459.36
549.416	6423.21
549.779	6475.63
550.143	6502.53
550.507	6517.44
550.871	6571
551.235	6548.63
551.599	6572.58
551.962	6581.39
552.326	6603.54
552.689	6645.57
553.053	6584.33
553.417	6641.28
553.78	6749.3
554.143	6729.87
554.507	6750.43
554.87	6765.34
555.234	6812.58
555.597	6798.56
555.96	6801.05
556.323	6858
556.686	6833.82
557.05	6930.76
557.413	6848.96
557.776	6872.91
558.139	6948.84
558.502	7015.28
558.865	6995.62
559.228	7056.64
559.59	7051.21
559.953	7015.06
560.316	7118.33
560.679	7167.59
561.041	7111.1
561.404	7239
561.767	7178.44
562.129	7189.97
562.492	7254.37
562.854	7222.73
563.217	7289.4
563.579	7301.38
563.941	7331.88
564.304	7351.09
564.666	7350.87
565.028	7403.29
565.39	7377.53
565.753	7538.21
566.115	7454.37
566.477	7528.04
566.839	7519.22
567.201	7521.03
567.563	7539.56
567.925	7579.11
568.287	7606.9
568.648	7617.75
569.01	7613.23
569.372	7728.26
569.734	7718.31
570.095	7791.76
570.457	7833.57
570.819	7794.24
571.18	7904.07
571.542	7894.58
571.903	7897.07
572.265	8000.11
572.626	8025.42
572.987	8098.87
573.349	8103.61
573.71	8178.64
574.071	8200.56
574.432	8239.88
574.794	8337.05
575.155	8410.05
575.516	8357.62
575.877	8564.17
576.238	8539.99
576.599	8604.17
576.96	8693.88
577.32	8732.75
577.681	8876.48
578.042	8985.17
578.403	8971.61
578.763	9052.06
579.124	9188.33
579.485	9252.74
579.845	9429.23
580.206	9483.01
580.566	9594.2
580.927	9728.43
581.287	9902.21
581.648	9951.48
582.008	10150.34
582.368	10204.35
582.728	10424.46
583.089	10604.79
583.449	10743.55
583.809	10855.63
584.169	11093.82
584.529	11247.49
584.889	11441.61
585.249	11566.12
585.609	11724.76
585.969	12063.28
586.329	12136.5
586.688	12513.89
587.048	12694.23
587.408	12877.95
587.768	13128.12
588.127	13328.11
588.487	13550.25
588.846	13860.53
589.206	13967.42
589.565	14316.78
589.925	14656.66
590.284	14863.21
590.643	15190.43
591.003	15431.78
591.362	15705.9
591.721	15986.57
592.08	16259.56
592.44	16593.56
592.799	16864.06
593.158	17131.4
593.517	17445.52
593.876	17769.8
594.235	17998.27
594.593	18286.62
594.952	18598.03
595.311	18929.54
595.67	19226.71
596.029	19644.1
596.387	19922.06
596.746	20286.8
597.104	20330.19
597.463	20665.32
597.822	21197.51
598.18	21339.2
598.538	21608.57
598.897	22069.58
599.255	22172.85
599.613	22749.56
599.972	22891.47
600.33	23223.9
600.688	23433.38
601.046	23805.12
601.404	24230.87
601.762	24446.46
602.12	24754.25
602.478	24953.57
602.836	25274.24
603.194	25328.47
603.552	25690.72
603.91	25854.11
604.268	26364.6
604.625	26437.6
604.983	26840.07
605.341	26783.8
605.698	27387.4
606.056	27633.04
606.413	27799.14
606.771	28108.51
607.128	28403.19
607.485	28407.71
607.843	28708.27
608.2	29063.06
608.557	29342.15
608.914	29459.89
609.272	29845.64
609.629	30112.08
609.986	30388.9
610.343	30537.15
610.7	30921.09
611.057	30950.92
611.414	31041.09
611.771	31290.12
612.127	31582.77
612.484	31739.6
612.841	32061.85
613.198	32049.65
613.554	32281.51
613.911	32637.66
614.267	32714.04
614.624	32722.63
614.98	32981.38
615.337	33375.27
615.693	33399.9
616.05	33490.74
616.406	33908.59
616.762	33812.09
617.118	34085.3
617.475	34124.63
617.831	34465.86
618.187	34585.4
618.543	34663.59
618.899	34974.32
619.255	35041.89
619.611	35095
619.967	35280.08
620.323	35502.22
620.678	35519.39
621.034	35523.68
621.39	35693.17
621.746	35684.13
622.101	36235.53
622.457	36005.93
622.812	36073.5
623.168	36378.35
623.523	36407.5
623.879	36548.74
624.234	36471
624.589	36652.69
624.945	36663.77
625.3	36870.99
625.655	36827.38
626.01	37041.61
626.365	37110.76
626.72	37006.13
627.075	37127.26
627.43	37049.29
627.785	37109.86
628.14	37354.82
628.495	37452.67
628.85	37459.9
629.205	37270.31
629.559	37712.78
629.914	37535.38
630.269	37586.91
630.623	37660.35
630.978	37578.32
631.332	37700.12
631.687	37846.56
632.041	37665.55
632.396	37813.57
632.75	37696.51
633.104	37782.61
633.459	37695.15
633.813	37816.51
634.167	37847.01
634.521	37701.03
634.875	37840.69
635.229	37813.34
635.583	37836.17
635.937	37800.46
636.291	37845.21
636.645	37850.63
636.999	37860.8
637.352	37892.66
637.706	37727.02
638.06	37928.82
638.413	37793.46
638.767	37833.68
639.121	37866
639.474	37695.38
639.828	37786.22
640.181	37715.72
640.534	37896.5
640.888	37789.39
641.241	37776.28
641.594	37709.62
641.947	37800.46
642.301	37681.82
642.654	37670.75
643.007	37754.81
643.36	37838.65
643.713	37690.86
644.066	37805.88
644.419	37531.77
644.771	37443.86
645.124	37205
645.477	37214.26
645.83	36921.84
646.182	36746.03
646.535	36750.77
646.888	36614.73
647.24	36494.05
647.593	36699.25
647.945	36690.89
648.298	36513.04
648.65	36499.48
649.002	36367.05
649.355	36623.09
649.707	36434.62
650.059	36611.11
650.411	37156.18
650.763	37157.54
651.115	37487.47
651.467	37426.23
651.819	37355.05
652.171	37290.87
652.523	37318.67
652.875	37267.59
653.227	37235.96
653.578	37412.9
653.93	37367.93
654.282	37170.42
654.633	37033.48
654.985	37128.84
655.337	37116.86
655.688	37199.35
656.039	37295.84
656.391	37041.84
656.742	37008.62
657.094	37032.57
657.445	37224.66
657.796	37123.64
658.147	37066.02
658.498	36910.99
658.849	36948.28
659.2	37010.43
659.551	36936.98
659.902	37155.28
660.253	37024.66
660.604	37108.05
660.955	36871.67
661.306	36901.5
661.656	36881.39
662.007	37027.37
662.358	36854.05
662.708	36974.95
663.059	36926.36
663.409	36726.82
663.76	37073.7
664.11	36932.01
664.461	36887.72
664.811	37001.39
665.161	36966.58
665.511	36794.84
665.862	36931.56
666.212	37053.14
666.562	36996.19
666.912	36932.91
667.262	36762.3
667.612	36793.71
667.962	36906.47
668.312	36758.23
668.662	36963.42
669.011	36932.24
669.361	36715.29
669.711	36724.33
670.06	36690.66
670.41	36623.77
670.76	36666.03
671.109	36871.67
671.459	36629.42
671.808	36687.27
672.157	36774.27
672.507	36449.76
672.856	36603.66
673.205	36744.22
673.554	36928.62
673.904	36591
674.253	36929.07
674.602	36677.1
674.951	36175.19
675.3	36090.45
675.649	36604.11
675.998	36537.9
676.346	36355.08
676.695	36649.08
677.044	36353.49
677.393	36433.49
677.741	36604.56
678.09	36347.84
678.438	36320.95
678.787	36450.44
679.135	36448.63
679.484	36184.91
679.832	36348.3
680.181	36033.28
680.529	36291.12
680.877	36113.27
681.225	36064.46
681.573	36147.85
681.922	35981.53
682.27	35867.86
682.618	35906.5
682.966	35904.01
683.314	35910.34
683.661	35880.51
684.009	35672.61
684.357	35681.65
684.705	35461.77
685.053	35506.74
685.4	35439.39
685.748	35336.8
686.095	35320.75
686.443	35261.09
686.79	35226.29
687.138	35154.43
687.485	35231.26
687.832	35102.9
688.18	35125.95
688.527	34992.17
688.874	34906.3
689.221	34835.79
689.568	34845.96
689.915	34694.33
690.262	34700.66
690.609	34504.28
690.956	34541.11
691.303	34429.25
691.65	34336.82
691.997	34448.01
692.344	34111.07
692.69	34108.58
693.037	34141.57
693.383	33809.15
693.73	33895.93
694.077	33831.75
694.423	33675.37
694.769	33539.1
695.116	33589.72
695.462	33570.29
695.808	33359.67
696.155	33582.94
696.501	33200.58
696.847	33111.54
697.193	32995.62
697.539	33233.58
697.885	32843.53
698.231	32782.06
698.577	32801.04
698.923	32683.76
699.269	32548.62
699.614	32472.92
699.96	32379.81
700.306	32435.4
700.651	32227.95
700.997	32190.44
701.342	32151.34
701.688	32159.48
702.033	31936.43
702.379	32004.46
702.724	31907.28
703.069	31872.93
703.415	31502.1
703.76	31592.04
704.105	31714.52
704.45	31472.27
704.795	31494.19
705.14	31206.96
705.485	31226.4
705.83	31091.48
706.175	31131.94
706.52	31095.1
706.865	30931.49
707.209	30894.2
707.554	30696.47
707.899	30955.44
708.243	30671.83
708.588	30769.01
708.932	30390.03
709.277	30324.5
709.621	30589.58
709.966	30259.64
710.31	30439.07
710.654	30067.33
710.998	30111.17
711.342	30050.16
711.687	30017.61
712.031	29967.22
712.375	29872.08
712.719	29865.53
713.063	29893.55
713.407	29899.43
713.75	29677.51
714.094	29630.28
714.438	29582.6
714.782	29592.54
715.125	29412.66
715.469	29443.39
715.812	29310.06
716.156	29154.81
716.499	29293.34
716.843	29163.85
717.186	28935.38
717.53	29086.57
717.873	29099.67
718.216	29072.1
718.559	28826.23
718.902	28680.7
719.246	28835.05
719.589	28732.68
719.932	28607.71
720.275	28649.06
720.617	28637.99
720.96	28541.5
721.303	28565.22
721.646	28544.66
721.989	28382.63
722.331	28454.94
722.674	28309.64
723.016	28376.3
723.359	28318
723.701	28234.16
724.044	28010.21
724.386	27918.69
724.729	28084.56
725.071	27944
725.413	27982.64
725.755	27878.01
726.097	27824
726.439	27642.31
726.782	27828.75
727.124	27918.46
727.465	27670.56
727.807	27729.31
728.149	27549.88
728.491	27548.08
728.833	27567.51
729.175	27421.52
729.516	27380.85
729.858	27417.23
730.199	27352.15
730.541	27436.21
730.882	27403.22
731.224	27340.4
731.565	27213.85
731.906	27141.76
732.248	27285.71
732.589	26955.55
732.93	26902.22
733.271	26945.38
733.612	26855.21
733.953	27021.76
734.294	26911.48
734.635	26860.41
734.976	26827.64
735.317	26778.6
735.658	26814.99
735.999	26776.8
736.339	26684.14
736.68	26639.85
737.021	26594.65
737.361	26453.87
737.702	26561.43
738.042	26555.11
738.383	26453.64
738.723	26516.92
739.063	26418.84
739.404	26430.82
739.744	26287.32
740.084	26222.01
740.424	26302.68
740.764	26182.01
741.104	26354.21
741.444	26049.36
741.784	25961.9
742.124	26161.9
742.464	26014.1
742.804	25908.12
743.143	25866.76
743.483	25907.89
743.823	25829.02
744.162	25776.82
744.502	25758.97
744.841	25610.05
745.181	25669.25
745.52	25603.72
745.86	25595.58
746.199	25516.04
746.538	25542.25
746.877	25635.36
747.216	25504.96
747.556	25303.16
747.895	25441.46
748.234	25314.24
748.573	25182.49
748.911	25182.04
749.25	25113.56
749.589	25065.43
749.928	25133
750.267	25115.37
750.605	25062.49
750.944	24984.75
751.283	24785.44
751.621	24950.4
751.96	24817.3
752.298	24790.63
752.636	24855.49
752.975	24680.81
753.313	24614.14
753.651	24723.97
753.989	24547.25
754.327	24450.08
754.666	24430.42
755.004	24481.72
755.342	24370.08
755.679	24360.59
756.017	24333.02
756.355	24327.59
756.693	24138.22
757.031	24290.08
757.368	24013.7
757.706	24054.16
758.044	23999.24
758.381	23938
758.719	23808.29
759.056	23749.53
759.394	23672.47
759.731	23611.91
760.068	23486.49
