Data from hue_20_FLMS001491_82.txt Node
Date: Mon Feb 06 15:34:46 GMT 2017
User: dcchb
Spectrometer: FLMS00149
Trigger mode: 0
Integration Time (sec): 2.000000E-2
Scans to average: 10
Electric dark correction enabled: true
Nonlinearity correction enabled: false
Boxcar width: 0
XAxis mode: Wavelengths
Number of Pixels in Spectrum: 2048
>>>>>Begin Spectral Data<<<<<
341.393	-24.53
341.776	-24.53
342.16	-24.53
342.543	-63.63
342.927	-69.28
343.31	-79.9
343.693	-76.28
344.077	-51.2
344.46	-53.46
344.843	-45.32
345.226	-46.68
345.61	-41.48
345.993	0.32
346.376	-28.83
346.759	27.67
347.142	32.41
347.525	47.78
347.908	59.76
348.291	71.28
348.674	70.83
349.057	113.09
349.44	125.75
349.823	136.37
350.206	168
350.588	182.69
350.971	209.13
351.354	229.7
351.737	239.87
352.119	265.4
352.502	273.99
352.884	264.72
353.267	264.27
353.65	278.96
354.032	290.94
354.414	299.3
354.797	299.53
355.179	307.44
355.562	325.51
355.944	326.19
356.326	340.88
356.709	329.13
357.091	336.36
357.473	371.61
357.855	338.4
358.238	346.3
358.62	356.47
359.002	343.59
359.384	342.24
359.766	335.68
360.148	345.17
360.53	324.84
360.912	332.75
361.294	339.98
361.676	323.48
362.057	320.99
362.439	349.92
362.821	329.81
363.203	342.01
363.584	322.58
363.966	338.62
364.348	347.21
364.729	320.99
365.111	332.75
365.493	318.96
365.874	297.04
366.256	318.96
366.637	315.57
367.019	317.15
367.4	301.79
367.781	317.38
368.163	318.28
368.544	313.54
368.925	304.5
369.306	325.29
369.688	310.83
370.069	324.16
370.45	322.8
370.831	326.42
371.212	309.24
371.593	314.44
371.974	319.41
372.355	295.01
372.736	310.37
373.117	324.38
373.498	325.06
373.879	344.27
374.26	320.54
374.641	299.53
375.021	302.69
375.402	302.24
375.783	319.19
376.163	347.21
376.544	343.37
376.925	331.39
377.305	336.59
377.686	339.3
378.066	331.84
378.447	348.34
378.827	332.97
379.208	342.01
379.588	343.14
379.968	340.2
380.349	350.15
380.729	355.12
381.109	344.04
381.489	342.69
381.87	333.88
382.25	303.82
382.63	329.81
383.01	337.04
383.39	339.52
383.77	334.33
384.15	340.65
384.53	339.3
384.91	369.35
385.29	349.47
385.67	335.68
386.049	335.91
386.429	366.64
386.809	338.62
387.189	356.25
387.568	359.64
387.948	354.21
388.328	378.85
388.707	372.07
389.087	342.01
389.466	351.05
389.846	370.94
390.225	359.41
390.605	360.77
390.984	376.36
391.363	364.38
391.743	365.74
392.122	362.12
392.501	369.81
392.881	371.39
393.26	386.76
393.639	371.84
394.018	385.17
394.397	396.92
394.776	385.17
395.155	368.22
395.534	392.86
395.913	365.96
396.292	370.03
396.671	378.39
397.05	390.82
397.429	384.72
397.808	375
398.186	384.04
398.565	403.48
398.944	375.46
399.323	384.72
399.701	400.09
400.08	400.09
400.458	389.02
400.837	404.16
401.215	393.99
401.594	403.93
401.972	389.92
402.351	398.96
402.729	423.36
403.107	436.02
403.486	393.99
403.864	416.81
404.242	396.25
404.62	426.75
404.999	405.96
405.377	422.69
405.755	418.39
406.133	418.84
406.511	429.92
406.889	439.64
407.267	425.85
407.645	417.04
408.023	430.14
408.401	430.6
408.779	452.74
409.156	444.83
409.534	460.88
409.912	439.41
410.29	439.18
410.667	446.64
411.045	435.34
411.422	442.12
411.8	455.23
412.178	469.01
412.555	455.23
412.933	464.04
413.31	457.49
413.687	477.15
414.065	475.34
414.442	497.03
414.819	480.99
415.197	473.76
415.574	475.34
415.951	492.52
416.328	493.19
416.705	486.19
417.082	487.32
417.46	504.27
417.837	492.74
418.214	498.84
418.591	507.88
418.967	491.16
419.344	511.27
419.721	524.6
420.098	528.45
420.475	535.45
420.852	523.93
421.228	525.06
421.605	547.2
421.982	517.83
422.358	539.29
422.735	546.3
423.111	525.96
423.488	534.55
423.864	533.42
424.241	529.12
424.617	552.4
424.994	560.54
425.37	539.52
425.746	579.74
426.123	554.43
426.499	549.46
426.875	561.44
427.251	577.48
427.627	584.26
428.003	596.24
428.379	593.3
428.756	598.73
429.132	609.12
429.507	600.54
429.883	610.7
430.259	602.34
430.635	617.26
431.011	613.42
431.387	601.66
431.763	625.85
432.138	639.86
432.514	622.46
432.89	645.73
433.265	641.44
433.641	640.99
434.016	647.54
434.392	676.47
434.767	666.3
435.143	685.96
435.518	658.61
435.894	693.41
436.269	674.88
436.644	694.32
437.02	689.8
437.395	695
437.77	709.68
438.145	689.57
438.52	717.37
438.895	721.89
439.271	714.2
439.646	738.84
440.021	762.56
440.395	754.66
440.77	719.18
441.145	743.13
441.52	761.43
441.895	746.75
442.27	757.14
442.645	760.53
443.019	766.18
443.394	754.43
443.769	750.59
444.143	747.65
444.518	791.26
444.892	769.8
445.267	779.29
445.641	805.28
446.016	785.16
446.39	810.25
446.764	812.96
447.139	795.11
447.513	826.52
447.887	824.71
448.262	807.31
448.636	809.34
449.01	827.42
449.384	826.74
449.758	813.18
450.132	841.21
450.506	838.49
450.88	838.95
451.254	845.27
451.628	854.77
452.002	876.46
452.376	870.58
452.75	887.99
453.123	890.7
453.497	879.62
453.871	920.3
454.244	901.77
454.618	967.08
454.992	912.62
455.365	937.93
455.739	938.83
456.112	951.94
456.486	964.14
456.859	965.05
457.232	976.8
457.606	1017.93
457.979	986.51
458.352	1031.26
458.725	1020.19
459.099	1023.8
459.472	1060.41
459.845	1040.52
460.218	1088.88
460.591	1070.81
460.964	1072.39
461.337	1086.4
461.71	1077.13
462.083	1112.16
462.456	1118.04
462.829	1144.7
463.201	1133.63
463.574	1145.38
463.947	1173.18
464.32	1199.16
464.692	1186.06
465.065	1207.3
465.438	1189.22
465.81	1248.43
466.183	1212.95
466.555	1244.13
466.928	1274.19
467.3	1290.69
467.672	1299.27
468.045	1341.08
468.417	1334.3
468.789	1332.04
469.161	1390.12
469.534	1360.29
469.906	1384.92
470.278	1411.59
470.65	1414.75
471.022	1455.65
471.394	1484.58
471.766	1488.2
472.138	1468.08
472.51	1525.93
472.882	1546.27
473.253	1592.6
473.625	1618.59
473.997	1652.94
474.369	1634.63
474.74	1662.2
475.112	1678.25
475.484	1746.49
475.855	1725.7
476.227	1772.26
476.598	1820.39
476.97	1826.72
477.341	1851.12
477.713	1927.96
478.084	1915.98
478.455	1978.58
478.827	1980.84
479.198	2068.07
479.569	2070.78
479.94	2115.52
480.311	2120.95
480.682	2170.66
481.053	2225.8
481.424	2265.58
481.795	2306.48
482.166	2353.48
482.537	2362.07
482.908	2499.69
483.279	2462.41
483.65	2510.54
484.021	2544.44
484.391	2598.9
484.762	2669.63
485.133	2662.85
485.503	2710.76
485.874	2777.88
486.244	2812.91
486.615	2888.61
486.985	2917.54
487.356	2965.67
487.726	3002.96
488.097	3067.59
488.467	3113.24
488.837	3176.51
489.207	3176.96
489.578	3244.76
489.948	3301.03
490.318	3309.62
490.688	3337.64
491.058	3411.76
491.428	3433.23
491.798	3508.03
492.168	3555.26
492.538	3575.6
492.908	3635.26
493.278	3710.28
493.648	3726.33
494.017	3748.93
494.387	3801.13
494.757	3832.99
495.126	3859.43
495.496	3871.64
495.866	3951.63
496.235	3982.82
496.605	3994.34
496.974	4026.21
497.344	4088.58
497.713	4103.49
498.082	4141.68
498.452	4199.99
498.821	4163.38
499.19	4216.03
499.559	4340.1
499.928	4283.83
500.298	4295.81
500.667	4415.8
501.036	4365.86
501.405	4395.01
501.774	4411.96
502.143	4445.41
502.512	4463.71
502.88	4500.77
503.249	4520.88
503.618	4581.67
503.987	4540.32
504.356	4558.17
504.724	4619.41
505.093	4666.19
505.462	4692.86
505.83	4721.56
506.199	4749.13
506.567	4814.66
506.936	4767.21
507.304	4821.89
507.672	4837.03
508.041	4833.19
508.409	4905.96
508.777	4949.8
509.145	4955.67
509.514	4970.14
509.882	4963.36
510.25	4963.58
510.618	5079.29
510.986	5062.34
511.354	5088.33
511.722	5057.59
512.09	5196.57
512.458	5130.59
512.826	5206.06
513.193	5211.49
513.561	5203.13
513.929	5295.33
514.297	5310.47
514.664	5283.8
515.032	5332.39
515.4	5362.22
515.767	5398.15
516.135	5415.1
516.502	5351.82
516.869	5491.71
517.237	5439.05
517.604	5425.49
517.972	5489.22
518.339	5512.95
518.706	5508.88
519.073	5544.81
519.44	5527.64
519.808	5624.36
520.175	5562.89
520.542	5684.24
520.909	5643.57
521.276	5699.38
521.643	5736.22
522.009	5777.8
522.376	5768.99
522.743	5839.27
523.11	5804.69
523.477	5925.59
523.843	5924.01
524.21	5933.05
524.577	5952.94
524.943	5981.86
525.31	6043.33
525.676	6081.29
526.043	6101.41
526.409	6180.95
526.776	6199.94
527.142	6225.47
527.508	6228.41
527.874	6263.21
528.241	6292.36
528.607	6312.93
528.973	6408.29
529.339	6358.35
529.705	6439.7
530.071	6488.97
530.437	6449.65
530.803	6575.75
531.169	6558.8
531.535	6549.76
531.901	6609.42
532.267	6601.96
532.632	6660.94
532.998	6702.75
533.364	6756.08
533.73	6761.95
534.095	6803.76
534.461	6814.61
534.826	6839.92
535.192	6872.91
535.557	6928.28
535.923	6948.62
536.288	6969.41
536.653	6949.07
537.019	7014.6
537.384	7020.93
537.749	7042.85
538.114	7103.41
538.479	7057.99
538.845	7133.02
539.21	7083.98
539.575	7189.74
539.94	7183.41
540.305	7215.05
540.67	7313.35
541.034	7273.35
541.399	7354.03
541.764	7386.35
542.129	7347.02
542.494	7348.38
542.858	7514.7
543.223	7425.44
543.587	7520.13
543.952	7505.21
544.316	7573.46
544.681	7571.88
545.045	7576.4
545.41	7641.93
545.774	7636.28
546.138	7690.97
546.503	7758.54
546.867	7707.69
547.231	7745.43
547.595	7813.9
547.959	7883.51
548.324	7852.55
548.688	7909.72
549.052	7967.35
549.416	7977.97
549.779	8003.73
550.143	8035.59
550.507	7996.5
550.871	8071.75
551.235	8026.33
551.599	8114.24
551.962	8144.52
552.326	8208.47
552.689	8263.61
553.053	8182.26
553.417	8226.55
553.78	8351.74
554.143	8294.34
554.507	8329.82
554.87	8354.68
555.234	8387.9
555.597	8397.39
555.96	8477.62
556.323	8452.76
556.686	8478.52
557.05	8579.99
557.413	8545.64
557.776	8585.64
558.139	8662.02
558.502	8637.61
558.865	8643.71
559.228	8685.29
559.59	8740.43
559.953	8763.26
560.316	8796.25
560.679	8811.39
561.041	8856.14
561.404	8864.5
561.767	8835.57
562.129	8913.31
562.492	9044.15
562.854	8954.67
563.217	8966.64
563.579	9059.52
563.941	9096.81
564.304	9052.29
564.666	9137.71
565.028	9219.07
565.39	9210.48
565.753	9269.46
566.115	9219.97
566.477	9337.48
566.839	9366.86
567.201	9466.29
567.563	9370.47
567.925	9429.23
568.287	9492.5
568.648	9564.14
569.01	9577.47
569.372	9615.67
569.734	9600.52
570.095	9695.44
570.457	9637.13
570.819	9772.27
571.18	9754.42
571.542	9876.9
571.903	9824.7
572.265	9923.23
572.626	9897.69
572.987	9959.84
573.349	10033.28
573.71	10133.39
574.071	10146.27
574.432	10295.42
574.794	10338.13
575.155	10381.29
575.516	10336.55
575.877	10462.65
576.238	10535.42
576.599	10565.92
576.96	10633.04
577.32	10691.12
577.681	10824.45
578.042	10896.08
578.403	10917.1
578.763	11084.55
579.124	11107.83
579.485	11290.42
579.845	11446.58
580.206	11501.94
580.566	11566.35
580.927	11726.34
581.287	11879.33
581.648	11950.29
582.008	12109.84
582.368	12231.64
582.728	12330.17
583.089	12514.12
583.449	12611.29
583.809	12964.05
584.169	13126.08
584.529	13200.43
584.889	13528.33
585.249	13571.95
585.609	13841.99
585.969	14063.01
586.329	14188.2
586.688	14508.87
587.048	14749.32
587.408	14928.52
587.768	15151.34
588.127	15335.29
588.487	15627.94
588.846	16012.79
589.206	16192.67
589.565	16386.33
589.925	16786.32
590.284	17065.64
590.643	17328.23
591.003	17674.89
591.362	18040.3
591.721	18169.34
592.08	18619.72
592.44	18895.2
592.799	19178.13
593.158	19455.18
593.517	19792.8
593.876	20078.67
594.235	20377.64
594.593	20832.32
594.952	21131.97
595.311	21351.4
595.67	21821.22
596.029	22238.84
596.387	22547.08
596.746	22919.27
597.104	23171.47
597.463	23445.81
597.822	23921.5
598.18	24165.57
598.538	24424.32
598.897	24864.53
599.255	25097.52
599.613	25683.94
599.972	25824.28
600.33	26220.65
600.688	26404.38
601.046	26921.2
601.404	27229.67
601.762	27459.94
602.12	28077.55
602.478	28340.14
602.836	28593.02
603.194	28859.68
603.552	29153.23
603.91	29357.52
604.268	29716.61
604.625	30006.77
604.983	30442.91
605.341	30607.88
605.698	31052.62
606.056	31404.7
606.413	31446.96
606.771	31905.02
607.128	32203.09
607.485	32393.37
607.843	32741.16
608.2	33119.23
608.557	33411.2
608.914	33558.09
609.272	33942.03
609.629	34252.53
609.986	34490.72
610.343	34674.44
610.7	35037.82
611.057	35219.74
611.414	35548.09
611.771	35667.64
612.127	36013.62
612.484	36317.11
612.841	36615.86
613.198	36565.47
613.554	36769.3
613.911	37250.19
614.267	37343.52
614.624	37475.27
614.98	37757.07
615.337	37984.64
615.693	38109.83
616.05	38063.28
616.406	38694.22
616.762	38612.19
617.118	38826.87
617.475	39032.52
617.831	39249.91
618.187	39457.82
618.543	39654.42
618.899	39908.2
619.255	39910.01
619.611	40092.83
619.967	40316.55
620.323	40476.1
620.678	40580.73
621.034	40565.36
621.39	40830.44
621.746	40796.09
622.101	41238.56
622.457	41020.49
622.812	41269.3
623.168	41588.84
623.523	41581.38
623.879	41771.43
624.234	41698.44
624.589	41792.67
624.945	41942.72
625.3	42142.04
625.655	42243.96
626.01	42159.44
626.365	42460.45
626.72	42384.3
627.075	42427.68
627.43	42482.6
627.785	42591.75
628.14	42695.7
628.495	42719.2
628.85	42916.71
629.205	42680.56
629.559	43054.56
629.914	42857.5
630.269	43078.06
630.623	42960.33
630.978	42917.39
631.332	43103.15
631.687	43239.19
632.041	43105.63
632.396	43172.52
632.75	43210.71
633.104	43210.04
633.459	43161.22
633.813	43150.83
634.167	43186.53
634.521	43196.93
634.875	43348.34
635.229	43254.1
635.583	43259.98
635.937	43158.74
636.291	43187.44
636.645	43165.97
636.999	43207.32
637.352	43455.23
637.706	43055.24
638.06	43231.28
638.413	43332.07
638.767	43185.18
639.121	43223.14
639.474	43156.03
639.828	43115.12
640.181	43144.5
640.534	43325.51
640.888	43193.54
641.241	42924.17
641.594	43093.88
641.947	43241.45
642.301	43167.78
642.654	43142.92
643.007	43201.9
643.36	43220.43
643.713	43096.59
644.066	43170.72
644.419	42923.26
644.771	42767.56
645.124	42401.47
645.477	42392.2
645.83	42085.32
646.182	42001.48
646.535	41901.14
646.888	42031.08
647.24	41811.2
647.593	42071.31
647.945	41913.12
648.298	41686.23
648.65	41721.71
649.002	41673.35
649.355	41793.12
649.707	41749.51
650.059	41914.93
650.411	42410.51
650.763	42445.76
651.115	42894.56
651.467	42704.74
651.819	42646.66
652.171	42656.38
652.523	42590.62
652.875	42611.86
653.227	42400.79
653.578	42641.92
653.93	42620.45
654.282	42450.28
654.633	42311.75
654.985	42432.88
655.337	42595.82
655.688	42266.56
656.039	42588.13
656.391	42152.44
656.742	42377.06
657.094	42407.8
657.445	42444.86
657.796	42448.47
658.147	42297.29
658.498	42317.86
658.849	42467.46
659.2	42429.27
659.551	42280.8
659.902	42466.78
660.253	42233.34
660.604	42347.46
660.955	42142.95
661.306	42405.99
661.656	42128.26
662.007	42177.29
662.358	42123.51
662.708	42253.9
663.059	42232.66
663.409	42035.15
663.76	42301.59
664.11	42327.12
664.461	42180.01
664.811	42181.59
665.161	42297.29
665.511	42160.8
665.862	42096.39
666.212	42182.94
666.562	42243.06
666.912	42216.84
667.262	42227.24
667.612	42193.57
667.962	42053
668.312	42079.67
668.662	42235.6
669.011	42094.36
669.361	41969.62
669.711	41999.45
670.06	42001.71
670.41	42074.92
670.76	41950.41
671.109	42078.31
671.459	42030.41
671.808	42083.51
672.157	42070.63
672.507	41846.91
672.856	41720.58
673.205	41882.16
673.554	41968.49
673.904	41934.82
674.253	42055.49
674.602	41927.36
674.951	41414.6
675.3	41044.67
675.649	41809.4
675.998	41677.42
676.346	41821.82
676.695	41820.69
677.044	41555.84
677.393	41810.75
677.741	41690.3
678.09	41571.44
678.438	41498.89
678.787	41625.9
679.135	41587.93
679.484	41231.33
679.832	41437.65
680.181	41167.38
680.529	41378.45
680.877	41169.64
681.225	41219.81
681.573	41415.06
681.922	41215.96
682.27	41133.48
682.618	41074.73
682.966	41001.73
683.314	41092.35
683.661	40980.94
684.009	40814.17
684.357	40720.38
684.705	40578.47
685.053	40702.08
685.4	40641.06
685.748	40448.53
686.095	40465.02
686.443	40177.8
686.79	40235.2
687.138	40242.66
687.485	40300.73
687.832	40226.16
688.18	40185.48
688.527	39826.85
688.874	40011.7
689.221	39919.05
689.568	39924.25
689.915	39702.11
690.262	39599.96
690.609	39536.23
690.956	39501.89
691.303	39441.1
691.65	39139.41
691.997	39227.99
692.344	38941.22
692.69	39043.59
693.037	38945.29
693.383	38712.53
693.73	38879.3
694.077	38622.81
694.423	38631.4
694.769	38451.52
695.116	38423.5
695.462	38283.39
695.808	38197.29
696.155	38252.88
696.501	37993.45
696.847	38085.2
697.193	37682.5
697.539	37921.81
697.885	37616.74
698.231	37507.59
698.577	37550.75
698.923	37473.69
699.269	37237.09
699.614	37111.89
699.96	37042.74
700.306	37136.3
700.651	36915.06
700.997	36914.83
701.342	36745.12
701.688	36737.89
702.033	36647.5
702.379	36616.76
702.724	36403.21
703.069	36478.24
703.415	36125.93
703.76	36219.03
704.105	36051.81
704.45	35949.89
704.795	35876.22
705.14	35675.77
705.485	35740.4
705.83	35644.36
706.175	35674.19
706.52	35402.33
706.865	35441.65
707.209	35402.56
707.554	35160.98
707.899	35397.13
708.243	35135.22
708.588	35137.25
708.932	34885.28
709.277	34810.93
709.621	34897.03
709.966	34673.99
710.31	34791.73
710.654	34435.13
710.998	34521.23
711.342	34596.93
711.687	34395.35
712.031	34266.54
712.375	34224.06
712.719	34133.89
713.063	34097.96
713.407	34161.91
713.75	34166.66
714.094	34021.8
714.438	33911.75
714.782	33827.01
715.125	33692.77
715.469	33660
715.812	33592.21
716.156	33417.75
716.499	33310.18
716.843	33326
717.186	33189.96
717.53	33410.07
717.873	33250.52
718.216	33151.32
718.559	33032.9
718.902	32834.49
719.246	32869.74
719.589	32771.44
719.932	32673.59
720.275	32720.82
720.617	32713.36
720.96	32582.52
721.303	32502.52
721.646	32583.42
721.989	32404.9
722.331	32562.63
722.674	32331.45
723.016	32555.63
723.359	32417.1
723.701	32325.8
724.044	32224.34
724.386	32059.37
724.729	32067.5
725.071	32037.22
725.413	32050.33
725.755	32052.82
726.097	31873.84
726.439	31760.85
726.782	31729.43
727.124	31857.11
727.465	31714.97
727.807	31698.93
728.149	31666.84
728.491	31609.44
728.833	31607.4
729.175	31265.04
729.516	31492.15
729.858	31349.33
730.199	31351.82
730.541	31285.83
730.882	31185.72
731.224	31220.29
731.565	31147.75
731.906	31056.23
732.248	31027.76
732.589	30863.02
732.93	30831.38
733.271	30732.62
733.612	30914.31
733.953	30952.73
734.294	30585.28
734.635	30654.21
734.976	30784.15
735.317	30514.32
735.658	30571.5
735.999	30629.12
736.339	30482.24
736.68	30523.59
737.021	30410.82
737.361	30308
737.702	30339.64
738.042	30389.13
738.383	30263.71
738.723	30371.28
739.063	30145.07
739.404	30135.58
739.744	30136.26
740.084	30010.16
740.424	30018.97
740.764	30031.4
741.104	30092.64
741.444	29828.24
741.784	29910.72
742.124	29869.82
742.464	29805.42
742.804	29695.14
743.143	29638.19
743.483	29740.79
743.823	29569.49
744.162	29575.37
744.502	29616.04
744.841	29421.92
745.181	29445.2
745.52	29387.35
745.86	29425.31
746.199	29392.77
746.538	29482.26
746.877	29367.69
747.216	29351.64
747.556	29113.68
747.895	29202.04
748.234	29077.75
748.573	29117.75
748.911	28943.97
749.25	29013.57
749.589	28864.88
749.928	28854.26
750.267	28918.66
750.605	28777.42
750.944	28660.14
751.283	28650.64
751.621	28834.59
751.96	28565.68
752.298	28588.05
752.636	28412.46
752.975	28384.89
753.313	28263.54
753.651	28387.6
753.989	28248.85
754.327	28240.94
754.666	28171.56
755.004	28159.58
755.342	28234.61
755.679	28096.99
756.017	28030.1
756.355	27979.48
756.693	27846.15
757.031	27913.26
757.368	27724.79
757.706	27795.98
758.044	27642.54
758.381	27680.05
758.719	27647.73
759.056	27581.97
759.394	27519.38
759.731	27266.95
760.068	27144.7
760.405	27190.34
