Data from hue_160_FLMS001491_00037.txt Node
Date: Tue Feb 07 16:51:06 GMT 2017
User: dcchb
Spectrometer: FLMS00149
Trigger mode: 0
Integration Time (sec): 2.000000E-2
Scans to average: 10
Electric dark correction enabled: true
Nonlinearity correction enabled: false
Boxcar width: 0
XAxis mode: Wavelengths
Number of Pixels in Spectrum: 2048
>>>>>Begin Spectral Data<<<<<
341.393	-9.22
341.776	-9.22
342.16	-9.22
342.543	-73.18
342.927	-63.91
343.31	-61.65
343.693	-65.94
344.077	-64.14
344.46	-57.13
344.843	-50.13
345.226	-51.26
345.61	-37.47
345.993	-10.58
346.376	-1.31
346.759	8.63
347.142	17.44
347.525	63.09
347.908	57.67
348.291	56.54
348.674	88.85
349.057	107.38
349.44	130.66
349.823	143.09
350.206	169.53
350.588	181.96
350.971	221.73
351.354	240.71
351.737	212.24
352.119	254.05
352.502	258.34
352.884	254.05
353.267	282.97
353.65	280.49
354.032	308.06
354.414	312.58
354.797	283.2
355.179	318.23
355.562	315.06
355.944	313.48
356.326	330.66
356.709	346.02
357.091	323.2
357.473	334.5
357.855	328.17
358.238	334.5
358.62	350.99
359.002	336.98
359.384	340.37
359.766	332.91
360.148	358.45
360.53	358.23
360.912	329.07
361.294	306.7
361.676	327.27
362.057	308.28
362.439	314.84
362.821	322.07
363.203	341.28
363.584	318.9
363.966	344.67
364.348	328.62
364.729	320.26
365.111	306.7
365.493	303.09
365.874	314.84
366.256	323.88
366.637	325.91
367.019	324.78
367.4	306.7
367.781	319.13
368.163	293.37
368.544	306.25
368.925	309.41
369.306	288.17
369.688	324.33
370.069	297.66
370.45	300.15
370.831	335.85
371.212	318
371.593	300.15
371.974	315.06
372.355	310.09
372.736	337.66
373.117	309.19
373.498	298.79
373.879	316.19
374.26	315.06
374.641	308.73
375.021	313.93
375.402	315.06
375.783	300.6
376.163	317.32
376.544	318
376.925	306.02
377.305	326.14
377.686	298.11
378.066	337.21
378.447	335.85
378.827	330.2
379.208	328.4
379.588	327.27
379.968	306.47
380.349	312.35
380.729	306.7
381.109	335.4
381.489	327.27
381.87	331.33
382.25	344.67
382.63	339.02
383.01	343.54
383.39	320.49
383.77	344.89
384.15	325.01
384.53	338.79
384.91	336.53
385.29	330.88
385.67	353.25
386.049	322.29
386.429	344.89
386.809	343.76
387.189	343.54
387.568	335.63
387.948	317.77
388.328	342.41
388.707	347.83
389.087	350.09
389.466	365.23
389.846	366.13
390.225	378.11
390.605	346.02
390.984	343.99
391.363	357.55
391.743	360.03
392.122	340.37
392.501	355.29
392.881	353.71
393.26	385.34
393.639	368.85
394.018	350.77
394.397	370.88
394.776	372.46
395.155	374.27
395.534	366.13
395.913	384.44
396.292	371.33
396.671	369.07
397.05	379.24
397.429	374.04
397.808	383.99
398.186	389.41
398.565	381.95
398.944	389.86
399.323	374.72
399.701	389.41
400.08	372.91
400.458	384.67
400.837	395.96
401.215	370.2
401.594	383.99
401.972	404.1
402.351	407.49
402.729	381.95
403.107	378.79
403.486	400.94
403.864	395.29
404.242	400.71
404.62	398.45
404.999	412.01
405.377	408.39
405.755	403.2
406.133	414.95
406.511	420.14
406.889	434.61
407.267	437.09
407.645	412.46
408.023	436.87
408.401	399.81
408.779	426.25
409.156	431.44
409.534	418.56
409.912	416.98
410.29	450.65
410.667	407.49
411.045	434.61
411.422	458.79
411.8	447.71
412.178	443.19
412.555	463.53
412.933	434.61
413.31	448.84
413.687	462.4
414.065	482.06
414.442	465.34
414.819	475.06
415.197	460.82
415.574	480.03
415.951	454.27
416.328	484.55
416.705	493.36
417.082	466.7
417.46	473.25
417.837	489.3
418.214	490.65
418.591	487.04
418.967	496.98
419.344	513.93
419.721	502.63
420.098	517.99
420.475	514.83
420.852	510.09
421.228	507.15
421.605	516.86
421.982	518.67
422.358	542.4
422.735	544.89
423.111	537.88
423.488	516.19
423.864	557.09
424.241	556.41
424.617	554.83
424.994	553.93
425.37	556.64
425.746	554.15
426.123	555.51
426.499	584.43
426.875	576.07
427.251	547.37
427.627	575.17
428.003	593.25
428.379	587.82
428.756	589.41
429.132	592.8
429.507	593.93
429.883	607.71
430.259	605.68
430.635	610.65
431.011	615.62
431.387	637.54
431.763	620.14
432.138	640.48
432.514	668.05
432.89	649.74
433.265	650.87
433.641	634.38
434.016	656.52
434.392	699.01
434.767	688.16
435.143	712.11
435.518	682.51
435.894	698.1
436.269	699.68
436.644	706.24
437.02	702.62
437.395	688.39
437.77	722.06
438.145	740.59
438.52	728.84
438.895	759.34
439.271	748.27
439.646	746.46
440.021	757.08
440.395	773.36
440.77	767.71
441.145	772.68
441.52	804.54
441.895	782.17
442.27	789.63
442.645	812
443.019	789.17
443.394	811.77
443.769	812.45
444.143	819.46
444.518	796.18
444.892	807.03
445.267	824.43
445.641	842.96
446.016	837.08
446.39	880.92
446.764	844.09
447.139	866.23
447.513	860.13
447.887	853.35
448.262	842.51
448.636	861.71
449.01	878.66
449.384	902.84
449.758	906.23
450.132	907.59
450.506	900.58
450.88	927.7
451.254	904.65
451.628	939.23
452.002	919.79
452.376	953.24
452.75	960.7
453.123	955.95
453.497	968.15
453.871	958.89
454.244	1014.48
454.618	1009.73
454.992	1017.19
455.365	1019.45
455.739	1043.63
456.112	1056.06
456.486	1053.35
456.859	1086.34
457.232	1081.6
457.606	1079.11
457.979	1108.94
458.352	1110.07
458.725	1143.52
459.099	1128.83
459.472	1128.37
459.845	1151.88
460.218	1194.81
460.591	1189.39
460.964	1185.32
461.337	1216.28
461.71	1229.39
462.083	1290.4
462.456	1249.95
462.829	1254.7
463.201	1281.82
463.574	1317.07
463.947	1319.33
464.32	1341.48
464.692	1357.29
465.065	1365.2
465.438	1386.45
465.81	1414.24
466.183	1433.68
466.555	1472.09
466.928	1477.29
467.3	1477.07
467.672	1492.21
468.045	1543.28
468.417	1538.53
468.789	1577.4
469.161	1606.78
469.534	1615.14
469.906	1682.94
470.278	1702.37
470.65	1713.22
471.022	1719.77
471.394	1820.56
471.766	1804.97
472.138	1838.64
472.51	1899.65
472.882	1896.94
473.253	1927.9
473.625	1978.52
473.997	2053.32
474.369	2106.43
474.74	2105.52
475.112	2143.94
475.484	2246.31
475.855	2273.65
476.227	2296.48
476.598	2376.93
476.97	2408.34
477.341	2486.98
477.713	2549.35
478.084	2599.07
478.455	2651.95
478.827	2737.15
479.198	2859.85
479.569	2890.59
479.94	2988.89
480.311	3007.87
480.682	3141.2
481.053	3190.69
481.424	3249.9
481.795	3333.97
482.166	3438.6
482.537	3541.19
482.908	3621.19
483.279	3702.32
483.65	3790.9
484.021	3906.83
484.391	4004.68
484.762	4061.86
485.133	4151.35
485.503	4277.67
485.874	4361.74
486.244	4478.12
486.615	4597.89
486.985	4724.66
487.356	4836.98
487.726	4926.01
488.097	5072.45
488.467	5149.96
488.837	5295.5
489.207	5430.18
489.578	5576.62
489.948	5694.13
490.318	5828.82
490.688	5874.46
491.058	6019.09
491.428	6166.43
491.798	6265.41
492.168	6403.94
492.538	6472.19
492.908	6640.55
493.278	6796.25
493.648	6826.08
494.017	6924.83
494.387	7068.78
494.757	7095.68
495.126	7360.75
495.496	7334.54
495.866	7446.63
496.235	7630.8
496.605	7699.5
496.974	7774.98
497.344	7945.82
497.713	8034.63
498.082	8141.3
498.452	8214.06
498.821	8293.61
499.19	8393.04
499.559	8540.38
499.928	8584.68
500.298	8635.52
500.667	8812.69
501.036	8817.44
501.405	8921.84
501.774	8896.08
502.143	9039.35
502.512	9168.16
502.88	9262.85
503.249	9254.26
503.618	9369.29
503.987	9399.34
504.356	9511.88
504.724	9626.23
505.093	9589.62
505.462	9665.78
505.83	9716.17
506.199	9790.75
506.567	9891.08
506.936	9953.23
507.304	9985.77
507.672	10042.72
508.041	10129.95
508.409	10147.8
508.777	10257.17
509.145	10302.14
509.514	10316.83
509.882	10374.23
510.25	10430.5
510.618	10523.16
510.986	10564.96
511.354	10586.2
511.722	10708.01
512.09	10711.17
512.458	10730.61
512.826	10809.02
513.193	10827.78
513.561	10815.35
513.929	10917.27
514.297	10950.26
514.664	10971.28
515.032	11057.15
515.4	11082.01
515.767	11051.73
516.135	11107.55
516.502	11044.05
516.869	11219.86
517.237	11195.23
517.604	11179.41
517.972	11277.03
518.339	11329.01
518.706	11290.82
519.073	11271.16
519.44	11352.74
519.808	11382.34
520.175	11327.43
520.542	11360.42
520.909	11510.93
521.276	11418.5
521.643	11559.29
522.009	11547.99
522.376	11573.98
522.743	11602.9
523.11	11657.81
523.477	11699.85
523.843	11653.97
524.21	11740.07
524.577	11845.61
524.943	11808.55
525.31	11827.53
525.676	11846.74
526.043	11858.04
526.409	11827.08
526.776	11975.09
527.142	11988.88
527.508	11914.08
527.874	11965.15
528.241	11916.34
528.607	11950.01
528.973	12011.25
529.339	11927.19
529.705	11987.07
530.071	12028.65
530.437	12024.58
530.803	11975.55
531.169	12007.41
531.535	12014.87
531.901	11956.79
532.267	11890.8
532.632	11928.09
532.998	11894.87
533.364	11924.93
533.73	11942.55
534.095	11998.6
534.461	11924.7
534.826	11897.13
535.192	11865.27
535.557	11863.01
535.923	11826.17
536.288	11849
536.653	11806.51
537.019	11825.72
537.384	11761.54
537.749	11752.05
538.114	11682.22
538.479	11716.12
538.845	11721.54
539.21	11613.75
539.575	11559.74
539.94	11555.22
540.305	11528.33
540.67	11471.38
541.034	11503.92
541.399	11527.65
541.764	11398.61
542.129	11391.61
542.494	11365.85
542.858	11353.64
543.223	11284.27
543.587	11354.09
543.952	11253.98
544.316	11210.6
544.681	11204.72
545.045	11181.22
545.41	11208.56
545.774	11077.94
546.138	11057.6
546.503	11085.63
546.867	10940.09
547.231	11036.36
547.595	10962.01
547.959	10929.02
548.324	10952.97
548.688	10894.45
549.052	10862.36
549.416	10867.78
549.779	10795.69
550.143	10776.93
550.507	10787.56
550.871	10746.65
551.235	10693.32
551.599	10725.64
551.962	10647.22
552.326	10597.73
552.689	10645.86
553.053	10558.41
553.417	10508.01
553.78	10626.43
554.143	10579.43
554.507	10563.83
554.87	10546.21
555.234	10514.12
555.597	10476.83
555.96	10453.78
556.323	10487.22
556.686	10405.42
557.05	10430.28
557.413	10387.79
557.776	10372.88
558.139	10427.79
558.502	10342.14
558.865	10334.01
559.228	10364.06
559.59	10335.59
559.953	10368.13
560.316	10400.45
560.679	10388.7
561.041	10423.05
561.404	10409.94
561.767	10391.18
562.129	10355.7
562.492	10464.63
562.854	10337.62
563.217	10340.34
563.579	10374.68
563.941	10446.55
564.304	10401.35
564.666	10386.66
565.028	10465.76
565.39	10471.63
565.753	10368.13
566.115	10494
566.477	10412.88
566.839	10472.08
567.201	10516.83
567.563	10478.18
567.925	10488.58
568.287	10553.66
568.648	10452.87
569.01	10524.74
569.372	10556.15
569.734	10499.88
570.095	10540.78
570.457	10602.7
570.819	10523.38
571.18	10571.52
571.542	10571.06
571.903	10567
572.265	10641.12
572.626	10660.33
572.987	10634.57
573.349	10669.37
573.71	10632.08
574.071	10635.02
574.432	10660.1
574.794	10689.93
575.155	10670.27
575.516	10620.55
575.877	10649.03
576.238	10603.83
576.599	10676.37
576.96	10707.56
577.32	10655.36
577.681	10736.48
578.042	10673.89
578.403	10655.58
578.763	10765.41
579.124	10638.86
579.485	10783.94
579.845	10726.77
580.206	10714.34
580.566	10694.68
580.927	10670.72
581.287	10742.13
581.648	10667.56
582.008	10766.31
582.368	10691.51
582.728	10674.56
583.089	10663.72
583.449	10657.62
583.809	10699.2
584.169	10737.39
584.529	10625.98
584.889	10712.3
585.249	10698.07
585.609	10604.96
585.969	10684.73
586.329	10639.54
586.688	10650.16
587.048	10565.87
587.408	10518.64
587.768	10586.2
588.127	10547.56
588.487	10518.86
588.846	10688.57
589.206	10568.58
589.565	10564.28
589.925	10568.58
590.284	10557.05
590.643	10561.8
591.003	10574.68
591.362	10570.16
591.721	10460.11
592.08	10528.58
592.44	10506.88
592.799	10557.05
593.158	10427.34
593.517	10481.35
593.876	10510.05
594.235	10482.25
594.593	10538.52
594.952	10508.69
595.311	10470.95
595.67	10456.49
596.029	10526.55
596.387	10569.48
596.746	10535.13
597.104	10406.77
597.463	10448.81
597.822	10540.56
598.18	10448.36
598.538	10432.08
598.897	10494.46
599.255	10407.9
599.613	10539.43
599.972	10456.26
600.33	10471.63
600.688	10441.58
601.046	10387.57
601.404	10488.13
601.762	10411.07
602.12	10462.37
602.478	10475.02
602.836	10493.78
603.194	10421.46
603.552	10454.23
603.91	10381.46
604.268	10380.79
604.625	10389.83
604.983	10463.5
605.341	10348.24
605.698	10440.9
606.056	10427.79
606.413	10480.22
606.771	10503.72
607.128	10577.17
607.485	10357.51
607.843	10447
608.2	10501.91
608.557	10489.03
608.914	10509.14
609.272	10469.15
609.629	10508.01
609.986	10539.2
610.343	10454
610.7	10538.97
611.057	10587.11
611.414	10548.01
611.771	10515.7
612.127	10623.94
612.484	10489.94
612.841	10587.56
613.198	10567.45
613.554	10558.86
613.911	10611.74
614.267	10600.44
614.624	10628.01
614.98	10632.31
615.337	10659.42
615.693	10609.25
616.05	10637.28
616.406	10694
616.762	10601.12
617.118	10657.62
617.475	10733.32
617.831	10736.71
618.187	10729.93
618.543	10708.69
618.899	10745.52
619.255	10775.35
619.611	10714.56
619.967	10739.87
620.323	10790.95
620.678	10734.68
621.034	10788.46
621.39	10705.52
621.746	10666.65
622.101	10828.23
622.457	10710.72
622.812	10742.58
623.168	10762.02
623.523	10743.49
623.879	10804.28
624.234	10690.16
624.589	10739.2
624.945	10750.95
625.3	10717.95
625.655	10663.26
626.01	10772.64
626.365	10773.77
626.72	10748.46
627.075	10725.86
627.43	10741
627.785	10752.98
628.14	10752.53
628.495	10726.77
628.85	10677.05
629.205	10599.09
629.559	10688.8
629.914	10652.87
630.269	10679.76
630.623	10653.77
630.978	10634.11
631.332	10635.92
631.687	10759.31
632.041	10591.85
632.396	10638.18
632.75	10591.85
633.104	10598.86
633.459	10551.18
633.813	10496.94
634.167	10572.65
634.521	10518.41
634.875	10603.38
635.229	10516.15
635.583	10541.23
635.937	10475.25
636.291	10540.56
636.645	10484.29
636.999	10409.49
637.352	10484.74
637.706	10386.44
638.06	10447.45
638.413	10428.47
638.767	10418.07
639.121	10400.22
639.474	10349.83
639.828	10341.24
640.181	10411.52
640.534	10376.04
640.888	10317.29
641.241	10282.48
641.594	10242.03
641.947	10303.5
642.301	10305.53
642.654	10286.1
643.007	10381.69
643.36	10289.72
643.713	10270.73
644.066	10265.99
644.419	10164.75
644.771	10181.7
645.124	10127.01
645.477	10114.8
645.83	9983.51
646.182	10023.06
646.535	9997.52
646.888	10011.3
647.24	9973.57
647.593	10062.15
647.945	10018.31
648.298	9916.17
648.65	9950.06
649.002	9896.51
649.355	9934.92
649.707	9929.05
650.059	9980.34
650.411	10077.74
650.763	10105.09
651.115	10181.92
651.467	10149.38
651.819	10109.16
652.171	10145.99
652.523	10167.91
652.875	10108.48
653.227	10133.34
653.578	10269.38
653.93	10134.92
654.282	10075.48
654.633	10098.99
654.985	10174.92
655.337	10134.47
655.688	10099.44
656.039	10209.49
656.391	10109.61
656.742	10139.21
657.094	10114.35
657.445	10124.75
657.796	10182.6
658.147	10121.36
658.498	10155.03
658.849	10055.37
659.2	10170.4
659.551	10128.59
659.902	10181.7
660.253	10145.31
660.604	10145.99
660.955	10124.97
661.306	10149.61
661.656	10199.32
662.007	10123.17
662.358	10120.45
662.708	10161.81
663.059	10145.09
663.409	10158.42
663.76	10216.04
664.11	10138.98
664.461	10188.25
664.811	10165.42
665.161	10183.5
665.511	10141.7
665.862	10115.26
666.212	10196.84
666.562	10171.3
666.912	10156.39
667.262	10165.88
667.612	10174.46
667.962	10246.78
668.312	10192.99
668.662	10205.2
669.011	10183.5
669.361	10112.77
669.711	10265.08
670.06	10227.34
670.41	10119.1
670.76	10168.14
671.109	10239.32
671.459	10137.18
671.808	10132.88
672.157	10195.93
672.507	10074.35
672.856	10093.11
673.205	10070.29
673.554	10139.89
673.904	10112.09
674.253	10144.18
674.602	10138.53
674.951	10014.92
675.3	9897.64
675.649	10089.27
675.998	10057.63
676.346	10058.53
676.695	10050.4
677.044	9968.82
677.393	10021.7
677.741	9998.42
678.09	9988.93
678.438	9991.87
678.787	10022.15
679.135	9949.61
679.484	9936.5
679.832	10002.04
680.181	9875.04
680.529	9866
680.877	9873.23
681.225	9852.89
681.573	9927.46
681.922	9803.4
682.27	9807.69
682.618	9824.87
682.966	9805.21
683.314	9729.5
683.661	9772.67
684.009	9691.99
684.357	9698.77
684.705	9669.17
685.053	9676.85
685.4	9729.5
685.748	9619.9
686.095	9611.09
686.443	9629.39
686.79	9619.22
687.138	9567.93
687.485	9537.19
687.832	9547.36
688.18	9456.97
688.527	9433.01
688.874	9383.3
689.221	9414.48
689.568	9372.68
689.915	9418.1
690.262	9371.55
690.609	9357.54
690.956	9278.44
691.303	9302.62
691.65	9256.52
691.997	9142.4
692.344	9116.19
692.69	9171.55
693.037	9177.65
693.383	9044.78
693.73	9056.3
694.077	9021.95
694.423	9062.18
694.769	8963.2
695.116	8915.97
695.462	8971.56
695.808	8899.47
696.155	8945.12
696.501	8859.02
696.847	8821.51
697.193	8743.99
697.539	8713.03
697.885	8712.58
698.231	8759.36
698.577	8637.56
698.923	8663.09
699.269	8563.21
699.614	8515.98
699.96	8508.97
700.306	8464.9
700.651	8542.64
700.997	8442.76
701.342	8436.43
701.688	8398.69
702.033	8378.81
702.379	8375.42
702.724	8298.81
703.069	8301.52
703.415	8218.13
703.76	8247.74
704.105	8245.25
704.45	8257.23
704.795	8204.57
705.14	8195.08
705.485	8147.17
705.83	8106.95
706.175	8130.9
706.52	8051.58
706.865	8038.7
707.209	8037.35
707.554	7970.45
707.899	7953.51
708.243	7908.53
708.588	7901.98
708.932	7871.47
709.277	7877.12
709.621	7891.59
709.966	7817.69
710.31	7812.72
710.654	7797.35
710.998	7816.33
711.342	7797.8
711.687	7755.54
712.031	7657.92
712.375	7687.75
712.719	7723.23
713.063	7649.78
713.407	7673.96
713.75	7625.6
714.094	7660.63
714.438	7560.52
714.782	7605.72
715.125	7599.62
715.469	7586.96
715.812	7525.72
716.156	7509.22
716.499	7477.13
716.843	7518.26
717.186	7447.98
717.53	7491.82
717.873	7470.81
718.216	7423.35
718.559	7402.79
718.902	7402.33
719.246	7368.66
719.589	7374.09
719.932	7352.84
720.275	7365.5
720.617	7324.14
720.96	7358.72
721.303	7338.61
721.646	7399.17
721.989	7323.69
722.331	7281.21
722.674	7383.35
723.016	7330.7
723.359	7331.38
723.701	7314.65
724.044	7260.42
724.386	7241.66
724.729	7283.69
725.071	7218.61
725.413	7250.47
725.755	7209.57
726.097	7211.15
726.439	7181.1
726.782	7189.46
727.124	7302.68
727.465	7250.7
727.807	7235.11
728.149	7166.18
728.491	7188.1
728.833	7188.78
729.175	7160.08
729.516	7181.55
729.858	7198.95
730.199	7196.69
730.541	7170.25
730.882	7121.66
731.224	7183.58
731.565	7167.54
731.906	7150.81
732.248	7146.75
732.589	7125.05
732.93	7120.08
733.271	7113.08
733.612	7185.62
733.953	7193.3
734.294	7161.21
734.635	7085.28
734.976	7168.22
735.317	7048.44
735.658	7145.17
735.999	7168.44
736.339	7156.69
736.68	7102.91
737.021	7146.75
737.361	7175.22
737.702	7180.87
738.042	7145.62
738.383	7184.03
738.723	7203.02
739.063	7177.71
739.404	7204.6
739.744	7174.77
740.084	7238.27
740.424	7282.56
740.764	7232.62
741.104	7305.61
741.444	7250.47
741.784	7266.97
742.124	7306.52
742.464	7300.87
742.804	7308.55
743.143	7342
743.483	7320.75
743.823	7323.47
744.162	7324.82
744.502	7364.37
744.841	7414.54
745.181	7431.03
745.52	7431.94
745.86	7459.51
746.199	7580.86
746.538	7587.19
746.877	7616.34
747.216	7673.29
747.556	7698.82
747.895	7834.64
748.234	7761.65
748.573	7814.53
748.911	7860.17
749.25	7946.5
749.589	7931.59
749.928	7992.83
750.267	8063.11
750.605	8140.17
750.944	8219.49
751.283	8151.24
751.621	8344.68
751.96	8352.14
752.298	8462.42
752.636	8548.52
752.975	8617.89
753.313	8621.96
753.651	8815.4
753.989	8908.51
754.327	8951.67
754.666	9040.93
755.004	9163.64
755.342	9322.28
755.679	9440.02
756.017	9535.61
756.355	9733.35
756.693	9745.77
757.031	9879.1
757.368	9997.75
757.706	10082.49
758.044	10235.93
758.381	10443.84
758.719	10544.85
759.056	10704.62
759.394	10865.97
759.731	10922.92
760.068	11074.55
760.405	11278.39
760.743	11336.69
761.08	11527.65
761.417	11590.25
