Data from hue_320_FLMS001491_41.txt Node
Date: Mon Feb 06 15:47:14 GMT 2017
User: dcchb
Spectrometer: FLMS00149
Trigger mode: 0
Integration Time (sec): 2.000000E-2
Scans to average: 10
Electric dark correction enabled: true
Nonlinearity correction enabled: false
Boxcar width: 0
XAxis mode: Wavelengths
Number of Pixels in Spectrum: 2048
>>>>>Begin Spectral Data<<<<<
341.393	-27.53
341.776	-27.53
342.16	-27.53
342.543	-54.65
342.927	-74.53
343.31	-84.48
343.693	-67.98
344.077	-70.46
344.46	-59.39
344.843	-59.62
345.226	-46.28
345.61	-38.37
345.993	-3.8
346.376	23.32
346.759	10.66
347.142	18.12
347.525	40.49
347.908	61.28
348.291	62.41
348.674	83.88
349.057	130.21
349.44	124.11
349.823	136.31
350.206	180.15
350.588	179.02
350.971	210.43
351.354	226.93
351.737	223.54
352.119	233.26
352.502	258.34
352.884	272.13
353.267	258.11
353.65	279.81
354.032	285.68
354.414	305.12
354.797	288.17
355.179	313.71
355.562	287.94
355.944	322.07
356.326	358.68
356.709	323.88
357.091	338.79
357.473	338.11
357.855	333.14
358.238	328.85
358.62	317.77
359.002	323.65
359.384	351.9
359.766	348.96
360.148	330.43
360.53	340.37
360.912	332.69
361.294	321.84
361.676	337.43
362.057	318.23
362.439	336.53
362.821	311.67
363.203	345.34
363.584	321.16
363.966	339.24
364.348	330.2
364.729	322.75
365.111	310.99
365.493	299.47
365.874	317.77
366.256	326.81
366.637	297.66
367.019	304.89
367.4	324.33
367.781	320.26
368.163	310.77
368.544	292.69
368.925	307.38
369.306	304.89
369.688	299.47
370.069	315.97
370.45	293.59
370.831	332.24
371.212	319.36
371.593	301.28
371.974	312.58
372.355	303.54
372.736	316.42
373.117	286.59
373.498	310.09
373.879	312.12
374.26	301.28
374.641	302.63
375.021	301.73
375.402	298.79
375.783	303.76
376.163	303.09
376.544	324.78
376.925	330.66
377.305	311.9
377.686	318.45
378.066	326.59
378.447	295.4
378.827	296.31
379.208	299.7
379.588	319.58
379.968	301.73
380.349	325.46
380.729	304.44
381.109	310.09
381.489	336.76
381.87	323.2
382.25	323.65
382.63	330.43
383.01	312.35
383.39	322.97
383.77	338.56
384.15	327.27
384.53	327.49
384.91	338.56
385.29	340.82
385.67	310.54
386.049	351.45
386.429	334.27
386.809	344.89
387.189	351.45
387.568	337.66
387.948	320.03
388.328	344.67
388.707	327.04
389.087	337.21
389.466	364.78
389.846	355.97
390.225	364.33
390.605	354.61
390.984	366.81
391.363	363.2
391.743	357.55
392.122	365
392.501	364.55
392.881	379.92
393.26	360.03
393.639	369.98
394.018	362.07
394.397	362.52
394.776	379.24
395.155	365
395.534	346.02
395.913	362.52
396.292	377.21
396.671	367.72
397.05	372.91
397.429	368.62
397.808	379.69
398.186	374.04
398.565	388.96
398.944	386.47
399.323	387.15
399.701	385.12
400.08	393.25
400.458	386.25
400.837	382.63
401.215	376.98
401.594	384.44
401.972	383.99
402.351	390.09
402.729	399.13
403.107	387.83
403.486	409.07
403.864	386.92
404.242	437.77
404.62	411.11
404.999	426.92
405.377	407.49
405.755	422.4
406.133	430.77
406.511	420.37
406.889	421.5
407.267	428.28
407.645	428.73
408.023	446.58
408.401	430.54
408.779	426.02
409.156	440.26
409.534	448.62
409.912	452.69
410.29	454.49
410.667	481.61
411.045	490.42
411.422	475.96
411.8	474.38
412.178	480.71
412.555	495.85
412.933	480.93
413.31	510.31
413.687	506.02
414.065	526.81
414.442	519.8
414.819	532.01
415.197	535.85
415.574	514.83
415.951	533.81
416.328	543.76
416.705	562.97
417.082	562.06
417.46	560.71
417.837	595.51
418.214	590.54
418.591	574.49
418.967	585.56
419.344	592.57
419.721	588.95
420.098	624.43
420.475	630.99
420.852	605.45
421.228	639.12
421.605	632.79
421.982	620.14
422.358	645.45
422.735	655.17
423.111	641.83
423.488	634.38
423.864	649.29
424.241	687.71
424.617	672.57
424.994	670.76
425.37	702.85
425.746	708.72
426.123	705.33
426.499	697.65
426.875	695.62
427.251	731.55
427.627	710.98
428.003	715.28
428.379	749.18
428.756	754.6
429.132	755.73
429.507	778.78
429.883	779.91
430.259	783.75
430.635	808.38
431.011	809.51
431.387	797.54
431.763	837.53
432.138	823.75
432.514	817.2
432.89	832.56
433.265	857.42
433.641	856.07
434.016	866.69
434.392	882.73
434.767	894.03
435.143	909.62
435.518	923.18
435.894	920.24
436.269	940.13
436.644	921.83
437.02	918.89
437.395	940.13
437.77	960.47
438.145	944.88
438.52	961.6
438.895	941.03
439.271	977.19
439.646	999.34
440.021	990.75
440.395	993.01
440.77	1007.93
441.145	1003.63
441.52	1017.42
441.895	1037.53
442.27	1013.35
442.645	1013.12
443.019	1048.83
443.394	1051.99
443.769	1066.23
444.143	1024.42
444.518	1064.87
444.892	1059.68
445.267	1079.56
445.641	1077.75
446.016	1064.87
446.39	1069.39
446.764	1059
447.139	1048.83
447.513	1096.51
447.887	1059.45
448.262	1101.71
448.636	1096.28
449.01	1090.86
449.384	1095.15
449.758	1107.13
450.132	1123.63
450.506	1124.53
450.88	1132.67
451.254	1130.18
451.628	1148.94
452.002	1162.05
452.376	1130.18
452.75	1161.14
453.123	1167.47
453.497	1169.5
453.871	1167.92
454.244	1200.91
454.618	1173.34
454.992	1170.18
455.365	1196.4
455.739	1224.64
456.112	1231.42
456.486	1266.68
456.859	1261.03
457.232	1240.24
457.606	1236.17
457.979	1244.08
458.352	1269.16
458.725	1301.03
459.099	1309.39
459.472	1322.49
459.845	1315.94
460.218	1307.35
460.591	1323.62
460.964	1327.69
461.337	1330.85
461.71	1360.68
462.083	1390.06
462.456	1378.31
462.829	1374.02
463.201	1393.23
463.574	1387.8
463.947	1415.15
464.32	1437.74
464.692	1452.66
465.065	1429.61
465.438	1454.47
465.81	1484.75
466.183	1486.56
466.555	1520.23
466.928	1514.58
467.3	1491.53
467.672	1517.52
468.045	1560
468.417	1568.36
468.789	1557.06
469.161	1566.78
469.534	1578.98
469.906	1591.64
470.278	1624.63
470.65	1635.48
471.022	1649.26
471.394	1687.91
471.766	1683.39
472.138	1700.56
472.51	1707.12
472.882	1717.06
473.253	1741.24
473.625	1741.69
473.997	1774.23
474.369	1816.72
474.74	1785.76
475.112	1847.9
475.484	1817.62
475.855	1874.57
476.227	1848.13
476.598	1910.73
476.97	1929.03
477.341	1947.79
477.713	1983.72
478.084	2016.71
478.455	2020.55
478.827	2046.77
479.198	2072.76
479.569	2078.41
479.94	2138.97
480.311	2137.39
480.682	2159.99
481.053	2224.16
481.424	2216.26
481.795	2202.47
482.166	2265.75
482.537	2261
482.908	2302.35
483.279	2328.79
483.65	2348.68
484.021	2362.92
484.391	2377.38
484.762	2417.83
485.133	2398.17
485.503	2453.31
485.874	2469.58
486.244	2519.52
486.615	2552.07
486.985	2592.06
487.356	2608.11
487.726	2642.91
488.097	2656.02
488.467	2658.73
488.837	2709.58
489.207	2685.17
489.578	2763.81
489.948	2759.52
490.318	2797.03
490.688	2786.18
491.058	2854.43
491.428	2836.58
491.798	2879.29
492.168	2915.45
492.538	2942.34
492.908	2973.75
493.278	2957.48
493.648	3001.77
494.017	2993.41
494.387	3012.39
494.757	3031.83
495.126	3092.16
495.496	3076.35
495.866	3060.98
496.235	3103.24
496.605	3138.26
496.974	3162.9
497.344	3175.1
497.713	3192.73
498.082	3252.39
498.452	3251.93
498.821	3223.46
499.19	3221.43
499.559	3270.46
499.928	3278.37
500.298	3272.95
500.667	3314.53
501.036	3281.09
501.405	3284.7
501.774	3324.25
502.143	3359.05
502.512	3347.75
502.88	3366.73
503.249	3377.13
503.618	3348.2
503.987	3415.09
504.356	3430.91
504.724	3425.72
505.093	3466.62
505.462	3463.68
505.83	3454.41
506.199	3459.61
506.567	3547.29
506.936	3511.59
507.304	3525.37
507.672	3556.33
508.041	3557.01
508.409	3553.62
508.777	3571.02
509.145	3601.98
509.514	3625.94
509.882	3616.22
510.25	3613.05
510.618	3634.3
510.986	3630.46
511.354	3683.79
511.722	3666.61
512.09	3660.74
512.458	3692.37
512.826	3711.13
513.193	3718.59
513.561	3688.98
513.929	3724.24
514.297	3745.03
514.664	3741.19
515.032	3738.7
515.4	3724.69
515.767	3731.7
516.135	3784.8
516.502	3752.71
516.869	3810.11
517.237	3806.04
517.604	3793.61
517.972	3834.29
518.339	3829.55
518.706	3833.61
519.073	3854.86
519.44	3874.29
519.808	3910.9
520.175	3811.69
520.542	3900.73
520.909	3863.44
521.276	3895.76
521.643	3932.59
522.009	3930.11
522.376	3950.22
522.743	3967.85
523.11	3951.35
523.477	4014.63
523.843	3979.37
524.21	4033.16
524.577	4074.74
524.943	4076.32
525.31	4064.34
525.676	4100.27
526.043	4119.71
526.409	4119.93
526.776	4161.29
527.142	4154.51
527.508	4197.67
527.874	4208.52
528.241	4236.32
528.607	4221.4
528.973	4315.64
529.339	4232.93
529.705	4317.67
530.071	4324
530.437	4293.26
530.803	4346.37
531.169	4386.14
531.535	4380.94
531.901	4393.6
532.267	4385.69
532.632	4423.2
532.998	4448.29
533.364	4490.09
533.73	4462.75
534.095	4513.6
534.461	4502.75
534.826	4559.7
535.192	4556.08
535.557	4556.98
535.923	4559.47
536.288	4603.99
536.653	4609.64
537.019	4629.75
537.384	4637.21
537.749	4659.13
538.114	4677.43
538.479	4734.38
538.845	4730.31
539.21	4727.6
539.575	4774.83
539.94	4738
540.305	4810.09
540.67	4771.89
541.034	4853.02
541.399	4857.54
541.764	4871.33
542.129	4887.15
542.494	4876.07
542.858	4908.84
543.223	4927.6
543.587	4942.96
543.952	4949.52
544.316	4992.23
544.681	5000.14
545.045	5018.22
545.41	5109.51
545.774	5082.85
546.138	5118.55
546.503	5152.68
546.867	5144.77
547.231	5152.68
547.595	5161.04
547.959	5230.87
548.324	5219.79
548.688	5231.54
549.052	5241.94
549.416	5269.28
549.779	5259.34
550.143	5331.43
550.507	5314.03
550.871	5375.04
551.235	5363.97
551.599	5403.97
551.962	5380.92
552.326	5394.93
552.689	5459.79
553.053	5398.09
553.417	5432.22
553.78	5485.77
554.143	5421.14
554.507	5504.53
554.87	5531.42
555.234	5531.65
555.597	5566
555.96	5529.84
556.323	5556.51
556.686	5554.47
557.05	5609.84
557.413	5620.69
557.776	5627.01
558.139	5612.78
558.502	5679.67
558.865	5690.06
559.228	5693.68
559.59	5684.64
559.953	5680.57
560.316	5774.35
560.679	5751.3
561.041	5779.1
561.404	5870.17
561.767	5887.35
562.129	5847.35
562.492	5858.65
562.854	5874.46
563.217	5876.05
563.579	5883.5
563.941	5957.85
564.304	5925.08
564.666	5922.6
565.028	5981.13
565.39	5972.99
565.753	6027
566.115	6074.91
566.477	6049.15
566.839	6092.09
567.201	6064.74
567.563	6115.36
567.925	6164.17
568.287	6136.38
568.648	6206.43
569.01	6230.61
569.372	6256.83
569.734	6247.79
570.095	6253.66
570.457	6289.14
570.819	6368.24
571.18	6314.9
571.542	6398.74
571.903	6443.26
572.265	6501.57
572.626	6492.98
572.987	6540.89
573.349	6608
573.71	6575.01
574.071	6662.01
574.432	6698.62
574.794	6785.17
575.155	6823.37
575.516	6808.9
575.877	6871.27
576.238	6943.59
576.599	6974.77
576.96	7027.88
577.32	7112.62
577.681	7193.53
578.042	7294.99
578.403	7316.01
578.763	7443.01
579.124	7583.12
579.485	7638.71
579.845	7678.71
580.206	7836.45
580.566	7906.73
580.927	8011.36
581.287	8124.57
581.648	8236.66
582.008	8339.48
582.368	8520.5
582.728	8641.85
583.089	8754.84
583.449	8940.6
583.809	9083.65
584.169	9301.72
584.529	9417.87
584.889	9635.95
585.249	9751.88
585.609	9893.34
585.969	10138.76
586.329	10320.9
586.688	10532.42
587.048	10712.53
587.408	10959.53
587.768	11186.19
588.127	11365.17
588.487	11564.71
588.846	11923.12
589.206	12112.72
589.565	12320.4
589.925	12688.3
590.284	12893.94
590.643	13179.81
591.003	13459.35
591.362	13649.85
591.721	13962.16
592.08	14267.01
592.44	14532.32
592.799	14832.87
593.158	15072.87
593.517	15372.97
593.876	15724.83
594.235	15928.89
594.593	16228.54
594.952	16556.44
595.311	16819.71
595.67	17076.66
596.029	17404.1
596.387	17753.93
596.746	18104.88
597.104	18258.32
597.463	18624.86
597.822	18910.05
598.18	19157.05
598.538	19451.28
598.897	19808.56
599.255	19963.81
599.613	20619.84
599.972	20732.38
600.33	21048.08
600.688	21243.33
601.046	21670.66
601.404	21936.87
601.762	22072.23
602.12	22486.91
602.478	22712.44
602.836	23039.66
603.194	23215.93
603.552	23559.65
603.91	23626.54
604.268	24066.08
604.625	24141.1
604.983	24534.31
605.341	24800.52
605.698	25086.39
606.056	25420.39
606.413	25550.11
606.771	25898.34
607.128	26139.24
607.485	26287.71
607.843	26551.43
608.2	26866
608.557	27127.01
608.914	27194.13
609.272	27554.12
609.629	27848.58
609.986	28014.45
610.343	28191.62
610.7	28484.27
611.057	28728.1
611.414	28855.78
611.771	29029.34
612.127	29397.01
612.484	29478.14
612.841	29754.74
613.198	29784.34
613.554	29987.05
613.911	30419.13
614.267	30400.15
614.624	30718.33
614.98	30895.05
615.337	30921.04
615.693	31250.07
616.05	31298.88
616.406	31522.15
616.762	31641.92
617.118	31832.43
617.475	31912.88
617.831	32248.46
618.187	32271.28
618.543	32339.08
618.899	32786.3
619.255	32737.26
619.611	32781.33
619.967	33071.94
620.323	33204.82
620.678	33011.38
621.034	33278.49
621.39	33405.94
621.746	33476
622.101	33888.87
622.457	33699.27
622.812	33849.77
623.168	34090.9
623.523	34172.7
623.879	34163.66
624.234	34146.26
624.589	34304
624.945	34385.58
625.3	34564.56
625.655	34537.67
626.01	34694.5
626.365	34823.76
626.72	34837.32
627.075	34975.62
627.43	34965.45
627.785	34941.72
628.14	34987.15
628.495	35197.08
628.85	35085.45
629.205	35075.5
629.559	35329.06
629.914	35277.31
630.269	35371.09
630.623	35367.02
630.978	35337.64
631.332	35450.86
631.687	35492.89
632.041	35455.83
632.396	35439.11
632.75	35528.37
633.104	35548.49
633.459	35332.67
633.813	35533.12
634.167	35612.21
634.521	35594.81
634.875	35644.98
635.229	35789.84
635.583	35538.32
635.937	35524.98
636.291	35517.3
636.645	35595.72
636.999	35647.01
637.352	35647.24
637.706	35520.46
638.06	35764.75
638.413	35546.45
638.767	35540.35
639.121	35736.5
639.474	35591.42
639.828	35608.6
640.181	35675.26
640.534	35655.6
640.888	35704.64
641.241	35384.87
641.594	35590.97
641.947	35621.03
642.301	35635.49
642.654	35601.82
643.007	35607.47
643.36	35520.69
643.713	35573.8
644.066	35677.07
644.419	35428.94
644.771	35223.3
645.124	34868.28
645.477	34825.79
645.83	34668.06
646.182	34534.5
646.535	34572.01
646.888	34572.69
647.24	34402.3
647.593	34594.16
647.945	34420.38
648.298	34373.15
648.65	34422.19
649.002	34320.95
649.355	34397.56
649.707	34406.6
650.059	34579.47
650.411	34896.07
650.763	35060.59
651.115	35370.64
651.467	35183.07
651.819	35183.52
652.171	35153.69
652.523	35115.96
652.875	35075.28
653.227	35114.6
653.578	35140.81
653.93	35160.7
654.282	34986.24
654.633	34863.53
654.985	34869.18
655.337	35035.28
655.688	35019.01
656.039	35076.18
656.391	34823.08
656.742	34885.23
657.094	34882.06
657.445	34970.87
657.796	34897.88
658.147	34897.88
658.498	34851.33
658.849	34891.33
659.2	34826.02
659.551	34837.32
659.902	34841.39
660.253	34891.78
660.604	34808.17
660.955	34753.48
661.306	34914.15
661.656	34835.06
662.007	34759.13
662.358	34870.09
662.708	34714.84
663.059	34899.92
663.409	34595.97
663.76	34864.44
664.11	34828.51
664.461	34829.18
664.811	34728.62
665.161	34740.15
665.511	34709.86
665.862	34781.27
666.212	34913.02
666.562	34896.75
666.912	34755.51
667.262	34751.45
667.612	34817.21
667.962	34808.62
668.312	34712.35
668.662	34826.25
669.011	34789.64
669.361	34793.25
669.711	34673.03
670.06	34726.36
670.41	34606.82
670.76	34593.03
671.109	34731.78
671.459	34580.15
671.808	34657.89
672.157	34618.12
672.507	34456.09
672.856	34449.31
673.205	34545.35
673.554	34592.58
673.904	34382.42
674.253	34555.07
674.602	34536.76
674.951	34087.28
675.3	33933.84
675.649	34490.43
675.998	34280.72
676.346	34378.57
676.695	34469.42
677.044	34166.6
677.393	34443.66
677.741	34333.83
678.09	34295.19
678.438	34199.6
678.787	34268.75
679.135	34200.95
679.484	33998.7
679.832	34139.26
680.181	34030.79
680.529	34127.05
680.877	34020.16
681.225	33937.46
681.573	34101.97
681.922	33903.33
682.27	33850.45
682.618	33903.11
682.966	33792.15
683.314	33842.32
683.661	33729.55
684.009	33587.63
684.357	33468.09
684.705	33563.45
685.053	33621.53
685.4	33503.57
685.748	33233.07
686.095	33336.79
686.443	33240.52
686.79	33233.97
687.138	33241.65
687.485	33290.47
687.832	33130.02
688.18	33193.52
688.527	33035.56
688.874	32946.07
689.221	32844.83
689.568	32780.65
689.915	32709.24
690.262	32658.84
690.609	32507.89
690.956	32625.85
691.303	32417.95
691.65	32377.5
691.997	32341.56
692.344	32075.58
692.69	32110.61
693.037	32195.35
693.383	31865.19
693.73	31970.95
694.077	31783.39
694.423	31692.99
694.769	31755.59
695.116	31584.75
695.462	31535.26
695.808	31371.87
696.155	31512.21
696.501	31255.94
696.847	31347.01
697.193	31044.88
697.539	31170.07
697.885	30980.02
698.231	30947.48
698.577	30823.64
698.923	30853.69
699.269	30659.12
699.614	30639.46
699.96	30481.5
700.306	30574.61
700.651	30397.89
700.997	30291.22
701.342	30239.93
701.688	30106.82
702.033	30151.79
702.379	29997.9
702.724	30006.49
703.069	30008.07
703.415	29758.58
703.76	29709.54
704.105	29775.76
704.45	29690.79
704.795	29570.56
705.14	29423.22
705.485	29398.82
705.83	29322.21
706.175	29305.49
706.52	29287.41
706.865	29331.02
707.209	29147.3
707.554	28872.05
707.899	28983.01
708.243	28954.76
708.588	28906.63
708.932	28638.84
709.277	28720.42
709.621	28743.69
709.966	28465.28
710.31	28555.9
710.654	28349.81
710.998	28481.55
711.342	28460.54
711.687	28301.9
712.031	28170.38
712.375	28120.43
712.719	28165.4
713.063	28081.79
713.407	28036.37
713.75	27962.24
714.094	27928.8
714.438	27757.05
714.782	27839.54
715.125	27634.8
715.469	27715.7
715.812	27524.06
716.156	27456.04
716.499	27472.77
716.843	27472.77
717.186	27266.22
717.53	27451.3
717.873	27357.74
718.216	27358.87
718.559	27102.83
718.902	27059.44
719.246	27129.95
719.589	27101.7
719.932	26966.56
720.275	26925.66
720.617	26924.31
720.96	26888.6
721.303	26840.92
721.646	26757.3
721.989	26653.58
722.331	26836.85
722.674	26715.27
723.016	26628.49
723.359	26575.84
723.701	26664.65
724.044	26435.05
724.386	26271.44
724.729	26407.71
725.071	26421.95
725.413	26253.82
725.755	26310.54
726.097	26235.06
726.439	26079.13
726.782	25979.02
727.124	26150.32
727.465	26065.35
727.807	25964.78
728.149	25775.18
728.491	25962.75
728.833	25897.67
729.175	25775.64
729.516	25680.5
729.858	25712.13
730.199	25768.63
730.541	25720.95
730.882	25668.97
731.224	25715.75
731.565	25606.37
731.906	25484.12
732.248	25631.91
732.589	25398.47
732.93	25362.31
733.271	25332.03
733.612	25377
733.953	25426.72
734.294	25307.4
734.635	25299.26
734.976	25311.02
735.317	25168.19
735.658	25195.99
735.999	25101.98
736.339	25107.63
736.68	25115.99
737.021	25038.93
737.361	24981.53
737.702	25038.03
738.042	24937.69
738.383	24865.83
738.723	24927.97
739.063	24813.85
739.404	24785.15
739.744	24711.71
740.084	24699.73
740.424	24721.65
740.764	24597.81
741.104	24591.49
741.444	24565.72
741.784	24572.05
742.124	24552.84
742.464	24616.12
742.804	24478.72
743.143	24417.48
743.483	24366.86
743.823	24268.56
744.162	24201.67
744.502	24434.2
744.841	24209.8
745.181	24303.58
745.52	24132.52
745.86	24223.36
746.199	24147.66
746.538	24097.26
746.877	24112.4
747.216	24070.37
747.556	23984.04
747.895	23992.63
748.234	23817.95
748.573	23757.61
748.911	23766.88
749.25	23879.87
749.589	23742.69
749.928	23766.65
750.267	23772.98
750.605	23641
750.944	23550.61
751.283	23496.6
751.621	23615.24
751.96	23449.14
752.298	23554
752.636	23368.02
752.975	23280.33
753.313	23262.48
753.651	23326.21
753.989	23134.12
754.327	23045.76
754.666	23004.86
755.004	23026.33
755.342	23059.1
755.679	22925.99
756.017	22857.97
756.355	22931.42
756.693	22885.54
757.031	22777.97
757.368	22661.14
757.706	22652.55
758.044	22569.17
758.381	22562.84
758.719	22431.09
759.056	22421.37
759.394	22472.67
759.731	22242.85
760.068	22244.66
