Data from hue_230_FLMS001491_00055.txt Node
Date: Tue Feb 07 16:37:27 GMT 2017
User: dcchb
Spectrometer: FLMS00149
Trigger mode: 0
Integration Time (sec): 2.000000E-2
Scans to average: 10
Electric dark correction enabled: true
Nonlinearity correction enabled: false
Boxcar width: 0
XAxis mode: Wavelengths
Number of Pixels in Spectrum: 2048
>>>>>Begin Spectral Data<<<<<
341.393	-19.87
341.776	-19.87
342.16	-19.87
342.543	-42.7
342.927	-80.66
343.31	-60.1
343.693	-98.51
344.077	-60.55
344.46	-42.92
344.843	-60.1
345.226	-43.6
345.61	-43.15
345.993	-18.97
346.376	-7.22
346.759	16.74
347.142	29.39
347.525	48.15
347.908	62.84
348.291	79.33
348.674	84.08
349.057	114.59
349.44	113.68
349.823	143.06
350.206	152.55
350.588	214.47
350.971	207.92
351.354	201.59
351.737	236.62
352.119	244.53
352.502	269.84
352.884	273.23
353.267	279.1
353.65	288.37
354.032	291.98
354.414	312.1
354.797	302.38
355.179	292.44
355.562	333.79
355.944	310.51
356.326	313
356.709	342.6
357.091	330.85
357.473	345.32
357.855	333.34
358.238	341.7
358.62	347.8
359.002	350.97
359.384	344.86
359.766	327.69
360.148	338.31
360.53	345.09
360.912	325.66
361.294	340.12
361.676	346.22
362.057	327.92
362.439	310.97
362.821	310.74
363.203	327.92
363.584	325.66
363.966	306.67
364.348	316.62
364.729	309.61
365.111	309.16
365.493	336.95
365.874	305.09
366.256	289.72
366.637	310.74
367.019	295.6
367.4	317.07
367.781	311.19
368.163	320.46
368.544	317.97
368.925	290.18
369.306	319.55
369.688	303.96
370.069	301.93
370.45	301.25
370.831	295.15
371.212	312.77
371.593	306.22
371.974	288.37
372.355	319.78
372.736	296.28
373.117	310.06
373.498	305.99
373.879	313.45
374.26	302.61
374.641	303.06
375.021	312.1
375.402	308.93
375.783	310.06
376.163	313.45
376.544	305.77
376.925	311.19
377.305	322.27
377.686	341.93
378.066	311.64
378.447	307.12
378.827	316.84
379.208	339.89
379.588	322.94
379.968	338.31
380.349	331.08
380.729	321.36
381.109	326.11
381.489	345.54
381.87	306.45
382.25	334.24
382.63	333.11
383.01	350.29
383.39	345.99
383.77	330.17
384.15	333.56
384.53	331.53
384.91	341.93
385.29	329.5
385.67	341.25
386.049	337.41
386.429	342.38
386.809	343.06
387.189	344.41
387.568	357.97
387.948	351.87
388.328	345.32
388.707	336.73
389.087	359.33
389.466	370.85
389.846	364.52
390.225	372.21
390.605	364.98
390.984	349.84
391.363	357.29
391.743	356.84
392.122	359.78
392.501	363.17
392.881	377.18
393.26	378.99
393.639	356.39
394.018	374.24
394.397	358.2
394.776	364.3
395.155	404.75
395.534	367.91
395.913	375.15
396.292	377.86
396.671	360
397.05	386.22
397.429	401.81
397.808	385.54
398.186	394.58
398.565	383.73
398.944	372.21
399.323	385.99
399.701	411.53
400.08	400.68
400.458	395.71
400.837	417.86
401.215	411.53
401.594	423.05
401.972	394.35
402.351	380.57
402.729	412.88
403.107	424.86
403.486	418.08
403.864	415.82
404.242	415.6
404.62	449.72
404.999	418.08
405.377	458.31
405.755	421.47
406.133	451.53
406.511	434.8
406.889	456.73
407.267	446.1
407.645	449.04
408.023	473.22
408.401	488.81
408.779	449.72
409.156	473.9
409.534	479.32
409.912	496.72
410.29	508.7
410.667	490.85
411.045	498.53
411.422	494.92
411.8	502.37
412.178	494.46
412.555	555.48
412.933	532.66
413.31	520.45
413.687	540.56
414.065	562.26
414.442	573.78
414.819	562.94
415.197	569.26
415.574	575.14
415.951	602.94
416.328	609.72
416.705	616.04
417.082	608.36
417.46	609.26
417.837	618.08
418.214	622.14
418.591	609.94
418.967	645.87
419.344	628.47
419.721	649.94
420.098	643.61
420.475	679.54
420.852	677.74
421.228	673.22
421.605	700.11
421.982	709.37
422.358	688.81
422.735	718.87
423.111	715.93
423.488	742.14
423.864	736.04
424.241	754.34
424.617	778.3
424.994	763.38
425.37	785.3
425.746	792.08
426.123	824.85
426.499	804.51
426.875	820.78
427.251	823.5
427.627	860.78
428.003	888.58
428.379	881.12
428.756	892.87
429.132	865.08
429.507	890.39
429.883	915.24
430.259	925.41
430.635	922.93
431.011	909.82
431.387	947.79
431.763	966.99
432.138	1000.44
432.514	1004.96
432.89	994.56
433.265	1022.36
433.641	1025.98
434.016	1046.31
434.392	1065.97
434.767	1073.43
435.143	1090.61
435.518	1080.89
435.894	1133.54
436.269	1143.71
436.644	1148.46
437.02	1181.68
437.395	1178.97
437.77	1202.24
438.145	1234.78
438.52	1238.85
438.895	1258.96
439.271	1268.91
439.646	1306.65
440.021	1307.1
440.395	1330.6
440.77	1307.1
441.145	1351.17
441.52	1372.63
441.895	1366.31
442.27	1367.21
442.645	1394.78
443.019	1436.59
443.394	1389.13
443.769	1434.33
444.143	1429.36
444.518	1452.18
444.892	1457.6
445.267	1463.03
445.641	1500.77
446.016	1456.47
446.39	1495.12
446.764	1500.54
447.139	1536.7
447.513	1534.89
447.887	1536.02
448.262	1570.59
448.636	1529.01
449.01	1578.05
449.384	1603.59
449.758	1605.17
450.132	1612.4
450.506	1639.29
450.88	1613.76
451.254	1614.89
451.628	1683.13
452.002	1653.76
452.376	1684.26
452.75	1745.05
453.123	1712.51
453.497	1736.92
453.871	1770.82
454.244	1786.18
454.618	1785.05
454.992	1802.9
455.365	1799.29
455.739	1861.89
456.112	1864.82
456.486	1883.58
456.859	1908.89
457.232	1945.95
457.606	1951.83
457.979	1927.2
458.352	1979.85
458.725	2005.16
459.099	2030.47
459.472	2032.05
459.845	2057.59
460.218	2077.7
460.591	2132.39
460.964	2105.5
461.337	2174.19
461.71	2207.87
462.083	2229.33
462.456	2225.27
462.829	2203.35
463.201	2280.41
463.574	2295.32
463.947	2307.52
464.32	2353.17
464.692	2370.12
465.065	2395.66
465.438	2415.77
465.81	2435.43
466.183	2473.17
466.555	2530.34
466.928	2530.34
467.3	2483.11
467.672	2506.16
468.045	2608.53
468.417	2604.24
468.789	2620.28
469.161	2646.05
469.534	2686.95
469.906	2801.07
470.278	2773.95
470.65	2827.74
471.022	2861.18
471.394	2860.73
471.766	2918.13
472.138	2977.56
472.51	2980.5
472.882	3041.74
473.253	3051.91
473.625	3099.14
473.997	3150.67
474.369	3184.11
474.74	3179.14
475.112	3267.95
475.484	3299.59
475.855	3344.11
476.227	3396.31
476.598	3497.1
476.97	3469.75
477.341	3556.3
477.713	3602.41
478.084	3535.97
478.455	3682.86
478.827	3721.95
479.198	3837.43
479.569	3819.35
479.94	3885.79
480.311	3921.27
480.682	3966.69
481.053	4070.42
481.424	4072.68
481.795	4173.46
482.166	4183.18
482.537	4276.51
482.908	4317.87
483.279	4353.8
483.65	4427.02
484.021	4532.55
484.391	4582.27
484.762	4607.58
485.133	4648.71
485.503	4706.11
485.874	4735.93
486.244	4803.96
486.615	4862.94
486.985	4900.68
487.356	5015.25
487.726	4985.42
488.097	5135.7
488.467	5124.4
488.837	5198.3
489.207	5286.65
489.578	5364.17
489.948	5367.1
490.318	5438.97
490.688	5432.41
491.058	5490.94
491.428	5607.55
491.798	5622.24
492.168	5768.68
492.538	5768.9
492.908	5798.28
493.278	5796.7
493.648	5840.99
494.017	5903.81
494.387	5936.58
494.757	6031.27
495.126	6045.5
495.496	6037.82
495.866	6042.12
496.235	6140.64
496.605	6160.76
496.974	6189.91
497.344	6334.54
497.713	6295.89
498.082	6324.37
498.452	6401.43
498.821	6332.73
499.19	6365.27
499.559	6465.15
499.928	6506.74
500.298	6527.3
500.667	6532.05
501.036	6513.29
501.405	6562.33
501.774	6557.13
502.143	6653.4
502.512	6688.2
502.88	6694.3
503.249	6698.6
503.618	6683.45
503.987	6739.05
504.356	6796.67
504.724	6818.59
505.093	6850.68
505.462	6798.71
505.83	6838.93
506.199	6883.45
506.567	7005.71
506.936	6939.04
507.304	7028.53
507.672	7039.6
508.041	7016.55
508.409	7113.5
508.777	7094.74
509.145	7155.53
509.514	7090.9
509.882	7193.05
510.25	7158.47
510.618	7224.23
510.986	7213.38
511.354	7216.77
511.722	7277.11
512.09	7300.84
512.458	7328.86
512.826	7280.5
513.193	7379.93
513.561	7334.51
513.929	7397.11
514.297	7485.92
514.664	7431.91
515.032	7460.61
515.4	7469.87
515.767	7535.41
516.135	7514.84
516.502	7415.19
516.869	7586.03
517.237	7618.34
517.604	7491.57
517.972	7580.83
518.339	7603.43
518.706	7557.1
519.073	7623.99
519.44	7642.98
519.808	7617.21
520.175	7597.1
520.542	7690.89
520.909	7720.04
521.276	7630.77
521.643	7776.98
522.009	7726.14
522.376	7852.46
522.743	7775.63
523.11	7865.12
523.477	7819.02
523.843	7886.59
524.21	7852.69
524.577	7991.44
524.943	7928.62
525.31	7973.82
525.676	8085.9
526.043	7976.3
526.409	7971.1
526.776	8042.06
527.142	8036.41
527.508	8004.78
527.874	8082.29
528.241	8040.03
528.607	8071.89
528.973	8058.56
529.339	8093.81
529.705	8087.03
530.071	8080.71
530.437	8152.57
530.803	8139.24
531.169	8106.02
531.535	8106.24
531.901	8037.77
532.267	8122.29
532.632	8151.66
532.998	8151.89
533.364	8166.81
533.73	8132.46
534.095	8217.2
534.461	8173.13
534.826	8103.08
535.192	8125.22
535.557	8101.5
535.923	8144.66
536.288	8179.46
536.653	8105.11
537.019	8115.05
537.384	8116.18
537.749	8090.65
538.114	8070.99
538.479	8062.4
538.845	8058.56
539.21	8021.27
539.575	8049.07
539.94	8045.9
540.305	8003.19
540.67	8020.59
541.034	8008.84
541.399	8045.45
541.764	8002.52
542.129	7966.36
542.494	7986.47
542.858	7985.57
543.223	7940.6
543.587	7965
543.952	7916.87
544.316	7939.92
544.681	7895.63
545.045	7902.63
545.41	7907.38
545.774	7946.25
546.138	7913.03
546.503	7867.15
546.867	7807.04
547.231	7893.82
547.595	7829.86
547.959	7815.63
548.324	7815.63
548.688	7854.04
549.052	7852.24
549.416	7735.86
549.779	7773.6
550.143	7743.77
550.507	7802.29
550.871	7771.11
551.235	7779.92
551.599	7772.01
551.962	7695.41
552.326	7709.64
552.689	7681.62
553.053	7669.87
553.417	7680.94
553.78	7712.58
554.143	7663.77
554.507	7699.92
554.87	7670.09
555.234	7767.04
555.597	7652.24
555.96	7645.24
556.323	7658.8
556.686	7737.66
557.05	7743.77
557.413	7673.03
557.776	7703.09
558.139	7761.39
558.502	7682.75
558.865	7709.19
559.228	7765.46
559.59	7687.27
559.953	7736.76
560.316	7777.44
560.679	7702.64
561.041	7732.69
561.404	7833.93
561.767	7778.79
562.129	7758.91
562.492	7752.8
562.854	7762.75
563.217	7757.55
563.579	7791
563.941	7796.19
564.304	7838.9
564.666	7821.5
565.028	7891.11
565.39	7889.07
565.753	7902.63
566.115	7906.92
566.477	7899.47
566.839	7860.6
567.201	7925.46
567.563	7905.12
567.925	7987.37
568.287	7949.18
568.648	7968.84
569.01	8082.74
569.372	8054.27
569.734	7988.5
570.095	8050.65
570.457	8057.2
570.819	8078.9
571.18	8076.86
571.542	8120.48
571.903	8113.02
572.265	8162.74
572.626	8144.88
572.987	8221.04
573.349	8188.5
573.71	8220.36
574.071	8204.77
574.432	8258.1
574.794	8314.15
575.155	8251.77
575.516	8224.43
575.877	8277.31
576.238	8342.85
576.599	8302.85
576.96	8320.02
577.32	8345.56
577.681	8335.16
578.042	8426.23
578.403	8407.48
578.763	8390.98
579.124	8388.72
579.485	8481.37
579.845	8522.28
580.206	8497.64
580.566	8499
580.927	8484.08
581.287	8581.26
581.648	8484.08
582.008	8539.22
582.368	8587.13
582.728	8651.99
583.089	8636.4
583.449	8615.83
583.809	8568.83
584.169	8567.92
584.529	8608.15
584.889	8678.66
585.249	8706.9
585.609	8613.12
585.969	8692.44
586.329	8668.94
586.688	8738.77
587.048	8680.24
587.408	8669.16
587.768	8747.81
588.127	8738.54
588.487	8761.59
588.846	8752.33
589.206	8712.33
589.565	8777.41
589.925	8765.66
590.284	8780.57
590.643	8704.87
591.003	8779.22
591.362	8818.77
591.721	8804.08
592.08	8727.92
592.44	8793.23
592.799	8855.15
593.158	8839.56
593.517	8818.99
593.876	8822.83
594.235	8833
594.593	8884.53
594.952	8904.86
595.311	8878.42
595.67	8860.57
596.029	8955.94
596.387	8920.46
596.746	8964.52
597.104	8961.81
597.463	8887.69
597.822	8931.3
598.18	8940.12
598.538	8928.14
598.897	9010.62
599.255	8868.03
599.613	9011.3
599.972	8956.16
600.33	9012.21
600.688	8998.87
601.046	9008.82
601.404	9011.98
601.762	9016.27
602.12	9128.81
602.478	9078.42
602.836	9027.57
603.194	9040.68
603.552	9035.48
603.91	8991.19
604.268	9040.45
604.625	8948.25
604.983	9085.2
605.341	8998.2
605.698	9094.46
606.056	9069.83
606.413	9029.83
606.771	9124.29
607.128	9099.44
607.485	9086.55
607.843	9045.2
608.2	9125.88
608.557	9137.85
608.914	9192.09
609.272	9148.7
609.629	9173.56
609.986	9173.11
610.343	9146.21
610.7	9204.97
611.057	9214.46
611.414	9163.84
611.771	9216.04
612.127	9320
612.484	9268.25
612.841	9254.23
613.198	9236.38
613.554	9244.97
613.911	9315.25
614.267	9215.37
614.624	9258.3
614.98	9255.82
615.337	9320.9
615.693	9313.89
616.05	9287.45
616.406	9373.78
616.762	9312.54
617.118	9338.53
617.475	9329.26
617.831	9374.91
618.187	9338.07
618.543	9386.89
618.899	9384.17
619.255	9382.14
619.611	9417.62
619.967	9451.97
620.323	9398.86
620.678	9386.43
621.034	9359.54
621.39	9357.96
621.746	9401.12
622.101	9502.14
622.457	9400.44
622.812	9383.27
623.168	9443.83
623.523	9429.6
623.879	9424.63
624.234	9320.67
624.589	9320.22
624.945	9365.87
625.3	9399.99
625.655	9398.41
626.01	9418.75
626.365	9405.87
626.72	9383.72
627.075	9392.31
627.43	9436.83
627.785	9336.04
628.14	9403.38
628.495	9370.39
628.85	9370.62
629.205	9305.08
629.559	9394.12
629.914	9349.37
630.269	9284.52
630.623	9322.71
630.978	9303.5
631.332	9382.82
631.687	9287.45
632.041	9285.65
632.396	9339.2
632.75	9244.29
633.104	9259.43
633.459	9227.12
633.813	9294.46
634.167	9183.73
634.521	9238.19
634.875	9221.92
635.229	9206.1
635.583	9181.24
635.937	9221.47
636.291	9179.21
636.645	9185.76
636.999	9154.12
637.352	9099.89
637.706	9165.2
638.06	9174.91
638.413	9130.85
638.767	9061.92
639.121	9114.35
639.474	9063.96
639.828	9100.79
640.181	9070.96
640.534	9083.62
640.888	9032.32
641.241	9002.49
641.594	9034.58
641.947	9061.47
642.301	9043.84
642.654	9045.2
643.007	9033
643.36	9056.27
643.713	8992.55
644.066	9028.03
644.419	8963.62
644.771	8916.16
645.124	8844.08
645.477	8825.54
645.83	8781.48
646.182	8723.85
646.535	8703.51
646.888	8693.34
647.24	8630.07
647.593	8738.09
647.945	8696.06
648.298	8651.99
648.65	8646.57
649.002	8607.25
649.355	8666.45
649.707	8685.89
650.059	8710.29
650.411	8795.26
650.763	8860.57
651.115	8851.76
651.467	8823.74
651.819	8872.32
652.171	8879.55
652.523	8807.69
652.875	8795.49
653.227	8854.47
653.578	8868.26
653.93	8800.46
654.282	8838.43
654.633	8810.86
654.985	8812.44
655.337	8789.39
655.688	8806.79
656.039	8863.96
656.391	8773.57
656.742	8790.74
657.094	8838.43
657.445	8868.26
657.796	8875.49
658.147	8812.66
658.498	8859.44
658.849	8889.05
659.2	8831.19
659.551	8847.92
659.902	8853.11
660.253	8853.11
660.604	8853.34
660.955	8806.56
661.306	8861.93
661.656	8786.45
662.007	8866.22
662.358	8866.9
662.708	8832.32
663.059	8864.87
663.409	8830.74
663.76	8837.97
664.11	8851.53
664.461	8858.54
664.811	8907.8
665.161	8829.61
665.511	8838.65
665.862	8865.09
666.212	8883.4
666.562	8876.39
666.912	8883.62
667.262	8852.66
667.612	8818.31
667.962	8948.48
668.312	8871.87
668.662	8862.83
669.011	8842.72
669.361	8848.37
669.711	8866.45
670.06	8871.87
670.41	8845.43
670.76	8822.16
671.109	8864.64
671.459	8814.7
671.808	8783.06
672.157	8842.72
672.507	8758.2
672.856	8764.53
673.205	8744.87
673.554	8782.61
673.904	8779.67
674.253	8748.26
674.602	8837.52
674.951	8643.63
675.3	8602.73
675.649	8785.77
675.998	8726.11
676.346	8743.29
676.695	8694.7
677.044	8702.84
677.393	8660.35
677.741	8750.52
678.09	8659.22
678.438	8673.46
678.787	8687.02
679.135	8615.15
679.484	8609.05
679.832	8637.53
680.181	8575.38
680.529	8626.91
680.877	8591.43
681.225	8532.9
681.573	8658.32
681.922	8526.8
682.27	8520.47
682.618	8518.43
682.966	8492.22
683.314	8539.45
683.661	8410.64
684.009	8458.32
684.357	8414.26
684.705	8428.72
685.053	8395.27
685.4	8375.39
685.748	8303.52
686.095	8286.58
686.443	8340.59
686.79	8253.36
687.138	8338.33
687.485	8302.62
687.832	8213.81
688.18	8252.9
688.527	8233.7
688.874	8185.79
689.221	8152.12
689.568	8102.17
689.915	8072.12
690.262	8090.2
690.609	8118.22
690.956	8028.5
691.303	8052.68
691.65	8012.23
691.997	7984.21
692.344	7984.21
692.69	7941.5
693.037	7931.33
693.383	7854.5
693.73	7928.39
694.077	7797.55
694.423	7858.56
694.769	7823.54
695.116	7779.92
695.462	7723.65
695.808	7738.34
696.155	7799.13
696.501	7635.75
696.847	7668.74
697.193	7624.9
697.539	7660.38
697.885	7571.11
698.231	7604.79
698.577	7494.05
698.923	7478.01
699.269	7452.47
699.614	7367.73
699.96	7415.86
700.306	7367.05
700.651	7361.85
700.997	7313.04
701.342	7327.96
701.688	7313.49
702.033	7228.98
702.379	7253.38
702.724	7233.5
703.069	7240.5
703.415	7176.32
703.76	7186.72
704.105	7169.09
704.45	7057.68
704.795	7058.36
705.14	7092.26
705.485	7087.96
705.83	7041.18
706.175	6984.01
706.52	6983.11
706.865	6940.62
707.209	6951.7
707.554	6904.24
707.899	6885.03
708.243	6871.47
708.588	6879.38
708.932	6826.95
709.277	6833.96
709.621	6822.66
709.966	6786.95
710.31	6772.94
710.654	6761.42
710.998	6745.15
711.342	6725.71
711.687	6675.32
712.031	6656.11
712.375	6657.24
712.719	6646.85
713.063	6637.35
713.407	6691.14
713.75	6622.66
714.094	6610.24
714.438	6584.7
714.782	6628.54
715.125	6545.83
715.469	6557.81
715.812	6509.67
716.156	6496.79
716.499	6478.04
716.843	6553.74
717.186	6450.01
717.53	6492.95
717.873	6463.35
718.216	6575.21
718.559	6421.09
718.902	6382.22
719.246	6454.99
719.589	6433.52
719.932	6380.41
720.275	6398.72
720.617	6417.92
720.96	6388.77
721.303	6405.27
721.646	6377.47
721.989	6369.11
722.331	6353.97
722.674	6357.81
723.016	6360.98
723.359	6321.88
723.701	6363.24
724.044	6305.84
724.386	6278.72
724.729	6327.53
725.071	6314.2
725.413	6279.4
725.755	6313.75
726.097	6258.61
726.439	6236.69
726.782	6236.91
727.124	6252.51
727.465	6268.55
727.807	6225.39
728.149	6213.64
728.491	6232.17
728.833	6317.59
729.175	6182.9
729.516	6208.21
729.858	6210.92
730.199	6223.13
730.541	6232.39
730.882	6226.07
731.224	6246.4
731.565	6187.2
731.906	6214.99
732.248	6214.77
732.589	6131.83
732.93	6237.14
733.271	6231.26
733.612	6193.98
733.953	6190.59
734.294	6212.05
734.635	6202.79
734.976	6245.27
735.317	6170.25
735.658	6220.64
735.999	6216.8
736.339	6179.51
736.68	6238.27
737.021	6165.5
737.361	6212.96
737.702	6210.7
738.042	6229.91
738.383	6235.78
738.723	6230.81
739.063	6231.94
739.404	6264.26
739.744	6302
740.084	6244.82
740.424	6253.18
740.764	6246.63
741.104	6265.16
741.444	6261.32
741.784	6289.57
742.124	6262.45
742.464	6320.07
742.804	6290.02
743.143	6322.56
743.483	6304.71
743.823	6286.85
744.162	6351.71
744.502	6398.04
744.841	6410.02
745.181	6416.34
745.52	6398.94
745.86	6474.87
746.199	6452.27
746.538	6480.3
746.877	6596.68
747.216	6541.76
747.556	6600.52
747.895	6614.08
748.234	6661.08
748.573	6715.54
748.911	6650.46
749.25	6773.85
749.589	6827.18
749.928	6849.33
750.267	6877.35
750.605	6924.35
750.944	6977.68
751.283	7056.33
751.621	7124.35
751.96	7151.46
752.298	7233.72
752.636	7310.33
752.975	7351.01
753.313	7384.68
753.651	7483.66
753.989	7550.32
754.327	7640.94
754.666	7662.41
755.004	7800.71
755.342	7859.24
755.679	7966.13
756.017	8022.85
756.355	8160.25
756.693	8230.31
757.031	8328.61
757.368	8342.62
757.706	8480.02
758.044	8634.59
758.381	8703.29
758.719	8846.11
759.056	8913.68
759.394	9032.54
759.731	9071.87
760.068	9229.6
760.405	9363.84
760.743	9430.95
761.08	9522.48
761.417	9637.5
761.754	9849.47
762.091	9873.65
762.428	9995.46
762.765	10122.91
763.102	10227.32
763.438	10323.81
763.775	10460.08
764.112	10591.37
764.449	10724.25
764.785	10785.72
765.122	10909.56
765.458	10960.86
765.795	11159.72
766.131	11165.6
766.467	11261.19
766.804	11352.03
767.14	11458.24
767.476	11606.26
767.812	11566.49
768.148	11705.02
768.485	11829.08
768.821	11870.89
769.157	11983.2
769.492	11997.21
