Data from hue_130_FLMS001491_00029.txt Node
Date: Tue Feb 07 16:57:24 GMT 2017
User: dcchb
Spectrometer: FLMS00149
Trigger mode: 0
Integration Time (sec): 2.000000E-2
Scans to average: 10
Electric dark correction enabled: true
Nonlinearity correction enabled: false
Boxcar width: 0
XAxis mode: Wavelengths
Number of Pixels in Spectrum: 2048
>>>>>Begin Spectral Data<<<<<
341.393	-10.48
341.776	-10.48
342.16	-10.48
342.543	-64.04
342.927	-57.71
343.31	-43.25
343.693	-85.96
344.077	-47.54
344.46	-61.78
344.843	-68.56
345.226	-57.03
345.61	-31.95
345.993	-34.43
346.376	-5.28
346.759	23.19
347.142	20.03
347.525	40.59
347.908	58.44
348.291	84.21
348.674	92.79
349.057	116.52
349.44	131.89
349.823	145.67
350.206	178.89
350.588	207.37
350.971	225.67
351.354	221.38
351.737	250.98
352.119	230.19
352.502	263.19
352.884	284.2
353.267	274.03
353.65	292.79
354.032	294.6
354.414	285.78
354.797	310.64
355.179	306.8
355.562	330.53
355.944	333.24
356.326	333.92
356.709	329.85
357.091	332.79
357.473	326.46
357.855	316.07
358.238	338.44
358.62	342.51
359.002	329.85
359.384	345.22
359.766	337.08
360.148	330.08
360.53	327.59
360.912	333.24
361.294	334.14
361.676	344.76
362.057	334.14
362.439	309.06
362.821	324.88
363.203	314.26
363.584	343.86
363.966	321.71
364.348	328.95
364.729	319
365.111	317.87
365.493	304.09
365.874	313.81
366.256	316.97
366.637	309.74
367.019	302.51
367.4	322.39
367.781	320.36
368.163	327.14
368.544	302.51
368.925	311.77
369.306	330.53
369.688	336.18
370.069	304.54
370.45	296.86
370.831	322.84
371.212	307.7
371.593	316.74
371.974	315.84
372.355	345.67
372.736	317.87
373.117	318.1
373.498	324.65
373.879	323.07
374.26	333.24
374.641	327.59
375.021	300.25
375.402	331.66
375.783	331.66
376.163	330.98
376.544	345.89
376.925	324.88
377.305	328.04
377.686	331.88
378.066	342.28
378.447	333.92
378.827	343.64
379.208	335.05
379.588	343.41
379.968	337.53
380.349	329.62
380.729	324.43
381.109	345.44
381.489	322.17
381.87	326.91
382.25	339.57
382.63	326.01
383.01	335.95
383.39	356.74
383.77	361.26
384.15	341.15
384.53	362.39
384.91	344.54
385.29	350.19
385.67	355.84
386.049	357.87
386.429	366.23
386.809	375.95
387.189	366.91
387.568	374.14
387.948	354.26
388.328	347.7
388.707	366.46
389.087	365.56
389.466	351.32
389.846	362.62
390.225	364.88
390.605	394.93
390.984	359.45
391.363	383.63
391.743	378.21
392.122	373.24
392.501	363.97
392.881	373.46
393.26	380.02
393.639	382.28
394.018	383.41
394.397	396.06
394.776	404.65
395.155	383.86
395.534	387.25
395.913	391.09
396.292	385.89
396.671	383.41
397.05	415.27
397.429	415.72
397.808	394.93
398.186	404.65
398.565	404.2
398.944	369.4
399.323	393.58
399.701	405.55
400.08	412.56
400.458	395.61
400.837	411.88
401.215	396.06
401.594	420.24
401.972	406.46
402.351	403.52
402.729	431.77
403.107	443.97
403.486	421.6
403.864	420.02
404.242	433.8
404.62	429.51
404.999	424.08
405.377	424.99
405.755	432.45
406.133	455.27
406.511	436.74
406.889	448.94
407.267	447.14
407.645	435.84
408.023	442.39
408.401	438.1
408.779	460.24
409.156	469.06
409.534	469.73
409.912	465.21
410.29	472.67
410.667	501.37
411.045	478.32
411.422	478.09
411.8	461.82
412.178	481.26
412.555	496.85
412.933	495.04
413.31	505.66
413.687	514.48
414.065	496.85
414.442	508.83
414.819	522.84
415.197	528.49
415.574	500.69
415.951	510.64
416.328	510.86
416.705	519.68
417.082	511.99
417.46	542.73
417.837	562.16
418.214	528.26
418.591	544.53
418.967	563.06
419.344	568.94
419.721	545.44
420.098	556.51
420.475	556.51
420.852	563.29
421.228	582.27
421.605	555.38
421.982	567.58
422.358	568.04
422.735	575.72
423.111	555.15
423.488	609.62
423.864	601.48
424.241	602.84
424.617	579.79
424.994	589.73
425.37	607.81
425.746	604.42
426.123	637.64
426.499	617.75
426.875	636.28
427.251	613.23
427.627	636.28
428.003	653.91
428.379	671.31
428.756	651.88
429.132	650.07
429.507	648.49
429.883	655.94
430.259	688.48
430.635	677.19
431.011	679.22
431.387	684.42
431.763	714.02
432.138	708.15
432.514	721.93
432.89	698.65
433.265	725.77
433.641	708.15
434.016	735.94
434.392	733
434.767	728.48
435.143	751.31
435.518	774.58
435.894	785.43
436.269	772.78
436.644	799.67
437.02	780.23
437.395	770.74
437.77	791.08
438.145	792.21
438.52	794.92
438.895	809.61
439.271	805.54
439.646	850.51
440.021	838.09
440.395	846.45
440.77	850.97
441.145	824.75
441.52	864.53
441.895	860.23
442.27	901.81
442.645	873.56
443.019	909.27
443.394	864.07
443.769	902.49
444.143	883.96
444.518	926.22
444.892	895.94
445.267	925.77
445.641	921.7
446.016	914.24
446.39	953.79
446.764	901.81
447.139	928.25
447.513	946.56
447.887	958.53
448.262	951.3
448.636	942.94
449.01	961.25
449.384	994.92
449.758	1004.63
450.132	1003.5
450.506	1014.35
450.88	1009.15
451.254	1022.94
451.628	1047.35
452.002	1046.67
452.376	1028.14
452.75	1031.07
453.123	1048.7
453.497	1050.06
453.871	1095.48
454.244	1090.28
454.618	1130.73
454.992	1089.6
455.365	1108.13
455.739	1155.14
456.112	1158.08
456.486	1189.49
456.859	1183.16
457.232	1182.71
457.606	1189.26
457.979	1211.41
458.352	1256.15
458.725	1245.53
459.099	1269.03
459.472	1276.27
459.845	1279.88
460.218	1297.06
460.591	1323.95
460.964	1326.43
461.337	1357.39
461.71	1392.65
462.083	1422.48
462.456	1391.97
462.829	1414.34
463.201	1442.59
463.574	1431.97
463.947	1472.42
464.32	1491.63
464.692	1536.15
465.065	1507.67
465.438	1539.99
465.81	1590.61
466.183	1587.9
466.555	1673.32
466.928	1649.82
467.3	1653.88
467.672	1679.19
468.045	1747.67
468.417	1734.56
468.789	1771.39
469.161	1772.07
469.534	1853.65
469.906	1873.31
470.278	1895.68
470.65	1897.04
471.022	1954.67
471.394	1973.42
471.766	2023.14
472.138	2074.66
472.51	2124.83
472.882	2160.54
473.253	2219.97
473.625	2227.65
473.997	2307.43
474.369	2344.03
474.74	2363.24
475.112	2484.37
475.484	2486.63
475.855	2511.49
476.227	2578.15
476.598	2670.35
476.97	2696.34
477.341	2747.41
477.713	2846.17
478.084	2873.74
478.455	3023.79
478.827	3062.43
479.198	3199.83
479.569	3220.17
479.94	3332.71
480.311	3393.5
480.682	3493.61
481.053	3640.5
481.424	3730.66
481.795	3796.2
482.166	3879.59
482.537	3970.66
482.908	4089.3
483.279	4204.32
483.65	4315.96
484.021	4412.91
484.391	4564.09
484.762	4613.35
485.133	4717.08
485.503	4872.78
485.874	4966.56
486.244	5095.15
486.615	5295.82
486.985	5357.29
487.356	5533.56
487.726	5667.34
488.097	5864.62
488.467	5904.17
488.837	6059.87
489.207	6230.26
489.578	6422.35
489.948	6513.87
490.318	6644.26
490.688	6755.44
491.058	6891.26
491.428	7086.51
491.798	7228.2
492.168	7401.3
492.538	7555.42
492.908	7582.54
493.278	7761.52
493.648	7865.02
494.017	8124.22
494.387	8201.51
494.757	8379.36
495.126	8542.74
495.496	8495.96
495.866	8715.62
496.235	8868.16
496.605	9020.7
496.974	9111.77
497.344	9255.27
497.713	9337.75
498.082	9486.45
498.452	9624.97
498.821	9715.82
499.19	9850.96
499.559	9963.27
499.928	10083.27
500.298	10226.31
500.667	10312.19
501.036	10359.42
501.405	10570.03
501.774	10549.24
502.143	10699.07
502.512	10815.22
502.88	10983.13
503.249	10996.24
503.618	11087.31
503.987	11167.98
504.356	11268.32
504.724	11323.91
505.093	11501.31
505.462	11476.9
505.83	11635.54
506.199	11698.59
506.567	11880.28
506.936	11888.64
507.304	12106.94
507.672	12101.97
508.041	12124.34
508.409	12247.5
508.777	12373.38
509.145	12443.43
509.514	12477.1
509.882	12565.23
510.25	12623.09
510.618	12724.33
510.986	12682.52
511.354	12799.8
511.722	12973.59
512.09	12983.98
512.458	12974.04
512.826	13151.89
513.193	13200.25
513.561	13216.52
513.929	13311.88
514.297	13401.37
514.664	13428.49
515.032	13471.65
515.4	13588.03
515.767	13668.48
516.135	13664.87
516.502	13561.59
516.869	13802.72
517.237	13829.16
517.604	13800.23
517.972	13857.86
518.339	13957.74
518.706	13964.75
519.073	14007.91
519.44	14047.46
519.808	14232.08
520.175	14148.24
520.542	14213.55
520.909	14298.52
521.276	14251.52
521.643	14315.7
522.009	14325.41
522.376	14436.6
522.743	14543.26
523.11	14618.06
523.477	14671.62
523.843	14760.66
524.21	14811.5
524.577	14860.32
524.943	14899.41
525.31	14833.65
525.676	15043.59
526.043	15011.5
526.409	15077.71
526.776	15081.1
527.142	15115.45
527.508	15063.25
527.874	15145.51
528.241	15231.83
528.607	15154.55
528.973	15322.45
529.339	15285.16
529.705	15290.36
530.071	15415.33
530.437	15408.1
530.803	15291.49
531.169	15502.11
531.535	15367.19
531.901	15416.46
532.267	15414.65
532.632	15405.39
532.998	15416.91
533.364	15420.07
533.73	15324.03
534.095	15419.17
534.461	15479.28
534.826	15499.62
535.192	15528.55
535.557	15451.71
535.923	15348.44
536.288	15441.09
536.653	15396.12
537.019	15245.84
537.384	15350.02
537.749	15365.61
538.114	15302.34
538.479	15317.93
538.845	15218.72
539.21	15179.63
539.575	15233.19
539.94	15105.73
540.305	15260.76
540.67	15223.7
541.034	15105.05
541.399	15062.12
541.764	15121.78
542.129	15045.4
542.494	14969.01
542.858	15010.37
543.223	15029.58
543.587	15041.78
543.952	15012.63
544.316	14929.01
544.681	14819.86
545.045	14985.28
545.41	14951.61
545.774	14821.9
546.138	14824.84
546.503	14809.92
546.867	14821.67
547.231	14842.69
547.595	14716.14
547.959	14705.97
548.324	14666.87
548.688	14669.81
549.052	14683.6
549.416	14590.49
549.779	14624.39
550.143	14526.09
550.507	14535.13
550.871	14500.55
551.235	14511.62
551.599	14538.74
551.962	14426.2
552.326	14452.64
552.689	14519.31
553.053	14336.94
553.417	14276.6
553.78	14480.21
554.143	14322.25
554.507	14377.62
554.87	14274.12
555.234	14450.83
555.597	14240.22
555.96	14268.47
556.323	14291.97
556.686	14218.07
557.05	14245.19
557.413	14224.17
557.776	14238.86
558.139	14361.8
558.502	14209.94
558.865	14239.99
559.228	14228.69
559.59	14273.44
559.953	14223.04
560.316	14316.15
560.679	14297.84
561.041	14339.65
561.404	14368.58
561.767	14402.93
562.129	14299.88
562.492	14331.06
562.854	14344.85
563.217	14290.84
563.579	14349.82
563.941	14429.14
564.304	14368.58
564.666	14483.6
565.028	14363.15
565.39	14385.98
565.753	14506.65
566.115	14467.33
566.477	14476.14
566.839	14523.6
567.201	14531.28
567.563	14535.35
567.925	14634.33
568.287	14593.66
568.648	14529.25
569.01	14616.93
569.372	14695.57
569.734	14534.9
570.095	14671.17
570.457	14612.86
570.819	14644.28
571.18	14665.74
571.542	14727.89
571.903	14761.79
572.265	14753.88
572.626	14779.64
572.987	14782.35
573.349	14755.91
573.71	14800.88
574.071	14806.08
574.432	14863.93
574.794	14940.77
575.155	14848.56
575.516	14816.7
575.877	14943.25
576.238	14942.8
576.599	14964.27
576.96	14940.31
577.32	14983.7
577.681	14938.51
578.042	14910.26
578.403	14932.86
578.763	14992.97
579.124	15011.95
579.485	15018.96
579.845	15030.03
580.206	14964.04
580.566	15045.62
580.927	14952.06
581.287	14924.95
581.648	14892.18
582.008	15004.49
582.368	14895.34
582.728	14991.84
583.089	14873.65
583.449	14911.39
583.809	14888.79
584.169	14937.15
584.529	14962.01
584.889	15001.78
585.249	14875.68
585.609	14885.85
585.969	15066.41
586.329	14908.22
586.688	14962.91
587.048	14910.26
587.408	14812.86
587.768	14852.86
588.127	14847.43
588.487	14804.95
588.846	14884.72
589.206	14762.69
589.565	14812.41
589.925	14825.74
590.284	14817.38
590.643	14782.58
591.003	14778.96
591.362	14865.74
591.721	14786.87
592.08	14844.5
592.44	14880.43
592.799	14857.38
593.158	14776.93
593.517	14766.31
593.876	14775.57
594.235	14714.56
594.593	14779.41
594.952	14729.25
595.311	14675.69
595.67	14726.08
596.029	14737.61
596.387	14785.74
596.746	14644.28
597.104	14682.69
597.463	14703.94
597.822	14762.24
598.18	14606.99
598.538	14619.19
598.897	14726.08
599.255	14640.43
599.613	14788
599.972	14653.09
600.33	14604.5
600.688	14671.62
601.046	14717.49
601.404	14682.69
601.762	14737.15
602.12	14807.21
602.478	14756.59
602.836	14820.99
603.194	14712.3
603.552	14737.15
603.91	14706.2
604.268	14715.23
604.625	14559.08
604.983	14733.77
605.341	14611.51
605.698	14680.21
606.056	14800.2
606.413	14721.56
606.771	14736.7
607.128	14691.05
607.485	14736.02
607.843	14666.42
608.2	14799.3
608.557	14836.36
608.914	14768.11
609.272	14816.7
609.629	14804.95
609.986	14932.63
610.343	14789.36
610.7	14915.46
611.057	14806.31
611.414	14876.81
611.771	14825.74
612.127	15015.79
612.484	14868.68
612.841	14995.68
613.198	14902.35
613.554	14832.97
613.911	14980.76
614.267	14999.07
614.624	14905.74
614.98	14996.81
615.337	15077.03
615.693	15046.07
616.05	14914.1
616.406	15113.64
616.762	14971.27
617.118	15004.04
617.475	15008.11
617.831	15035.45
618.187	15016.7
618.543	15054.21
618.899	15148.67
619.255	15139.63
619.611	14990.93
619.967	15249.46
620.323	15209.46
620.678	15125.85
621.034	15041.78
621.39	15181.44
621.746	15044.04
622.101	15226.18
622.457	15117.26
622.812	15115.68
623.168	15151.38
623.523	15187.54
623.879	15244.71
624.234	15110.48
624.589	15217.37
624.945	15204.04
625.3	15229.12
625.655	15193.19
626.01	15211.72
626.365	15176.47
626.72	15125.62
627.075	15130.82
627.43	15132.17
627.785	15168.33
628.14	15195.22
628.495	15150.48
628.85	15107.99
629.205	15118.16
629.559	15202.23
629.914	15079.74
630.269	15072.06
630.623	15079.52
630.978	15058.73
631.332	15011.72
631.687	15138.27
632.041	15054.21
632.396	15007.88
632.75	14949.13
633.104	14965.62
633.459	14943.03
633.813	14975.79
634.167	14952.97
634.521	14957.94
634.875	14990.71
635.229	14957.26
635.583	14827.77
635.937	14820.54
636.291	14830.94
636.645	14795.68
636.999	14799.75
637.352	14858.51
637.706	14808.34
638.06	14785.97
638.413	14726.99
638.767	14716.59
639.121	14674.56
639.474	14644.95
639.828	14663.48
640.181	14642.92
640.534	14644.28
640.888	14531.96
641.241	14491.51
641.594	14656.71
641.947	14672.98
642.301	14662.58
642.654	14643.15
643.007	14538.52
643.36	14626.42
643.713	14597.72
644.066	14570.15
644.419	14527.44
644.771	14484.96
645.124	14353.44
645.477	14339.43
645.83	14284.06
646.182	14160.45
646.535	14094.46
646.888	14124.52
647.24	14049.04
647.593	14077.51
647.945	14075.93
648.298	14037.29
648.65	13980.11
649.002	13954.8
649.355	13986.67
649.707	13991.41
650.059	14110.96
650.411	14244.51
650.763	14171.97
651.115	14484.05
651.467	14361.8
651.819	14308.69
652.171	14397.28
652.523	14336.49
652.875	14221.24
653.227	14257.17
653.578	14420.1
653.93	14314.57
654.282	14231.41
654.633	14213.33
654.985	14183.72
655.337	14275.47
655.688	14367.22
656.039	14407.67
656.391	14296.26
656.742	14257.17
657.094	14262.14
657.445	14337.62
657.796	14250.16
658.147	14235.7
658.498	14344.17
658.849	14382.14
659.2	14433.66
659.551	14315.25
659.902	14333.1
660.253	14365.19
660.604	14350.05
660.955	14282.03
661.306	14432.08
661.656	14403.38
662.007	14406.32
662.358	14389.37
662.708	14433.21
663.059	14414.68
663.409	14273.21
663.76	14431.4
664.11	14426.65
664.461	14374.45
664.811	14442.02
665.161	14443.15
665.511	14361.35
665.862	14309.37
666.212	14388.01
666.562	14442.02
666.912	14334.45
667.262	14345.3
667.612	14332.42
667.962	14371.74
668.312	14340.33
668.662	14420.78
669.011	14368.35
669.361	14362.02
669.711	14338.52
670.06	14286.32
670.41	14312.31
670.76	14273.21
671.109	14376.03
671.459	14340.33
671.808	14343.72
672.157	14382.81
672.507	14203.61
672.856	14273.66
673.205	14338.07
673.554	14323.38
673.904	14294.23
674.253	14318.41
674.602	14317.96
674.951	14058.53
675.3	13978.98
675.649	14188.24
675.998	14188.02
676.346	14192.31
676.695	14206.32
677.044	14004.07
677.393	14169.03
677.741	14166.1
678.09	14067.34
678.438	13998.87
678.787	14106.44
679.135	14031.64
679.484	13927.68
679.832	14042.94
680.181	13927.46
680.529	13947.12
680.877	13995.03
681.225	13873.9
681.573	13929.72
681.922	13815.37
682.27	13811.53
682.618	13806.33
682.966	13814.24
683.314	13764.53
683.661	13708.26
684.009	13646.11
684.357	13684.08
684.705	13675.04
685.053	13680.23
685.4	13650.63
685.748	13616.73
686.095	13501.26
686.443	13574.25
686.79	13489.73
687.138	13482.27
687.485	13457.41
687.832	13401.82
688.18	13432.78
688.527	13335.61
688.874	13343.97
689.221	13268.04
689.568	13225.56
689.915	13222.17
690.262	13196.86
690.609	13194.37
690.956	13117.76
691.303	13094.26
691.65	12996.64
691.997	13049.97
692.344	12920.93
692.69	12941.27
693.037	12892.68
693.383	12749.86
693.73	12781.05
694.077	12729.07
694.423	12670.32
694.769	12579.92
695.116	12585.12
695.462	12561.17
695.808	12511.45
696.155	12595.06
696.501	12456.08
696.847	12473.03
697.193	12395.3
697.539	12357.33
697.885	12293.6
698.231	12239.59
698.577	12227.39
698.923	12130.67
699.269	12091.12
699.614	12142.42
699.96	12047.28
700.306	11953.73
700.651	11953.05
700.997	11897.23
701.342	11927.96
701.688	11896.1
702.033	11792.6
702.379	11793.05
702.724	11733.62
703.069	11772.49
703.415	11551.02
703.76	11613.17
704.105	11621.53
704.45	11557.58
704.795	11465.83
705.14	11440.74
705.485	11386.28
705.83	11402.78
706.175	11409.11
706.52	11363.01
706.865	11274.42
707.209	11370.46
707.554	11221.99
707.899	11250.24
708.243	11155.33
708.588	11163.46
708.932	11070.36
709.277	11076.23
709.621	11071.04
709.966	11034.43
710.31	11041.66
710.654	10949.01
710.998	10950.81
711.342	10984.71
711.687	10819.52
712.031	10775.45
712.375	10823.13
712.719	10790.14
713.063	10740.88
713.407	10784.94
713.75	10758.5
714.094	10742.01
714.438	10680.31
714.782	10740.65
715.125	10665.85
715.469	10681.44
715.812	10624.72
716.156	10512.86
716.499	10537.04
716.843	10563.25
717.186	10526.42
717.53	10585.17
717.873	10534.1
718.216	10469.7
718.559	10376.14
718.902	10357.61
719.246	10367.33
719.589	10344.05
719.932	10359.64
720.275	10368.46
720.617	10342.47
720.96	10323.94
721.303	10323.71
721.646	10313.54
721.989	10262.02
722.331	10305.41
722.674	10217.27
723.016	10223.6
723.359	10235.35
723.701	10322.58
724.044	10222.7
724.386	10186.77
724.729	10181.34
725.071	10140.44
725.413	10186.54
725.755	10188.35
726.097	10161.23
726.439	10105.19
726.782	10145.41
727.124	10155.58
727.465	10131.85
727.807	10022.02
728.149	10091.63
728.491	10079.65
728.833	10010.95
729.175	10048.46
729.516	10129.82
729.858	10010.73
730.199	10073.77
730.541	9995.58
730.882	10011.86
731.224	10043.49
731.565	9971.18
731.906	10018.86
732.248	10004.85
732.589	9897.06
732.93	9956.04
733.271	9952.42
733.612	9947.68
733.953	10039.88
734.294	10002.36
734.635	9956.49
734.976	9978.86
735.317	10010.5
735.658	9923.5
735.999	10015.25
736.339	9968.69
736.68	9983.16
737.021	9961.69
737.361	9978.64
737.702	10030.84
738.042	10011.86
738.383	9954.23
738.723	10004.62
739.063	10029.93
739.404	9987.22
739.744	9986.77
740.084	10005.53
740.424	10106.77
740.764	10069.71
741.104	10084.62
741.444	10058.18
741.784	10000.33
742.124	10113.77
742.464	10207.56
742.804	10152.42
743.143	10161.91
743.483	10153.09
743.823	10179.31
744.162	10219.31
744.502	10217.73
744.841	10263.15
745.181	10323.49
745.52	10335.46
745.86	10391.51
746.199	10339.53
746.538	10408.68
746.877	10535.68
747.216	10571.16
747.556	10556.02
747.895	10644.83
748.234	10666.53
748.573	10678.96
748.911	10753.76
749.25	10809.35
749.589	10779.52
749.928	10896.13
750.267	10971.15
750.605	11087.76
750.944	11125.72
751.283	11152.39
751.621	11341.54
751.96	11356
752.298	11468.31
752.636	11582.21
752.975	11638.25
753.313	11681.87
753.651	11802.77
753.989	11869.43
754.327	12094.06
754.666	12019.71
755.004	12238.69
755.342	12392.13
755.679	12470.1
