Data from hue_60_FLMS001491_71.txt Node
Date: Mon Feb 06 15:17:53 GMT 2017
User: dcchb
Spectrometer: FLMS00149
Trigger mode: 0
Integration Time (sec): 2.000000E-2
Scans to average: 10
Electric dark correction enabled: true
Nonlinearity correction enabled: false
Boxcar width: 0
XAxis mode: Wavelengths
Number of Pixels in Spectrum: 2048
>>>>>Begin Spectral Data<<<<<
341.393	-12.4
341.776	-12.4
342.16	-12.4
342.543	-69.12
342.927	-67.99
343.31	-70.93
343.693	-56.24
344.077	-75.45
344.46	-60.08
344.843	-48.56
345.226	-22.57
345.61	-17.37
345.993	-22.57
346.376	-30.93
346.759	10.88
347.142	36.41
347.525	21.95
347.908	54.49
348.291	66.47
348.674	97.43
349.057	117.09
349.44	128.39
349.823	137.65
350.206	155.28
350.588	187.37
350.971	248.61
351.354	247.71
351.737	240.47
352.119	251.32
352.502	288.83
352.884	284.09
353.267	296.74
353.65	291.32
354.032	306.46
354.414	321.83
354.797	337.65
355.179	324.54
355.562	339
355.944	334.26
356.326	347.59
356.709	336.74
357.091	334.71
357.473	330.87
357.855	331.54
358.238	358.66
358.62	342.62
359.002	367.93
359.384	364.76
359.766	323.18
360.148	337.65
360.53	348.72
360.912	349.17
361.294	329.96
361.676	345.33
362.057	318.66
362.439	331.32
362.821	324.09
363.203	353.01
363.584	341.94
363.966	333.35
364.348	318.66
364.729	317.99
365.111	317.08
365.493	326.12
365.874	333.8
366.256	339.45
366.637	308.95
367.019	319.34
367.4	321.83
367.781	319.12
368.163	319.34
368.544	310.75
368.925	301.94
369.306	329.51
369.688	331.54
370.069	303.3
370.45	312.79
370.831	335.61
371.212	330.19
371.593	326.12
371.974	326.8
372.355	310.98
372.736	320.7
373.117	312.56
373.498	322.05
373.879	320.47
374.26	332
374.641	331.32
375.021	328.83
375.402	336.52
375.783	321.6
376.163	308.72
376.544	323.86
376.925	329.06
377.305	337.42
377.686	334.03
378.066	340.58
378.447	323.41
378.827	320.7
379.208	349.62
379.588	330.42
379.968	345.78
380.349	335.39
380.729	323.64
381.109	343.75
381.489	364.76
381.87	342.62
382.25	350.75
382.63	354.6
383.01	353.92
383.39	344.88
383.77	327.48
384.15	359.34
384.53	336.29
384.91	335.61
385.29	342.17
385.67	352.56
386.049	352.11
386.429	335.39
386.809	346.91
387.189	381.04
387.568	367.25
387.948	357.53
388.328	356.18
388.707	362.96
389.087	360.02
389.466	354.37
389.846	377.19
390.225	361.83
390.605	365.22
390.984	362.05
391.363	389.4
391.743	378.55
392.122	358.21
392.501	377.65
392.881	365.89
393.26	374.93
393.639	386.68
394.018	382.62
394.397	370.64
394.776	383.97
395.155	389.17
395.534	395.27
395.913	362.96
396.292	370.64
396.671	381.71
397.05	363.86
397.429	374.71
397.808	373.13
398.186	391.88
398.565	398.44
398.944	399.34
399.323	368.83
399.701	407.02
400.08	375.61
400.458	404.09
400.837	393.92
401.215	413.35
401.594	402.05
401.972	405.67
402.351	406.12
402.729	414.03
403.107	391.2
403.486	408.61
403.864	421.26
404.242	388.72
404.62	390.3
404.999	422.39
405.377	413.8
405.755	438.66
406.133	426.01
406.511	419.23
406.889	420.36
407.267	444.99
407.645	423.29
408.023	440.47
408.401	414.93
408.779	429.62
409.156	447.7
409.534	429.85
409.912	442.5
410.29	434.14
410.667	465.78
411.045	448.83
411.422	455.38
411.8	456.06
412.178	470.3
412.555	484.99
412.933	493.57
413.31	491.77
413.687	453.35
414.065	482.95
414.442	474.37
414.819	473.01
415.197	502.16
415.574	496.51
415.951	502.39
416.328	486.8
416.705	499.45
417.082	491.99
417.46	508.72
417.837	514.59
418.214	508.94
418.591	520.47
418.967	533.35
419.344	504.65
419.721	516.85
420.098	513.46
420.475	536.51
420.852	509.85
421.228	503.29
421.605	544.65
421.982	510.98
422.358	534.7
422.735	523.4
423.111	557.75
423.488	544.65
423.864	539.45
424.241	560.69
424.617	559.34
424.994	557.3
425.37	567.92
425.746	558.21
426.123	574.48
426.499	562.27
426.875	558.88
427.251	567.7
427.627	598.88
428.003	604.98
428.379	573.35
428.756	593.46
429.132	623.29
429.507	604.76
429.883	595.04
430.259	593.91
430.635	620.12
431.011	607.7
431.387	613.8
431.763	636.17
432.138	653.57
432.514	650.86
432.89	640.46
433.265	627.81
433.641	669.62
434.016	653.57
434.392	682.27
434.767	670.29
435.143	666.23
435.518	677.3
435.894	684.53
436.269	709.39
436.644	701.48
437.02	687.69
437.395	688.82
437.77	669.39
438.145	706.45
438.52	730.63
438.895	734.7
439.271	736.96
439.646	717.07
440.021	716.85
440.395	739.9
440.77	730.63
441.145	755.26
441.52	765.88
441.895	754.81
442.27	769.5
442.645	770.63
443.019	770.18
443.394	777.63
443.769	761.36
444.143	762.49
444.518	790.06
444.892	764.3
445.267	793.91
445.641	811.76
446.016	807.01
446.39	785.54
446.764	796.84
447.139	818.09
447.513	824.87
447.887	813.79
448.262	822.61
448.636	828.48
449.01	830.51
449.384	844.53
449.758	852.44
450.132	845.2
450.506	835.26
450.88	867.8
451.254	846.33
451.628	847.69
452.002	880.46
452.376	879.33
452.75	864.64
453.123	911.19
453.497	913.9
453.871	907.35
454.244	932.89
454.618	931.08
454.992	939.44
455.365	947.35
455.739	972.43
456.112	973.56
456.486	936.73
456.859	981.02
457.232	1015.37
457.606	997.52
457.979	990.51
458.352	1013.79
458.725	1048.59
459.099	1043.39
459.472	1026.89
459.845	1074.8
460.218	1061.02
460.591	1081.36
460.964	1106.89
461.337	1154.57
461.71	1149.83
462.083	1166.1
462.456	1150.51
462.829	1161.81
463.201	1183.5
463.574	1162.26
463.947	1198.19
464.32	1188.7
464.692	1233.44
465.065	1247.68
465.438	1244.74
465.81	1294.46
466.183	1292.88
466.555	1334.23
466.928	1332.65
467.3	1328.13
467.672	1384.17
468.045	1366.09
468.417	1412.19
468.789	1425.08
469.161	1446.09
469.534	1453.78
469.906	1490.16
470.278	1520.21
470.65	1545.98
471.022	1562.47
471.394	1629.36
471.766	1654.9
472.138	1678.18
472.51	1711.17
472.882	1741.9
473.253	1783.94
473.625	1807.66
473.997	1863.71
474.369	1841.11
474.74	1906.19
475.112	1958.85
475.484	2022.8
475.855	2086.75
476.227	2075.23
476.598	2182.8
476.97	2210.59
477.341	2274.09
477.713	2349.57
478.084	2400.64
478.455	2492.39
478.827	2517.25
479.198	2640.18
479.569	2694.65
479.94	2775.32
480.311	2813.74
480.682	2880.63
481.053	2985.26
481.424	3094.86
481.795	3168.76
482.166	3251.92
482.537	3312.03
482.908	3456.89
483.279	3554.74
483.65	3646.26
484.021	3759.93
484.391	3875.18
484.762	3986.14
485.133	4040.83
485.503	4180.94
485.874	4304.32
486.244	4363.76
486.615	4552.9
486.985	4693.92
487.356	4792.9
487.726	4906.11
488.097	5090.74
488.467	5145.88
488.837	5325.54
489.207	5472.88
489.578	5609.15
489.948	5777.05
490.318	5936.37
490.688	6025.18
491.058	6197.83
491.428	6380.65
491.798	6537.26
492.168	6704.48
492.538	6761.21
492.908	6954.2
493.278	7154.64
493.648	7331.81
494.017	7473.96
494.387	7597.12
494.757	7802.08
495.126	7984.23
495.496	8115.07
495.866	8236.2
496.235	8455.17
496.605	8592.57
496.974	8726.35
497.344	8867.59
497.713	9064.87
498.082	9100.13
498.452	9364.75
498.821	9513
499.19	9650.62
499.559	9882.48
499.928	9933.55
500.298	10165.86
500.667	10318.18
501.036	10409.7
501.405	10550.49
501.774	10709.8
502.143	10810.37
502.512	10967.65
502.88	11205.16
503.249	11198.15
503.618	11485.15
503.987	11563.57
504.356	11763.56
504.724	11844.69
505.093	12016.44
505.462	12154.28
505.83	12295.07
506.199	12409.42
506.567	12725.8
506.936	12715.17
507.304	12950.87
507.672	13069.06
508.041	13154.94
508.409	13329.17
508.777	13466.57
509.145	13653.91
509.514	13753.11
509.882	13865.43
510.25	14024.97
510.618	14191.97
510.986	14247.11
511.354	14446.88
511.722	14624.05
512.09	14819.3
512.458	14899.3
512.826	15024.27
513.193	15126.18
513.561	15217.71
513.929	15426.52
514.297	15609.56
514.664	15671.93
515.032	15843.23
515.4	16017.46
515.767	16153.73
516.135	16315.76
516.502	16223.56
516.869	16613.38
517.237	16685.01
517.604	16683.21
517.972	16890.88
518.339	17038.45
518.706	17152.35
519.073	17222.63
519.44	17448.61
519.808	17643.63
520.175	17729.96
520.542	17959.56
520.909	18164.07
521.276	18047.24
521.643	18327.68
522.009	18463.5
522.376	18630.95
522.743	18677.73
523.11	18943.48
523.477	19075.68
523.843	19239.97
524.21	19403.81
524.577	19549.57
524.943	19660.3
525.31	19880.41
525.676	20074.75
526.043	20187.75
526.409	20346.84
526.776	20602.65
527.142	20581.41
527.508	20773.72
527.874	20828.63
528.241	21011.91
528.607	21107.27
528.973	21367.6
529.339	21353.82
529.705	21557.88
530.071	21688.5
530.437	21822.73
530.803	22051.88
531.169	22141.59
531.535	22113.12
531.901	22202.16
532.267	22430.62
532.632	22525.09
532.998	22629.26
533.364	22761.92
533.73	22772.99
534.095	22974.11
534.461	23104.28
534.826	23210.49
535.192	23166.2
535.557	23480.99
535.923	23455
536.288	23527.55
536.653	23706.75
537.019	23768.89
537.384	23822.68
537.749	23869.01
538.114	24066.97
538.479	24051.37
538.845	24247.3
539.21	24111.48
539.575	24221.76
539.94	24438.71
540.305	24537.24
540.67	24422.44
541.034	24668.08
541.399	24761.64
541.764	24836.89
542.129	24984.91
542.494	25016.32
542.858	25080.27
543.223	25081.63
543.587	25281.17
543.952	25297.67
544.316	25478.68
544.681	25448.85
545.045	25544.67
545.41	25670.54
545.774	25760.03
546.138	25759.8
546.503	25867.6
546.867	25838.22
547.231	26179.23
547.595	26153.69
547.959	26246.12
548.324	26260.81
548.688	26326.34
549.052	26340.13
549.416	26596.84
549.779	26566.34
550.143	26710.96
550.507	26826.44
550.871	26999.54
551.235	26884.97
551.599	27064.4
551.962	27032.76
552.326	27253.55
552.689	27468.91
553.053	27368.8
553.417	27479.53
553.78	27816.7
554.143	27734.21
554.507	27985.96
554.87	27865.74
555.234	28148.67
555.597	28010.37
555.96	28227.08
556.323	28322.45
556.686	28370.13
557.05	28602.44
557.413	28554.76
557.776	28678.37
558.139	28886.95
558.502	28946.84
558.865	29069.55
559.228	29229.77
559.59	29305.47
559.953	29352.48
560.316	29698.23
560.679	29735.52
561.041	29905.68
561.404	29876.08
561.767	30176.86
562.129	30208.5
562.492	30448.95
562.854	30431.77
563.217	30391.77
563.579	30617.75
563.941	30778.43
564.304	30989.5
564.666	31225.2
565.028	31323.95
565.39	31312.43
565.753	31541.57
566.115	31530.95
566.477	31735.24
566.839	31843.71
567.201	32072.41
567.563	32041.67
567.925	32316.69
568.287	32329.12
568.648	32390.14
569.01	32643.01
569.372	32723.24
569.734	32608.89
570.095	32866.73
570.457	32988.99
570.819	33047.52
571.18	33167.52
571.542	33289.55
571.903	33416.78
572.265	33605.92
572.626	33626.49
572.987	33678.46
573.349	33867.16
573.71	33908.06
574.071	34037.33
574.432	34292.01
574.794	34373.36
575.155	34250.65
575.516	34229.41
575.877	34324.1
576.238	34572.45
576.599	34731.54
576.96	34750.98
577.32	34747.82
577.681	34700.36
578.042	34990.52
578.403	35031.2
578.763	35016.06
579.124	35124.53
579.485	35211.53
579.845	35363.39
580.206	35222.83
580.566	35237.97
580.927	35263.06
581.287	35394.58
581.648	35332.21
582.008	35436.16
582.368	35485.87
582.728	35591.41
583.089	35611.07
583.449	35522.71
583.809	35523.84
584.169	35705.53
584.529	35600.67
584.889	35844.06
585.249	35637.28
585.609	35656.72
585.969	35761.57
586.329	35631.86
586.688	35689.94
587.048	35712.99
587.408	35689.26
587.768	35820.1
588.127	35786.21
588.487	35744.63
588.846	36022.81
589.206	35685.19
589.565	35846.32
589.925	36002.92
590.284	35896.26
590.643	35905.98
591.003	36083.83
591.362	36144.16
591.721	36031.17
592.08	36006.54
592.44	36168.12
592.799	36143.26
593.158	36087.44
593.517	36202.24
593.876	36186.65
594.235	36165.18
594.593	36198.85
594.952	36319.07
595.311	36191.39
595.67	36214.9
596.029	36449.92
596.387	36457.37
596.746	36572.63
597.104	36469.58
597.463	36420.99
597.822	36693.07
598.18	36531.27
598.538	36486.98
598.897	36692.17
599.255	36481.33
599.613	36994.99
599.972	36673.64
600.33	36745.95
600.688	36741.89
601.046	36736.92
601.404	36942.79
601.762	36853.52
602.12	37045.61
602.478	37024.14
602.836	37069.56
603.194	36941.66
603.552	36995.67
603.91	36915.22
604.268	37133.97
604.625	36947.76
604.983	37287.64
605.341	37087.87
605.698	37251.48
606.056	37272.27
606.413	37406.73
606.771	37566.27
607.128	37638.36
607.485	37496.67
607.843	37592.94
608.2	37658.25
608.557	37853.27
608.914	37763.33
609.272	37901.86
609.629	38029.54
609.986	38064.79
610.343	37945.47
610.7	38244.67
611.057	38202.19
611.414	38144.79
611.771	38205.58
612.127	38382.3
612.484	38473.37
612.841	38469.3
613.198	38459.36
613.554	38481.95
613.911	38631.1
614.267	38603.31
614.624	38678.33
614.98	38719.24
615.337	38937.54
615.693	38832.23
616.05	38869.29
616.406	39140.92
616.762	38904.99
617.118	39084.42
617.475	39068.61
617.831	39216.4
618.187	39352.21
618.543	39285.55
618.899	39491.65
619.255	39401.25
619.611	39395.6
619.967	39524.86
620.323	39603.28
620.678	39511.76
621.034	39485.09
621.39	39379.11
621.746	39565.32
622.101	39910.84
622.457	39598.99
622.812	39677.4
623.168	39722.83
623.523	39774.35
623.879	39912.43
624.234	39685.09
624.589	39926.89
624.945	39822.94
625.3	39926.44
625.655	39830.17
626.01	39916.72
626.365	40076.49
626.72	40000.56
627.075	39992.2
627.43	40035.13
627.785	39880.56
628.14	39987.45
628.495	40052.99
628.85	40133.44
629.205	39889.83
629.559	40211.85
629.914	39984.74
630.269	40074.45
630.623	40090.5
630.978	40108.13
631.332	40133.89
631.687	40164.62
632.041	39935.7
632.396	40102.48
632.75	40031.74
633.104	39937.28
633.459	39776.38
633.813	39796.5
634.167	39730.73
634.521	39844.63
634.875	39843.27
635.229	39828.13
635.583	39708.36
635.937	39580.46
636.291	39714.69
636.645	39726.44
636.999	39569.84
637.352	39660
637.706	39408.94
638.06	39554.69
638.413	39436.28
638.767	39414.81
639.121	39557.41
639.474	39346.56
639.828	39372.1
640.181	39346.79
640.534	39323.97
640.888	39296.62
641.241	39216.17
641.594	39273.12
641.947	39461.36
642.301	39150.86
642.654	39261.82
643.007	39293.01
643.36	39237.87
643.713	39047.14
644.066	39160.35
644.419	39105.67
644.771	38903.86
645.124	38468.85
645.477	38380.94
645.83	38180.27
646.182	38124.9
646.535	37774.63
646.888	37987.5
647.24	37812.82
647.593	37972.36
647.945	37695.08
648.298	37716.32
648.65	37619.6
649.002	37574.86
649.355	37705.7
649.707	37783.44
650.059	37826.38
650.411	38278.12
650.763	38248.97
651.115	38767.82
651.467	38503.65
651.819	38539.58
652.171	38375.06
652.523	38347.27
652.875	38519.02
653.227	38368.74
653.578	38692.57
653.93	38539.35
654.282	38291
654.633	38121.51
654.985	38195.18
655.337	38198.8
655.688	38232.47
656.039	38329.42
656.391	37968.3
656.742	38070.67
657.094	38090.78
657.445	38299.13
657.796	38017.56
658.147	38184.33
658.498	38008.29
658.849	38187.72
659.2	37993.83
659.551	37945.47
659.902	38077.9
660.253	38026.82
660.604	38050.55
660.955	37825.25
661.306	38022.31
661.656	37910.22
662.007	37916.55
662.358	37944.34
662.708	37909.99
663.059	37979.37
663.409	37715.19
663.76	38047.16
664.11	37835.19
664.461	37912.93
664.811	37889.43
665.161	37965.81
665.511	37761.75
665.862	37867.28
666.212	38021.18
666.562	38000.39
666.912	37921.29
667.262	37835.64
667.612	37930.1
667.962	37838.81
668.312	37750
668.662	37896.66
669.011	37821.18
669.361	37728.3
669.711	37732.14
670.06	37665.48
670.41	37734.18
670.76	37537.8
671.109	37616.44
671.459	37601.3
671.808	37582.54
672.157	37803.33
672.507	37371.47
672.856	37583.9
673.205	37575.99
673.554	37647.63
673.904	37492.83
674.253	37762.88
674.602	37520.85
674.951	37007.42
675.3	36750.25
675.649	37364.92
675.998	37312.95
676.346	37446.05
676.695	37549.55
677.044	37193.4
677.393	37356.56
677.741	37320.63
678.09	37350.23
678.438	37153.18
678.787	37286.73
679.135	37345.26
679.484	36980.98
679.832	37174.64
680.181	36801.32
680.529	37047.87
680.877	36913.18
681.225	36947.98
681.573	36989.79
681.922	36872.28
682.27	36682.45
682.618	36707.54
682.966	36648.56
683.314	36734.2
683.661	36544.38
684.009	36382.8
684.357	36422.57
684.705	36215.57
685.053	36335.57
685.4	36216.48
685.748	36093.77
686.095	36073.43
686.443	35954.11
686.79	35882.7
687.138	35894.45
687.485	36065.29
687.832	35891.97
688.18	35730.39
688.527	35671.86
688.874	35649.26
689.221	35635.25
689.568	35506.44
689.915	35449.04
690.262	35437.29
690.609	35289.72
690.956	35222.15
691.303	35109.39
691.65	35019.45
691.997	35084.76
692.344	34845.21
692.69	34801.83
693.037	34881.14
693.383	34666.69
693.73	34642.06
694.077	34517.99
694.423	34435.96
694.769	34390.76
695.116	34252.01
695.462	34191.67
695.808	34247.04
696.155	34294.27
696.501	33892.7
696.847	33901.06
697.193	33704.68
697.539	33832.58
697.885	33653.15
698.231	33572.03
698.577	33541.97
698.923	33392.14
699.269	33296.1
699.614	33001.87
699.96	33223.11
700.306	33101.98
700.651	32939.73
700.997	32756
701.342	32670.36
701.688	32747.64
702.033	32624.71
702.379	32629.9
702.724	32464.71
703.069	32682.11
703.415	32223.14
703.76	32185.85
704.105	32127.55
704.45	32272.17
704.795	31911.51
705.14	31977.72
705.485	31804.84
705.83	31789.02
706.175	31766.65
706.52	31471.29
706.865	31586.99
707.209	31425.87
707.554	31365.31
707.899	31442.37
708.243	31314.01
708.588	31236.72
708.932	31080.57
709.277	30989.72
709.621	31187
709.966	30933.9
710.31	30947.69
710.654	30699.56
710.998	30737.53
711.342	30791.76
711.687	30599.68
712.031	30508.6
712.375	30280.14
712.719	30454.82
713.063	30428.83
713.407	30537.3
713.75	30462.28
714.094	30252.57
714.438	30136.41
714.782	30149.07
715.125	30032.23
715.469	30078.11
715.812	29920.15
716.156	29807.61
716.499	29799.92
716.843	29871.79
717.186	29573.26
717.53	29817.1
717.873	29845.8
718.216	29663.88
718.559	29425.24
718.902	29253.27
719.246	29297.11
719.589	29234.51
719.932	29024.12
720.275	29207.85
720.617	29153.16
720.96	29034.07
721.303	28998.14
721.646	28972.15
721.989	28800.4
722.331	28972.6
722.674	28863
723.016	28777.35
723.359	28814.64
723.701	28714.98
724.044	28575.55
724.386	28384.59
724.729	28645.6
725.071	28555.44
725.413	28494.65
725.755	28451.26
726.097	28221.89
726.439	28191.6
726.782	28239.74
727.124	28412.61
727.465	28185.28
727.807	28275.89
728.149	28218.27
728.491	28138.27
728.833	28125.62
729.175	27945.06
729.516	27853.99
729.858	27887.2
730.199	28001.1
730.541	27764.04
730.882	27700.09
731.224	27892.63
731.565	27591.62
731.906	27662.58
732.248	27653.09
732.589	27568.57
732.93	27413.54
733.271	27441.79
733.612	27474.33
733.953	27549.13
734.294	27411.06
734.635	27185.53
734.976	27311.17
735.317	27110.05
735.658	27128.13
735.999	27213.1
736.339	27178.97
736.68	27102.14
737.021	26982.6
737.361	26860.79
737.702	27100.11
738.042	26918.42
738.383	26830.74
738.723	26913.9
739.063	26708.48
739.404	26923.84
739.744	26823.05
740.084	26674.81
740.424	26626.45
740.764	26594.58
741.104	26774.01
741.444	26522.95
741.784	26424.87
742.124	26498.09
742.464	26472.55
742.804	26363.4
743.143	26300.58
743.483	26335.83
743.823	26190.07
744.162	26119.57
744.502	26349.39
744.841	26179.9
745.181	26216.29
745.52	25930.42
745.86	25959.57
746.199	25938.56
746.538	25877.31
746.877	25990.53
747.216	25978.78
747.556	25899.91
747.895	25944.88
748.234	25637.77
748.573	25728.62
748.911	25678.68
749.25	25663.53
749.589	25532.92
749.928	25667.6
750.267	25559.36
750.605	25445.01
750.944	25430.32
751.283	25350.77
751.621	25398.68
751.96	25228.07
752.298	25288.85
752.636	25166.6
752.975	25099.26
753.313	25022.2
753.651	24977.45
753.989	24966.6
754.327	24905.14
754.666	24731.81
755.004	24723.67
755.342	24816.78
755.679	24655.2
756.017	24556.9
756.355	24635.09
756.693	24483.68
