Data from hue_230_FLMS001491_00097.txt Node
Date: Tue Feb 07 16:38:01 GMT 2017
User: dcchb
Spectrometer: FLMS00149
Trigger mode: 0
Integration Time (sec): 2.000000E-2
Scans to average: 10
Electric dark correction enabled: true
Nonlinearity correction enabled: false
Boxcar width: 0
XAxis mode: Wavelengths
Number of Pixels in Spectrum: 2048
>>>>>Begin Spectral Data<<<<<
341.393	-11.07
341.776	-11.07
342.16	-11.07
342.543	-78.42
342.927	-70.28
343.31	-71.64
343.693	-58.98
344.077	-72.77
344.46	-53.11
344.843	-44.07
345.226	-52.2
345.61	-27.12
345.993	-4.75
346.376	0
346.759	-2.26
347.142	22.15
347.525	41.58
347.908	42.03
348.291	62.6
348.674	82.26
349.057	136.27
349.44	118.19
349.823	135.14
350.206	162.93
350.588	204.06
350.971	175.14
351.354	219.66
351.737	228.47
352.119	234.8
352.502	261.69
352.884	254.68
353.267	268.24
353.65	288.81
354.032	283.38
354.414	277.28
354.797	302.36
355.179	298.98
355.562	312.31
355.944	307.11
356.326	337.39
356.709	327.68
357.091	317.51
357.473	322.25
357.855	317.51
358.238	327.9
358.62	319.31
359.002	355.47
359.384	332.19
359.766	329.03
360.148	317.96
360.53	332.42
360.912	334.23
361.294	333.32
361.676	345.53
362.057	331.52
362.439	319.99
362.821	303.04
363.203	315.25
363.584	329.93
363.966	312.31
364.348	320.9
364.729	300.33
365.111	333.78
365.493	308.01
365.874	300.56
366.256	321.35
366.637	304.4
367.019	301.91
367.4	303.95
367.781	298.75
368.163	305.08
368.544	314.34
368.925	311.4
369.306	309.14
369.688	303.49
370.069	313.89
370.45	309.82
370.831	301.91
371.212	292.65
371.593	303.49
371.974	316.6
372.355	304.17
372.736	308.69
373.117	312.31
373.498	308.69
373.879	322.25
374.26	297.39
374.641	300.11
375.021	282.7
375.402	297.17
375.783	305.08
376.163	317.28
376.544	320.22
376.925	317.96
377.305	323.83
377.686	330.61
378.066	322.93
378.447	317.73
378.827	330.84
379.208	313.66
379.588	322.03
379.968	321.12
380.349	331.29
380.729	310.5
381.109	328.58
381.489	328.13
381.87	310.27
382.25	298.52
382.63	319.77
383.01	342.36
383.39	323.16
383.77	323.61
384.15	321.57
384.53	352.53
384.91	326.09
385.29	315.47
385.67	350.73
386.049	346.88
386.429	333.78
386.809	343.95
387.189	332.65
387.568	344.4
387.948	348.47
388.328	352.08
388.707	339.65
389.087	343.95
389.466	351.18
389.846	356.37
390.225	337.17
390.605	365.19
390.984	343.04
391.363	352.31
391.743	356.6
392.122	366.09
392.501	349.6
392.881	358.63
393.26	359.76
393.639	356.15
394.018	367.67
394.397	354.11
394.776	360.67
395.155	336.49
395.534	375.13
395.913	359.31
396.292	372.19
396.671	387.56
397.05	367.9
397.429	376.26
397.808	385.3
398.186	382.14
398.565	358.63
398.944	378.97
399.323	379.2
399.701	381.46
400.08	405.64
400.458	395.7
400.837	404.28
401.215	395.02
401.594	396.6
401.972	401.8
402.351	391.63
402.729	393.21
403.107	400.67
403.486	390.27
403.864	382.81
404.242	406.54
404.62	397.96
404.999	416.26
405.377	412.42
405.755	434.11
406.133	434.11
406.511	431.18
406.889	448.12
407.267	431.4
407.645	436.15
408.023	453.32
408.401	445.86
408.779	456.03
409.156	469.59
409.534	472.3
409.912	471.63
410.29	499.87
410.667	493.55
411.045	479.99
411.422	509.82
411.8	486.54
412.178	505.52
412.555	487.44
412.933	508.69
413.31	519.99
413.687	525.41
414.065	534.45
414.442	531.06
414.819	540.55
415.197	545.3
415.574	555.69
415.951	564.73
416.328	552.75
416.705	587.78
417.082	575.13
417.46	599.98
417.837	600.21
418.214	589.36
418.591	617.61
418.967	609.02
419.344	607.44
419.721	622.13
420.098	631.85
420.475	631.4
420.852	645.86
421.228	672.75
421.605	664.16
421.982	671.85
422.358	674.11
422.735	669.36
423.111	691.06
423.488	694.45
423.864	709.13
424.241	704.61
424.617	718.17
424.994	753.65
425.37	755.01
425.746	755.23
426.123	785.06
426.499	777.83
426.875	795.23
427.251	795.91
427.627	821.9
428.003	815.57
428.379	834.33
428.756	835.46
429.132	839.75
429.507	846.53
429.883	863.71
430.259	874.1
430.635	885.17
431.011	865.06
431.387	865.97
431.763	905.51
432.138	905.96
432.514	936.7
432.89	957.71
433.265	983.48
433.641	971.27
434.016	993.19
434.392	1002.91
434.767	1003.36
435.143	1053.53
435.518	1068.67
435.894	1041.78
436.269	1104.83
436.644	1084.49
437.02	1112.97
437.395	1109.58
437.77	1123.81
438.145	1159.29
438.52	1160.87
438.895	1186.41
439.271	1187.09
439.646	1212.4
440.021	1233.64
440.395	1271.38
440.77	1232.06
441.145	1251.94
441.52	1302.56
441.895	1307.99
442.27	1333.75
442.645	1308.21
443.019	1319.51
443.394	1322.45
443.769	1314.77
444.143	1352.96
444.518	1396.12
444.892	1371.04
445.267	1404.71
445.641	1402.9
446.016	1407.19
446.39	1408.78
446.764	1439.96
447.139	1442.67
447.513	1461.2
447.887	1472.73
448.262	1489.23
448.636	1491.49
449.01	1525.38
449.384	1520.86
449.758	1509.79
450.132	1559.51
450.506	1515.67
450.88	1534.87
451.254	1565.16
451.628	1591.14
452.002	1610.35
452.376	1587.53
452.75	1612.39
453.123	1606.74
453.497	1647.87
453.871	1633.63
454.244	1710.01
454.618	1710.92
454.992	1676.57
455.365	1733.29
455.739	1745.26
456.112	1811.93
456.486	1766.06
456.859	1808.09
457.232	1811.03
457.606	1828.43
457.979	1835.88
458.352	1884.24
458.725	1892.38
459.099	1918.14
459.472	1960.17
459.845	1959.95
460.218	1980.74
460.591	1989.1
460.964	1977.12
461.337	2029.1
461.71	2066.39
462.083	2058.93
462.456	2070.45
462.829	2084.01
463.201	2105.03
463.574	2117.91
463.947	2183.22
464.32	2178.02
464.692	2212.37
465.065	2248.3
465.438	2274.06
465.81	2292.14
466.183	2307.28
466.555	2341.86
466.928	2351.12
467.3	2352.71
467.672	2415.98
468.045	2455.98
468.417	2498.47
468.789	2506.37
469.161	2494.17
469.534	2546.6
469.906	2571.46
470.278	2593.6
470.65	2617.33
471.022	2690.78
471.394	2700.27
471.766	2717.89
472.138	2770.1
472.51	2809.87
472.882	2831.79
473.253	2845.8
473.625	2875.4
473.997	2980.26
474.369	2946.36
474.74	3018
475.112	3029.98
475.484	3119.01
475.855	3104.33
476.227	3126.47
476.598	3251.89
476.97	3236.3
477.341	3330.53
477.713	3347.71
478.084	3348.84
478.455	3420.25
478.827	3445.33
479.198	3547.7
479.569	3513.81
479.94	3637.87
480.311	3627.48
480.682	3728.26
481.053	3837.41
481.424	3811.88
481.795	3881.71
482.166	3907.69
482.537	3974.58
482.908	4074.92
483.279	4031.31
483.65	4137.07
484.021	4192.21
484.391	4217.29
484.762	4287.57
485.133	4295.25
485.503	4387.68
485.874	4380.22
486.244	4458.87
486.615	4451.41
486.985	4573.21
487.356	4636.04
487.726	4673.1
488.097	4754.45
488.467	4740.67
488.837	4838.29
489.207	4848.69
489.578	4914.9
489.948	4926.88
490.318	4998.29
490.688	5072.18
491.058	5122.58
491.428	5154.67
491.798	5169.13
492.168	5269.47
492.538	5302.46
492.908	5373.19
493.278	5431.04
493.648	5423.81
494.017	5463.13
494.387	5468.1
494.757	5574.77
495.126	5544.94
495.496	5594.66
495.866	5611.6
496.235	5652.51
496.605	5716.01
496.974	5719.17
497.344	5804.14
497.713	5815.44
498.082	5878.04
498.452	5868.09
498.821	5901.09
499.19	5911.03
499.559	5982.89
499.928	5981.76
500.298	5998.71
500.667	6054.3
501.036	6009.33
501.405	6042.33
501.774	6088.88
502.143	6044.36
502.512	6138.82
502.88	6136.56
503.249	6172.27
503.618	6176.79
503.987	6206.84
504.356	6283.45
504.724	6241.64
505.093	6248.2
505.462	6228.08
505.83	6347.63
506.199	6273.73
506.567	6404.35
506.936	6377.23
507.304	6436.21
507.672	6415.88
508.041	6449.55
508.409	6499.04
508.777	6529.32
509.145	6556.89
509.514	6504.69
509.882	6584.69
510.25	6555.76
510.618	6607.28
510.986	6610
511.354	6586.27
511.722	6677.11
512.09	6693.16
512.458	6669.43
512.826	6661.07
513.193	6656.1
513.561	6724.79
513.929	6727.51
514.297	6761.4
514.664	6767.51
515.032	6795.75
515.4	6851.8
515.767	6834.17
516.135	6789.2
516.502	6732.25
516.869	6884.56
517.237	6855.41
517.604	6800.73
517.972	6920.04
518.339	6864
518.706	6895.86
519.073	6905.81
519.44	6911.91
519.808	6939.48
520.175	6913.94
520.542	6973.6
520.909	6934.96
521.276	6972.25
521.643	7027.61
522.009	6998.01
522.376	7036.43
522.743	7004.56
523.11	7074.84
523.477	7103.32
523.843	7075.07
524.21	7168.63
524.577	7173.14
524.943	7149.64
525.31	7141.06
525.676	7211.11
526.043	7202.97
526.409	7204.56
526.776	7267.61
527.142	7204.78
527.508	7277.32
527.874	7281.62
528.241	7245.69
528.607	7216.08
528.973	7282.75
529.339	7213.14
529.705	7284.78
530.071	7309.19
530.437	7270.09
530.803	7313.03
531.169	7311.67
531.535	7278.23
531.901	7274.61
532.267	7329.07
532.632	7260.83
532.998	7242.52
533.364	7301.28
533.73	7278.23
534.095	7332.91
534.461	7311.9
534.826	7314.84
535.192	7314.38
535.557	7332.46
535.923	7272.8
536.288	7227.38
536.653	7276.19
537.019	7254.05
537.384	7227.15
537.749	7231.22
538.114	7259.92
538.479	7203.65
538.845	7214.73
539.21	7176.76
539.575	7180.15
539.94	7107.84
540.305	7145.57
540.67	7120.72
541.034	7128.17
541.399	7165.46
541.764	7161.39
542.129	7090.66
542.494	7140.15
542.858	7119.59
543.223	7082.53
543.587	7016.31
543.952	7067.61
544.316	6996.43
544.681	6980.61
545.045	6986.48
545.41	7020.38
545.774	7023.54
546.138	7006.6
546.503	7006.6
546.867	7013.6
547.231	7009.31
547.595	7002.53
547.959	7022.19
548.324	6959.59
548.688	6973.83
549.052	6890.44
549.416	6904.45
549.779	6848.86
550.143	6910.78
550.507	6908.07
550.871	6835.53
551.235	6872.36
551.599	6837.56
551.962	6804.11
552.326	6836.88
552.689	6847.5
553.053	6830.1
553.417	6833.94
553.78	6918.91
554.143	6838.24
554.507	6771.8
554.87	6792.82
555.234	6827.62
555.597	6753.04
555.96	6795.53
556.323	6868.75
556.686	6778.58
557.05	6808.86
557.413	6833.04
557.776	6785.36
558.139	6808.63
558.502	6836.66
558.865	6751.91
559.228	6790.56
559.59	6775.19
559.953	6824.23
560.316	6821.52
560.679	6763.89
561.041	6859.93
561.404	6916.43
561.767	6895.41
562.129	6838.46
562.492	6840.05
562.854	6886.37
563.217	6826.49
563.579	6956.65
563.941	6910.78
564.304	6886.37
564.666	6967.05
565.028	6931.8
565.39	6855.64
565.753	6972.7
566.115	6917.33
566.477	7010.21
566.839	6941.51
567.201	7033.71
567.563	7072.58
567.925	7048.63
568.287	7091.79
568.648	7059.02
569.01	7071.68
569.372	7060.83
569.734	7037.33
570.095	7122.98
570.457	7126.37
570.819	7148.06
571.18	7149.64
571.542	7177.89
571.903	7109.64
572.265	7259.47
572.626	7198.23
572.987	7189.87
573.349	7238
573.71	7216.53
574.071	7268.74
574.432	7359.58
574.794	7267.83
575.155	7324.55
575.516	7328.39
575.877	7289.98
576.238	7343.54
576.599	7391.67
576.96	7327.49
577.32	7381.5
577.681	7390.31
578.042	7381.05
578.403	7428.28
578.763	7368.62
579.124	7421.05
579.485	7506.47
579.845	7512.8
580.206	7486.13
580.566	7542.63
580.927	7516.64
581.287	7552.34
581.648	7564.55
582.008	7632.34
582.368	7571.55
582.728	7624.66
583.089	7623.3
583.449	7584.21
583.809	7671.44
584.169	7694.94
584.529	7599.57
584.889	7786.69
585.249	7685.9
585.609	7662.85
585.969	7692
586.329	7730.87
586.688	7724.77
587.048	7717.76
587.408	7754.15
587.768	7702.62
588.127	7730.64
588.487	7703.07
588.846	7795.5
589.206	7751.21
589.565	7748.04
589.925	7812
590.284	7804.99
590.643	7844.99
591.003	7797.54
591.362	7850.42
591.721	7863.3
592.08	7869.62
592.44	7845.44
592.799	7908.27
593.158	7889.28
593.517	7875.27
593.876	7940.58
594.235	7845.67
594.593	7887.93
594.952	7904.2
595.311	7931.99
595.67	7910.98
596.029	7983.97
596.387	7968.83
596.746	7986.68
597.104	7927.48
597.463	7888.61
597.822	8006.57
598.18	7951.66
598.538	8032.33
598.897	7983.29
599.255	7974.48
599.613	8040.47
599.972	8049.05
600.33	8025.78
600.688	7935.16
601.046	8084.31
601.404	8110.3
601.762	8020.13
602.12	8084.76
602.478	8049.28
602.836	8136.28
603.194	8007.7
603.552	8087.7
603.91	8044.08
604.268	8093.8
604.625	8113.68
604.983	8127.47
605.341	8108.26
605.698	8128.37
606.056	8130.86
606.413	8094.02
606.771	8111.88
607.128	8159.79
607.485	8122.05
607.843	8064.87
608.2	8086.57
608.557	8171.31
608.914	8185.77
609.272	8151.88
609.629	8196.17
609.986	8233.23
610.343	8172.21
610.7	8296.05
611.057	8228.94
611.414	8231.87
611.771	8237.75
612.127	8341.02
612.484	8350.97
612.841	8286.79
613.198	8282.49
613.554	8268.26
613.911	8300.8
614.267	8273.23
614.624	8289.95
614.98	8318.65
615.337	8335.83
615.693	8308.26
616.05	8342.15
616.406	8393.23
616.762	8360.01
617.118	8373.57
617.475	8346.22
617.831	8363.4
618.187	8353.45
618.543	8433
618.899	8462.6
619.255	8352.55
619.611	8389.16
619.967	8451.08
620.323	8448.14
620.678	8374.92
621.034	8421.93
621.39	8408.59
621.746	8373.79
622.101	8474.35
622.457	8415.37
622.812	8383.96
623.168	8458.53
623.523	8403.85
623.879	8415.37
624.234	8414.02
624.589	8458.08
624.945	8417.86
625.3	8432.09
625.655	8441.81
626.01	8440.91
626.365	8415.82
626.72	8413.79
627.075	8415.82
627.43	8411.3
627.785	8401.59
628.14	8447.24
628.495	8411.98
628.85	8397.07
629.205	8374.02
629.559	8463.05
629.914	8348.48
630.269	8337.63
630.623	8401.59
630.978	8366.11
631.332	8363.17
631.687	8352.32
632.041	8329.72
632.396	8343.96
632.75	8255.15
633.104	8360.23
633.459	8273.45
633.813	8292.44
634.167	8328.59
634.521	8255.83
634.875	8248.82
635.229	8237.3
635.583	8254.02
635.937	8218.99
636.291	8285.43
636.645	8250.4
636.999	8178.09
637.352	8236.39
637.706	8135.38
638.06	8214.93
638.413	8184.42
638.767	8150.97
639.121	8124.53
639.474	8151.42
639.828	8118.2
640.181	8128.15
640.534	8117.53
640.888	8136.74
641.241	8073.23
641.594	8090.63
641.947	8120.24
642.301	8027.59
642.654	8123.63
643.007	8116.17
643.36	8076.4
643.713	8077.3
644.066	8078.43
644.419	8011.31
644.771	7993.01
645.124	7965.44
645.477	7924.31
645.83	7806.8
646.182	7804.31
646.535	7831.66
646.888	7771.77
647.24	7804.77
647.593	7804.99
647.945	7809.74
648.298	7788.5
648.65	7804.77
649.002	7705.56
649.355	7742.17
649.707	7735.84
650.059	7833.69
650.411	7880.24
650.763	7906.46
651.115	7924.99
651.467	7961.37
651.819	7937.42
652.171	7906.01
652.523	7933.8
652.875	7938.1
653.227	7893.13
653.578	7966.57
653.93	8000.69
654.282	7906.01
654.633	7884.99
654.985	7896.06
655.337	7849.96
655.688	7888.83
656.039	7986
656.391	7859.23
656.742	7905.78
657.094	7912.56
657.445	7898.1
657.796	7899.45
658.147	7960.92
658.498	7901.71
658.849	7910.53
659.2	7912.11
659.551	7897.19
659.902	7906.01
660.253	7861.71
660.604	7941.49
660.955	7845.22
661.306	7925.67
661.656	7941.49
662.007	7946.01
662.358	7882.73
662.708	7927.02
663.059	7871.66
663.409	7835.73
663.76	7955.72
664.11	7957.3
664.461	7921.15
664.811	7980.36
665.161	7917.76
665.511	7944.42
665.862	7948.04
666.212	7954.82
666.562	7924.76
666.912	7962.5
667.262	7910.53
667.612	7950.3
667.962	7974.93
668.312	7883.86
668.662	7950.53
669.011	7946.01
669.361	7866.23
669.711	7898.78
670.06	7898.32
670.41	7904.2
670.76	7910.3
671.109	7934.93
671.459	7924.31
671.808	7924.31
672.157	7969.28
672.507	7880.47
672.856	7811.32
673.205	7833.47
673.554	7920.24
673.904	7882.05
674.253	7903.07
674.602	7891.54
674.951	7789.4
675.3	7685.67
675.649	7840.25
675.998	7832.34
676.346	7799.57
676.695	7879.79
677.044	7800.25
677.393	7788.72
677.741	7797.31
678.09	7765.45
678.438	7790.98
678.787	7843.18
679.135	7766.12
679.484	7681.38
679.832	7742.4
680.181	7646.13
680.529	7795.73
680.877	7750.76
681.225	7707.14
681.573	7730.42
681.922	7686.8
682.27	7622.4
682.618	7706.24
682.966	7640.25
683.314	7594.83
683.661	7581.95
684.009	7551.21
684.357	7568.16
684.705	7580.14
685.053	7565.22
685.4	7542.85
685.748	7473.02
686.095	7467.6
686.443	7450.2
686.79	7483.19
687.138	7411.33
687.485	7432.8
687.832	7376.08
688.18	7396.64
688.527	7348.51
688.874	7424.66
689.221	7288.4
689.568	7335.4
689.915	7289.3
690.262	7321.84
690.609	7252.01
690.956	7169.75
691.303	7230.32
691.65	7191.45
691.997	7181.51
692.344	7127.72
692.69	7122.3
693.037	7063.09
693.383	7078.46
693.73	7077.55
694.077	7074.84
694.423	7030.32
694.769	6963.88
695.116	7003.21
695.462	6972.7
695.808	6974.73
696.155	6896.54
696.501	6902.87
696.847	6849.99
697.193	6820.39
697.539	6837.79
697.885	6798.69
698.231	6766.38
698.577	6773.61
698.923	6785.36
699.269	6767.51
699.614	6705.59
699.96	6692.93
700.306	6680.28
700.651	6640.96
700.997	6626.04
701.342	6594.4
701.688	6575.42
702.033	6537.68
702.379	6522.77
702.724	6513.73
703.069	6539.04
703.415	6423.56
703.76	6448.87
704.105	6404.35
704.45	6419.49
704.795	6391.24
705.14	6372.04
705.485	6329.78
705.83	6278.7
706.175	6363.9
706.52	6325.71
706.865	6275.99
707.209	6235.77
707.554	6238.03
707.899	6227.41
708.243	6194.41
708.588	6191.7
708.932	6142.44
709.277	6179.05
709.621	6155.77
709.966	6113.74
710.31	6148.09
710.654	6094.08
710.998	6110.12
711.342	6027.41
711.687	6061.99
712.031	6051.59
712.375	6037.81
712.719	6013.85
713.063	6045.94
713.407	6041.2
713.75	6006.4
714.094	6007.3
714.438	5961.65
714.782	5915.32
715.125	5921.88
715.469	5932.95
715.812	5897.25
716.156	5904.93
716.499	5862.67
716.843	5872.16
717.186	5890.01
717.53	5873.74
717.873	5842.11
718.216	5899.51
718.559	5835.55
718.902	5815.21
719.246	5887.53
719.589	5839.85
719.932	5802.56
720.275	5786.97
720.617	5805.95
720.96	5814.54
721.303	5761.66
721.646	5791.03
721.989	5729.79
722.331	5749.91
722.674	5742.45
723.016	5745.39
723.359	5737.02
723.701	5708.78
724.044	5702.9
724.386	5681.66
724.729	5687.31
725.071	5716.91
725.413	5722.34
725.755	5688.66
726.097	5695.67
726.439	5656.8
726.782	5653.64
727.124	5683.92
727.465	5679.17
727.807	5654.09
728.149	5669.23
728.491	5626.97
728.833	5622.68
729.175	5631.26
729.516	5629.68
729.858	5588.33
730.199	5603.47
730.541	5627.42
730.882	5597.14
731.224	5615.22
731.565	5612.73
731.906	5609.8
732.248	5676.23
732.589	5600.98
732.93	5620.87
733.271	5619.97
733.612	5584.71
733.953	5643.47
734.294	5625.16
734.635	5587.42
734.976	5641.43
735.317	5589.23
735.658	5612.96
735.999	5653.18
736.339	5592.17
736.68	5656.57
737.021	5613.64
737.361	5662.45
737.702	5696.12
738.042	5658.83
738.383	5661.77
738.723	5672.39
739.063	5578.61
739.404	5696.8
739.744	5665.16
740.084	5682.79
740.424	5674.43
740.764	5688.89
741.104	5702.67
741.444	5682.34
741.784	5660.87
742.124	5685.05
742.464	5785.61
742.804	5726.86
743.143	5758.94
743.483	5741.54
743.823	5716.46
744.162	5800.98
744.502	5810.02
744.841	5819.06
745.181	5880.98
745.52	5869
745.86	5884.59
746.199	5930.69
746.538	5961.88
746.877	6005.72
747.216	6004.59
747.556	5997.58
747.895	6069.44
748.234	6078.48
748.573	6094.53
748.911	6184.24
749.25	6259.04
749.589	6198.48
749.928	6273.73
750.267	6377.01
750.605	6379.49
750.944	6376.33
751.283	6452.94
751.621	6537.46
751.96	6537.23
752.298	6636.89
752.636	6734.51
752.975	6793.49
753.313	6768.41
753.651	6872.81
753.989	6949.87
754.327	7059.93
754.666	7088.18
755.004	7218.12
755.342	7294.5
755.679	7381.5
756.017	7373.82
756.355	7532.68
756.693	7628.27
757.031	7770.42
757.368	7806.57
757.706	7911.88
758.044	7995.27
758.381	8118.43
758.719	8245.43
759.056	8399.33
759.394	8493.11
759.731	8513.9
760.068	8710.51
760.405	8732.65
760.743	8834.34
761.08	8973.55
761.417	9091.96
761.754	9261
762.091	9374.67
762.428	9395.46
762.765	9514.1
763.102	9693.98
763.438	9680.65
763.775	9827.76
764.112	9970.13
764.449	10134.42
764.785	10256.68
765.122	10241.09
765.458	10387.98
765.795	10446.05
766.131	10613.28
766.467	10710.9
766.804	10767.4
767.14	10832.48
767.476	10971.46
767.812	11037.22
768.148	11212.13
768.485	11214.85
768.821	11244.22
769.157	11366.71
769.492	11426.59
769.828	11583.42
