Data from hue_110_FLMS001491_00025.txt Node
Date: Tue Feb 07 17:01:06 GMT 2017
User: dcchb
Spectrometer: FLMS00149
Trigger mode: 0
Integration Time (sec): 2.000000E-2
Scans to average: 10
Electric dark correction enabled: true
Nonlinearity correction enabled: false
Boxcar width: 0
XAxis mode: Wavelengths
Number of Pixels in Spectrum: 2048
>>>>>Begin Spectral Data<<<<<
341.393	-38.25
341.776	-38.25
342.16	-38.25
342.543	-60.62
342.927	-79.38
343.31	-64.46
343.693	-85.93
344.077	-65.82
344.46	-54.07
344.843	-53.16
345.226	-53.16
345.61	-18.81
345.993	-12.94
346.376	-11.81
346.759	18.02
347.142	9.43
347.525	49.21
347.908	68.64
348.291	54.63
348.674	96.66
349.057	123.56
349.44	131.92
349.823	133.5
350.206	147.28
350.588	204.01
350.971	209.2
351.354	241.29
351.737	249.43
352.119	258.69
352.502	245.59
352.884	251.01
353.267	258.92
353.65	288.52
354.032	286.26
354.414	284.46
354.797	307.28
355.179	309.99
355.562	314.51
355.944	322.87
356.326	315.19
356.709	311.12
357.091	320.61
357.473	344.34
357.855	341.86
358.238	356.09
358.62	320.39
359.002	341.18
359.384	332.14
359.766	335.53
360.148	333.95
360.53	329.88
360.912	327.17
361.294	324
361.676	327.62
362.057	318.81
362.439	329.2
362.821	336.21
363.203	329.43
363.584	353.38
363.966	300.5
364.348	315.87
364.729	328.52
365.111	303.66
365.493	309.77
365.874	306.83
366.256	311.57
366.637	319.03
367.019	319.71
367.4	350.22
367.781	307.96
368.163	291.46
368.544	298.92
368.925	296.21
369.306	306.83
369.688	325.13
370.069	318.81
370.45	325.36
370.831	312.25
371.212	307.05
371.593	338.92
371.974	300.95
372.355	317
372.736	309.77
373.117	300.27
373.498	303.89
373.879	316.32
374.26	313.38
374.641	313.61
375.021	304.57
375.402	316.32
375.783	330.78
376.163	315.42
376.544	309.09
376.925	318.13
377.305	303.89
377.686	319.71
378.066	329.2
378.447	323.78
378.827	355.41
379.208	326.26
379.588	315.19
379.968	333.27
380.349	330.1
380.729	333.27
381.109	309.54
381.489	331.69
381.87	340.95
382.25	320.84
382.63	340.95
383.01	343.89
383.39	333.72
383.77	344.79
384.15	321.97
384.53	349.54
384.91	348.63
385.29	348.63
385.67	368.3
386.049	344.34
386.429	328.07
386.809	363.1
387.189	326.04
387.568	352.93
387.948	356.77
388.328	370.78
388.707	348.41
389.087	331.46
389.466	351.12
389.846	340.27
390.225	363.55
390.605	377.56
390.984	357.9
391.363	347.05
391.743	355.64
392.122	362.42
392.501	368.3
392.881	380.27
393.26	373.27
393.639	351.35
394.018	371.01
394.397	360.16
394.776	376.43
395.155	363.32
395.534	371.46
395.913	366.71
396.292	391.12
396.671	382.98
397.05	367.62
397.429	377.11
397.808	361.52
398.186	396.09
398.565	380.27
398.944	367.84
399.323	375.75
399.701	382.31
400.08	385.92
400.458	386.6
400.837	390.22
401.215	391.8
401.594	390.22
401.972	394.51
402.351	393.61
402.729	373.49
403.107	386.37
403.486	395.19
403.864	399.26
404.242	387.73
404.62	394.51
404.999	409.88
405.377	410.55
405.755	400.61
406.133	444.23
406.511	406.49
406.889	408.29
407.267	406.49
407.645	418.69
408.023	416.66
408.401	422.76
408.779	445.36
409.156	419.82
409.534	435.41
409.912	428.63
410.29	458.24
410.667	429.54
411.045	439.03
411.422	445.36
411.8	439.25
412.178	434.51
412.555	460.27
412.933	447.84
413.31	443.32
413.687	456.43
414.065	474.51
414.442	469.76
414.819	487.39
415.197	455.75
415.574	477.22
415.951	491.91
416.328	479.93
416.705	481.96
417.082	469.31
417.46	491.46
417.837	498.24
418.214	505.01
418.591	472.47
418.967	483.77
419.344	506.82
419.721	509.76
420.098	507.05
420.475	515.86
420.852	514.51
421.228	533.49
421.605	522.42
421.982	521.96
422.358	531.68
422.735	536.43
423.111	542.75
423.488	543.66
423.864	540.95
424.241	575.97
424.617	545.92
424.994	536.43
425.37	566.93
425.746	547.27
426.123	575.97
426.499	537.1
426.875	566.48
427.251	598.12
427.627	597.67
428.003	596.99
428.379	589.31
428.756	586.82
429.132	591.11
429.507	595.18
429.883	626.37
430.259	599.25
430.635	598.57
431.011	611.23
431.387	623.88
431.763	639.47
432.138	630.21
432.514	640.83
432.89	646.48
433.265	650.1
433.641	664.56
434.016	658.23
434.392	654.84
434.767	656.42
435.143	675.18
435.518	664.11
435.894	683.09
436.269	674.73
436.644	682.41
437.02	705.69
437.395	709.3
437.77	702.98
438.145	734.39
438.52	729.19
438.895	743.43
439.271	704.11
439.646	698.68
440.021	735.29
440.395	727.83
440.77	735.29
441.145	752.47
441.52	748.62
441.895	763.31
442.27	773.48
442.645	788.62
443.019	762.18
443.394	765.57
443.769	775.06
444.143	763.09
444.518	788.4
444.892	798.11
445.267	802.86
445.641	825.23
446.016	818.45
446.39	829.3
446.764	840.83
447.139	823.42
447.513	822.75
447.887	835.18
448.262	847.6
448.636	837.44
449.01	825.01
449.384	866.59
449.758	873.37
450.132	878.34
450.506	857.32
450.88	892.58
451.254	891.67
451.628	902.97
452.002	909.98
452.376	895.51
452.75	897.55
453.123	909.07
453.497	940.26
453.871	932.35
454.244	958.79
454.618	964.89
454.992	977.09
455.365	976.87
455.739	971.22
456.112	1009.18
456.486	1012.8
456.859	995.17
457.232	1035.85
457.606	1036.53
457.979	1063.42
458.352	1092.12
458.725	1076.98
459.099	1095.51
459.472	1104.55
459.845	1105.68
460.218	1114.04
460.591	1115.39
460.964	1140.03
461.337	1160.82
461.71	1163.53
462.083	1178.9
462.456	1188.39
462.829	1199.01
463.201	1229.06
463.574	1232.68
463.947	1277.42
464.32	1269.29
464.692	1282.17
465.065	1343.41
465.438	1316.75
465.81	1319.23
466.183	1363.3
466.555	1414.14
466.928	1414.14
467.3	1413.92
467.672	1426.35
468.045	1462.05
468.417	1490.3
468.789	1516.51
469.161	1509.28
469.534	1562.39
469.906	1602.16
470.278	1606
470.65	1678.32
471.022	1678.54
471.394	1725.32
471.766	1756.96
472.138	1782.95
472.51	1827.01
472.882	1882.83
473.253	1841.93
473.625	1907.01
473.997	1956.28
474.369	1999.21
474.74	2055.48
475.112	2095.48
475.484	2171.41
475.855	2197.17
476.227	2211.64
476.598	2316.94
476.97	2370.5
477.341	2406.21
477.713	2487.11
478.084	2548.13
478.455	2617.95
478.827	2685.97
479.198	2759.42
479.569	2777.5
479.94	2904.05
480.311	2949.7
480.682	3086.64
481.053	3171.39
481.424	3263.59
481.795	3358.73
482.166	3428.1
482.537	3498.38
482.908	3617.93
483.279	3686.4
483.65	3876.68
484.021	3946.51
484.391	4057.46
484.762	4134.75
485.133	4190.57
485.503	4326.16
485.874	4460.39
486.244	4585.36
486.615	4700.84
486.985	4839.82
487.356	4973.37
487.726	5106.93
488.097	5266.25
488.467	5350.99
488.837	5502.4
489.207	5637.31
489.578	5751.2
489.948	5908.71
490.318	6035.27
490.688	6132.66
491.058	6289.5
491.428	6459.43
491.798	6612.43
492.168	6742.59
492.538	6887.22
492.908	6963.15
493.278	7144.39
493.648	7242.24
494.017	7423.93
494.387	7561.78
494.757	7633.42
495.126	7844.71
495.496	7931.49
495.866	8004.7
496.235	8202.21
496.605	8337.35
496.974	8427.07
497.344	8534.63
497.713	8680.39
498.082	8770.56
498.452	9018.92
498.821	9002.87
499.19	9145.92
499.559	9285.58
499.928	9409.41
500.298	9438.34
500.667	9603.31
501.036	9651.89
501.405	9792.91
501.774	9789.97
502.143	10014.6
502.512	10070.19
502.88	10233.8
503.249	10296.85
503.618	10342.04
503.987	10448.03
504.356	10554.02
504.724	10592.89
505.093	10613.45
505.462	10748.14
505.83	10860
506.199	10910.62
506.567	11063.16
506.936	11056.38
507.304	11256.14
507.672	11365.29
508.041	11313.09
508.409	11447.55
508.777	11578.62
509.145	11685.06
509.514	11613.2
509.882	11727.32
510.25	11807.09
510.618	11835.11
510.986	11880.99
511.354	11963.47
511.722	12059.74
512.09	12136.8
512.458	12125.05
512.826	12237.14
513.193	12327.08
513.561	12376.57
513.929	12408.88
514.297	12456.57
514.664	12553.51
515.032	12560.07
515.4	12643.23
515.767	12664.92
516.135	12737.01
516.502	12625.15
516.869	12846.84
517.237	12840.06
517.604	12875.99
517.972	12870.34
518.339	12943.11
518.706	12984.23
519.073	13014.06
519.44	13051.58
519.808	13085.02
520.175	13033.95
520.542	13156.66
520.909	13202.31
521.276	13210.22
521.643	13335.19
522.009	13327.28
522.376	13415.64
522.743	13434.62
523.11	13404.79
523.477	13636.42
523.843	13528.18
524.21	13646.14
524.577	13731.33
524.943	13732.01
525.31	13703.31
525.676	13778.34
526.043	13835.74
526.409	13835.29
526.776	13918.22
527.142	13971.33
527.508	13944.66
527.874	13908.5
528.241	13946.02
528.607	13975.17
528.973	14009.52
529.339	13950.09
529.705	14096.07
530.071	14085.45
530.437	14052.46
530.803	14030.08
531.169	14039.8
531.535	14061.04
531.901	14077.54
532.267	14013.36
532.632	13979.46
532.998	14047.26
533.364	14087.71
533.73	14003.87
534.095	14056.98
534.461	14015.62
534.826	14084.09
535.192	14072.57
535.557	14062.62
535.923	13948.5
536.288	14023.3
536.653	13999.12
537.019	13868.96
537.384	13860.14
537.749	13879.8
538.114	13880.93
538.479	13899.24
538.845	13843.87
539.21	13853.36
539.575	13815.4
539.94	13758.45
540.305	13778.11
540.67	13733.37
541.034	13666.7
541.399	13723.42
541.764	13616.99
542.129	13631.22
542.494	13642.97
542.858	13589.64
543.223	13497.89
543.587	13544.22
543.952	13417.22
544.316	13499.48
544.681	13412.47
545.045	13396.43
545.41	13387.39
545.774	13382.87
546.138	13387.61
546.503	13424.68
546.867	13288.63
547.231	13271.23
547.595	13193.72
547.959	13188.07
548.324	13185.13
548.688	13152.59
549.052	13147.85
549.416	13028.98
549.779	13026.04
550.143	12995.31
550.507	13069.2
550.871	13024.69
551.235	12941.3
551.599	12971.81
551.962	12928.42
552.326	12860.17
552.689	12912.6
553.053	12788.99
553.417	12842.32
553.78	12917.12
554.143	12744.92
554.507	12855.2
554.87	12848.87
555.234	12812.26
555.597	12786.27
555.96	12701.53
556.323	12701.08
556.686	12669.21
557.05	12770.46
557.413	12666.28
557.776	12756.9
558.139	12639.61
558.502	12681.87
558.865	12587.41
559.228	12649.55
559.59	12683.45
559.953	12739.27
560.316	12754.41
560.679	12795.77
561.041	12749.89
561.404	12723.68
561.767	12716.22
562.129	12673.06
562.492	12800.06
562.854	12735.65
563.217	12709.44
563.579	12662.21
563.941	12709.44
564.304	12778.59
564.666	12770.91
565.028	12725.94
565.39	12770.91
565.753	12831.02
566.115	12754.41
566.477	12843.9
566.839	12888.87
567.201	12914.18
567.563	12936.55
567.925	12906.5
568.287	12986.04
568.648	12842.54
569.01	12953.73
569.372	12950.34
569.734	12957.57
570.095	12992.82
570.457	12978.81
570.819	13058.81
571.18	12978.13
571.542	13020.84
571.903	12988.3
572.265	13037.11
572.626	13091.58
572.987	13174.74
573.349	12989.66
573.71	13090.9
574.071	13107.62
574.432	13071.24
574.794	13084.57
575.155	13237.56
575.516	13040.28
575.877	13178.58
576.238	13144.23
576.599	13205.7
576.96	13249.31
577.32	13227.39
577.681	13204.57
578.042	13229.88
578.403	13207.51
578.763	13197.11
579.124	13188.75
579.485	13261.74
579.845	13287.96
580.206	13183.33
580.566	13161.63
580.927	13191.46
581.287	13189.43
581.648	13209.99
582.008	13247.5
582.368	13198.69
582.728	13181.74
583.089	13197.79
583.449	13195.08
583.809	13227.84
584.169	13202.76
584.529	13154.63
584.889	13211.8
585.249	13038.92
585.609	13081.63
585.969	13180.84
586.329	13075.53
586.688	13061.29
587.048	13109.43
587.408	13052.48
587.768	13043.89
588.127	13093.16
588.487	13034.18
588.846	13081.63
589.206	13089.32
589.565	13029.43
589.925	13096.32
590.284	12954.18
590.643	13114.17
591.003	13079.6
591.362	13133.84
591.721	13068.3
592.08	13019.04
592.44	13075.76
592.799	13080.73
593.158	13037.79
593.517	12945.14
593.876	12984.01
594.235	12901.98
594.593	12986.95
594.952	12953.5
595.311	12881.64
595.67	12940.17
596.029	13005.03
596.387	12942.88
596.746	13034.63
597.104	12929.77
597.463	12822.21
597.822	12926.61
598.18	12966.16
598.538	12855.2
598.897	12884.35
599.255	12767.52
599.613	13033.27
599.972	12937.23
600.33	12960.51
600.688	12817.69
601.046	12918.02
601.404	12987.85
601.762	12901.98
602.12	12949.21
602.478	13017.91
602.836	12863.79
603.194	12886.61
603.552	12923.9
603.91	12895.65
604.268	12927.51
604.625	12837.35
604.983	12936.1
605.341	12896.55
605.698	12888.87
606.056	12949.66
606.413	12950.34
606.771	12913.95
607.128	12947.4
607.485	12863.56
607.843	12977.46
608.2	13047.06
608.557	13049.77
608.914	12957.79
609.272	13036.89
609.629	13054.52
609.986	13139.26
610.343	12890
610.7	13076.66
611.057	13101.52
611.414	13076.89
611.771	13033.73
612.127	13079.83
612.484	13100.16
612.841	13163.44
613.198	13071.24
613.554	13063.78
613.911	13194.4
614.267	13113.5
614.624	13055.87
614.98	13212.93
615.337	13155.98
615.693	13201.4
616.05	13182.42
616.406	13291.12
616.762	13247.05
617.118	13261.06
617.475	13206.83
617.831	13175.19
618.187	13137.45
618.543	13316.43
618.899	13294.96
619.255	13333.38
619.611	13263.55
619.967	13312.81
620.323	13301.74
620.678	13345.36
621.034	13243.21
621.39	13341.06
621.746	13287.28
622.101	13346.49
622.457	13314.85
622.812	13329.54
623.168	13369.76
623.523	13297.45
623.879	13374.06
624.234	13260.84
624.589	13380.61
624.945	13334.96
625.3	13404.79
625.655	13367.5
626.01	13288.63
626.365	13334.28
626.72	13340.38
627.075	13338.8
627.43	13259.48
627.785	13349.2
628.14	13313.27
628.495	13304.23
628.85	13269.43
629.205	13197.11
629.559	13286.83
629.914	13295.87
630.269	13312.81
630.623	13257
630.978	13176.09
631.332	13217.68
631.687	13346.49
632.041	13185.36
632.396	13255.87
632.75	13209.09
633.104	13242.08
633.459	13119.82
633.813	13090.67
634.167	13101.75
634.521	13059.26
634.875	13141.52
635.229	13081.63
635.583	13016.1
635.937	13055.87
636.291	13099.03
636.645	13018.81
636.999	12982.88
637.352	13001.18
637.706	12926.16
638.06	13020.84
638.413	12893.39
638.767	12910.56
639.121	12892.26
639.474	12842.32
639.828	12829.44
640.181	12921.19
640.534	12940.39
640.888	12917.57
641.241	12788.53
641.594	12805.26
641.947	12843.9
642.301	12806.16
642.654	12798.25
643.007	12786.5
643.36	12763.9
643.713	12788.76
644.066	12836.22
644.419	12839.15
644.771	12672.15
645.124	12572.72
645.477	12510.12
645.83	12408.88
646.182	12359.84
646.535	12342.22
646.888	12366.62
647.24	12276
647.593	12377.02
647.945	12439.16
648.298	12340.18
648.65	12354.65
649.002	12231.03
649.355	12283.69
649.707	12300.41
650.059	12328.88
650.411	12476.45
650.763	12523.23
651.115	12666.73
651.467	12600.52
651.819	12626.28
652.171	12620.63
652.523	12635.77
652.875	12600.06
653.227	12513.29
653.578	12560.52
653.93	12584.25
654.282	12568.2
654.633	12619.72
654.985	12589.44
655.337	12642.1
655.688	12461.99
656.039	12704.47
656.391	12529.78
656.742	12581.31
657.094	12651.59
657.445	12636.22
657.796	12694.75
658.147	12590.8
658.498	12670.57
658.849	12636.9
659.2	12612.04
659.551	12669.21
659.902	12610.91
660.253	12649.78
660.604	12686.39
660.955	12618.82
661.306	12691.59
661.656	12610.91
662.007	12729.1
662.358	12623.57
662.708	12712.38
663.059	12743.11
663.409	12605.49
663.76	12701.53
664.11	12675.77
664.461	12737.91
664.811	12765.48
665.161	12727.29
665.511	12744.69
665.862	12725.48
666.212	12689.55
666.562	12686.39
666.912	12677.35
667.262	12658.82
667.612	12667.63
667.962	12675.32
668.312	12621.76
668.662	12734.52
669.011	12701.98
669.361	12682.77
669.711	12615.43
670.06	12648.65
670.41	12614.3
670.76	12653.4
671.109	12632.61
671.459	12736.11
671.808	12635.32
672.157	12647.97
672.507	12558.71
672.856	12574.3
673.205	12527.75
673.554	12621.53
673.904	12577.69
674.253	12697.24
674.602	12612.95
674.951	12449.56
675.3	12370.24
675.649	12513.06
675.998	12491.59
676.346	12535.43
676.695	12496.11
677.044	12306.29
677.393	12407.75
677.741	12532.27
678.09	12409.11
678.438	12474.87
678.787	12399.62
679.135	12451.14
679.484	12328.43
679.832	12335.66
680.181	12293.86
680.529	12332.95
680.877	12262.45
681.225	12285.5
681.573	12385.15
681.922	12244.37
682.27	12171.6
682.618	12238.27
682.966	12194.88
683.314	12235.78
683.661	12116.91
684.009	12014.99
684.357	12098.61
684.705	12016.58
685.053	12051.15
685.4	12055.45
685.748	11938.61
686.095	11957.6
686.443	11922.79
686.79	11923.92
687.138	11915.79
687.485	11892.96
687.832	11771.61
688.18	11779.29
688.527	11819.52
688.874	11777.71
689.221	11789.01
689.568	11749.01
689.915	11609.81
690.262	11599.41
690.609	11596.02
690.956	11578.17
691.303	11480.32
691.65	11511.28
691.997	11482.58
692.344	11406.88
692.69	11358.51
693.037	11333.88
693.383	11182.02
693.73	11294.34
694.077	11188.35
694.423	11180.67
694.769	11144.96
695.116	11123.49
695.462	11109.03
695.808	11095.02
696.155	11073.55
696.501	10958.3
696.847	11003.04
697.193	10881.69
697.539	10877.85
697.885	10768.93
698.231	10837.62
698.577	10796.27
698.923	10763.5
699.269	10660.91
699.614	10589.5
699.96	10598.53
700.306	10596.95
700.651	10481.25
700.997	10534.36
701.342	10437.86
701.688	10437.86
702.033	10409.39
702.379	10317.41
702.724	10333.23
703.069	10326.9
703.415	10193.57
703.76	10250.52
704.105	10210.75
704.45	10175.5
704.795	10068.83
705.14	10114.71
705.485	10101.6
705.83	9984.77
706.175	10039
706.52	9942.05
706.865	9961.49
707.209	9964.43
707.554	9841.72
707.899	9931.89
708.243	9796.3
708.588	9810.53
708.932	9716.07
709.277	9729.63
709.621	9675.17
709.966	9611.89
710.31	9686.02
710.654	9600.6
710.998	9647.83
711.342	9647.37
711.687	9570.54
712.031	9534.83
712.375	9512.69
712.719	9513.37
713.063	9543.65
713.407	9484.21
713.75	9448.73
714.094	9474.27
714.438	9357.89
714.782	9441.28
715.125	9368.51
715.469	9362.86
715.812	9380.71
716.156	9293.03
716.499	9274.28
716.843	9284.22
717.186	9250.77
717.53	9327.61
717.873	9314.5
718.216	9227.05
718.559	9238.12
718.902	9166.26
719.246	9162.19
719.589	9112.7
719.932	9133.94
720.275	9140.95
720.617	9126.48
720.96	9093.72
721.303	9146.14
721.646	9143.21
721.989	9004
722.331	9068.18
722.674	9053.04
723.016	9060.72
723.359	9030.44
723.701	9027.73
724.044	9015.98
724.386	8938.92
724.729	9054.62
725.071	9031.34
725.413	9039.48
725.755	9007.16
726.097	8912.03
726.439	8969.88
726.782	8892.37
727.124	9001.29
727.465	8875.64
727.807	8889.43
728.149	8883.78
728.491	8912.93
728.833	8912.7
729.175	8934.62
729.516	8885.59
729.858	8903.66
730.199	8867.05
730.541	8837.68
730.882	8867.05
731.224	8879.94
731.565	8794.06
731.906	8811.01
732.248	8884.68
732.589	8870.44
732.93	8744.57
733.271	8848.75
733.612	8827.51
733.953	8884.46
734.294	8827.96
734.635	8779.37
734.976	8894.62
735.317	8858.47
735.658	8808.98
735.999	8839.49
736.339	8877.9
736.68	8920.39
737.021	8896.43
737.361	8823.89
737.702	8903.21
738.042	8905.7
738.383	8814.85
738.723	8900.05
739.063	8904.12
739.404	8931.46
739.744	8932.14
740.084	8888.07
740.424	8917.45
740.764	8928.07
741.104	9008.75
741.444	8985.92
741.784	8955.41
742.124	9016.66
742.464	9009.88
742.804	9027.95
743.143	8966.49
743.483	9053.94
743.823	9076.99
744.162	9125.13
744.502	9180.04
744.841	9154.96
745.181	9250.1
745.52	9238.57
745.86	9331
746.199	9355.86
746.538	9369.64
746.877	9391.56
747.216	9431.33
747.556	9397.21
747.895	9514.95
748.234	9546.59
748.573	9663.19
748.911	9667.03
749.25	9768.27
749.589	9743.87
749.928	9895.5
750.267	9963.98
750.605	10048.72
750.944	10146.12
751.283	10141.15
751.621	10269.28
751.96	10276.06
752.298	10424.98
752.636	10499.55
752.975	10576.39
753.313	10735.03
753.651	10824.29
753.989	10844.63
754.327	10941.35
754.666	11107.22
755.004	11216.6
755.342	11371.17
755.679	11462.92
756.017	11581.56
756.355	11725.74
756.693	11881.66
757.031	11996.92
757.368	12177.7
757.706	12243.92
758.044	12496.79
758.381	12608.88
758.719	12763.22
