Data from hue_260_FLMS001491_00083.txt Node
Date: Tue Feb 07 15:59:42 GMT 2017
User: dcchb
Spectrometer: FLMS00149
Trigger mode: 0
Integration Time (sec): 2.000000E-2
Scans to average: 10
Electric dark correction enabled: true
Nonlinearity correction enabled: false
Boxcar width: 0
XAxis mode: Wavelengths
Number of Pixels in Spectrum: 2048
>>>>>Begin Spectral Data<<<<<
341.393	-0.37
341.776	-0.37
342.16	-0.37
342.543	-50.54
342.927	-64.09
343.31	-71.55
343.693	-76.75
344.077	-72.68
344.46	-78.11
344.843	-60.03
345.226	-43.08
345.61	-41.95
345.993	-3.3
346.376	3.02
346.759	15.23
347.142	37.6
347.525	35.34
347.908	57.48
348.291	72.63
348.674	104.94
349.057	121.21
349.44	125.73
349.823	135
350.206	154.2
350.588	186.07
350.971	194.2
351.354	214.32
351.737	227.88
352.119	257.48
352.502	254.77
352.884	242.79
353.267	279.17
353.65	269.91
354.032	279.17
354.414	306.52
354.797	299.51
355.179	295.22
355.562	327.31
355.944	297.93
356.326	330.47
356.709	321.43
357.091	342
357.473	314.43
357.855	320.08
358.238	334.54
358.62	322.11
359.002	318.27
359.384	327.53
359.766	324.82
360.148	309.23
360.53	322.11
360.912	331.38
361.294	340.64
361.676	320.75
362.057	310.59
362.439	339.96
362.821	319.17
363.203	320.98
363.584	314.65
363.966	327.99
364.348	316.01
364.729	306.29
365.111	313.97
365.493	309.68
365.874	301.55
366.256	295.9
366.637	314.2
367.019	306.29
367.4	299.96
367.781	304.71
368.163	313.52
368.544	310.81
368.925	316.23
369.306	316.01
369.688	306.97
370.069	318.95
370.45	313.52
370.831	304.71
371.212	294.31
371.593	305.39
371.974	309
372.355	304.26
372.736	312.62
373.117	298.38
373.498	311.71
373.879	297.7
374.26	287.08
374.641	319.85
375.021	307.65
375.402	301.55
375.783	299.06
376.163	302.22
376.544	318.04
376.925	331.15
377.305	303.81
377.686	322.79
378.066	292.05
378.447	321.66
378.827	327.31
379.208	348.78
379.588	324.14
379.968	346.97
380.349	344.03
380.729	328.44
381.109	318.95
381.489	341.32
381.87	327.31
382.25	344.71
382.63	335.22
383.01	326.18
383.39	345.16
383.77	325.27
384.15	327.99
384.53	328.44
384.91	342.22
385.29	326.18
385.67	348.55
386.049	325.5
386.429	344.48
386.809	349
387.189	345.61
387.568	354.43
387.948	364.82
388.328	354.43
388.707	344.93
389.087	343.58
389.466	353.3
389.846	354.2
390.225	345.84
390.605	357.36
390.984	366.63
391.363	353.52
391.743	368.66
392.122	366.4
392.501	360.08
392.881	383.13
393.26	386.06
393.639	363.24
394.018	369.79
394.397	380.41
394.776	365.72
395.155	379.96
395.534	390.13
395.913	379.51
396.292	382.67
396.671	394.65
397.05	391.71
397.429	397.14
397.808	388.78
398.186	414.54
398.565	384.93
398.944	395.33
399.323	396.01
399.701	398.94
400.08	411.15
400.458	402.33
400.837	399.17
401.215	419.28
401.594	430.36
401.972	433.29
402.351	410.47
402.729	416.8
403.107	437.59
403.486	439.4
403.864	421.77
404.242	426.74
404.62	425.16
404.999	449.56
405.377	445.5
405.755	448.66
406.133	440.98
406.511	428.55
406.889	453.18
407.267	456.12
407.645	488.43
408.023	476.23
408.401	478.49
408.779	478.49
409.156	492.28
409.534	511.03
409.912	495.21
410.29	511.26
410.667	480.07
411.045	535.44
411.422	538.83
411.8	507.42
412.178	541.31
412.555	546.74
412.933	550.13
413.31	576.79
413.687	553.74
414.065	583.35
414.442	603.23
414.819	594.87
415.197	587.41
415.574	589.45
415.951	603.91
416.328	602.78
416.705	587.19
417.082	629.45
417.46	639.16
417.837	645.72
418.214	620.86
418.591	648.43
418.967	663.57
419.344	681.42
419.721	671.03
420.098	681.2
420.475	680.07
420.852	703.34
421.228	711.03
421.605	716.45
421.982	731.36
422.358	730.01
422.735	769.33
423.111	761.42
423.488	771.36
423.864	778.82
424.241	794.41
424.617	784.92
424.994	783.57
425.37	814.07
425.746	838.03
426.123	850.68
426.499	840.06
426.875	852.04
427.251	861.08
427.627	885.26
428.003	878.93
428.379	910.57
428.756	910.12
429.132	904.47
429.507	903.79
429.883	927.07
430.259	953.05
430.635	961.19
431.011	953.05
431.387	989.89
431.763	1001.64
432.138	1005.03
432.514	1024.46
432.89	991.47
433.265	1056.78
433.641	1073.5
434.016	1088.42
434.392	1106.5
434.767	1114.63
435.143	1125.25
435.518	1155.08
435.894	1185.82
436.269	1209.54
436.644	1224.01
437.02	1210.22
437.395	1227.17
437.77	1264.46
438.145	1293.16
438.52	1289.09
438.895	1337.22
439.271	1334.29
439.646	1358.69
440.021	1359.6
440.395	1403.21
440.77	1356.43
441.145	1371.8
441.52	1426.04
441.895	1418.8
442.27	1440.05
442.645	1433.04
443.019	1455.19
443.394	1438.69
443.769	1503.77
444.143	1514.62
444.518	1534.06
444.892	1516.43
445.267	1516.66
445.641	1541.51
446.016	1583.32
446.39	1600.04
446.764	1589.87
447.139	1580.38
447.513	1593.94
447.887	1620.16
448.262	1630.78
448.636	1624.9
449.01	1656.31
449.384	1643.21
449.758	1655.63
450.132	1693.37
450.506	1688.4
450.88	1724.33
451.254	1704.45
451.628	1727.72
452.002	1746.93
452.376	1783.99
452.75	1788.29
453.123	1783.31
453.497	1844.1
453.871	1834.16
454.244	1880.49
454.618	1881.62
454.992	1881.84
455.365	1863.09
455.739	1953.93
456.112	1930.66
456.486	1952.12
456.859	1981.05
457.232	1998
457.606	2027.15
457.979	2026.02
458.352	2087.49
458.725	2085.23
459.099	2127.71
459.472	2162.29
459.845	2148.5
460.218	2198.22
460.591	2200.03
460.964	2220.82
461.337	2268.5
461.71	2273.7
462.083	2321.83
462.456	2324.77
462.829	2323.87
463.201	2312.34
463.574	2356.18
463.947	2381.27
464.32	2429.63
464.692	2444.09
465.065	2459.91
465.438	2524.99
465.81	2543.52
466.183	2567.25
466.555	2603.63
466.928	2630.98
467.3	2625.78
467.672	2637.76
468.045	2727.92
468.417	2724.31
468.789	2735.83
469.161	2788.94
469.534	2815.38
469.906	2840.01
470.278	2860.57
470.65	2931.53
471.022	2961.14
471.394	3043.39
471.766	3014.24
472.138	3072.77
472.51	3125.88
472.882	3150.74
473.253	3173.11
473.625	3231.86
473.997	3314.57
474.369	3330.17
474.74	3357.51
475.112	3375.82
475.484	3427.34
475.855	3491.97
476.227	3507.34
476.598	3573.55
476.97	3608.35
477.341	3684.73
477.713	3741.46
478.084	3720.21
478.455	3804.28
478.827	3782.36
479.198	3940.09
479.569	3918.63
479.94	4053.54
480.311	4060.32
480.682	4136.93
481.053	4243.36
481.424	4280.42
481.795	4320.42
482.166	4357.94
482.537	4405.84
482.908	4478.84
483.279	4501.21
483.65	4570.59
484.021	4648.1
484.391	4717.93
484.762	4711.37
485.133	4743.46
485.503	4871.82
485.874	4921.54
486.244	4955.43
486.615	5032.27
486.985	5057.58
487.356	5099.61
487.726	5208.31
488.097	5280.62
488.467	5290.57
488.837	5333.05
489.207	5437.91
489.578	5446.04
489.948	5499.83
490.318	5603.1
490.688	5605.36
491.058	5665.02
491.428	5734.85
491.798	5828.63
492.168	5881.96
492.538	5922.19
492.908	5934.39
493.278	6046.25
493.648	5982.75
494.017	6113.14
494.387	6142.97
494.757	6178.23
495.126	6189.53
495.496	6257.77
495.866	6222.75
496.235	6282.41
496.605	6384.55
496.974	6418.67
497.344	6418.67
497.713	6458.9
498.082	6516.75
498.452	6555.39
498.821	6567.14
499.19	6530.53
499.559	6600.59
499.928	6708.83
500.298	6707.03
500.667	6755.61
501.036	6801.49
501.405	6777.31
501.774	6763.07
502.143	6837.87
502.512	6879.23
502.88	6881.71
503.249	6914.48
503.618	6964.2
503.987	6925.55
504.356	6976.62
504.724	6959
505.093	6985.66
505.462	7050.75
505.83	7114.02
506.199	7095.72
506.567	7182.27
506.936	7128.94
507.304	7235.6
507.672	7250.29
508.041	7283.51
508.409	7282.61
508.777	7284.64
509.145	7382.72
509.514	7314.69
509.882	7345.43
510.25	7367.57
510.618	7418.19
510.986	7448.02
511.354	7502.26
511.722	7497.06
512.09	7560.79
512.458	7586.33
512.826	7645.99
513.193	7561.24
513.561	7572.09
513.929	7676.04
514.297	7657.74
514.664	7654.8
515.032	7732.08
515.4	7748.13
515.767	7774.8
516.135	7740.22
516.502	7667
516.869	7789.48
517.237	7812.31
517.604	7778.19
517.972	7838.52
518.339	7901.8
518.706	7860.9
519.073	7825.19
519.44	7903.83
519.808	7906.32
520.175	7930.72
520.542	7950.38
520.909	8002.13
521.276	7987.45
521.643	8042.36
522.009	8069.03
522.376	8064.51
522.743	8093.21
523.11	8117.61
523.477	8137.95
523.843	8149.93
524.21	8177.27
524.577	8230.83
524.943	8295.46
525.31	8211.85
525.676	8335.91
526.043	8279.19
526.409	8286.19
526.776	8359.86
527.142	8348.79
527.508	8388.11
527.874	8443.25
528.241	8455.46
528.607	8439.41
528.973	8513.99
529.339	8492.06
529.705	8486.19
530.071	8518.96
530.437	8518.73
530.803	8553.08
531.169	8554.44
531.535	8498.84
531.901	8552.18
532.267	8528.9
532.632	8586.53
532.998	8566.41
533.364	8681.44
533.73	8583.36
534.095	8624.72
534.461	8600.54
534.826	8619.29
535.192	8650.03
535.557	8671.04
535.923	8676.92
536.288	8603.02
536.653	8635.34
537.019	8620.42
537.384	8633.3
537.749	8627.2
538.114	8614.32
538.479	8548.79
538.845	8625.17
539.21	8606.86
539.575	8620.65
539.94	8637.37
540.305	8652.96
540.67	8587.66
541.034	8601.89
541.399	8681.89
541.764	8622.46
542.129	8591.27
542.494	8607.54
542.858	8592.4
543.223	8598.95
543.587	8634.21
543.952	8621.78
544.316	8597.15
544.681	8596.24
545.045	8575.9
545.41	8647.32
545.774	8619.75
546.138	8573.42
546.503	8631.95
546.867	8599.63
547.231	8606.41
547.595	8602.57
547.959	8643.25
548.324	8581.78
548.688	8632.4
549.052	8548.11
549.416	8562.35
549.779	8600.31
550.143	8522.8
550.507	8564.83
550.871	8536.81
551.235	8556.02
551.599	8635.11
551.962	8574.1
552.326	8568.67
552.689	8597.6
553.053	8537.71
553.417	8505.85
553.78	8623.36
554.143	8543.59
554.507	8540.2
554.87	8590.59
555.234	8629.24
555.597	8509.47
555.96	8581.55
556.323	8559.86
556.686	8591.72
557.05	8683.7
557.413	8685.73
557.776	8602.12
558.139	8670.82
558.502	8656.13
558.865	8573.87
559.228	8692.74
559.59	8666.52
559.953	8718.95
560.316	8808.67
560.679	8778.84
561.041	8802.11
561.404	8750.36
561.767	8772.96
562.129	8831.72
562.492	8836.24
562.854	8837.37
563.217	8846.41
563.579	8827.65
563.941	8853.86
564.304	8920.08
564.666	8990.36
565.028	8925.73
565.39	8964.82
565.753	8996.23
566.115	8966.63
566.477	9031.71
566.839	9081.43
567.201	9088.66
567.563	9099.28
567.925	9176.11
568.287	9141.99
568.648	9094.08
569.01	9161.2
569.372	9220.41
569.734	9252.04
570.095	9268.54
570.457	9258.37
570.819	9303.34
571.18	9316.45
571.542	9388.09
571.903	9347.64
572.265	9368.2
572.626	9427.86
572.987	9394.41
573.349	9384.02
573.71	9389.44
574.071	9522.09
574.432	9503.34
574.794	9503.11
575.155	9540.4
575.516	9565.93
575.877	9636.89
576.238	9605.93
576.599	9702.43
576.96	9665.59
577.32	9640.96
577.681	9696.1
578.042	9713.73
578.403	9685.03
578.763	9738.13
579.124	9730.22
579.485	9821.07
579.845	9826.95
580.206	9869.66
580.566	9851.8
580.927	9865.59
581.287	9915.98
581.648	9868.07
582.008	9905.36
582.368	9923.67
582.728	9973.16
583.089	9951.91
583.449	9951.01
583.809	10022.19
584.169	10023.55
584.529	9933.61
584.889	10030.56
585.249	9996.21
585.609	9985.13
585.969	10070.33
586.329	10106.94
586.688	10102.19
587.048	10101.97
587.408	10150.1
587.768	10122.3
588.127	10082.98
588.487	10102.64
588.846	10224
589.206	10101.51
589.565	10132.93
589.925	10178.12
590.284	10207.05
590.643	10205.47
591.003	10225.58
591.362	10267.39
591.721	10261.06
592.08	10295.41
592.44	10279.14
592.799	10291.34
593.158	10296.31
593.517	10329.08
593.876	10268.97
594.235	10289.76
594.593	10356.2
594.952	10374.28
595.311	10350.1
595.67	10402.98
596.029	10419.92
596.387	10431.22
596.746	10354.39
597.104	10405.91
597.463	10368.4
597.822	10463.09
598.18	10389.42
598.538	10371.79
598.897	10464.67
599.255	10321.62
599.613	10503.54
599.972	10451.79
600.33	10460.6
600.688	10460.15
601.046	10495.85
601.404	10568.39
601.762	10529.53
602.12	10563.42
602.478	10538.34
602.836	10537.89
603.194	10543.08
603.552	10541.73
603.91	10534.72
604.268	10519.58
604.625	10507.83
604.983	10637.77
605.341	10477.78
605.698	10531.33
606.056	10638.9
606.413	10542.63
606.771	10571.56
607.128	10630.54
607.485	10592.8
607.843	10604.55
608.2	10622.18
608.557	10616.08
608.914	10694.04
609.272	10694.94
609.629	10739.24
609.986	10746.92
610.343	10646.13
610.7	10722.51
611.057	10654.95
611.414	10623.08
611.771	10688.39
612.127	10751.67
612.484	10727.26
612.841	10863.3
613.198	10832.79
613.554	10706.02
613.911	10828.27
614.267	10840.48
614.624	10818.11
614.98	10899.23
615.337	10890.42
615.693	10793.7
616.05	10847.71
616.406	10899.69
616.762	10841.16
617.118	10814.49
617.475	10926.8
617.831	10875.96
618.187	10964.99
618.543	10883.19
618.899	10889.74
619.255	10930.64
619.611	10952.11
619.967	10936.97
620.323	11019.46
620.678	10949.63
621.034	10934.03
621.39	10950.53
621.746	10996.86
622.101	11147.14
622.457	10972.23
622.812	10986.24
623.168	11029.4
623.523	10975.84
623.879	11047.25
624.234	10925.45
624.589	11040.47
624.945	11014.48
625.3	10980.36
625.655	11034.6
626.01	10922.51
626.365	10929.97
626.72	10902.4
627.075	10957.31
627.43	11018.55
627.785	10908.27
628.14	10901.04
628.495	10908.72
628.85	10892.91
629.205	10877.09
629.559	10956.63
629.914	10829.18
630.269	10823.08
630.623	10832.34
630.978	10819.69
631.332	10894.94
631.687	10922.96
632.041	10814.49
632.396	10839.35
632.75	10815.62
633.104	10855.84
633.459	10682.06
633.813	10743.76
634.167	10772.68
634.521	10798.9
634.875	10772.46
635.229	10761.16
635.583	10645
635.937	10679.58
636.291	10681.16
636.645	10656.3
636.999	10676.64
637.352	10635.06
637.706	10569.52
638.06	10632.57
638.413	10569.98
638.767	10553.71
639.121	10605.68
639.474	10525.01
639.828	10510.54
640.181	10507.61
640.534	10545.34
640.888	10515.97
641.241	10494.05
641.594	10520.26
641.947	10538.34
642.301	10492.46
642.654	10539.92
643.007	10483.88
643.36	10482.07
643.713	10385.8
644.066	10444.78
644.419	10372.92
644.771	10384.9
645.124	10318.68
645.477	10245.92
645.83	10260.15
646.182	10140.61
646.535	10126.6
646.888	10174.73
647.24	10047.73
647.593	10125.92
647.945	10053.83
648.298	10087.28
648.65	10040.27
649.002	10037.56
649.355	10032.36
649.707	10080.72
650.059	10072.14
650.411	10282.75
650.763	10221.74
651.115	10320.94
651.467	10320.49
651.819	10363.65
652.171	10283.66
652.523	10204.34
652.875	10288.85
653.227	10172.7
653.578	10331.79
653.93	10284.79
654.282	10257.22
654.633	10220.16
654.985	10188.74
655.337	10185.13
655.688	10227.61
656.039	10247.5
656.391	10227.61
656.742	10235.97
657.094	10245.69
657.445	10244.34
657.796	10237.56
658.147	10191.23
658.498	10185.81
658.849	10271.91
659.2	10231.68
659.551	10174.05
659.902	10263.32
660.253	10364.33
660.604	10322.07
660.955	10211.34
661.306	10237.78
661.656	10209.76
662.007	10263.54
662.358	10292.02
662.708	10242.98
663.059	10237.56
663.409	10217.67
663.76	10264
664.11	10294.73
664.461	10210.44
664.811	10202.53
665.161	10288.4
665.511	10257.44
665.862	10241.62
666.212	10296.31
666.562	10237.33
666.912	10309.87
667.262	10278.01
667.612	10184
667.962	10260.15
668.312	10198.69
668.662	10261.28
669.011	10202.98
669.361	10218.12
669.711	10189.65
670.06	10164.56
670.41	10175.18
670.76	10113.27
671.109	10261.96
671.459	10174.73
671.808	10156.2
672.157	10104.45
672.507	10004.57
672.856	10139.25
673.205	10155.98
673.554	10155.75
673.904	10105.58
674.253	10164.79
674.602	10122.53
674.951	9964.57
675.3	9918.69
675.649	10034.85
675.998	10076.2
676.346	10117.11
676.695	10083.89
677.044	9959.37
677.393	10040.5
677.741	10081.4
678.09	9980.61
678.438	9965.25
678.787	10067.62
679.135	10000.5
679.484	9883.44
679.832	9979.48
680.181	9860.62
680.529	9963.66
680.877	9907.39
681.225	9849.32
681.573	9907.62
681.922	9857
682.27	9771.13
682.618	9858.58
682.966	9805.93
683.314	9847.28
683.661	9758.7
684.009	9648.42
684.357	9746.27
684.705	9702.88
685.053	9699.26
685.4	9736.33
685.748	9588.76
686.095	9654.07
686.443	9581.3
686.79	9580.62
687.138	9565.26
687.485	9549.89
687.832	9517.57
688.18	9535.65
688.527	9483.23
688.874	9473.06
689.221	9448.2
689.568	9421.31
689.915	9427.86
690.262	9376.11
690.609	9329.33
690.956	9325.04
691.303	9326.62
691.65	9217.47
691.997	9212.5
692.344	9153.29
692.69	9131.14
693.037	9164.36
693.383	9040.3
693.73	9111.94
694.077	9027.42
694.423	9027.42
694.769	8924.6
695.116	9014.54
695.462	8910.13
695.808	8852.28
696.155	8881.21
696.501	8837.82
696.847	8769.57
697.193	8773.87
697.539	8762.57
697.885	8756.46
698.231	8728.89
698.577	8685.05
698.923	8666.07
699.269	8591.95
699.614	8592.18
699.96	8553.98
700.306	8620.2
700.651	8500.65
700.997	8494.55
701.342	8386.3
701.688	8462.91
702.033	8403.48
702.379	8412.52
702.724	8363.25
703.069	8422.46
703.415	8289.81
703.76	8264.05
704.105	8223.82
704.45	8231.51
704.795	8163.03
705.14	8128.23
705.485	8152.86
705.83	8133.66
706.175	8173.43
706.52	8076.93
706.865	8059.76
707.209	8009.37
707.554	7998.29
707.899	7992.19
708.243	7968.24
708.588	7959.65
708.932	7919.42
709.277	7866.09
709.621	7880.1
709.966	7857.28
710.31	7848.01
710.654	7753.78
710.998	7824.06
711.342	7777.51
711.687	7706.55
712.031	7707.68
712.375	7713.33
712.719	7675.36
713.063	7732.08
713.407	7735.7
713.75	7687.79
714.094	7656.61
714.438	7651.86
714.782	7655.25
715.125	7582.94
715.469	7594.01
715.812	7578.42
716.156	7545.2
716.499	7503.84
716.843	7506.55
717.186	7561.69
717.53	7556.95
717.873	7509.27
718.216	7491.87
718.559	7466.1
718.902	7396.27
719.246	7450.28
719.589	7411.42
719.932	7383.17
720.275	7360.57
720.617	7341.59
720.96	7404.64
721.303	7405.54
721.646	7371.87
721.989	7336.84
722.331	7383.62
722.674	7317.18
723.016	7317.63
723.359	7327.12
723.701	7319.21
724.044	7312.89
724.386	7274.7
724.729	7269.05
725.071	7291.64
725.413	7259.33
725.755	7260.01
726.097	7199.67
726.439	7168.48
726.782	7179.78
727.124	7231.31
727.465	7215.04
727.807	7150.18
728.149	7249.16
728.491	7136.62
728.833	7149.73
729.175	7208.71
729.516	7099.79
729.858	7148.37
730.199	7153.12
730.541	7155.15
730.882	7180.23
731.224	7136.62
731.565	7113.57
731.906	7127.81
732.248	7147.69
732.589	7130.97
732.93	7107.02
733.271	7083.06
733.612	7091.42
733.953	7075.38
734.294	7132.1
734.635	7102.04
734.976	7175.26
735.317	7084.64
735.658	7127.13
735.999	7072.44
736.339	7083.97
736.68	7181.82
737.021	7083.74
737.361	7141.82
737.702	7196.05
738.042	7119.9
738.383	7098.66
738.723	7128.48
739.063	7093.01
739.404	7168.48
739.744	7156.96
740.084	7155.6
740.424	7197.86
740.764	7177.07
741.104	7209.84
741.444	7156.28
741.784	7153.34
742.124	7171.87
742.464	7209.61
742.804	7234.92
743.143	7196.28
743.483	7218.43
743.823	7214.81
744.162	7206
744.502	7297.75
744.841	7251.65
745.181	7302.49
745.52	7300.46
745.86	7375.26
746.199	7332.32
746.538	7326.45
746.877	7445.31
747.216	7492.54
747.556	7454.8
747.895	7516.5
748.234	7543.84
748.573	7568.02
748.911	7616.83
749.25	7724.18
749.589	7636.72
749.928	7737.96
750.267	7833.1
750.605	7865.87
750.944	7941.12
751.283	7900.89
751.621	8032.42
751.96	8063.15
752.298	8169.36
752.636	8273.77
752.975	8231.96
753.313	8310.37
753.651	8404.16
753.989	8553.08
754.327	8559.18
754.666	8540.88
755.004	8774.77
755.342	8824.71
755.679	8888.44
756.017	9005.95
756.355	9108.32
756.693	9174.76
757.031	9341.53
757.368	9384.92
757.706	9545.82
758.044	9674.63
758.381	9787.85
758.719	9826.04
759.056	10011.57
759.394	10013.61
759.731	10226.03
760.068	10310.1
760.405	10438.68
760.743	10513.93
761.08	10684.55
761.417	10745.11
761.754	11000.93
762.091	10995.05
762.428	11117.53
762.765	11266.68
763.102	11430.52
763.438	11503.51
763.775	11655.82
764.112	11840.68
