Data from hue_80_FLMS001491_93.txt Node
Date: Mon Feb 06 15:24:04 GMT 2017
User: dcchb
Spectrometer: FLMS00149
Trigger mode: 0
Integration Time (sec): 2.000000E-2
Scans to average: 10
Electric dark correction enabled: true
Nonlinearity correction enabled: false
Boxcar width: 0
XAxis mode: Wavelengths
Number of Pixels in Spectrum: 2048
>>>>>Begin Spectral Data<<<<<
341.393	-4.01
341.776	-4.01
342.16	-4.01
342.543	-57.57
342.927	-71.58
343.31	-67.51
343.693	-64.8
344.077	-54.86
344.46	-31.36
344.843	-63.67
345.226	-30.23
345.61	-44.69
345.993	-30.45
346.376	3.9
346.759	-1.75
347.142	9.55
347.525	34.63
347.908	40.28
348.291	78.92
348.674	88.42
349.057	133.61
349.44	132.03
349.823	128.64
350.206	148.98
350.588	172.93
350.971	206.38
351.354	234.63
351.737	241.86
352.119	246.38
352.502	239.6
352.884	256.32
353.267	289.99
353.65	287.28
354.032	300.84
354.414	313.95
354.797	303.1
355.179	321.86
355.562	331.57
355.944	328.64
356.326	306.49
356.709	343.32
357.091	331.35
357.473	331.57
357.855	342.42
358.238	336.32
358.62	343.1
359.002	308.52
359.384	346.26
359.766	348.3
360.148	354.62
360.53	327.96
360.912	333.16
361.294	322.76
361.676	331.57
362.057	327.96
362.439	308.97
362.821	348.52
363.203	327.28
363.584	333.83
363.966	341.29
364.348	328.86
364.729	331.8
365.111	296.55
365.493	322.76
365.874	332.48
366.256	320.05
366.637	311.01
367.019	316.21
367.4	316.43
367.781	315.08
368.163	313.49
368.544	307.39
368.925	299.03
369.306	322.53
369.688	313.04
370.069	306.94
370.45	304.46
370.831	321.63
371.212	327.51
371.593	310.78
371.974	303.78
372.355	311.91
372.736	313.95
373.117	304
373.498	344
373.879	300.84
374.26	316.21
374.641	324.12
375.021	324.12
375.402	308.75
375.783	320.95
376.163	318.24
376.544	322.31
376.925	323.21
377.305	335.19
377.686	320.95
378.066	328.86
378.447	327.05
378.827	309.2
379.208	331.8
379.588	336.09
379.968	332.25
380.349	338.35
380.729	327.05
381.109	349.88
381.489	339.71
381.87	357.56
382.25	319.14
382.63	331.8
383.01	334.51
383.39	350.1
383.77	331.57
384.15	349.88
384.53	338.58
384.91	350.33
385.29	361.63
385.67	332.48
386.049	357.56
386.429	375.87
386.809	341.74
387.189	349.88
387.568	364.11
387.948	349.43
388.328	366.6
388.707	344.68
389.087	369.31
389.466	366.6
389.846	369.76
390.225	363.66
390.605	372.93
390.984	392.14
391.363	359.37
391.743	387.62
392.122	375.87
392.501	366.15
392.881	377.67
393.26	376.77
393.639	379.26
394.018	387.62
394.397	388.29
394.776	387.62
395.155	367.28
395.534	382.87
395.913	401.4
396.292	399.14
396.671	385.13
397.05	374.28
397.429	371.12
397.808	395.98
398.186	363.66
398.565	376.77
398.944	378.35
399.323	407.96
399.701	405.24
400.08	385.36
400.458	399.59
400.837	403.21
401.215	428.07
401.594	410.44
401.972	406.37
402.351	402.31
402.729	403.44
403.107	411.57
403.486	415.41
403.864	451.57
404.242	421.06
404.62	416.09
404.999	424
405.377	433.94
405.755	433.49
406.133	414.96
406.511	423.77
406.889	449.99
407.267	448.86
407.645	445.24
408.023	452.93
408.401	449.08
408.779	447.73
409.156	466.26
409.534	419.25
409.912	456.99
410.29	456.09
410.667	448.86
411.045	468.52
411.422	476.65
411.8	472.36
412.178	471.23
412.555	486.37
412.933	484.34
413.31	473.26
413.687	482.08
414.065	487.05
414.442	496.31
414.819	507.84
415.197	505.58
415.574	489.08
415.951	507.39
416.328	511.91
416.705	493.38
417.082	491.12
417.46	505.13
417.837	524.79
418.214	539.03
418.591	552.13
418.967	537.67
419.344	545.35
419.721	525.01
420.098	546.93
420.475	548.29
420.852	554.39
421.228	523.66
421.605	542.64
421.982	560.72
422.358	565.92
422.735	583.09
423.111	539.25
423.488	569.08
423.864	584.45
424.241	593.04
424.617	549.19
424.994	585.13
425.37	607.95
425.746	584
426.123	601.85
426.499	593.94
426.875	608.4
427.251	622.19
427.627	607.5
428.003	618.35
428.379	627.61
428.756	637.1
429.132	601.62
429.507	644.33
429.883	641.17
430.259	645.01
430.635	645.69
431.011	654.28
431.387	691.79
431.763	684.33
432.138	682.98
432.514	694.28
432.89	687.5
433.265	688.17
433.641	682.52
434.016	713.26
434.392	709.64
434.767	735.86
435.143	739.02
435.518	726.82
435.894	730.88
436.269	739.92
436.644	745.8
437.02	740.6
437.395	761.17
437.77	771.11
438.145	765.69
438.52	785.12
438.895	786.48
439.271	801.39
439.646	800.71
440.021	808.4
440.395	816.08
440.77	813.82
441.145	811.79
441.52	832.8
441.895	838
442.27	826.25
442.645	831
443.019	825.35
443.394	847.49
443.769	856.98
444.143	838.45
444.518	856.08
444.892	884.1
445.267	896.98
445.641	876.42
446.016	888.17
446.39	915.06
446.764	893.14
447.139	899.47
447.513	926.59
447.887	914.16
448.262	901.05
448.636	914.16
449.01	943.31
449.384	941.27
449.758	932.46
450.132	972.91
450.506	967.26
450.88	977.21
451.254	972.23
451.628	967.26
452.002	994.15
452.376	998.9
452.75	1000.26
453.123	1008.84
453.497	1002.29
453.871	1007.04
454.244	1022.85
454.618	1028.28
454.992	1080.25
455.365	1056.3
455.739	1070.99
456.112	1111.67
456.486	1112.57
456.859	1115.73
457.232	1129.74
457.606	1143.53
457.979	1146.92
458.352	1177.2
458.725	1175.84
459.099	1174.26
459.472	1209.74
459.845	1218.1
460.218	1230.53
460.591	1247.93
460.964	1216.3
461.337	1277.09
461.71	1260.36
462.083	1331.09
462.456	1323.86
462.829	1319.57
463.201	1354.15
463.574	1328.38
463.947	1386.01
464.32	1428.04
464.692	1432.56
465.065	1405.22
465.438	1438.66
465.81	1475.5
466.183	1468.04
466.555	1505.1
466.928	1558.21
467.3	1530.64
467.672	1563.41
468.045	1589.85
468.417	1629.62
468.789	1624.65
469.161	1661.93
469.534	1673.23
469.906	1728.15
470.278	1796.17
470.65	1776.05
471.022	1814.7
471.394	1852.21
471.766	1875.71
472.138	1906.45
472.51	1978.08
472.882	1977.18
473.253	2028.7
473.625	2085.65
473.997	2104.86
474.369	2145.08
474.74	2193.45
475.112	2247.23
475.484	2275.93
475.855	2375.14
476.227	2386.89
476.598	2462.82
476.97	2477.05
477.341	2609.03
477.713	2605.86
478.084	2667.56
478.455	2773.32
478.827	2835.01
479.198	2952.07
479.569	2971.73
479.94	3079.07
480.311	3133.08
480.682	3250.37
481.053	3311.83
481.424	3467.76
481.795	3509.57
482.166	3615.55
482.537	3639.06
482.908	3782.78
483.279	3862.55
483.65	3964.02
484.021	4131.02
484.391	4194.3
484.762	4283.11
485.133	4381.64
485.503	4456.66
485.874	4623.44
486.244	4724.68
486.615	4863.43
486.985	4963.54
487.356	5104.78
487.726	5200.37
488.097	5411.89
488.467	5463.19
488.837	5662.51
489.207	5768.94
489.578	5883.97
489.948	6055.26
490.318	6182.49
490.688	6256.16
491.058	6435.37
491.428	6532.09
491.798	6751.07
492.168	6952.87
492.538	7027.67
492.908	7172.75
493.278	7389.47
493.648	7432.86
494.017	7583.13
494.387	7674.88
494.757	7829
495.126	8015.89
495.496	8129.56
495.866	8257.69
496.235	8430.12
496.605	8548.98
496.974	8719.15
497.344	8840.95
497.713	8953.95
498.082	9068.29
498.452	9260.38
498.821	9390.77
499.19	9512.57
499.559	9625.79
499.928	9715.06
500.298	9803.64
500.667	9975.61
501.036	10022.39
501.405	10198.66
501.774	10212.9
502.143	10474.81
502.512	10448.82
502.88	10633.22
503.249	10672.09
503.618	10858.08
503.987	10908.92
504.356	11031.4
504.724	11130.61
505.093	11268.01
505.462	11364.28
505.83	11454.22
506.199	11580.99
506.567	11804.49
506.936	11850.82
507.304	12000.19
507.672	12038.84
508.041	12159.96
508.409	12201.32
508.777	12329.68
509.145	12455.32
509.514	12449.9
509.882	12571.03
510.25	12749.55
510.618	12758.82
510.986	12844.46
511.354	12966.72
511.722	13036.78
512.09	13202.42
512.458	13247.62
512.826	13302.76
513.193	13396.09
513.561	13523.99
513.929	13559.02
514.297	13740.49
514.664	13839.24
515.032	13842.63
515.4	13964.21
515.767	13985.45
516.135	14095.05
516.502	13996.07
516.869	14268.38
517.237	14411.2
517.604	14293.01
517.972	14454.37
518.339	14523.52
518.706	14570.29
519.073	14641.03
519.44	14648.03
519.808	14834.47
520.175	14851.19
520.542	14925.54
520.909	15009.61
521.276	15020.9
521.643	15257.73
522.009	15251.18
522.376	15343.83
522.743	15466.99
523.11	15441.68
523.477	15594.67
523.843	15644.16
524.21	15890.03
524.577	15882.8
524.943	15977.49
525.31	16023.82
525.676	16077.83
526.043	16174.77
526.409	16289.57
526.776	16385.84
527.142	16337.71
527.508	16461.77
527.874	16469.45
528.241	16583.58
528.607	16572.28
528.973	16683.69
529.339	16721.2
529.705	16735.44
530.071	16840.97
530.437	16848.65
530.803	16872.83
531.169	16986.05
531.535	16944.7
531.901	16971.81
532.267	17040.96
532.632	17084.13
532.998	17143.33
533.364	17230.34
533.73	17212.94
534.095	17280.73
534.461	17243.44
534.826	17381.52
535.192	17335.87
535.557	17390.33
535.923	17401.63
536.288	17391.69
536.653	17442.54
537.019	17410.22
537.384	17290.68
537.749	17398.92
538.114	17418.81
538.479	17374.06
538.845	17431.01
539.21	17450.45
539.575	17369.77
539.94	17467.17
540.305	17542.87
540.67	17531.57
541.034	17405.02
541.399	17553.49
541.764	17491.57
542.129	17504.68
542.494	17583.77
542.858	17544.45
543.223	17468.52
543.587	17553.95
543.952	17518.92
544.316	17468.3
544.681	17535.64
545.045	17528.64
545.41	17624.23
545.774	17620.16
546.138	17431.91
546.503	17534.74
546.867	17460.84
547.231	17593.72
547.595	17549.65
547.959	17642.08
548.324	17498.13
548.688	17540.84
549.052	17521.63
549.416	17518.92
549.779	17472.82
550.143	17553.27
550.507	17477.11
550.871	17549.88
551.235	17401.63
551.599	17566.15
551.962	17453.38
552.326	17593.49
552.689	17620.16
553.053	17513.04
553.417	17547.62
553.78	17675.07
554.143	17578.8
554.507	17677.78
554.87	17573.61
555.234	17715.75
555.597	17638.01
555.96	17595.07
556.323	17758.01
556.686	17613.83
557.05	17710.55
557.413	17760.49
557.776	17732.7
558.139	17852.69
558.502	17711.46
558.865	17731.34
559.228	17925.69
559.59	17843.66
559.953	17871.9
560.316	17894.05
560.679	17962.3
561.041	18011.33
561.404	18052.24
561.767	18112.35
562.129	17988.51
562.492	18202.06
562.854	18115.06
563.217	18115.74
563.579	18108.96
563.941	18265.56
564.304	18278.22
564.666	18417.43
565.028	18319.35
565.39	18355.05
565.753	18392.79
566.115	18476.63
566.477	18561.6
566.839	18556.86
567.201	18629.85
567.563	18608.61
567.925	18727.7
568.287	18648.15
568.648	18644.76
569.01	18762.28
569.372	18754.37
569.734	18696.51
570.095	18921.37
570.457	18840.01
570.819	18920.69
571.18	18965.66
571.542	18924.76
571.903	18901.71
572.265	19013.12
572.626	19089.95
572.987	19140.34
573.349	19161.59
573.71	19166.78
574.071	19190.06
574.432	19174.69
574.794	19370.85
575.155	19269.15
575.516	19269.61
575.877	19364.52
576.238	19345.31
576.599	19401.13
576.96	19422.14
577.32	19355.93
577.681	19513.44
578.042	19419.21
578.403	19420.79
578.763	19491.07
579.124	19449.49
579.485	19470.5
579.845	19537.62
580.206	19612.2
580.566	19442.94
580.927	19441.81
581.287	19537.85
581.648	19525.42
582.008	19499.66
582.368	19562.03
582.728	19494.46
583.089	19490.17
583.449	19518.19
583.809	19472.99
584.169	19564.06
584.529	19567.9
584.889	19573.55
585.249	19468.7
585.609	19423.5
585.969	19557.73
586.329	19440.22
586.688	19509.83
587.048	19471.18
587.408	19465.76
587.768	19467.12
588.127	19439.09
588.487	19378.98
588.846	19597.73
589.206	19363.84
589.565	19318.64
589.925	19436.38
590.284	19384.63
590.643	19486.32
591.003	19382.6
591.362	19474.35
591.721	19383.73
592.08	19512.99
592.44	19449.94
592.799	19545.08
593.158	19402.94
593.517	19421.69
593.876	19427.79
594.235	19285.88
594.593	19378.53
594.952	19387.8
595.311	19306.89
595.67	19386.89
596.029	19481.58
596.387	19383.05
596.746	19559.77
597.104	19401.35
597.463	19316.38
597.822	19451.75
598.18	19301.24
598.538	19434.12
598.897	19426.44
599.255	19261.24
599.613	19597.28
599.972	19512.54
600.33	19481.13
600.688	19365.42
601.046	19422.14
601.404	19570.84
601.762	19404.52
602.12	19505.98
602.478	19402.71
602.836	19519.32
603.194	19376.5
603.552	19509.83
603.91	19462.82
604.268	19402.26
604.625	19457.85
604.983	19493.56
605.341	19418.98
605.698	19529.03
606.056	19516.61
606.413	19465.08
606.771	19535.36
607.128	19531.07
607.485	19444.97
607.843	19503.05
608.2	19598.86
608.557	19612.2
608.914	19530.39
609.272	19681.57
609.629	19607.45
609.986	19742.59
610.343	19710.27
610.7	19813.77
611.057	19602.93
611.414	19763.15
611.771	19772.64
612.127	19886.99
612.484	19766.32
612.841	19824.62
613.198	19753.21
613.554	19842.02
613.911	19905.07
614.267	19868.91
614.624	19798.41
614.98	19941.68
615.337	19958.63
615.693	19906.2
616.05	19958.4
616.406	19956.59
616.762	19969.47
617.118	20037.04
617.475	19975.8
617.831	20025.07
618.187	20151.62
618.543	20053.09
618.899	20270.26
619.255	20211.05
619.611	20084.5
619.967	20274.55
620.323	20323.59
620.678	20215.57
621.034	20120.21
621.39	20138.96
621.746	20167.21
622.101	20402.23
622.457	20172.86
622.812	20229.13
623.168	20276.36
623.523	20254.21
623.879	20286.98
624.234	20166.53
624.589	20276.59
624.945	20312.29
625.3	20363.14
625.655	20334.44
626.01	20275
626.365	20247.66
626.72	20256.92
627.075	20259.64
627.43	20193.65
627.785	20242.01
628.14	20235.91
628.495	20264.38
628.85	20197.72
629.205	20125.85
629.559	20214.21
629.914	20122.01
630.269	20141
630.623	20163.14
630.978	20086.53
631.332	20154.55
631.687	20114.33
632.041	20117.49
632.396	20083.37
632.75	20044.73
633.104	20138.74
633.459	20056.48
633.813	20083.82
634.167	20049.92
634.521	19986.2
634.875	20010.38
635.229	19950.94
635.583	19948.01
635.937	19899.87
636.291	19808.12
636.645	19798.41
636.999	19829.82
637.352	19830.95
637.706	19649.03
638.06	19862.36
638.413	19691.29
638.767	19752.53
639.121	19645.19
639.474	19663.27
639.828	19645.87
640.181	19568.13
640.534	19767.67
640.888	19679.99
641.241	19505.31
641.594	19595.7
641.947	19721.8
642.301	19641.35
642.654	19589.37
643.007	19565.64
643.36	19508.47
643.713	19439.77
644.066	19615.81
644.419	19405.2
644.771	19313.45
645.124	19108.03
645.477	19207.91
645.83	19063.51
646.182	18897.19
646.535	18853.35
646.888	18858.54
647.24	18871.42
647.593	18926.56
647.945	18891.54
648.298	18780.58
648.65	18744.65
649.002	18809.96
649.355	18797.08
649.707	18793.01
650.059	18895.83
650.411	19027.35
650.763	19081.81
651.115	19249.72
651.467	19248.82
651.819	19203.17
652.171	19230.51
652.523	19202.94
652.875	19209.27
653.227	19088.14
653.578	19310.28
653.93	19311.87
654.282	19218.76
654.633	19163.62
654.985	19181.93
655.337	19209.95
655.688	19144.86
656.039	19220.34
656.391	19056.96
656.742	19043.85
657.094	19145.99
657.445	19231.19
657.796	19206.78
658.147	19150.06
658.498	19086.56
658.849	19130.4
659.2	19147.12
659.551	19147.35
659.902	19232.32
660.253	19220.12
660.604	19167.69
660.955	19252.88
661.306	19210.62
661.656	19241.58
662.007	19208.14
662.358	19240
662.708	19209.27
663.059	19272.09
663.409	19070.06
663.76	19154.36
664.11	19280.23
664.461	19234.13
664.811	19320.9
665.161	19174.92
665.511	19221.02
665.862	19192.77
666.212	19259.66
666.562	19251.98
666.912	19199.33
667.262	19185.77
667.612	19288.81
667.962	19283.84
668.312	19160.23
668.662	19263.05
669.011	19232.55
669.361	19223.73
669.711	19138.99
670.06	19177.41
670.41	19144.19
670.76	19066.9
671.109	19207.24
671.459	19179.44
671.808	19093.79
672.157	19187.8
672.507	19009.5
672.856	19104.64
673.205	19124.53
673.554	19102.15
673.904	19087.69
674.253	19115.71
674.602	19116.62
674.951	18781.26
675.3	18672.79
675.649	19008.82
675.998	18969.28
676.346	18954.13
676.695	18989.61
677.044	18831.43
677.393	18846.34
677.741	18883.63
678.09	18877.75
678.438	18841.82
678.787	18767.02
679.135	18889.5
679.484	18603.18
679.832	18750.75
680.181	18641.83
680.529	18643.63
680.877	18630.98
681.225	18581.71
681.573	18650.19
681.922	18574.71
682.27	18451.1
682.618	18544.2
682.966	18513.47
683.314	18493.81
683.661	18431.21
684.009	18360.48
684.357	18291.78
684.705	18286.58
685.053	18198.67
685.4	18320.25
685.748	18172.46
686.095	18044.78
686.443	18022.18
686.79	17984.67
687.138	18066.93
687.485	18022.18
687.832	18011.79
688.18	17910.77
688.527	17941.28
688.874	17901.51
689.221	17783.32
689.568	17790.1
689.915	17710.33
690.262	17738.57
690.609	17635.52
690.956	17531.57
691.303	17544.45
691.65	17438.47
691.997	17436.89
692.344	17335.65
692.69	17309.43
693.037	17374.51
693.383	17113.5
693.73	17220.17
694.077	16975.66
694.423	17101.3
694.769	16976.33
695.116	16956.9
695.462	16872.83
695.808	16880.74
696.155	16863.79
696.501	16730.46
696.847	16796
697.193	16628.55
697.539	16536.12
697.885	16518.49
698.231	16350.81
698.577	16404.82
698.923	16370.02
699.269	16306.97
699.614	16188.33
699.96	16118.5
700.306	16139.52
700.651	16162.34
700.997	16072.63
701.342	15942.01
701.688	15983.59
702.033	15934.55
702.379	15836.7
702.724	15675.35
703.069	15808.68
703.415	15693.43
703.76	15612.3
704.105	15661.11
704.45	15493.66
704.795	15482.81
705.14	15460.89
705.485	15410.27
705.83	15362.14
706.175	15381.57
706.52	15252.76
706.865	15207.34
707.209	15141.35
707.554	15118.08
707.899	15091.41
708.243	15076.95
708.588	14990.17
708.932	14902.72
709.277	14899.33
709.621	14852.77
709.966	14765.32
710.31	14852.55
710.654	14740.23
710.998	14698.43
711.342	14699.11
711.687	14666.56
712.031	14581.37
712.375	14555.38
712.719	14514.03
713.063	14516.96
713.407	14555.15
713.75	14464.99
714.094	14384.09
714.438	14382.28
714.782	14342.96
715.125	14292.56
715.469	14367.36
715.812	14304.99
716.156	14185.9
716.499	14156.29
716.843	14180.47
717.186	14180.02
717.53	14244.65
717.873	14203.75
718.216	14125.33
718.559	14128.5
718.902	13996.75
719.246	14086.01
719.589	13937.77
719.932	13940.03
720.275	13948.84
720.617	13914.94
720.96	13906.81
721.303	13924.44
721.646	13949.97
721.989	13812.8
722.331	13883.99
722.674	13885.12
723.016	13818.9
723.359	13757.43
723.701	13840.6
724.044	13721.73
724.386	13663.65
724.729	13713.14
725.071	13619.81
725.413	13682.18
725.755	13643.54
726.097	13615.07
726.439	13544.11
726.782	13637.21
727.124	13714.5
727.465	13574.16
727.807	13672.69
728.149	13558.8
728.491	13542.98
728.833	13574.84
729.175	13443.09
729.516	13492.13
729.858	13557.44
730.199	13563.32
730.541	13509.08
730.882	13462.3
731.224	13499.14
731.565	13511.57
731.906	13444
732.248	13495.29
732.589	13409.65
732.93	13383.21
733.271	13375.52
733.612	13426.82
733.953	13485.58
734.294	13352.47
734.635	13402.64
734.976	13444.45
735.317	13362.19
735.658	13396.09
735.999	13371.46
736.339	13375.75
736.68	13390.44
737.021	13386.6
737.361	13355.41
737.702	13358.8
738.042	13392.47
738.383	13344.11
738.723	13417.56
739.063	13396.99
739.404	13373.49
739.744	13330.55
740.084	13328.75
740.424	13425.01
740.764	13421.62
741.104	13523.77
741.444	13337.78
741.784	13413.49
742.124	13509.53
742.464	13380.5
742.804	13440.83
743.143	13443.09
743.483	13555.63
743.823	13530.55
744.162	13549.76
744.502	13611.22
744.841	13634.05
745.181	13613.26
745.52	13659.36
745.86	13704.1
746.199	13755.63
746.538	13743.88
746.877	13770.54
747.216	13837.21
747.556	13919.69
747.895	13872.23
748.234	13938.9
748.573	13983.19
748.911	13996.52
749.25	14012.8
749.589	14057.77
749.928	14136.41
750.267	14259.34
750.605	14290.75
750.944	14424.31
751.283	14392.22
751.621	14554.7
751.96	14582.27
752.298	14645.1
752.636	14811.19
752.975	14796.28
753.313	14866.56
753.651	15031.98
753.989	15007.57
754.327	15087.57
754.666	15197.62
755.004	15320.33
755.342	15467.22
755.679	15588.35
756.017	15588.12
756.355	15746.54
