Data from hue_350_FLMS001491_10.txt Node
Date: Mon Feb 06 15:37:29 GMT 2017
User: dcchb
Spectrometer: FLMS00149
Trigger mode: 0
Integration Time (sec): 2.000000E-2
Scans to average: 10
Electric dark correction enabled: true
Nonlinearity correction enabled: false
Boxcar width: 0
XAxis mode: Wavelengths
Number of Pixels in Spectrum: 2048
>>>>>Begin Spectral Data<<<<<
341.393	-22.2
341.776	-22.2
342.16	-22.2
342.543	-76.44
342.927	-50.9
343.31	-64.24
343.693	-66.5
344.077	-63.33
344.46	-62.88
344.843	-66.27
345.226	-42.77
345.61	-26.95
345.993	-34.86
346.376	3.56
346.759	27.97
347.142	10.79
347.525	29.55
347.908	60.96
348.291	70.9
348.674	102.77
349.057	121.3
349.44	133.05
349.823	138.02
350.206	164.46
350.588	167.17
350.971	228.19
351.354	249.65
351.737	227.96
352.119	251.69
352.502	278.13
352.884	270.22
353.267	288.98
353.65	295.3
354.032	314.29
354.414	288.07
354.797	283.55
355.179	306.6
355.562	309.99
355.944	335.53
356.326	343.44
356.709	352.93
357.091	331.23
357.473	343.66
357.855	331.91
358.238	338.92
358.62	322.42
359.002	332.36
359.384	336.88
359.766	345.92
360.148	335.53
360.53	350.22
360.912	338.01
361.294	335.53
361.676	359.03
362.057	319.03
362.439	324.68
362.821	319.94
363.203	320.39
363.584	318.58
363.966	333.72
364.348	327.17
364.729	322.87
365.111	329.43
365.493	312.03
365.874	310.22
366.256	313.83
366.637	321.29
367.019	312.7
367.4	312.7
367.781	308.41
368.163	300.5
368.544	319.03
368.925	308.41
369.306	313.38
369.688	325.36
370.069	306.15
370.45	329.43
370.831	307.73
371.212	312.03
371.593	303.21
371.974	304.34
372.355	328.3
372.736	295.98
373.117	296.66
373.498	306.15
373.879	308.86
374.26	326.71
374.641	309.77
375.021	318.81
375.402	318.35
375.783	332.82
376.163	321.97
376.544	329.43
376.925	331.69
377.305	322.19
377.686	338.69
378.066	314.51
378.447	319.94
378.827	327.84
379.208	305.92
379.588	318.13
379.968	313.16
380.349	321.97
380.729	329.88
381.109	361.52
381.489	332.59
381.87	315.87
382.25	344.57
382.63	336.43
383.01	335.3
383.39	339.82
383.77	355.87
384.15	328.52
384.53	347.05
384.91	357.67
385.29	353.61
385.67	349.09
386.049	374.4
386.429	349.31
386.809	339.37
387.189	346.6
387.568	319.94
387.948	359.26
388.328	375.75
388.707	369.88
389.087	347.96
389.466	340.27
389.846	342.76
390.225	365.58
390.605	368.97
390.984	380.72
391.363	352.93
391.743	367.17
392.122	365.58
392.501	388.63
392.881	372.82
393.26	380.95
393.639	367.17
394.018	362.19
394.397	387.28
394.776	386.6
395.155	378.01
395.534	374.4
395.913	367.39
396.292	369.65
396.671	386.15
397.05	398.8
397.429	394.06
397.808	370.33
398.186	390.44
398.565	380.05
398.944	375.75
399.323	389.99
399.701	403.55
400.08	394.51
400.458	384.79
400.837	407.62
401.215	381.18
401.594	399.93
401.972	397.45
402.351	415.53
402.729	400.38
403.107	396.77
403.486	398.13
403.864	397
404.242	413.27
404.62	414.17
404.999	430.21
405.377	410.1
405.755	420.72
406.133	425.24
406.511	413.72
406.889	432.02
407.267	442.87
407.645	458.69
408.023	425.24
408.401	445.36
408.779	429.08
409.156	424.34
409.534	448.97
409.912	458.91
410.29	447.16
410.667	467.73
411.045	431.12
411.422	454.85
411.8	457.56
412.178	471.57
412.555	446.26
412.933	468.86
413.31	475.64
413.687	474.96
414.065	498.24
414.442	475.86
414.819	490.33
415.197	498.46
415.574	499.82
415.951	490.55
416.328	495.75
416.705	490.1
417.082	498.24
417.46	514.73
417.837	531
418.214	523.77
418.591	528.97
418.967	528.52
419.344	536.65
419.721	537.33
420.098	552.47
420.475	536.65
420.852	545.47
421.228	539.14
421.605	530.1
421.982	544.34
422.358	574.84
422.735	592.24
423.111	558.57
423.488	588.63
423.864	563.09
424.241	602.64
424.617	580.27
424.994	606.26
425.37	585.69
425.746	592.92
426.123	600.83
426.499	592.24
426.875	601.28
427.251	612.58
427.627	595.86
428.003	629.31
428.379	625.92
428.756	645.8
429.132	630.89
429.507	647.38
429.883	645.58
430.259	662.3
430.635	645.8
431.011	661.4
431.387	679.47
431.763	680.38
432.138	684.9
432.514	669.98
432.89	712.92
433.265	702.98
433.641	694.84
434.016	708.17
434.392	719.02
434.767	709.76
435.143	702.98
435.518	727.61
435.894	727.16
436.269	760.6
436.644	736.87
437.02	754.95
437.395	758.57
437.77	756.76
438.145	778
438.52	774.39
438.895	794.72
439.271	798.11
439.646	781.84
440.021	804.22
440.395	791.79
440.77	802.18
441.145	791.79
441.52	808.06
441.895	799.92
442.27	816.87
442.645	820.49
443.019	815.74
443.394	843.99
443.769	849.19
444.143	840.37
444.518	850.32
444.892	821.84
445.267	867.49
445.641	860.26
446.016	851.45
446.39	869.98
446.764	856.87
447.139	874.95
447.513	862.97
447.887	863.42
448.262	874.5
448.636	847.38
449.01	903.42
449.384	895.06
449.758	908.39
450.132	908.85
450.506	914.95
450.88	919.92
451.254	918.34
451.628	916.53
452.002	938.9
452.376	940.71
452.75	955.85
453.123	947.04
453.497	974.83
453.871	959.47
454.244	993.59
454.618	983.65
454.992	996.75
455.365	984.32
455.739	1000.37
456.112	1014.83
456.486	1042.63
456.859	1003.53
457.232	1048.28
457.606	1036.07
457.979	1039.46
458.352	1067.94
458.725	1070.65
459.099	1119.24
459.472	1118.56
459.845	1106.13
460.218	1105.45
460.591	1098.9
460.964	1145.22
461.337	1162.85
461.71	1159.46
462.083	1191.78
462.456	1190.42
462.829	1202.4
463.201	1200.59
463.574	1175.73
463.947	1236.97
464.32	1241.49
464.692	1238.33
465.065	1250.08
465.438	1287.14
465.81	1290.98
466.183	1291.89
466.555	1330.76
466.928	1320.36
467.3	1333.92
467.672	1360.81
468.045	1384.99
468.417	1381.83
468.789	1383.18
469.161	1419.79
469.534	1429.06
469.906	1443.07
470.278	1482.39
470.65	1472
471.022	1505.89
471.394	1531.43
471.766	1545.44
472.138	1526.01
472.51	1598.32
472.882	1607.81
473.253	1608.04
473.625	1640.13
473.997	1677.41
474.369	1679.67
474.74	1714.93
475.112	1735.94
475.484	1750.86
475.855	1802.16
476.227	1819.56
476.598	1871.53
476.97	1890.29
477.341	1936.62
477.713	1927.35
478.084	1943.17
478.455	1996.95
478.827	2029.27
479.198	2088.48
479.569	2118.08
479.94	2170.51
480.311	2184.52
480.682	2233.11
481.053	2266.55
481.424	2307.45
481.795	2322.37
482.166	2327.57
482.537	2361.24
482.908	2410.95
483.279	2482.36
483.65	2502.25
484.021	2524.62
484.391	2573.44
484.762	2590.16
485.133	2603.26
485.503	2665.18
485.874	2739.53
486.244	2750.15
486.615	2805.07
486.985	2851.62
487.356	2866.53
487.726	2898.85
488.097	2986.31
488.467	2977.27
488.837	3044.16
489.207	3095.68
489.578	3121.22
489.948	3138.62
490.318	3218.39
490.688	3232.85
491.058	3259.52
491.428	3274.66
491.798	3342.68
492.168	3433.75
492.538	3439.63
492.908	3462.23
493.278	3535.22
493.648	3547.87
494.017	3540.42
494.387	3613.86
494.757	3618.15
495.126	3681.65
495.496	3690.02
495.866	3710.35
496.235	3775.66
496.605	3767.08
496.974	3859.5
497.344	3832.61
497.713	3830.13
498.082	3882.33
498.452	3959.84
498.821	3979.05
499.19	3972.95
499.559	4017.69
499.928	4031.93
500.298	4087.29
500.667	4121.42
501.036	4105.82
501.405	4131.59
501.774	4163.22
502.143	4216.78
502.512	4237.12
502.88	4216.56
503.249	4236.89
503.618	4270.34
503.987	4288.64
504.356	4322.09
504.724	4384.24
505.093	4348.3
505.462	4365.93
505.83	4439.83
506.199	4397.79
506.567	4496.77
506.936	4463.78
507.304	4486.38
507.672	4495.19
508.041	4544.46
508.409	4547.62
508.777	4582.2
509.145	4690.67
509.514	4616.77
509.882	4695.64
510.25	4676.66
510.618	4734.51
510.986	4704.45
511.354	4787.84
511.722	4789.65
512.09	4856.09
512.458	4800.95
512.826	4913.26
513.193	4879.36
513.561	4864.45
513.929	4912.36
514.297	4958.23
514.664	4965.46
515.032	4933.6
515.4	4990.09
515.767	5007.95
516.135	5033.71
516.502	5006.14
516.869	5088.4
517.237	5079.81
517.604	5069.19
517.972	5143.31
518.339	5151.45
518.706	5132.24
519.073	5129.98
519.44	5235.96
519.808	5217.89
520.175	5228.05
520.542	5296.53
520.909	5327.94
521.276	5281.39
521.643	5375.4
522.009	5365.23
522.376	5403.87
522.743	5401.16
523.11	5460.59
523.477	5481.16
523.843	5565.9
524.21	5542.62
524.577	5586.01
524.943	5552.34
525.31	5622.85
525.676	5670.08
526.043	5741.94
526.409	5713.92
526.776	5755.5
527.142	5772.22
527.508	5813.12
527.874	5803.86
528.241	5907.13
528.607	5904.42
528.973	5959.33
529.339	5931.99
529.705	6014.02
530.071	6038.43
530.437	6054.47
530.803	6096.96
531.169	6111.87
531.535	6131.31
531.901	6174.92
532.267	6196.62
532.632	6219.89
532.998	6193.23
533.364	6251.3
533.73	6225.32
534.095	6376.05
534.461	6281.13
534.826	6459.43
535.192	6397.97
535.557	6437.51
535.923	6431.41
536.288	6455.59
536.653	6479.32
537.019	6514.57
537.384	6490.62
537.749	6543.73
538.114	6614.01
538.479	6571.97
538.845	6617.4
539.21	6686.1
539.575	6689.94
539.94	6738.52
540.305	6747.11
540.67	6744.17
541.034	6781.91
541.399	6829.59
541.764	6874.79
542.129	6858.29
542.494	6911.85
542.858	6902.36
543.223	6878.63
543.587	6941.68
543.952	6958.86
544.316	7009.25
544.681	7001.12
545.045	7028.46
545.41	7133.99
545.774	7124.5
546.138	7155.46
546.503	7162.24
546.867	7201.56
547.231	7213.99
547.595	7278.85
547.959	7339.86
548.324	7295.12
548.688	7323.14
549.052	7401.78
549.416	7427.77
549.779	7375.12
550.143	7392.29
550.507	7440.65
550.871	7480.42
551.235	7543.7
551.599	7521.1
551.962	7535.11
552.326	7578.95
552.689	7554.32
553.053	7555
553.417	7615.56
553.78	7777.82
554.143	7663.47
554.507	7776.24
554.87	7736.92
555.234	7754.54
555.597	7863.24
555.96	7772.85
556.323	7863.47
556.686	7876.35
557.05	7987.08
557.413	7856.23
557.776	7935.55
558.139	7964.48
558.502	7971.94
558.865	8025.04
559.228	8083.35
559.59	8081.99
559.953	8103.23
560.316	8195.43
560.679	8129.22
561.041	8231.59
561.404	8288.54
561.767	8296
562.129	8326.96
562.492	8382.32
562.854	8338.48
563.217	8405.82
563.579	8398.59
563.941	8487.18
564.304	8508.19
564.666	8538.02
565.028	8514.97
565.39	8565.59
565.753	8599.94
566.115	8607.17
566.477	8640.62
566.839	8682.2
567.201	8710.67
567.563	8728.98
567.925	8829.54
568.287	8754.52
568.648	8797.23
569.01	8866.15
569.372	8940.73
569.734	8957
570.095	9004.9
570.457	9038.58
570.819	9084.45
571.18	9071.57
571.542	9142.3
571.903	9208.29
572.265	9195.41
572.626	9256.42
572.987	9255.07
573.349	9386.82
573.71	9453.25
574.071	9446.47
574.432	9504.33
574.794	9615.96
575.155	9630.88
575.516	9623.42
575.877	9740.7
576.238	9747.48
576.599	9818.89
576.96	9824.77
577.32	9885.33
577.681	10074.93
578.042	10188.15
578.403	10265.21
578.763	10279.45
579.124	10407.58
579.485	10463.17
579.845	10513.11
580.206	10630.62
580.566	10696.39
580.927	10902.03
581.287	11034.91
581.648	11062.48
582.008	11212.08
582.368	11344.28
582.728	11549.92
583.089	11636.7
583.449	11825.85
583.809	11932.29
584.169	12152.84
584.529	12257.93
584.889	12492.72
585.249	12578.14
585.609	12766.39
585.969	13064.91
586.329	13137.9
586.688	13348.97
587.048	13552.81
587.408	13788.51
587.768	13863.53
588.127	14218.55
588.487	14414.93
588.846	14684.53
589.206	14800.23
589.565	15097.85
589.925	15340.11
590.284	15549.14
590.643	15789.13
591.003	16080.2
591.362	16326.97
591.721	16563.58
592.08	16840.63
592.44	17072.94
592.799	17404.68
593.158	17560.61
593.517	17908.17
593.876	18265.23
594.235	18443.98
594.593	18803.52
594.952	19010.29
595.311	19337.51
595.67	19581.12
596.029	20021.56
596.387	20233.99
596.746	20590.81
597.104	20676.46
597.463	20889.34
597.822	21377.23
598.18	21523.45
598.538	21798.01
598.897	22165.91
599.255	22257.89
599.613	22884.54
599.972	22897.19
600.33	23300.35
600.688	23457.86
601.046	23849.71
601.404	24135.35
601.762	24382.58
602.12	24644.95
602.478	24916.35
602.836	25289.45
603.194	25257.13
603.552	25528.99
603.91	25834.52
604.268	26141.4
604.625	26327.84
604.983	26636.53
605.341	26859.8
605.698	27154.48
606.056	27495.72
606.413	27696.62
606.771	27937.29
607.128	28086.89
607.485	28213.89
607.843	28462.47
608.2	28869.47
608.557	29002.34
608.914	29226.07
609.272	29653.18
609.629	29849.55
609.986	30060.85
610.343	30143.78
610.7	30474.85
611.057	30649.76
611.414	30824.22
611.771	30990.77
612.127	31333.58
612.484	31480.47
612.841	31678.88
613.198	31768.37
613.554	31827.36
613.911	32190.74
614.267	32303.5
614.624	32401.8
614.98	32544.62
615.337	32921.79
615.693	32945.97
616.05	33005.86
616.406	33335.79
616.762	33417.6
617.118	33529.91
617.475	33538.27
617.831	33838.15
618.187	34032.27
618.543	34216.67
618.899	34418.02
619.255	34455.31
619.611	34556.55
619.967	34719.48
620.323	34976.2
620.678	35026.14
621.034	35066.14
621.39	35136.42
621.746	35153.6
622.101	35620.25
622.457	35445.79
622.812	35684.88
623.168	35740.02
623.523	35876.51
623.879	35988.38
624.234	35798.32
624.589	35939.11
624.945	36139.33
625.3	36426.56
625.655	36298.42
626.01	36353.56
626.365	36388.59
626.72	36516.05
627.075	36573.45
627.43	36579.77
627.785	36652.09
628.14	36729.6
628.495	36868.58
628.85	36786.77
629.205	36852.99
629.559	37072.42
629.914	36867.22
630.269	37052.3
630.623	36946.99
630.978	36846.88
631.332	37168.23
631.687	37146.31
632.041	37043.94
632.396	37163.94
632.75	37039.42
633.104	37216.59
633.459	37089.14
633.813	37091.85
634.167	37129.36
634.521	37193.32
634.875	37356.02
635.229	37249.13
635.583	37113.54
635.937	37253.43
636.291	37239.64
636.645	37281.22
636.999	37262.24
637.352	37139.76
637.706	37026.31
638.06	37238.29
638.413	37135.46
638.767	37106.31
639.121	37224.95
639.474	37023.6
639.828	37166.88
640.181	37141.34
640.534	37252.52
640.888	37156.48
641.241	36991.29
641.594	37047.1
641.947	37181.79
642.301	37072.64
642.654	37083.49
643.007	37123.94
643.36	36891.4
643.713	37109.93
644.066	37123.04
644.419	36946.32
644.771	36740.9
645.124	36492.09
645.477	36310.85
645.83	36052.33
646.182	36096.85
646.535	35876.51
646.888	35968.04
647.24	35809.4
647.593	36165.32
647.945	35895.95
648.298	35783.18
648.65	35882.39
649.002	35662.73
649.355	35886.23
649.707	35770.3
650.059	35918.1
650.411	36418.19
650.763	36460
651.115	36791.74
651.467	36699.77
651.819	36690.05
652.171	36747.68
652.523	36590.85
652.875	36587.46
653.227	36530.96
653.578	36791.07
653.93	36493.22
654.282	36467.23
654.633	36333.23
654.985	36511.98
655.337	36466.78
655.688	36523.95
656.039	36475.37
656.391	36287.35
656.742	36431.98
657.094	36393.11
657.445	36546.78
657.796	36389.04
658.147	36406.67
658.498	36373.68
658.849	36349.27
659.2	36375.94
659.551	36352.43
659.902	36408.7
660.253	36352.89
660.604	36406.22
660.955	36271.31
661.306	36449.61
661.656	36206.22
662.007	36225.43
662.358	36259.78
662.708	36279.44
663.059	36136.85
663.409	35948.38
663.76	36272.89
664.11	36282.83
664.461	36142.5
664.811	36082.61
665.161	36275.15
665.511	36044.19
665.862	36146.34
666.212	36336.16
666.562	36250.29
666.912	36167.58
667.262	36176.62
667.612	36036.28
667.962	36234.92
668.312	36039.22
668.662	36285.09
669.011	36062.72
669.361	36107.69
669.711	36081.93
670.06	36058.66
670.41	35977.3
670.76	36094.81
671.109	36095.27
671.459	36013.23
671.808	35903.18
672.157	36062.05
672.507	35936.17
672.856	35836.29
673.205	35985.21
673.554	36013.91
673.904	35867.93
674.253	36003.52
674.602	35848.49
674.951	35282.63
675.3	35260.71
675.649	35794.71
675.998	35757.65
676.346	35753.35
676.695	35934.82
677.044	35552.68
677.393	35758.78
677.741	35827.25
678.09	35657.54
678.438	35599.69
678.787	35700.7
679.135	35696.86
679.484	35378
679.832	35644.88
680.181	35361.05
680.529	35501.83
680.877	35382.52
681.225	35296.64
681.573	35398.79
681.922	35336.19
682.27	35211.67
682.618	35213.03
682.966	34931.23
683.314	35194.05
683.661	35052.13
684.009	34903.43
684.357	34888.52
684.705	34745.02
685.053	34804.9
685.4	34802.19
685.748	34544.57
686.095	34643.1
686.443	34498.92
686.79	34512.48
687.138	34633.84
687.485	34580.5
687.832	34416.21
688.18	34443.33
688.527	34240.17
688.874	34264.13
689.221	34222.77
689.568	34006.06
689.915	34077.24
690.262	34005.38
690.609	33945.27
690.956	33740.07
691.303	33774.87
691.65	33579.4
691.997	33641.09
692.344	33300.08
692.69	33252.85
693.037	33405.62
693.383	33034.78
693.73	33191.39
694.077	33039.98
694.423	33083.37
694.769	32946.2
695.116	32879.3
695.462	32738.97
695.808	32725.18
696.155	32723.15
696.501	32530.84
696.847	32501.24
697.193	32274.8
697.539	32407
697.885	32232.77
698.231	32091.53
698.577	32057.41
698.923	31980.57
699.269	31900.8
699.614	31754.59
699.96	31685.21
700.306	31706
700.651	31551.2
700.997	31445.9
701.342	31374.94
701.688	31506.91
702.033	31237.31
702.379	31269.4
702.724	31196.19
703.069	31151.21
703.415	30869.64
703.76	30962.07
704.105	30832.35
704.45	30782.18
704.795	30508.52
705.14	30544.68
705.485	30428.97
705.83	30407.51
706.175	30564.34
706.52	30391.91
706.865	30251.35
707.209	30058.81
707.554	30106.04
707.899	30221.07
708.243	29882.55
708.588	29950.57
708.932	29763
709.277	29654.76
709.621	29724.13
709.966	29568.21
710.31	29745.38
710.654	29311.94
710.998	29465.61
711.342	29464.48
711.687	29395.55
712.031	29275.33
712.375	29138.39
712.719	29200.76
713.063	29144.26
713.407	29198.95
713.75	29030.37
714.094	29019.29
714.438	28856.36
714.782	28847.32
715.125	28764.16
715.469	28894.1
715.812	28718.28
716.156	28532.98
716.499	28593.32
716.843	28560.55
717.186	28373.43
717.53	28573.66
717.873	28499.31
718.216	28438.97
718.559	28242.36
718.902	28247.56
719.246	28151.07
719.589	28095.93
719.932	27943.84
720.275	27933.67
720.617	27840.12
720.96	27968.02
721.303	27813.45
721.646	27915.82
721.989	27722.6
722.331	27665.66
722.674	27587.24
723.016	27719.21
723.359	27619.78
723.701	27587.24
724.044	27391.99
724.386	27356.51
724.729	27464.08
725.071	27396.51
725.413	27335.5
725.755	27380.01
726.097	27247.14
726.439	27080.81
726.782	27038.78
727.124	27216.4
727.465	27015.28
727.807	27120.13
728.149	27095.28
728.491	26822.06
728.833	27032.91
729.175	26815.74
729.516	26800.59
729.858	26854.83
730.199	26762.18
730.541	26787.71
730.882	26606.02
731.224	26744.55
731.565	26531.22
731.906	26591.11
732.248	26642.18
732.589	26495.07
732.93	26453.71
733.271	26358.12
733.612	26445.58
733.953	26515.18
734.294	26203.55
734.635	26177.33
734.976	26282.64
735.317	26081.52
735.658	26149.76
735.999	26101.18
736.339	26157.45
736.68	26069.99
737.021	25966.04
737.361	25927.85
737.702	26039.26
738.042	25776.67
738.383	25900.51
738.723	25933.27
739.063	25754.52
739.404	25973.5
739.744	25772.6
740.084	25757.46
740.424	25694.64
740.764	25562.89
741.104	25618.93
741.444	25578.03
741.784	25433.85
742.124	25552.49
742.464	25470.69
742.804	25296
743.143	25345.72
743.483	25337.36
743.823	25223.69
744.162	25272.27
744.502	25285.15
744.841	25207.87
745.181	25291.48
745.52	25197.02
745.86	25199.51
746.199	25053.52
746.538	24954.32
746.877	25053.07
747.216	25006.07
747.556	24895.33
747.895	25059.17
748.234	24807.88
748.573	24851.49
748.911	24687.66
749.25	24813.08
749.589	24617.15
749.928	24723.14
750.267	24677.26
750.605	24673.87
750.944	24562.91
751.283	24560.2
751.621	24528.79
751.96	24468.68
752.298	24383.03
752.636	24482.69
752.975	24287.67
753.313	24178.52
753.651	24252.19
753.989	24206.31
754.327	24143.04
754.666	24010.16
755.004	24056.03
755.342	24065.53
755.679	24024.85
756.017	23858.3
756.355	23916.15
756.693	23853.1
757.031	23784.85
757.368	23700.34
757.706	23623.05
758.044	23590.06
758.381	23589.15
758.719	23531.08
759.056	23559.1
759.394	23456.28
759.731	23330.4
760.068	23197.07
760.405	23198.2
