Data from hue_20_FLMS001491_4.txt Node
Date: Mon Feb 06 15:33:32 GMT 2017
User: dcchb
Spectrometer: FLMS00149
Trigger mode: 0
Integration Time (sec): 2.000000E-2
Scans to average: 10
Electric dark correction enabled: true
Nonlinearity correction enabled: false
Boxcar width: 0
XAxis mode: Wavelengths
Number of Pixels in Spectrum: 2048
>>>>>Begin Spectral Data<<<<<
341.393	-14.63
341.776	-14.63
342.16	-14.63
342.543	-44.01
342.927	-52.15
343.31	-67.51
343.693	-88.53
344.077	-49.21
344.46	-65.03
344.843	-53.28
345.226	-61.18
345.61	-45.37
345.993	-21.19
346.376	-8.98
346.759	17.46
347.142	43.9
347.525	19.94
347.908	65.59
348.291	97.46
348.674	97
349.057	118.92
349.44	146.49
349.823	149.21
350.206	162.99
350.588	195.98
350.971	211.8
351.354	248.19
351.737	235.76
352.119	239.15
352.502	262.65
352.884	287.05
353.267	287.28
353.65	283.89
354.032	308.3
354.414	294.06
354.797	302.87
355.179	341.97
355.562	328.41
355.944	318.01
356.326	326.83
356.709	348.52
357.091	339.03
357.473	352.36
357.855	353.04
358.238	330.44
358.62	355.75
359.002	359.82
359.384	337.22
359.766	340.84
360.148	338.8
360.53	351.23
360.912	352.82
361.294	338.13
361.676	360.72
362.057	318.01
362.439	337.45
362.821	319.37
363.203	330.22
363.584	330.9
363.966	332.48
364.348	319.14
364.729	342.65
365.111	312.82
365.493	320.95
365.874	320.05
366.256	312.59
366.637	308.52
367.019	320.05
367.4	321.18
367.781	294.06
368.163	328.86
368.544	311.01
368.925	313.04
369.306	332.7
369.688	307.39
370.069	311.23
370.45	313.95
370.831	325.47
371.212	328.18
371.593	324.79
371.974	321.4
372.355	308.07
372.736	302.87
373.117	303.55
373.498	332.7
373.879	309.88
374.26	313.04
374.641	302.87
375.021	319.6
375.402	300.39
375.783	326.15
376.163	314.4
376.544	324.57
376.925	350.33
377.305	349.65
377.686	328.64
378.066	309.43
378.447	347.84
378.827	329.09
379.208	334.74
379.588	323.66
379.968	336.54
380.349	341.97
380.729	332.25
381.109	339.03
381.489	325.92
381.87	353.95
382.25	348.97
382.63	325.25
383.01	354.17
383.39	339.93
383.77	345.13
384.15	346.71
384.53	347.62
384.91	355.75
385.29	367.05
385.67	347.39
386.049	351.46
386.429	347.17
386.809	343.78
387.189	341.52
387.568	358.69
387.948	330.44
388.328	352.59
388.707	360.95
389.087	367.73
389.466	361.18
389.846	358.92
390.225	344.23
390.605	352.82
390.984	364.34
391.363	350.78
391.743	356.88
392.122	375.41
392.501	376.09
392.881	365.02
393.26	362.53
393.639	388.07
394.018	359.82
394.397	373.83
394.776	364.57
395.155	377.22
395.534	365.92
395.913	381.06
396.292	394.17
396.671	382.42
397.05	379.93
397.429	374.74
397.808	384
398.186	403.21
398.565	371.35
398.944	388.75
399.323	417.45
399.701	388.75
400.08	385.36
400.458	382.42
400.837	386.71
401.215	378.58
401.594	409.54
401.972	382.87
402.351	386.04
402.729	409.31
403.107	412.48
403.486	408.63
403.864	400.05
404.242	400.05
404.62	397.79
404.999	420.84
405.377	411.8
405.755	407.5
406.133	432.59
406.511	405.47
406.889	406.37
407.267	441.63
407.645	409.09
408.023	414.06
408.401	431.68
408.779	418.58
409.156	422.64
409.534	426.49
409.912	414.28
410.29	438.01
410.667	411.8
411.045	446.15
411.422	452.93
411.8	431.01
412.178	449.31
412.555	456.09
412.933	439.14
413.31	450.44
413.687	454.96
414.065	479.59
414.442	470.78
414.819	455.41
415.197	480.95
415.574	472.59
415.951	477.11
416.328	492.92
416.705	481.63
417.082	487.95
417.46	486.15
417.837	470.1
418.214	484.56
418.591	480.72
418.967	496.31
419.344	486.37
419.721	455.41
420.098	477.78
420.475	491.57
420.852	503.77
421.228	501.96
421.605	504
421.982	482.76
422.358	520.27
422.735	520.04
423.111	515.52
423.488	520.04
423.864	505.58
424.241	500.16
424.617	529.31
424.994	498.35
425.37	520.95
425.746	545.35
426.123	533.83
426.499	504.9
426.875	543.55
427.251	529.53
427.627	533.6
428.003	586.93
428.379	549.42
428.756	548.29
429.132	550.32
429.507	551.91
429.883	549.65
430.259	574.96
430.635	558.69
431.011	590.78
431.387	584.45
431.763	591.23
432.138	603.66
432.514	580.15
432.89	603.43
433.265	596.88
433.641	609.98
434.016	606.14
434.392	616.54
434.767	629.64
435.143	641.17
435.518	628.29
435.894	625.12
436.269	647.5
436.644	632.58
437.02	634.16
437.395	661.51
437.77	652.24
438.145	661.06
438.52	650.43
438.895	680.49
439.271	686.82
439.646	683.65
440.021	695.41
440.395	696.08
440.77	649.08
441.145	686.37
441.52	687.27
441.895	685.01
442.27	703.54
442.645	699.7
443.019	697.89
443.394	739.47
443.769	699.02
444.143	705.35
444.518	711.22
444.892	711.9
445.267	722.07
445.641	735.63
446.016	731.79
446.39	735.4
446.764	744.44
447.139	725.01
447.513	744.67
447.887	757.55
448.262	756.42
448.636	742.18
449.01	746.25
449.384	735.63
449.758	781.5
450.132	777.89
450.506	786.7
450.88	805.01
451.254	780.6
451.628	827.61
452.002	799.13
452.376	805.46
452.75	803.2
453.123	807.72
453.497	814.72
453.871	824.22
454.244	821.96
454.618	849.75
454.992	852.92
455.365	827.83
455.739	861.95
456.112	879.81
456.486	881.84
456.859	901.73
457.232	890.2
457.606	883.42
457.979	906.93
458.352	906.93
458.725	943.99
459.099	943.99
459.472	923.65
459.845	958.68
460.218	955.29
460.591	959.81
460.964	970.2
461.337	999.58
461.71	979.92
462.083	1016.53
462.456	995.74
462.829	999.8
463.201	1032.8
463.574	1029.41
463.947	1031.67
464.32	1048.16
464.692	1045
465.065	1054.27
465.438	1070.08
465.81	1079.8
466.183	1096.98
466.555	1122.51
466.928	1128.39
467.3	1120.25
467.672	1148.27
468.045	1164.32
468.417	1173.13
468.789	1188.95
469.161	1205
469.534	1220.59
469.906	1250.65
470.278	1249.74
470.65	1249.29
471.022	1279.34
471.394	1316.86
471.766	1316.18
472.138	1301.72
472.51	1363.41
472.882	1397.99
473.253	1352.56
473.625	1419.23
473.997	1449.74
474.369	1459.45
474.74	1454.26
475.112	1447.7
475.484	1520.47
475.855	1566.34
476.227	1534.93
476.598	1575.83
476.97	1617.42
477.341	1629.17
477.713	1654.02
478.084	1682.72
478.455	1750.29
478.827	1773.12
479.198	1780.35
479.569	1786.22
479.94	1868.71
480.311	1886.56
480.682	1926.11
481.053	1943.28
481.424	2001.36
481.795	2029.83
482.166	2040.68
482.537	2047.46
482.908	2119.77
483.279	2150.06
483.65	2175.59
484.021	2232.54
484.391	2259.66
484.762	2280.22
485.133	2311.63
485.503	2395.47
485.874	2405.19
486.244	2443.83
486.615	2478.41
486.985	2479.54
487.356	2549.37
487.726	2610.61
488.097	2651.29
488.467	2638.86
488.837	2723.6
489.207	2760.44
489.578	2804.28
489.948	2840.21
490.318	2831.62
490.688	2870.72
491.058	2944.39
491.428	2990.03
491.798	3038.62
492.168	3098.73
492.538	3128.56
492.908	3119.97
493.278	3152.29
493.648	3183.7
494.017	3222.57
494.387	3253.3
494.757	3287.2
495.126	3336.47
495.496	3372.17
495.866	3377.14
496.235	3390.93
496.605	3467.76
496.974	3515.22
497.344	3489.68
497.713	3524.26
498.082	3566.29
498.452	3632.96
498.821	3591.6
499.19	3618.94
499.559	3674.54
499.928	3679.96
500.298	3702.56
500.667	3749.11
501.036	3761.99
501.405	3794.76
501.774	3833.4
502.143	3850.12
502.512	3843.12
502.88	3897.58
503.249	3911.59
503.618	3951.37
503.987	3979.39
504.356	3975.55
504.724	4025.26
505.093	4062.77
505.462	4040.18
505.83	4097.8
506.199	4065.26
506.567	4154.3
506.936	4144.81
507.304	4160.4
507.672	4189.55
508.041	4219.61
508.409	4226.61
508.777	4283.56
509.145	4277.91
509.514	4315.65
509.882	4319.49
510.25	4387.51
510.618	4346.83
510.986	4410.11
511.354	4419.15
511.722	4450.56
512.09	4460.28
512.458	4436.55
512.826	4526.49
513.193	4519.71
513.561	4524.46
513.929	4556.77
514.297	4630.9
514.664	4592.93
515.032	4595.87
515.4	4669.31
515.767	4685.81
516.135	4719.48
516.502	4667.5
516.869	4715.19
517.237	4733.27
517.604	4763.55
517.972	4756.99
518.339	4826.6
518.706	4809.65
519.073	4825.69
519.44	4837.67
519.808	4885.8
520.175	4876.99
520.542	4919.7
520.909	4990.89
521.276	4969.87
521.643	4957.21
522.009	5002.18
522.376	5030.66
522.743	5067.04
523.11	5138.45
523.477	5166.25
523.843	5128.96
524.21	5170.99
524.577	5223.2
524.943	5235.85
525.31	5268.17
525.676	5253.7
526.043	5325.11
526.409	5358.11
526.776	5396.75
527.142	5372.34
527.508	5465.68
527.874	5492.79
528.241	5551.55
528.607	5532.11
528.973	5532.11
529.339	5598.55
529.705	5579.8
530.071	5610.08
530.437	5667.25
530.803	5657.99
531.169	5706.12
531.535	5755.16
531.901	5719.45
532.267	5729.4
532.632	5838.32
532.998	5777.98
533.364	5848.26
533.73	5838.55
534.095	5896.4
534.461	5909.28
534.826	5935.72
535.192	5960.58
535.557	6015.94
535.923	5977.3
536.288	6074.47
536.653	6048.94
537.019	6035.38
537.384	6128.93
537.749	6176.62
538.114	6158.54
538.479	6142.49
538.845	6175.49
539.21	6176.62
539.575	6244.41
539.94	6284.41
540.305	6274.69
540.67	6289.83
541.034	6320.79
541.399	6322.83
541.764	6359.21
542.129	6361.25
542.494	6428.14
542.858	6449.38
543.223	6465.2
543.587	6513.56
543.952	6495.93
544.316	6546.55
544.681	6505.87
545.045	6625.42
545.41	6712.2
545.774	6650.73
546.138	6658.41
546.503	6700.22
546.867	6686.89
547.231	6781.57
547.595	6739.77
547.959	6807.79
548.324	6808.24
548.688	6810.27
549.052	6807.11
549.416	6875.81
549.779	6909.71
550.143	6935.47
550.507	6962.81
550.871	6977.05
551.235	7024.73
551.599	7061.34
551.962	7080.77
552.326	7066.76
552.689	7098.4
553.053	7085.52
553.417	7134.33
553.78	7227.44
554.143	7195.12
554.507	7181.79
554.87	7191.51
555.234	7269.47
555.597	7296.59
555.96	7292.97
556.323	7302.69
556.686	7343.82
557.05	7413.19
557.413	7391.05
557.776	7434.66
558.139	7446.41
558.502	7466.98
558.865	7416.13
559.228	7554.21
559.59	7520.08
559.953	7562.8
560.316	7652.51
560.679	7626.75
561.041	7688.44
561.404	7680.76
561.767	7752.17
562.129	7721.44
562.492	7784.03
562.854	7763.02
563.217	7754.88
563.579	7819.29
563.941	7906.74
564.304	7968.21
564.666	7926.63
565.028	7975.67
565.39	7984.03
565.753	8066.51
566.115	8026.96
566.477	8099.5
566.839	8149.22
567.201	8172.5
567.563	8230.35
567.925	8186.06
568.287	8188.77
568.648	8225.6
569.01	8264.02
569.372	8359.61
569.734	8384.92
570.095	8422.66
570.457	8419.72
570.819	8476.9
571.18	8505.82
571.542	8533.39
571.903	8554.18
572.265	8632.37
572.626	8694.52
572.987	8697.68
573.349	8715.53
573.71	8779.49
574.071	8850.9
574.432	8831.01
574.794	8970.44
575.155	8975.41
575.516	8967.96
575.877	9063.32
576.238	9087.95
576.599	9156.88
576.96	9210.66
577.32	9307.61
577.681	9401.84
578.042	9437.77
578.403	9525.91
578.763	9565.45
579.124	9680.03
579.485	9722.29
579.845	9868.5
580.206	9901.04
580.566	9936.07
580.927	10071.66
581.287	10271.65
581.648	10329.5
582.008	10424.42
582.368	10614.47
582.728	10718.42
583.089	10819.21
583.449	10955.02
583.809	11089.48
584.169	11291.74
584.529	11357.72
584.889	11602.24
585.249	11789.35
585.609	11959.29
585.969	12184.14
586.329	12346.17
586.688	12592.04
587.048	12652.61
587.408	12874.29
587.768	13038.36
588.127	13242.42
588.487	13406.48
588.846	13690.09
589.206	13848.05
589.565	14084.66
589.925	14474.25
590.284	14542.05
590.643	14895.48
591.003	15149.04
591.362	15472.19
591.721	15585.86
592.08	15863.59
592.44	16197.82
592.799	16429
593.158	16631.26
593.517	16966.62
593.876	17251.13
594.235	17535.19
594.593	17861.51
594.952	18171.33
595.311	18339.91
595.67	18689.28
596.029	19150.51
596.387	19284.97
596.746	19641.35
597.104	19793.21
597.463	20046.99
597.822	20454.43
598.18	20677.48
598.538	20950.24
598.897	21390.91
599.255	21502.54
599.613	22056.88
599.972	22248.74
600.33	22509.75
600.688	22729.85
601.046	23068.38
601.404	23417.97
601.762	23633.11
602.12	24043.04
602.478	24279.87
602.836	24607.09
603.194	24653.42
603.552	25028.1
603.91	25173.18
604.268	25589.67
604.625	25791.47
604.983	26079.6
605.341	26311.46
605.698	26656.3
606.056	26909.18
606.413	27129.74
606.771	27413.35
607.128	27629.16
607.485	27693.79
607.843	28094.91
608.2	28492.87
608.557	28594.33
608.914	28701.67
609.272	29198.84
609.629	29310.92
609.986	29566.28
610.343	29702.1
610.7	30057.8
611.057	30189.55
611.414	30400.61
611.771	30624.34
612.127	30929.86
612.484	31024.1
612.841	31439.68
613.198	31388.84
613.554	31684.2
613.911	31935.94
614.267	32054.81
614.624	32252.09
614.98	32477.17
615.337	32660.21
615.693	32843.71
616.05	32940.43
616.406	33206.87
616.762	33324.38
617.118	33371.16
617.475	33587.42
617.831	33830.35
618.187	33963.46
618.543	34163.23
618.899	34381.3
619.255	34384.24
619.611	34507.62
619.967	34653.38
620.323	34874.62
620.678	34842.3
621.034	34930.21
621.39	34979.48
621.746	35079.59
622.101	35603.19
622.457	35394.83
622.812	35581.49
623.168	35725.22
623.523	35754.82
623.879	35973.12
624.234	35956.17
624.589	36028.49
624.945	36218.09
625.3	36200.46
625.655	36299.67
626.01	36433
626.365	36501.02
626.72	36510.06
627.075	36639.77
627.43	36637.06
627.785	36745.98
628.14	36863.04
628.495	36817.17
628.85	36938.29
629.205	36820.56
629.559	37103.49
629.914	36996.37
630.269	37059.65
630.623	37095.58
630.978	37016.71
631.332	37301.22
631.687	37315.69
632.041	37237.27
632.396	37298.51
632.75	37141.45
633.104	37430.94
633.459	37218.74
633.813	37319.75
634.167	37324.5
634.521	37242.47
634.875	37347.32
635.229	37260.77
635.583	37279.3
635.937	37261.22
636.291	37303.93
636.645	37284.5
636.999	37346.65
637.352	37451.28
637.706	37152.98
638.06	37516.58
638.413	37358.17
638.767	37256.25
639.121	37275.91
639.474	37192.07
639.828	37278.4
640.181	37230.94
640.534	37327.89
640.888	37099.19
641.241	37242.47
641.594	37071.17
641.947	37359.98
642.301	37307.55
642.654	37196.59
643.007	37226.87
643.36	37241.11
643.713	37205.41
644.066	37344.16
644.419	37133.09
644.771	36888.35
645.124	36628.47
645.477	36635.25
645.83	36392.55
646.182	36231.19
646.535	36112.1
646.888	36159.56
647.24	36065.1
647.593	36191.42
647.945	36146
648.298	35939.9
648.65	36033.01
649.002	35853.58
649.355	36110.07
649.707	35982.61
650.059	36139.45
650.411	36481.36
650.763	36676.61
651.115	36967.9
651.467	37002.47
651.819	36908.92
652.171	36849.03
652.523	36863.27
652.875	36727.23
653.227	36736.72
653.578	36788.02
653.93	36741.01
654.282	36732.2
654.633	36567.68
654.985	36652.2
655.337	36667.57
655.688	36705.76
656.039	36795.7
656.391	36331.76
656.742	36524.07
657.094	36497.63
657.445	36708.7
657.796	36642.71
658.147	36546.44
658.498	36592.09
658.849	36552.54
659.2	36423.28
659.551	36421.92
659.902	36466.67
660.253	36556.16
660.604	36473
660.955	36393.68
661.306	36531.07
661.656	36400.91
662.007	36504.63
662.358	36359.33
662.708	36421.25
663.059	36332.43
663.409	36286.11
663.76	36483.17
664.11	36418.31
664.461	36416.95
664.811	36390.96
665.161	36460.34
665.511	36343.06
665.862	36395.71
666.212	36465.76
666.562	36397.74
666.912	36474.13
667.262	36325.88
667.612	36406.1
667.962	36461.24
668.312	36280.91
668.662	36594.8
669.011	36289.72
669.361	36370.17
669.711	36328.14
670.06	36329.72
670.41	36297.63
670.76	36239.33
671.109	36420.57
671.459	36292.66
671.808	36232.55
672.157	36310.51
672.507	36039.11
672.856	36044.08
673.205	36205.21
673.554	36178.99
673.904	36064.87
674.253	36372.66
674.602	36176.28
674.951	35640.7
675.3	35431.89
675.649	36120.69
675.998	35943.52
676.346	36079.56
676.695	36046.57
677.044	35920.02
677.393	35979.45
677.741	35975.61
678.09	35945.78
678.438	35861.71
678.787	35926.57
679.135	35892.22
679.484	35687.03
679.832	35777.65
680.181	35595.28
680.529	35597.54
680.877	35517.99
681.225	35593.7
681.573	35776.06
681.922	35602.74
682.27	35378.34
682.618	35430.99
682.966	35477.99
683.314	35319.58
683.661	35257.66
684.009	35041.62
684.357	35034.39
684.705	35000.04
685.053	35029.64
685.4	34917.78
685.748	34784.9
686.095	34794.17
686.443	34691.12
686.79	34690.67
687.138	34823.55
687.485	34562.76
687.832	34584.68
688.18	34669.65
688.527	34390.11
688.874	34447.06
689.221	34378.59
689.568	34254.52
689.915	34104.92
690.262	34142.44
690.609	33991.71
690.956	33978.15
691.303	33914.64
691.65	33883.91
691.997	33827.19
692.344	33517.59
692.69	33778.15
693.037	33661.32
693.383	33359.41
693.73	33364.38
694.077	33373.64
694.423	33299.97
694.769	33181.33
695.116	33121.22
695.462	32984.5
695.808	33012.52
696.155	33082.8
696.501	32650.95
696.847	32736.6
697.193	32500.67
697.539	32704.51
697.885	32406.89
698.231	32348.58
698.577	32279.43
698.923	32271.52
699.269	32005.09
699.614	32025.2
699.96	31896.17
700.306	31943.4
700.651	31850.74
700.997	31754.02
701.342	31643.07
701.688	31508.83
702.033	31463.64
702.379	31478.78
702.724	31356.97
703.069	31439.46
703.415	31063.19
703.76	31172.34
704.105	31108.62
704.45	30895.52
704.795	30915.63
705.14	30751.79
705.485	30743.65
705.83	30608.52
706.175	30607.61
706.52	30581.4
706.865	30402.65
707.209	30440.39
707.554	30361.74
707.899	30448.97
708.243	30140.05
708.588	30071.58
708.932	30010.57
709.277	29896.67
709.621	29913.39
709.966	29760.18
710.31	29856.67
710.654	29588.88
710.998	29667.53
711.342	29668.43
711.687	29585.49
712.031	29446.74
712.375	29347.76
712.719	29243.13
713.063	29308.44
713.407	29379.62
713.75	29224.82
714.094	29315.22
714.438	29036.58
714.782	29133.08
715.125	28905.74
715.469	28943.02
715.812	28780.32
716.156	28696.03
716.499	28854.21
716.843	28664.61
717.186	28613.32
717.53	28692.86
717.873	28808.79
718.216	28497.16
718.559	28507.56
718.902	28455.81
719.246	28323.38
719.589	28321.57
719.932	28190.95
720.275	28221.69
720.617	28129.26
720.96	28096.04
721.303	27950.51
721.646	28069.15
721.989	27883.84
722.331	28034.35
722.674	27858.98
723.016	27777.63
723.359	27754.81
723.701	27813.79
724.044	27641.82
724.386	27568.82
724.729	27634.36
725.071	27575.15
725.413	27595.94
725.755	27544.42
726.097	27497.41
726.439	27316.17
726.782	27227.36
727.124	27424.87
727.465	27190.08
727.807	27176.52
728.149	27172.22
728.491	27082.51
728.833	27215.39
729.175	26997.09
729.516	26977.88
729.858	26939.01
730.199	26961.38
730.541	26854.72
730.882	26882.06
731.224	26896.3
731.565	26761.39
731.906	26849.97
732.248	26692.46
732.589	26631.67
732.93	26432.58
733.271	26576.31
733.612	26601.16
733.953	26537.89
734.294	26409.76
734.635	26434.16
734.976	26499.02
735.317	26364.56
735.658	26306.94
735.999	26366.59
736.339	26239.59
736.68	26309.42
737.021	26175.64
737.361	26092.93
737.702	26251.34
738.042	26049.54
738.383	26090.9
738.723	26136.54
739.063	25974.51
739.404	26049.32
739.744	25980.16
740.084	25873.5
740.424	25927.96
740.764	25788.98
741.104	25884.57
741.444	25635.77
741.784	25617.46
742.124	25784.24
742.464	25695.88
742.804	25589.21
743.143	25566.39
743.483	25567.97
743.823	25367.98
744.162	25353.06
744.502	25540.63
744.841	25428.99
745.181	25424.02
745.52	25296.79
745.86	25293.85
746.199	25243.46
746.538	25219.51
746.877	25282.33
747.216	25122.79
747.556	25052.96
747.895	25232.39
748.234	25075.33
748.573	24960.76
748.911	25051.15
749.25	24998.72
749.589	24712.85
749.928	24839.4
750.267	24843.7
750.605	24879.63
750.944	24777.03
751.283	24662.91
751.621	24791.04
751.96	24621.78
752.298	24613.87
752.636	24635.57
752.975	24530.94
753.313	24404.16
753.651	24527.77
753.989	24341.79
754.327	24406.65
754.666	24097.73
755.004	24238.06
755.342	24307.21
755.679	24224.73
756.017	24008.24
756.355	24209.82
756.693	23885.98
757.031	24072.64
757.368	23898.19
757.706	23919.2
758.044	23804.85
758.381	23788.58
758.719	23687.34
759.056	23729.38
759.394	23619.77
759.731	23484.18
760.068	23445.54
760.405	23437.86
760.743	23306.79
