Data from hue_350_FLMS001491_69.txt Node
Date: Mon Feb 06 15:38:22 GMT 2017
User: dcchb
Spectrometer: FLMS00149
Trigger mode: 0
Integration Time (sec): 2.000000E-2
Scans to average: 10
Electric dark correction enabled: true
Nonlinearity correction enabled: false
Boxcar width: 0
XAxis mode: Wavelengths
Number of Pixels in Spectrum: 2048
>>>>>Begin Spectral Data<<<<<
341.393	6.33
341.776	6.33
342.16	6.33
342.543	-48.81
342.927	-56.5
343.31	-74.8
343.693	-98.98
344.077	-73.67
344.46	-65.08
344.843	-64.63
345.226	-38.19
345.61	-36.61
345.993	8.36
346.376	1.36
346.759	14.91
347.142	36.38
347.525	43.84
347.908	52.2
348.291	76.83
348.674	89.49
349.057	128.58
349.44	115.48
349.823	156.38
350.206	153.44
350.588	176.94
350.971	219.88
351.354	246.55
351.737	242.71
352.119	256.04
352.502	245.64
352.884	249.94
353.267	295.81
353.65	286.09
354.032	283.61
354.414	316.38
354.797	309.6
355.179	327.45
355.562	306.66
355.944	320.67
356.326	333.55
356.709	338.52
357.091	330.61
357.473	340.56
357.855	320.9
358.238	326.09
358.62	331.97
359.002	341.91
359.384	357.5
359.766	321.57
360.148	327.22
360.53	332.87
360.912	350.5
361.294	340.56
361.676	310.27
362.057	335.81
362.439	330.39
362.821	339.43
363.203	314.79
363.584	330.16
363.966	330.84
364.348	306.43
364.729	315.92
365.111	312.31
365.493	332.42
365.874	316.83
366.256	315.7
366.637	332.42
367.019	337.84
367.4	306.43
367.781	328.58
368.163	313.89
368.544	302.36
368.925	295.13
369.306	323.38
369.688	315.02
370.069	309.82
370.45	304.17
370.831	308.24
371.212	298.75
371.593	308.24
371.974	322.7
372.355	338.3
372.736	340.78
373.117	305.08
373.498	312.08
373.879	313.21
374.26	295.81
374.641	315.47
375.021	305.75
375.402	314.57
375.783	308.24
376.163	326.32
376.544	330.16
376.925	315.7
377.305	333.32
377.686	304.85
378.066	336.49
378.447	309.14
378.827	318.64
379.208	323.38
379.588	324.51
379.968	313.89
380.349	329.71
380.729	330.84
381.109	338.3
381.489	318.41
381.87	331.06
382.25	341.91
382.63	325.87
383.01	334.91
383.39	314.57
383.77	335.81
384.15	345.53
384.53	340.78
384.91	333.1
385.29	324.06
385.67	365.19
386.049	350.5
386.429	361.35
386.809	359.31
387.189	375.58
387.568	341.01
387.948	342.82
388.328	357.5
388.707	354.11
389.087	353.66
389.466	356.37
389.846	351.86
390.225	352.08
390.605	354.11
390.984	348.92
391.363	344.85
391.743	360.67
392.122	356.37
392.501	365.19
392.881	346.43
393.26	360.89
393.639	365.64
394.018	365.87
394.397	380.55
394.776	367
395.155	354.57
395.534	366.54
395.913	361.8
396.292	374.23
396.671	388.92
397.05	360.89
397.429	379.43
397.808	385.07
398.186	374.45
398.565	373.32
398.944	390.27
399.323	398.18
399.701	380.78
400.08	373.78
400.458	387.79
400.837	383.94
401.215	388.24
401.594	387.56
401.972	397.5
402.351	382.59
402.729	379.2
403.107	399.76
403.486	403.38
403.864	392.08
404.242	399.54
404.62	401.8
404.999	410.38
405.377	408.35
405.755	414
406.133	399.99
406.511	402.02
406.889	407.22
407.267	390.95
407.645	421.68
408.023	419.42
408.401	418.52
408.779	408.35
409.156	405.64
409.534	434.11
409.912	424.85
410.29	431.4
410.667	436.6
411.045	426.2
411.422	459.87
411.8	442.7
412.178	450.16
412.555	445.64
412.933	439.31
413.31	467.78
413.687	472.76
414.065	477.5
414.442	462.59
414.819	473.43
415.197	477.95
415.574	477.95
415.951	470.5
416.328	466.2
416.705	495.58
417.082	484.51
417.46	498.97
417.837	514.79
418.214	514.34
418.591	480.21
418.967	508.01
419.344	523.6
419.721	500.55
420.098	508.01
420.475	526.31
420.852	522.47
421.228	525.64
421.605	515.92
421.982	512.3
422.358	517.05
422.735	513.43
423.111	536.94
423.488	535.81
423.864	541.68
424.241	566.31
424.617	529.48
424.994	548.46
425.37	560.21
425.746	558.63
426.123	583.04
426.499	538.52
426.875	545.97
427.251	566.09
427.627	602.92
428.003	576.48
428.379	597.72
428.756	603.6
429.132	606.99
429.507	592.3
429.883	578.29
430.259	611.06
430.635	630.72
431.011	617.84
431.387	615.13
431.763	640.44
432.138	629.59
432.514	631.62
432.89	643.37
433.265	668.68
433.641	650.83
434.016	639.08
434.392	666.2
434.767	670.49
435.143	683.6
435.518	670.72
435.894	687.89
436.269	712.3
436.644	699.42
437.02	678.4
437.395	705.07
437.77	728.79
438.145	717.95
438.52	735.57
438.895	691.28
439.271	705.07
439.646	737.83
440.021	734.9
440.395	753.2
440.77	720.89
441.145	757.04
441.52	753.43
441.895	754.33
442.27	762.01
442.645	760.66
443.019	781
443.394	777.83
443.769	769.92
444.143	773.31
444.518	809.47
444.892	764.73
445.267	791.62
445.641	781.22
446.016	797.49
446.39	785.52
446.764	802.69
447.139	800.2
447.513	817.61
447.887	813.76
448.262	823.48
448.636	795.91
449.01	818.51
449.384	828.68
449.758	836.59
450.132	821
450.506	826.87
450.88	830.49
451.254	879.3
451.628	853.08
452.002	878.17
452.376	857.15
452.75	858.51
453.123	853.76
453.497	881.78
453.871	883.59
454.244	897.15
454.618	898.51
454.992	901.67
455.365	911.84
455.739	924.5
456.112	955.91
456.486	929.24
456.859	957.94
457.232	944.61
457.606	966.75
457.979	979.64
458.352	943.7
458.725	1011.72
459.099	977.6
459.472	1039.29
459.845	1013.08
460.218	1002.01
460.591	1054.66
460.964	1042.46
461.337	1058.73
461.71	1072.97
462.083	1082.91
462.456	1098.05
462.829	1080.88
463.201	1130.59
463.574	1076.58
463.947	1100.54
464.32	1131.04
464.692	1143.47
465.065	1145.05
465.438	1156.35
465.81	1163.13
466.183	1168.56
466.555	1241.78
466.928	1193.64
467.3	1209.01
467.672	1245.62
468.045	1255.33
468.417	1257.14
468.789	1244.94
469.161	1291.49
469.534	1277.71
469.906	1291.27
470.278	1338.72
470.65	1320.42
471.022	1330.13
471.394	1380.75
471.766	1404.71
472.138	1387.53
472.51	1411.26
472.882	1450.13
473.253	1456.68
473.625	1489.45
473.997	1499.62
474.369	1516.57
474.74	1522.9
475.112	1563.8
475.484	1580.52
475.855	1612.61
476.227	1625.27
476.598	1651.93
476.97	1642.44
477.341	1718.6
477.713	1727.86
478.084	1769.9
478.455	1794.3
478.827	1797.01
479.198	1851.02
479.569	1856.45
479.94	1907.29
480.311	1929.67
480.682	1943.9
481.053	2017.57
481.424	2037.23
481.795	2054.41
482.166	2079.49
482.537	2117.91
482.908	2159.72
483.279	2168.76
483.65	2198.81
484.021	2264.35
484.391	2276.32
484.762	2345.48
485.133	2339.6
485.503	2356.55
485.874	2418.24
486.244	2428.18
486.615	2496.66
486.985	2506.37
487.356	2577.56
487.726	2613.72
488.097	2613.49
488.467	2670.44
488.837	2713.6
489.207	2731.45
489.578	2767.61
489.948	2808.51
490.318	2869.3
490.688	2865.91
491.058	2897.78
491.428	2959.47
491.798	2995.85
492.168	2999.7
492.538	3061.39
492.908	3089.64
493.278	3065.23
493.648	3100.03
494.017	3156.3
494.387	3220.93
494.757	3249.41
495.126	3251.21
495.496	3287.15
495.866	3274.26
496.235	3322.62
496.605	3373.47
496.974	3402.17
497.344	3384.09
497.713	3417.09
498.082	3465.45
498.452	3478.55
498.821	3517.2
499.19	3504.54
499.559	3557.87
499.928	3560.58
500.298	3596.74
500.667	3631.99
501.036	3646.01
501.405	3668.38
501.774	3643.75
502.143	3711.54
502.512	3694.82
502.88	3728.26
503.249	3756.06
503.618	3768.94
503.987	3791.31
504.356	3801.26
504.724	3869.05
505.093	3860.01
505.462	3845.55
505.83	3874.7
506.199	3925.55
506.567	3942.27
506.936	3965.55
507.304	3979.56
507.672	3966
508.041	4023.17
508.409	4074.24
508.777	4088.71
509.145	4090.97
509.514	4083.96
509.882	4109.5
510.25	4086.45
510.618	4119.21
510.986	4122.6
511.354	4198.76
511.722	4208.02
512.09	4184.75
512.458	4191.75
512.826	4261.13
513.193	4245.09
513.561	4260.45
513.929	4318.98
514.297	4323.28
514.664	4377.06
515.032	4346.78
515.4	4382.26
515.767	4328.93
516.135	4415.7
516.502	4362.37
516.869	4443.27
517.237	4426.78
517.604	4462.71
517.972	4449.37
518.339	4485.98
518.706	4508.58
519.073	4546.55
519.44	4538.19
519.808	4540.9
520.175	4572.99
520.542	4548.13
520.909	4623.16
521.276	4590.16
521.643	4645.53
522.009	4692.53
522.376	4706.99
522.743	4702.02
523.11	4723.49
523.477	4734.79
523.843	4735.24
524.21	4818.86
524.577	4815.01
524.943	4851.17
525.31	4856.37
525.676	4877.39
526.043	4916.48
526.409	4937.05
526.776	4993.32
527.142	4982.24
527.508	5025.86
527.874	5044.84
528.241	5113.54
528.607	5092.07
528.973	5152.63
529.339	5105.63
529.705	5121.22
530.071	5230.6
530.437	5202.12
530.803	5253.87
531.169	5292.52
531.535	5253.2
531.901	5302.01
532.267	5326.19
532.632	5362.57
532.998	5371.61
533.364	5384.49
533.73	5408.9
534.095	5483.7
534.461	5440.76
534.826	5468.33
535.192	5480.53
535.557	5537.48
535.923	5535.45
536.288	5571.38
536.653	5613.86
537.019	5558.27
537.384	5607.99
537.749	5659.06
538.114	5651.38
538.479	5706.97
538.845	5711.94
539.21	5677.82
539.575	5779.96
539.94	5763.46
540.305	5773.86
540.67	5801.66
541.034	5817.47
541.399	5856.34
541.764	5875.55
542.129	5920.52
542.494	5946.96
542.858	5967.3
543.223	5977.92
543.587	6019.95
543.952	6015.21
544.316	6060.63
544.681	6089.11
545.045	6042.78
545.41	6146.05
545.774	6081.42
546.138	6113.96
546.503	6180.85
546.867	6163.68
547.231	6252.04
547.595	6224.92
547.959	6268.54
548.324	6341.53
548.688	6290.68
549.052	6291.36
549.416	6346.5
549.779	6391.7
550.143	6387.4
550.507	6387.63
550.871	6351.25
551.235	6440.28
551.599	6500.17
551.962	6471.02
552.326	6522.99
552.689	6575.87
553.053	6497.68
553.417	6494.97
553.78	6660.39
554.143	6611.35
554.507	6661.29
554.87	6675.3
555.234	6714.4
555.597	6655.19
555.96	6755.3
556.323	6751.69
556.686	6716.66
557.05	6782.65
557.413	6819.93
557.776	6820.16
558.139	6861.74
558.502	6850.22
558.865	6850.44
559.228	6893.15
559.59	6940.61
559.953	6965.92
560.316	6970.44
560.679	7011.34
561.041	7042.3
561.404	7025.13
561.767	7071.23
562.129	7066.93
562.492	7197.32
562.854	7106.93
563.217	7145.35
563.579	7182.18
563.941	7263.31
564.304	7249.98
564.666	7285.91
565.028	7340.82
565.39	7319.36
565.753	7367.26
566.115	7355.06
566.477	7380.37
566.839	7404.78
567.201	7400.94
567.563	7476.64
567.925	7522.06
568.287	7537.65
568.648	7536.52
569.01	7656.07
569.372	7699.46
569.734	7650.42
570.095	7624.66
570.457	7738.78
570.819	7764.54
571.18	7755.28
571.542	7862.39
571.903	7885.67
572.265	7945.55
572.626	7934.71
572.987	7969.06
573.349	8023.29
573.71	8088.6
574.071	8120.01
574.432	8138.32
574.794	8228.26
575.155	8205.89
575.516	8247.24
575.877	8313.91
576.238	8378.54
576.599	8468.03
576.96	8529.95
577.32	8630.06
577.681	8693.78
578.042	8778.53
578.403	8738.53
578.763	8914.12
579.124	8902.14
579.485	9075.92
579.845	9197.27
580.206	9257.38
580.566	9340.55
580.927	9439.3
581.287	9571.5
581.648	9645.4
582.008	9760.87
582.368	9876.35
582.728	10123.8
583.089	10126.51
583.449	10235.44
583.809	10449.89
584.169	10635.43
584.529	10840.84
584.889	10991.12
585.249	11131.01
585.609	11258.46
585.969	11492.81
586.329	11693.48
586.688	11907.48
587.048	12027.71
587.408	12174.14
587.768	12420.46
588.127	12641.7
588.487	12856.61
588.846	13177.05
589.206	13352.19
589.565	13585.63
589.925	13814.33
590.284	14104.04
590.643	14329.11
591.003	14641.2
591.362	14918.03
591.721	15162.99
592.08	15338.13
592.44	15707.16
592.799	15892.46
593.158	16186.24
593.517	16391.21
593.876	16757.3
594.235	17015.15
594.593	17235.03
594.952	17576.94
595.311	17847.67
595.67	18195.45
596.029	18552.28
596.387	18780.3
596.746	19156.78
597.104	19283.33
597.463	19620.05
597.822	19913.37
598.18	20060.04
598.538	20381.61
598.897	20806.23
599.255	20945.66
599.613	21565.31
599.972	21624.52
600.33	21909.25
600.688	22210.72
601.046	22544.04
601.404	22829.23
601.762	23114.87
602.12	23459.95
602.478	23700.39
602.836	24081.63
603.194	24120.72
603.552	24375.18
603.91	24606.13
604.268	24958.89
604.625	25203.63
604.983	25475.49
605.341	25695.82
605.698	26032.54
606.056	26326.54
606.413	26495.8
606.771	26896.92
607.128	27103.92
607.485	27157.93
607.843	27531.48
608.2	27776.67
608.557	28076.32
608.914	28228.86
609.272	28552.47
609.629	28729.19
609.986	29075.39
610.343	29139.12
610.7	29541.14
611.057	29719.67
611.414	29854.81
611.771	30086.44
612.127	30356.26
612.484	30528.24
612.841	30760.32
613.198	30837.16
613.554	31008.22
613.911	31348.55
614.267	31410.02
614.624	31669.22
614.98	31825.38
615.337	32042.32
615.693	32163.9
616.05	32204.8
616.406	32558.01
616.762	32569.77
617.118	32687.05
617.475	32852.92
617.831	33055.63
618.187	33169.52
618.543	33439.57
618.899	33691.32
619.255	33723.86
619.611	33825.1
619.967	33924.98
620.323	34110.52
620.678	34289.95
621.034	34148.93
621.39	34282.26
621.746	34521.58
622.101	34870.5
622.457	34658.07
622.812	34813.32
623.168	35188.91
623.523	35089.7
623.879	35265.97
624.234	35220.54
624.589	35406.3
624.945	35361.56
625.3	35614.43
625.655	35645.39
626.01	35756.8
626.365	35876.8
626.72	35934.87
627.075	35931.26
627.43	36041.31
627.785	35876.34
628.14	36064.14
628.495	36117.47
628.85	36234.08
629.205	36152.5
629.559	36375.54
629.914	36238.14
630.269	36342.55
630.623	36311.36
630.978	36327.63
631.332	36521.3
631.687	36643.56
632.041	36585.03
632.396	36545.48
632.75	36564.01
633.104	36583.9
633.459	36467.97
633.813	36558.13
634.167	36544.12
634.521	36567.63
634.875	36762.65
635.229	36729.2
635.583	36445.6
635.937	36538.02
636.291	36458.25
636.645	36600.62
636.999	36510.68
637.352	36568.76
637.706	36515.42
638.06	36745.25
638.413	36618.02
638.767	36495.09
639.121	36700.5
639.474	36382.55
639.828	36542.32
640.181	36666.15
640.534	36556.55
640.888	36491.24
641.241	36372.83
641.594	36407.4
641.947	36623.9
642.301	36339.38
642.654	36503.45
643.007	36578.93
643.36	36576.44
643.713	36574.18
644.066	36642.2
644.419	36317.46
644.771	36179.84
645.124	35861.66
645.477	35855.78
645.83	35625.5
646.182	35501.67
646.535	35377.37
646.888	35532.85
647.24	35300.09
647.593	35462.12
647.945	35471.38
648.298	35252.18
648.65	35291.5
649.002	35134.67
649.355	35232.75
649.707	35283.14
650.059	35470.03
650.411	35767.2
650.763	35916.34
651.115	36237.24
651.467	36067.75
651.819	36148.43
652.171	36042.67
652.523	36039.73
652.875	36020.07
653.227	35909.11
653.578	36170.8
653.93	36065.04
654.282	35861.66
654.633	35802.22
654.985	36026.85
655.337	35886.97
655.688	35921.99
656.039	35914.31
656.391	35539.86
656.742	35890.36
657.094	35832.5
657.445	35972.84
657.796	35877.7
658.147	35748.66
658.498	35739.4
658.849	35833.63
659.2	35703.69
659.551	35759.51
659.902	35838.15
660.253	35741.66
660.604	35873.18
660.955	35659.63
661.306	35870.92
661.656	35733.75
662.007	35716.35
662.358	35776.69
662.708	35812.84
663.059	35756.12
663.409	35482.23
663.76	35738.95
664.11	35657.59
664.461	35761.55
664.811	35799.96
665.161	35591.61
665.511	35535.56
665.862	35668.21
666.212	35707.08
666.562	35778.95
666.912	35764.03
667.262	35598.16
667.612	35721.32
667.962	35718.16
668.312	35644.26
668.662	35775.1
669.011	35789.12
669.361	35578.73
669.711	35587.31
670.06	35543.02
670.41	35494.89
670.76	35484.94
671.109	35712.51
671.459	35450.82
671.808	35520.2
672.157	35540.08
672.507	35171.28
672.856	35238.17
673.205	35382.35
673.554	35457.6
673.904	35204.95
674.253	35466.64
674.602	35300.09
674.951	34957.5
675.3	34864.62
675.649	35357.26
675.998	35271.16
676.346	35345.74
676.695	35432.51
677.044	35116.14
677.393	35289.02
677.741	35284.5
678.09	35225.29
678.438	35171.5
678.787	35173.09
679.135	35238.85
679.484	34869.37
679.832	35205.85
680.181	34881.79
680.529	35007.67
680.877	34761.35
681.225	34787.79
681.573	34997.5
681.922	34837.95
682.27	34584.85
682.618	34667.11
682.966	34624.4
683.314	34712.31
683.661	34512.31
684.009	34359.77
684.357	34484.52
684.705	34347.35
685.053	34262.15
685.4	34331.3
685.748	34142.38
686.095	34092.89
686.443	34039.78
686.79	33969.5
687.138	34073.23
687.485	33959.79
687.832	33903.52
688.18	33880.92
688.527	33747.81
688.874	33687.93
689.221	33669.62
689.568	33574.26
689.915	33317.32
690.262	33481.38
690.609	33452.23
690.956	33280.71
691.303	33107.83
691.65	33110.09
691.997	33058.34
692.344	32823.77
692.69	32897.44
693.037	32867.16
693.383	32653.15
693.73	32827.61
694.077	32531.35
694.423	32695.64
694.769	32468.75
695.116	32387.62
695.462	32241.64
695.808	32160.96
696.155	32192.83
696.501	32043.68
696.847	32077.35
697.193	31823.57
697.539	31973.17
697.885	31655.21
698.231	31618.38
698.577	31574.54
698.923	31551.71
699.269	31357.14
699.614	31182.23
699.96	31204.6
700.306	31201.89
700.651	31113.08
700.997	31093.42
701.342	30956.02
701.688	30945.4
702.033	30953.08
702.379	30699.98
702.724	30559.87
703.069	30735.46
703.415	30427
703.76	30423.83
704.105	30345.64
704.45	30223.16
704.795	30257.51
705.14	30155.82
705.485	30053.67
705.83	29899.55
706.175	29928.93
706.52	29842.15
706.865	29867.46
707.209	29706.56
707.554	29754.92
707.899	29727.58
708.243	29595.38
708.588	29443.07
708.932	29357.65
709.277	29283.52
709.621	29311.32
709.966	29131.44
710.31	29137.09
710.654	28913.59
710.998	28981.61
711.342	28934.15
711.687	28902.74
712.031	28760.6
712.375	28746.14
712.719	28727.61
713.063	28691.9
713.407	28786.81
713.75	28555.86
714.094	28444.68
714.438	28420.72
714.782	28413.49
715.125	28268.41
715.469	28324.23
715.812	28216.89
716.156	28126.49
716.499	28124.01
716.843	28120.16
717.186	27910.68
717.53	28048.98
717.873	27994.97
718.216	27863.9
718.559	27833.84
718.902	27633.4
719.246	27746.39
719.589	27640.63
719.932	27538.94
720.275	27498.03
720.617	27504.14
720.96	27463.01
721.303	27486.06
721.646	27439.5
721.989	27265.05
722.331	27365.38
722.674	27185.5
723.016	27365.16
723.359	27099.17
723.701	27230.24
724.044	27111.38
724.386	26959.07
724.729	27037.03
725.071	26947.77
725.413	26923.81
725.755	26908.67
726.097	26652.18
726.439	26575.8
726.782	26688.79
727.124	26777.15
727.465	26698.73
727.807	26628.45
728.149	26553.2
728.491	26476.82
728.833	26522.69
729.175	26362.92
729.516	26336.26
729.858	26297.84
730.199	26288.35
730.541	26280.89
730.882	26341.68
731.224	26373.32
731.565	26163.83
731.906	26053.33
732.248	26166.09
732.589	25984.63
732.93	25976.04
733.271	25914.57
733.612	26021.69
733.953	25937.62
734.294	25908.47
734.635	25801.81
734.976	25833.22
735.317	25745.76
735.658	25787.8
735.999	25704.41
736.339	25615.82
736.68	25664.64
737.021	25591.42
737.361	25565.88
737.702	25757.29
738.042	25467.35
738.383	25521.81
738.723	25566.11
739.063	25377.19
739.404	25318.88
739.744	25234.14
740.084	25209.73
740.424	25283.63
740.764	25223.29
741.104	25296.74
741.444	25134.48
741.784	24992.34
742.124	25117.98
742.464	25119.57
742.804	24995.73
743.143	24921.6
743.483	24913.02
743.823	24775.39
744.162	24929.97
744.502	24817.65
744.841	24747.37
745.181	24881.38
745.52	24638
745.86	24721.61
746.199	24636.41
746.538	24721.16
746.877	24681.61
747.216	24540.37
747.556	24566.13
747.895	24438
748.234	24455.18
748.573	24372.69
748.911	24367.04
749.25	24352.13
749.589	24310.77
749.928	24285.24
750.267	24215.41
750.605	24258.8
750.944	24109.87
751.283	24089.31
751.621	24182.41
751.96	23963.44
752.298	24084.11
752.636	24007.5
752.975	23887.28
753.313	23681.86
753.651	23903.33
753.989	23714.4
754.327	23769.32
754.666	23579.49
755.004	23695.42
755.342	23664.24
755.679	23522.55
756.017	23575.2
756.355	23550.79
756.693	23451.36
757.031	23556.67
757.368	23286.85
757.706	23133.86
758.044	23146.74
758.381	23286.39
758.719	23071.26
759.056	23156.68
759.394	23040.52
759.731	22798.95
760.068	22799.17
760.405	22760.08
760.743	22693.87
761.08	22757.37
761.417	22608.22
