Data from hue_230_FLMS001491_00020.txt Node
Date: Tue Feb 07 16:36:53 GMT 2017
User: dcchb
Spectrometer: FLMS00149
Trigger mode: 0
Integration Time (sec): 2.000000E-2
Scans to average: 10
Electric dark correction enabled: true
Nonlinearity correction enabled: false
Boxcar width: 0
XAxis mode: Wavelengths
Number of Pixels in Spectrum: 2048
>>>>>Begin Spectral Data<<<<<
341.393	9.17
341.776	9.17
342.16	9.17
342.543	-43.04
342.927	-67.22
343.31	-66.76
343.693	-85.07
344.077	-51.85
344.46	-62.24
344.843	-57.95
345.226	-46.2
345.61	-39.42
345.993	0.35
346.376	-2.81
346.759	16.4
347.142	35.38
347.525	35.38
347.908	51.43
348.291	78.09
348.674	83.29
349.057	111.99
349.44	110.86
349.823	163.96
350.206	173
350.588	205.55
350.971	216.84
351.354	239.22
351.737	216.17
352.119	249.61
352.502	247.35
352.884	286.22
353.267	273.57
353.65	278.31
354.032	304.53
354.414	313.34
354.797	289.84
355.179	293.68
355.562	316.73
355.944	304.07
356.326	323.96
356.709	345.2
357.091	333.23
357.473	339.1
357.855	308.14
358.238	346.56
358.62	329.61
359.002	303.62
359.384	315.15
359.766	329.38
360.148	333.9
360.53	333.9
360.912	326.45
361.294	324.19
361.676	311.08
362.057	337.07
362.439	336.16
362.821	309.72
363.203	334.36
363.584	333.23
363.966	318.99
364.348	334.36
364.729	306.11
365.111	313.79
365.493	322.15
365.874	326.22
366.256	316.5
366.637	295.49
367.019	309.27
367.4	317.86
367.781	293.68
368.163	305.43
368.544	295.26
368.925	328.03
369.306	307.24
369.688	308.59
370.069	293.23
370.45	308.59
370.831	302.72
371.212	310.63
371.593	311.98
371.974	328.93
372.355	303.62
372.736	285.77
373.117	304.75
373.498	347.01
373.879	309.72
374.26	316.73
374.641	298.42
375.021	319.67
375.402	327.12
375.783	332.77
376.163	316.95
376.544	317.63
376.925	312.89
377.305	328.71
377.686	319.67
378.066	307.24
378.447	334.58
378.827	324.64
379.208	322.83
379.588	309.5
379.968	329.38
380.349	355.82
380.729	328.48
381.109	334.58
381.489	343.85
381.87	332.32
382.25	334.13
382.63	332.1
383.01	343.85
383.39	321.47
383.77	351.76
384.15	342.72
384.53	343.17
384.91	337.29
385.29	321.02
385.67	346.33
386.049	346.11
386.429	337.52
386.809	351.76
387.189	368.03
387.568	354.24
387.948	350.63
388.328	356.95
388.707	340.91
389.087	361.7
389.466	347.91
389.846	343.85
390.225	355.15
390.605	375.71
390.984	377.07
391.363	369.61
391.743	362.6
392.122	370.96
392.501	358.31
392.881	386.11
393.26	368.93
393.639	394.24
394.018	379.78
394.397	381.36
394.776	383.62
395.155	384.3
395.534	388.59
395.913	392.43
396.292	387.69
396.671	389.5
397.05	385.88
397.429	386.33
397.808	398.31
398.186	387.69
398.565	397.18
398.944	402.15
399.323	421.13
399.701	408.25
400.08	406.44
400.458	390.85
400.837	425.43
401.215	399.66
401.594	426.56
401.972	412.09
402.351	438.99
402.729	431.53
403.107	403.05
403.486	416.39
403.864	424.52
404.242	425.2
404.62	431.98
404.999	425.43
405.377	458.19
405.755	445.77
406.133	460.45
406.511	443.05
406.889	454.35
407.267	471.3
407.645	451.19
408.023	465.88
408.401	493.9
408.779	490.06
409.156	490.51
409.534	492.77
409.912	493.22
410.29	505.65
410.667	498.65
411.045	506.78
411.422	536.61
411.8	549.27
412.178	523.73
412.555	542.03
412.933	537.29
413.31	547.46
413.687	567.8
414.065	561.24
414.442	580.68
414.819	595.59
415.197	581.81
415.574	600.34
415.951	627
416.328	614.12
416.705	603.05
417.082	622.48
417.46	628.59
417.837	636.72
418.214	620.68
418.591	646.21
418.967	658.64
419.344	661.35
419.721	662.48
420.098	668.58
420.475	676.49
420.852	688.92
421.228	685.08
421.605	715.81
421.982	733.67
422.358	728.7
422.735	741.12
423.111	728.92
423.488	778.64
423.864	764.17
424.241	775.47
424.617	825.19
424.994	787.45
425.37	828.58
425.746	811.41
426.123	828.81
426.499	844.4
426.875	848.01
427.251	877.62
427.627	858.41
428.003	860.22
428.379	880.1
428.756	887.56
429.132	915.13
429.507	902.93
429.883	914.91
430.259	936.6
430.635	959.88
431.011	937.05
431.387	967.11
431.763	981.57
432.138	986.32
432.514	1014.34
432.89	1006.2
433.265	1064.28
433.641	1051.62
434.016	1053.43
434.392	1100.89
434.767	1099.76
435.143	1125.97
435.518	1124.62
435.894	1163.03
436.269	1165.75
436.644	1213.88
437.02	1214.33
437.395	1229.25
437.77	1234.22
438.145	1252.3
438.52	1260.88
438.895	1293.65
439.271	1291.84
439.646	1325.52
440.021	1323.03
440.395	1364.61
440.77	1369.81
441.145	1351.73
441.52	1400.99
441.895	1406.87
442.27	1409.13
442.645	1412.07
443.019	1459.3
443.394	1452.07
443.769	1458.85
444.143	1458.17
444.518	1504.27
444.892	1525.28
445.267	1497.26
445.641	1530.71
446.016	1535
446.39	1568.9
446.764	1572.52
447.139	1538.84
447.513	1586.75
447.887	1560.31
448.262	1584.72
448.636	1606.86
449.01	1612.29
449.384	1630.14
449.758	1607.54
450.132	1648.45
450.506	1659.29
450.88	1669.46
451.254	1682.34
451.628	1706.3
452.002	1733.19
452.376	1721.89
452.75	1737.26
453.123	1761.89
453.497	1777.03
453.871	1817.71
454.244	1805.05
454.618	1851.15
454.992	1880.53
455.365	1876.46
455.739	1905.39
456.112	1927.76
456.486	1940.64
456.859	1957.82
457.232	1980.19
457.606	1982.67
457.979	2022.9
458.352	2038.04
458.725	2064.93
459.099	2091.37
459.472	2120.75
459.845	2109.9
460.218	2145.61
460.591	2161.65
460.964	2177.92
461.337	2223.12
461.71	2245.94
462.083	2277.58
462.456	2266.51
462.829	2305.15
463.201	2341.31
463.574	2323.23
463.947	2376.56
464.32	2419.27
464.692	2393.74
465.065	2453.85
465.438	2501.76
465.81	2526.61
466.183	2514.41
466.555	2579.49
466.928	2593.05
467.3	2619.95
467.672	2636.44
468.045	2670.11
468.417	2682.54
468.789	2694.52
469.161	2732.48
469.534	2762.77
469.906	2835.53
470.278	2824.23
470.65	2862.88
471.022	2904.46
471.394	2980.39
471.766	2969.77
472.138	3040.05
472.51	3098.58
472.882	3079.37
473.253	3141.74
473.625	3193.04
473.997	3268.29
474.369	3251.12
474.74	3281.85
475.112	3359.13
475.484	3415.4
475.855	3440.49
476.227	3479.58
476.598	3542.86
476.97	3583.99
477.341	3650.65
477.713	3694.27
478.084	3730.65
478.455	3811.55
478.827	3831.66
479.198	3922.96
479.569	3923.41
479.94	4005.67
480.311	4033.02
480.682	4116.4
481.053	4195.05
481.424	4244.08
481.795	4266.23
482.166	4327.24
482.537	4369.28
482.908	4471.2
483.279	4480.46
483.65	4581.93
484.021	4654.02
484.391	4703.51
484.762	4729.49
485.133	4742.38
485.503	4794.35
485.874	4914.35
486.244	4930.39
486.615	4988.92
486.985	5085.19
487.356	5200.67
487.726	5205.64
488.097	5295.36
488.467	5282.02
488.837	5372.64
489.207	5425.52
489.578	5515.91
489.948	5502.58
490.318	5625.52
490.688	5564.73
491.058	5666.64
491.428	5783.48
491.798	5804.95
492.168	5903.47
492.538	5919.29
492.908	5972.63
493.278	6043.13
493.648	6042.91
494.017	6120.64
494.387	6135.56
494.757	6139.85
495.126	6201.55
495.496	6240.87
495.866	6265.95
496.235	6357.47
496.605	6375.55
496.974	6378.49
497.344	6483.12
497.713	6495.1
498.082	6533.06
498.452	6569.22
498.821	6558.6
499.19	6587.52
499.559	6673.62
499.928	6637.92
500.298	6720.4
500.667	6686.28
501.036	6781.87
501.405	6837.46
501.774	6824.13
502.143	6822.32
502.512	6846.27
502.88	6861.64
503.249	6868.2
503.618	6953.16
503.987	6959.94
504.356	7003.78
504.724	7023.22
505.093	7022.77
505.462	6991.13
505.83	7087.62
506.199	7071.58
506.567	7187.96
506.936	7219.15
507.304	7211.01
507.672	7241.07
508.041	7279.26
508.409	7325.58
508.777	7337.34
509.145	7427.95
509.514	7400.16
509.882	7331.91
510.25	7440.61
510.618	7450.1
510.986	7462.53
511.354	7526.03
511.722	7536.43
512.09	7568.52
512.458	7560.15
512.826	7580.94
513.193	7661.39
513.561	7578.23
513.929	7643.54
514.297	7709.3
514.664	7726.25
515.032	7702.07
515.4	7788.62
515.767	7730.32
516.135	7801.5
516.502	7716.31
516.869	7841.28
517.237	7848.96
517.604	7839.02
517.972	7826.81
518.339	7867.04
518.706	7813.93
519.073	7881.05
519.44	7872.46
519.808	7986.81
520.175	7893.48
520.542	7976.64
520.909	7985.23
521.276	7987.49
521.643	8016.19
522.009	8052.57
522.376	8074.49
522.743	8095.51
523.11	8157.88
523.477	8153.36
523.843	8167.6
524.21	8240.81
524.577	8261.6
524.943	8203.53
525.31	8221.83
525.676	8300.7
526.043	8283.75
526.409	8341.15
526.776	8363.97
527.142	8391.77
527.508	8334.82
527.874	8404.65
528.241	8434.93
528.607	8434.48
528.973	8413.24
529.339	8398.55
529.705	8453.46
530.071	8532.78
530.437	8561.94
530.803	8521.71
531.169	8417.98
531.535	8420.02
531.901	8471.09
532.267	8474.71
532.632	8514.48
532.998	8516.29
533.364	8539.56
533.73	8508.15
534.095	8492.33
534.461	8545.89
534.826	8584.76
535.192	8514.25
535.557	8543.18
535.923	8534.59
536.288	8573.24
536.653	8582.73
537.019	8466.35
537.384	8481.49
537.749	8543.63
538.114	8479.68
538.479	8436.29
538.845	8505.67
539.21	8483.52
539.575	8499.79
539.94	8444.2
540.305	8454.37
540.67	8414.37
541.034	8393.13
541.399	8477.87
541.764	8448.72
542.129	8367.82
542.494	8415.73
542.858	8436.74
543.223	8374.37
543.587	8417.98
543.952	8404.43
544.316	8367.59
544.681	8315.61
545.045	8375.5
545.41	8401.71
545.774	8288.5
546.138	8265.45
546.503	8293.24
546.867	8333.92
547.231	8354.48
547.595	8318.33
547.959	8201.04
548.324	8265.45
548.688	8307.71
549.052	8261.6
549.416	8184.32
549.779	8220.48
550.143	8166.69
550.507	8279.91
550.871	8256.41
551.235	8150.65
551.599	8230.42
551.962	8229.29
552.326	8229.52
552.689	8223.41
553.053	8167.14
553.417	8130.31
553.78	8193.81
554.143	8161.95
554.507	8158.56
554.87	8161.49
555.234	8188.39
555.597	8119.46
555.96	8158.1
556.323	8186.13
556.686	8196.3
557.05	8203.3
557.413	8160.59
557.776	8152.23
558.139	8233.13
558.502	8156.97
558.865	8161.95
559.228	8219.8
559.59	8238.33
559.953	8233.58
560.316	8265.9
560.679	8262.73
561.041	8193.58
561.404	8282.17
561.767	8304.77
562.129	8262.73
562.492	8311.1
562.854	8271.77
563.217	8296.63
563.579	8231.1
563.941	8334.15
564.304	8367.36
564.666	8394.03
565.028	8429.74
565.39	8367.59
565.753	8442.17
566.115	8428.38
566.477	8495.72
566.839	8462.96
567.201	8492.33
567.563	8523.29
567.925	8488.27
568.287	8516.51
568.648	8535.95
569.01	8627.02
569.372	8589.73
569.734	8620.47
570.095	8648.49
570.457	8682.84
570.819	8654.36
571.18	8657.07
571.542	8660.24
571.903	8691.88
572.265	8726
572.626	8704.31
572.987	8796.51
573.349	8697.53
573.71	8826.79
574.071	8801.7
574.432	8786.56
574.794	8844.19
575.155	8888.71
575.516	8867.69
575.877	8902.49
576.238	8931.19
576.599	8950.4
576.96	8942.26
577.32	8940.91
577.681	8988.37
578.042	9065.88
578.403	8938.2
578.763	9023.17
579.124	9068.36
579.485	9043.05
579.845	9065.65
580.206	9083.5
580.566	9100.68
580.927	9127.8
581.287	9121.7
581.648	9214.8
582.008	9211.41
582.368	9189.94
582.728	9176.16
583.089	9141.36
583.449	9232.2
583.809	9185.42
584.169	9337.73
584.529	9274.91
584.889	9346.77
585.249	9294.57
585.609	9286.66
585.969	9323.95
586.329	9291.63
586.688	9344.97
587.048	9405.76
587.408	9291.63
587.768	9313.33
588.127	9337.06
588.487	9336.15
588.846	9435.13
589.206	9342.48
589.565	9406.66
589.925	9419.99
590.284	9406.89
590.643	9438.75
591.003	9443.95
591.362	9442.82
591.721	9479.88
592.08	9455.02
592.44	9518.29
592.799	9530.27
593.158	9507.9
593.517	9485.98
593.876	9516.49
594.235	9480.33
594.593	9512.65
594.952	9574.11
595.311	9477.39
595.67	9532.98
596.029	9595.81
596.387	9544.51
596.746	9597.84
597.104	9586.32
597.463	9603.04
597.822	9585.19
598.18	9596.94
598.538	9542.48
598.897	9690.27
599.255	9588.8
599.613	9647.33
599.972	9682.81
600.33	9632.42
600.688	9581.57
601.046	9593.1
601.404	9705.86
601.762	9622.7
602.12	9731.4
602.478	9697.95
602.836	9698.63
603.194	9635.35
603.552	9685.3
603.91	9653.66
604.268	9680.55
604.625	9606.88
604.983	9744.05
605.341	9641.23
605.698	9772.07
606.056	9797.16
606.413	9735.01
606.771	9808
607.128	9792.86
607.485	9782.47
607.843	9774.11
608.2	9876.7
608.557	9808
608.914	9788.12
609.272	9824.28
609.629	9838.51
609.986	9876.93
610.343	9918.74
610.7	9919.41
611.057	9882.58
611.414	9851.17
611.771	9886.19
612.127	9930.71
612.484	9883.94
612.841	9945.63
613.198	9869.7
613.554	9948.11
613.911	9949.47
614.267	9934.1
614.624	9942.24
614.98	9992.86
615.337	10006.64
615.693	9984.05
616.05	9934.1
616.406	10012.29
616.762	9998.51
617.118	10046.42
617.475	10059.75
617.831	10005.06
618.187	10067.21
618.543	10057.26
618.899	10108.11
619.255	10071.05
619.611	10097.26
619.967	10148.79
620.323	10161.44
620.678	10066.53
621.034	10042.8
621.39	10070.37
621.746	10048.45
622.101	10157.83
622.457	10089.35
622.812	10069.47
623.168	10073.31
623.523	10113.53
623.879	10108.79
624.234	10078.73
624.589	10158.5
624.945	10128.45
625.3	10098.39
625.655	10116.7
626.01	10113.31
626.365	10098.62
626.72	10022.01
627.075	10145.17
627.43	10076.02
627.785	10040.54
628.14	10036.02
628.495	10081.22
628.85	10082.8
629.205	10047.09
629.559	10101.56
629.914	10003.25
630.269	10063.59
630.623	9954.89
630.978	9994.44
631.332	10080.09
631.687	9982.69
632.041	10036.02
632.396	9970.26
632.75	9948.57
633.104	9993.31
633.459	9840.55
633.813	9921.45
634.167	9919.19
634.521	9969.81
634.875	9944.95
635.229	9918.51
635.583	9855.24
635.937	9896.59
636.291	9916.48
636.645	9879.87
636.999	9808
637.352	9821.34
637.706	9801.9
638.06	9793.54
638.413	9763.26
638.767	9761.45
639.121	9775.46
639.474	9686.43
639.828	9764.39
640.181	9711.06
640.534	9732.07
640.888	9608.69
641.241	9682.13
641.594	9701.57
641.947	9669.48
642.301	9688.01
642.654	9676.26
643.007	9693.66
643.36	9733.88
643.713	9636.48
644.066	9689.59
644.419	9629.48
644.771	9523.04
645.124	9511.52
645.477	9503.38
645.83	9399.2
646.182	9349.26
646.535	9367.79
646.888	9335.02
647.24	9257.74
647.593	9322.59
647.945	9301.8
648.298	9274.01
648.65	9281.46
649.002	9259.54
649.355	9340.67
649.707	9331.18
650.059	9373.44
650.411	9463.38
650.763	9453.21
651.115	9524.62
651.467	9463.38
651.819	9569.59
652.171	9533.89
652.523	9451.18
652.875	9425.87
653.227	9434
653.578	9481.01
653.93	9544.73
654.282	9384.74
654.633	9492.31
654.985	9468.58
655.337	9520.78
655.688	9463.61
656.039	9539.76
656.391	9444.4
656.742	9464.06
657.094	9482.14
657.445	9524.85
657.796	9512.65
658.147	9467.67
658.498	9445.3
658.849	9453.21
659.2	9475.58
659.551	9360.56
659.902	9442.82
660.253	9462.03
660.604	9438.52
660.955	9464.74
661.306	9476.49
661.656	9436.72
662.007	9450.73
662.358	9474.23
662.708	9466.32
663.059	9433.55
663.409	9388.13
663.76	9398.07
664.11	9461.12
664.461	9526.66
664.811	9492.53
665.161	9480.1
665.511	9470.39
665.862	9491.85
666.212	9514.45
666.562	9448.69
666.912	9402.59
667.262	9436.49
667.612	9446.21
667.962	9512.65
668.312	9544.51
668.662	9516.49
669.011	9490.05
669.361	9384.74
669.711	9447.56
670.06	9451.63
670.41	9465.41
670.76	9353.55
671.109	9455.02
671.459	9435.36
671.808	9405.08
672.157	9388.58
672.507	9354.46
672.856	9355.36
673.205	9366.43
673.554	9427.9
673.904	9361.69
674.253	9403.72
674.602	9351.07
674.951	9248.02
675.3	9159.43
675.649	9380.45
675.998	9246.44
676.346	9329.83
676.695	9364.4
677.044	9300
677.393	9311.75
677.741	9382.93
678.09	9278.3
678.438	9246.89
678.787	9318.07
679.135	9270.17
679.484	9154.24
679.832	9241.92
680.181	9170.06
680.529	9200.79
680.877	9156.04
681.225	9195.59
681.573	9211.18
681.922	9107.91
682.27	9123.5
682.618	9146.78
682.966	9075.82
683.314	9141.13
683.661	9093.9
684.009	9033.11
684.357	9012.55
684.705	8934.81
685.053	9001.47
685.4	8952.21
685.748	8950.85
686.095	8913.57
686.443	8904.53
686.79	8839.22
687.138	8891.64
687.485	8885.09
687.832	8881.93
688.18	8774.13
688.527	8738.88
688.874	8815.94
689.221	8777.75
689.568	8731.87
689.915	8719.67
690.262	8654.59
690.609	8699.56
690.956	8649.39
691.303	8669.28
691.65	8559.22
691.997	8573.69
692.344	8587.02
692.69	8488.49
693.037	8513.12
693.383	8381.6
693.73	8413.69
694.077	8416.85
694.423	8388.16
694.769	8361.72
695.116	8318.1
695.462	8360.36
695.808	8327.14
696.155	8276.75
696.501	8263.86
696.847	8183.41
697.193	8136.64
697.539	8207.82
697.885	8133.92
698.231	8123.98
698.577	8123.08
698.923	8052.57
699.269	8010.54
699.614	7980.71
699.96	8018.9
700.306	7953.59
700.651	7975.96
700.997	7876.76
701.342	7880.37
701.688	7826.36
702.033	7793.59
702.379	7777.1
702.724	7752.47
703.069	7723.09
703.415	7727.61
703.76	7717.21
704.105	7696.42
704.45	7606.25
704.795	7610.32
705.14	7545.69
705.485	7531.45
705.83	7547.5
706.175	7557.67
706.52	7509.99
706.865	7479.25
707.209	7496.88
707.554	7435.64
707.899	7467.05
708.243	7385.92
708.588	7346.6
708.932	7310.22
709.277	7248.3
709.621	7355.41
709.966	7292.36
710.31	7308.18
710.654	7203.1
710.998	7266.15
711.342	7227.51
711.687	7225.25
712.031	7153.61
712.375	7139.6
712.719	7156.78
713.063	7082.2
713.407	7166.04
713.75	7108.41
714.094	7093.5
714.438	7095.08
714.782	7082.2
715.125	7055.53
715.469	7024.58
715.812	7009.89
716.156	7030.45
716.499	6985.25
716.843	6977.34
717.186	6943.9
717.53	6923.56
717.873	6965.59
718.216	6941.87
718.559	6953.62
718.902	6891.92
719.246	6878.59
719.589	6882.66
719.932	6912.26
720.275	6861.19
720.617	6877.69
720.96	6800.63
721.303	6842.43
721.646	6870.91
721.989	6770.12
722.331	6840.63
722.674	6784.13
723.016	6792.26
723.359	6824.81
723.701	6821.42
724.044	6765.15
724.386	6746.16
724.729	6791.13
725.071	6766.28
725.413	6738.93
725.755	6780.74
726.097	6730.57
726.439	6721.31
726.782	6679.27
727.124	6743.45
727.465	6696.9
727.807	6752.27
728.149	6731.25
728.491	6699.16
728.833	6718.82
729.175	6689.67
729.516	6696.22
729.858	6716.79
730.199	6665.71
730.541	6657.13
730.882	6674.3
731.224	6663.23
731.565	6685.6
731.906	6628.65
732.248	6642.21
732.589	6657.35
732.93	6568.54
733.271	6622.78
733.612	6626.39
733.953	6651.25
734.294	6635.66
734.635	6619.84
734.976	6637.69
735.317	6665.49
735.658	6664.81
735.999	6641.76
736.339	6685.15
736.68	6714.53
737.021	6611.7
737.361	6643.79
737.702	6648.09
738.042	6715.66
738.383	6675.66
738.723	6704.81
739.063	6651.25
739.404	6727.63
739.744	6680.4
740.084	6699.84
740.424	6687.86
740.764	6730.8
741.104	6669.56
741.444	6703.23
741.784	6736.9
742.124	6773.06
742.464	6785.03
742.804	6802.66
743.143	6757.24
743.483	6766.05
743.823	6715.66
744.162	6754.75
744.502	6834.98
744.841	6828.65
745.181	6865.48
745.52	6874.52
745.86	6885.6
746.199	6930.79
746.538	6889.21
746.877	6996.55
747.216	6986.16
747.556	7037
747.895	7025.93
748.234	7079.49
748.573	7124.91
748.911	7163.33
749.25	7223.21
749.589	7234.74
749.928	7306.6
750.267	7369.2
750.605	7373.04
750.944	7452.59
751.283	7509.76
751.621	7569.87
751.96	7597.44
752.298	7632.47
752.636	7749.98
752.975	7805.35
753.313	7829.98
753.651	7888.06
753.989	7933.7
754.327	8080.59
754.666	8123.98
755.004	8239.46
755.342	8326.24
755.679	8443.52
756.017	8469.28
756.355	8631.76
756.693	8695.94
757.031	8797.64
757.368	8846.9
757.706	8928.71
758.044	9041.25
758.381	9195.82
758.719	9261.35
759.056	9402.14
759.394	9474.91
759.731	9595.13
760.068	9714
760.405	9785.63
760.743	9933.88
761.08	10081.44
761.417	10169.35
761.754	10264.94
762.091	10401.66
762.428	10542.45
762.765	10575.89
763.102	10735.21
763.438	10861.08
763.775	10911.03
764.112	11013.85
764.449	11238.02
764.785	11235.54
765.122	11352.6
765.458	11433.05
765.795	11574.96
766.131	11758.46
766.467	11783.55
766.804	11845.92
767.14	11908.74
767.476	12064.89
767.812	12156.42
768.148	12263.08
768.485	12234.83
