Data from hue_22_FLMS001491_00058.txt Node
Date: Tue Feb 07 17:10:20 GMT 2017
User: dcchb
Spectrometer: FLMS00149
Trigger mode: 0
Integration Time (sec): 2.000000E-2
Scans to average: 10
Electric dark correction enabled: true
Nonlinearity correction enabled: false
Boxcar width: 0
XAxis mode: Wavelengths
Number of Pixels in Spectrum: 2048
>>>>>Begin Spectral Data<<<<<
341.393	-27.57
341.776	-27.57
342.16	-27.57
342.543	-72.54
342.927	-72.77
343.31	-65.54
343.693	-56.04
344.077	-69.6
344.46	-58.98
344.843	-57.4
345.226	-44.74
345.61	-29.38
345.993	-6.33
346.376	-16.5
346.759	0.68
347.142	21.69
347.525	32.54
347.908	67.57
348.291	89.72
348.674	94.91
349.057	97.4
349.44	122.71
349.823	162.26
350.206	164.52
350.588	199.54
350.971	206.1
351.354	212.65
351.737	227.11
352.119	247.23
352.502	265.53
352.884	270.73
353.267	297.17
353.65	300.78
354.032	311.86
354.414	306.21
354.797	307.34
355.179	304.62
355.562	311.63
355.944	346.21
356.326	327.45
356.709	344.85
357.091	322.03
357.473	333.78
357.855	349.6
358.238	345.53
358.62	347.11
359.002	326.09
359.384	350.95
359.766	348.01
360.148	338.3
360.53	334.23
360.912	339.65
361.294	324.06
361.676	332.65
362.057	333.78
362.439	341.01
362.821	317.05
363.203	319.54
363.584	312.53
363.966	332.87
364.348	334.68
364.729	323.61
365.111	323.16
365.493	305.98
365.874	329.26
366.256	326.32
366.637	327.9
367.019	313.21
367.4	294.46
367.781	331.97
368.163	294.91
368.544	308.47
368.925	317.96
369.306	315.47
369.688	308.24
370.069	301.01
370.45	306.21
370.831	326.77
371.212	315.92
371.593	305.08
371.974	327
372.355	315.25
372.736	310.05
373.117	319.09
373.498	320.9
373.879	299.65
374.26	327.67
374.641	304.4
375.021	302.82
375.402	306.43
375.783	330.39
376.163	334.23
376.544	314.57
376.925	321.57
377.305	305.75
377.686	337.62
378.066	345.3
378.447	320.44
378.827	337.17
379.208	352.76
379.588	323.83
379.968	340.33
380.349	331.29
380.729	322.7
381.109	334.68
381.489	343.95
381.87	338.07
382.25	329.71
382.63	340.56
383.01	361.12
383.39	338.3
383.77	325.64
384.15	338.52
384.53	357.05
384.91	339.65
385.29	329.48
385.67	349.14
386.049	341.46
386.429	357.05
386.809	340.78
387.189	352.76
387.568	356.6
387.948	336.71
388.328	357.73
388.707	352.08
389.087	362.48
389.466	347.56
389.846	377.17
390.225	349.6
390.605	353.21
390.984	372.87
391.363	360.89
391.743	363.61
392.122	371.29
392.501	361.35
392.881	373.32
393.26	392.53
393.639	372.19
394.018	377.84
394.397	369.03
394.776	380.78
395.155	386.43
395.534	388.92
395.913	389.82
396.292	372.65
396.671	381.23
397.05	379.43
397.429	406.99
397.808	375.13
398.186	392.31
398.565	404.06
398.944	371.97
399.323	383.27
399.701	401.57
400.08	390.27
400.458	397.28
400.837	401.12
401.215	397.28
401.594	417.84
401.972	404.28
402.351	421.46
402.729	414.68
403.107	430.05
403.486	396.6
403.864	399.76
404.242	411.06
404.62	415.81
404.999	406.99
405.377	418.75
405.755	428.24
406.133	414.45
406.511	437.05
406.889	457.84
407.267	429.59
407.645	446.32
408.023	456.49
408.401	436.15
408.779	441.8
409.156	439.08
409.534	442.02
409.912	470.04
410.29	444.96
410.667	475.02
411.045	468.46
411.422	475.24
411.8	466.65
412.178	460.78
412.555	463.04
412.933	469.59
413.31	468.46
413.687	463.94
414.065	498.97
414.442	475.47
414.819	483.6
415.197	486.77
415.574	482.7
415.951	499.87
416.328	500.55
416.705	493.55
417.082	501.46
417.46	494.45
417.837	507.78
418.214	502.13
418.591	510.5
418.967	511.4
419.344	524.28
419.721	487.44
420.098	527.44
420.475	517.27
420.852	527.22
421.228	537.39
421.605	523.6
421.982	523.6
422.358	531.29
422.735	565.41
423.111	523.83
423.488	538.97
423.864	555.69
424.241	542.58
424.617	543.71
424.994	546.65
425.37	557.27
425.746	582.58
426.123	586.2
426.499	571.28
426.875	580.32
427.251	591.85
427.627	581.45
428.003	605.86
428.379	606.54
428.756	598.85
429.132	621.23
429.507	615.8
429.883	614
430.259	615.35
430.635	609.7
431.011	610.15
431.387	625.07
431.763	647.89
432.138	644.95
432.514	627.33
432.89	645.86
433.265	653.77
433.641	690.6
434.016	698.06
434.392	684.28
434.767	687.21
435.143	664.62
435.518	694.22
435.894	674.78
436.269	698.29
436.644	678.85
437.02	677.5
437.395	717.5
437.77	705.07
438.145	739.87
438.52	714.78
438.895	761.11
439.271	749.81
439.646	757.04
440.021	774.22
440.395	728.34
440.77	745.97
441.145	767.44
441.52	758.85
441.895	758.17
442.27	771.51
442.645	762.01
443.019	783.71
443.394	787.55
443.769	798.4
444.143	770.15
444.518	813.09
444.892	808.79
445.267	773.99
445.641	828
446.016	811.05
446.39	812.41
446.764	827.32
447.139	818.28
447.513	808.79
447.887	844.27
448.262	864.84
448.636	846.53
449.01	857.38
449.384	843.14
449.758	854.67
450.132	868.45
450.506	877.94
450.88	898.28
451.254	876.81
451.628	889.02
452.002	892.63
452.376	887.89
452.75	912.97
453.123	933.99
453.497	954.1
453.871	952.52
454.244	940.31
454.618	947.09
454.992	944.16
455.365	970.14
455.739	976.92
456.112	969.01
456.486	995.45
456.859	992.06
457.232	1022.12
457.606	1043.36
457.979	1038.84
458.352	1044.04
458.725	1067.77
459.099	1079.29
459.472	1049.92
459.845	1110.48
460.218	1104.6
460.591	1112.74
460.964	1097.6
461.337	1110.03
461.71	1139.86
462.083	1153.42
462.456	1170.82
462.829	1153.42
463.201	1182.79
463.574	1204.71
463.947	1191.61
464.32	1199.74
464.692	1226.41
465.065	1235.67
465.438	1237.03
465.81	1249.46
466.183	1305.28
466.555	1309.34
466.928	1332.17
467.3	1334.65
467.672	1336.24
468.045	1381.21
468.417	1386.86
468.789	1350.25
469.161	1419.17
469.534	1420.3
469.906	1426.63
470.278	1455.78
470.65	1467.08
471.022	1472.28
471.394	1536.91
471.766	1542.33
472.138	1543.46
472.51	1560.18
472.882	1607.42
473.253	1641.54
473.625	1660.07
473.997	1673.85
474.369	1679.73
474.74	1704.14
475.112	1767.41
475.484	1790.46
475.855	1830.46
476.227	1862.55
476.598	1881.08
476.97	1895.77
477.341	1956.33
477.713	1960.85
478.084	1959.95
478.455	2024.13
478.827	2089.89
479.198	2127.18
479.569	2120.17
479.94	2184.8
480.311	2236.33
480.682	2252.6
481.053	2317.45
481.424	2395.19
481.795	2382.54
482.166	2428.18
482.537	2469.99
482.908	2530.55
483.279	2576.43
483.65	2598.12
484.021	2640.38
484.391	2716.31
484.762	2732.13
485.133	2754.73
485.503	2817.55
485.874	2908.85
486.244	2939.81
486.615	3001.28
486.985	3018.68
487.356	3093.48
487.726	3114.04
488.097	3169.86
488.467	3188.62
488.837	3263.87
489.207	3317.43
489.578	3346.8
489.948	3410.98
490.318	3455.05
490.688	3482.85
491.058	3552.9
491.428	3558.55
491.798	3678.1
492.168	3756.06
492.538	3739.56
492.908	3777.98
493.278	3808.94
493.648	3867.69
494.017	3888.94
494.387	3952.89
494.757	3999.89
495.126	4010.97
495.496	4085.09
495.866	4148.14
496.235	4167.57
496.605	4159.44
496.974	4211.41
497.344	4223.62
497.713	4272.66
498.082	4345.65
498.452	4359.21
498.821	4354.91
499.19	4369.38
499.559	4479.2
499.928	4436.72
500.298	4515.59
500.667	4533.67
501.036	4570.95
501.405	4594.46
501.774	4626.77
502.143	4646.66
502.512	4697.73
502.88	4714.9
503.249	4711.06
503.618	4749.71
503.987	4838.06
504.356	4818.86
504.724	4876.71
505.093	4859.31
505.462	4971.85
505.83	4916.03
506.199	4964.16
506.567	5041
506.936	5059.53
507.304	5052.97
507.672	5103.59
508.041	5106.08
508.409	5140.2
508.777	5137.49
509.145	5216.36
509.514	5172.29
509.882	5244.38
510.25	5232.4
510.618	5281.22
510.986	5295
511.354	5330.48
511.722	5412.97
512.09	5450.25
512.458	5420.42
512.826	5479.4
513.193	5493.87
513.561	5483.25
513.929	5502.91
514.297	5611.83
514.664	5579.74
515.032	5626.97
515.4	5676.23
515.767	5575.45
516.135	5682.79
516.502	5610.02
516.869	5747.42
517.237	5740.19
517.604	5766.85
517.972	5800.07
518.339	5835.78
518.706	5826.06
519.073	5895.21
519.44	5865.38
519.808	5904.03
520.175	5952.39
520.542	6001.42
520.909	6018.15
521.276	6025.6
521.643	6113.06
522.009	6087.75
522.376	6123
522.743	6146.28
523.11	6164.36
523.477	6288.65
523.843	6273.73
524.21	6322.55
524.577	6339.27
524.943	6383.11
525.31	6442.54
525.676	6463.33
526.043	6522.77
526.409	6510.11
526.776	6585.36
527.142	6583.33
527.508	6634.85
527.874	6687.28
528.241	6654.29
528.607	6721.86
528.973	6749.2
529.339	6723.21
529.705	6838.46
530.071	6858.8
530.437	6920.04
530.803	6955.75
531.169	6955.3
531.535	6989.65
531.901	7001.17
532.267	7017.44
532.632	7104.67
532.998	7221.73
533.364	7200.26
533.73	7193.48
534.095	7205.46
534.461	7273.93
534.826	7305.34
535.192	7325.68
535.557	7358.68
535.923	7346.7
536.288	7393.93
536.653	7425.79
537.019	7454.95
537.384	7491.78
537.749	7489.29
538.114	7441.16
538.479	7590.31
538.845	7544.66
539.21	7598.44
539.575	7623.08
539.94	7661.27
540.305	7681.61
540.67	7687.93
541.034	7790.3
541.399	7755.73
541.764	7836.18
542.129	7863.97
542.494	7870.3
542.858	7919.79
543.223	7932.22
543.587	7993.46
543.952	7984.87
544.316	8063.29
544.681	8032.33
545.045	8130.86
545.41	8173.34
545.774	8179.22
546.138	8190.52
546.503	8222.38
546.867	8236.62
547.231	8326.33
547.595	8342.83
547.959	8365.2
548.324	8387.8
548.688	8399.78
549.052	8447.69
549.416	8486.78
549.779	8422.15
550.143	8528.36
550.507	8563.84
550.871	8569.49
551.235	8641.81
551.599	8609.04
551.962	8657.17
552.326	8718.19
552.689	8719.09
553.053	8736.27
553.417	8704.86
553.78	8817.62
554.143	8848.35
554.507	8851.29
554.87	8798.19
555.234	8992.76
555.597	8926.77
555.96	9007.22
556.323	8958.18
556.686	9039.99
557.05	9057.39
557.413	9120.44
557.776	9129.7
558.139	9187.1
558.502	9169.93
558.865	9250.15
559.228	9261
559.59	9363.14
559.953	9290.83
560.316	9416.93
560.679	9322.24
561.041	9405.63
561.404	9462.35
561.767	9543.48
562.129	9486.98
562.492	9587.32
562.854	9591.84
563.217	9612.4
563.579	9674.55
563.941	9597.94
564.304	9700.08
564.666	9817.14
565.028	9830.48
565.39	9787.99
565.753	9950.47
566.115	9884.26
566.477	9925.16
566.839	10065.72
567.201	10119.96
567.563	10000.19
567.925	10076.35
568.287	10180.75
568.648	10090.13
569.01	10239.5
569.372	10334.19
569.734	10311.14
570.095	10305.49
570.457	10399.73
570.819	10349.33
571.18	10387.52
571.542	10451.02
571.903	10502.77
572.265	10599.27
572.626	10603.56
572.987	10636.56
573.349	10713.84
573.71	10766.5
574.071	10847.4
574.432	10890.11
574.794	10972.14
575.155	10989.99
575.516	11044
575.877	11163.55
576.238	11191.57
576.599	11335.52
576.96	11300.72
577.32	11435.63
577.681	11489.64
578.042	11601.73
578.403	11717.43
578.763	11742.52
579.124	11903.87
579.485	11908.39
579.845	12074.26
580.206	12135.73
580.566	12340.01
580.927	12417.07
581.287	12557.41
581.648	12646
582.008	12789.27
582.368	12902.49
582.728	13138.86
583.089	13256.15
583.449	13378.18
583.809	13619.98
584.169	13723.71
584.529	13818.17
584.889	14147.42
585.249	14314.43
585.609	14437.81
585.969	14713.96
586.329	14861.08
586.688	15034.18
587.048	15394.4
587.408	15541.74
587.768	15798.23
588.127	16032.8
588.487	16182.85
588.846	16612.9
589.206	16820.57
589.565	16871.19
589.925	17231.19
590.284	17519.54
590.643	17862.58
591.003	18085.17
591.362	18431.61
591.721	18700.53
592.08	18946.85
592.44	19276.78
592.799	19558.13
593.158	19877.67
593.517	20227.04
593.876	20446.02
594.235	20766.46
594.593	21100.46
594.952	21412.32
595.311	21684.63
595.67	22004.85
596.029	22489.35
596.387	22770.93
596.746	23063.35
597.104	23237.58
597.463	23647.97
597.822	24011.8
598.18	24278.68
598.538	24468.96
598.897	24885.22
599.255	25028.72
599.613	25731.98
599.972	25807.23
600.33	26156.83
600.688	26387.1
601.046	26686.3
601.404	27040.64
601.762	27426.62
602.12	27766.5
602.478	28168.75
602.836	28424.34
603.194	28563.32
603.552	29021.84
603.91	29162.4
604.268	29485.78
604.625	29645.1
604.983	30055.25
605.341	30082.37
605.698	30565.07
606.056	30852.97
606.413	31133.64
606.771	31669.22
607.128	31806.62
607.485	31955.77
607.843	32227.63
608.2	32640.72
608.557	32991.67
608.914	33096.3
609.272	33378.11
609.629	33556.41
609.986	34042.72
610.343	33913.46
610.7	34512.54
611.057	34571.52
611.414	34679.77
611.771	34894.68
612.127	35207.89
612.484	35443.36
612.841	35812.84
613.198	35856.91
613.554	36053.29
613.911	36362.21
614.267	36507.29
614.624	36555.2
614.98	36863.44
615.337	37121.96
615.693	37236.99
616.05	37425.46
616.406	37810.31
616.762	37775.96
617.118	37897.31
617.475	38017.08
617.831	38375.26
618.187	38491.64
618.543	38683.28
618.899	38924.4
619.255	39027.67
619.611	39076.03
619.967	39383.15
620.323	39370.26
620.678	39461.11
621.034	39599.18
621.39	39665.4
621.746	39725.51
622.101	40158.27
622.457	40057.7
622.812	40221.54
623.168	40429.9
623.523	40542.66
623.879	40793.96
624.234	40499.95
624.589	40749.21
624.945	40963.67
625.3	40910.56
625.655	40953.27
626.01	41191.91
626.365	41266.03
626.72	41219.48
627.075	41376.31
627.43	41416.09
627.785	41466.25
628.14	41526.37
628.495	41605.91
628.85	41598.68
629.205	41602.3
629.559	41794.38
629.914	41755.96
630.269	41950.31
630.623	41795.06
630.978	41797.55
631.332	41977.43
631.687	42129.51
632.041	41952.57
632.396	42085.45
632.75	42007.48
633.104	42126.35
633.459	42003.42
633.813	42173.13
634.167	42045
634.521	42183.07
634.875	42292.9
635.229	42267.59
635.583	42052.45
635.937	41976.07
636.291	42130.19
636.645	42141.94
636.999	42096.75
637.352	42195.73
637.706	41927.26
638.06	42108.95
638.413	42148.95
638.767	42042.51
639.121	42191.21
639.474	41883.42
639.828	42062.4
640.181	41952.12
640.534	42135.62
640.888	41878.67
641.241	41873.7
641.594	41997.09
641.947	42001.83
642.301	42008.84
642.654	42048.84
643.007	42065.79
643.36	41945.34
643.713	41864.44
644.066	42185.78
644.419	41852.23
644.771	41728.85
645.124	41266.49
645.477	41242.08
645.83	41018.36
646.182	40855.87
646.535	40882.77
646.888	40908.98
647.24	40781.3
647.593	41007.51
647.945	40908.08
648.298	40682.55
648.65	40727.06
649.002	40534.98
649.355	40587.41
649.707	40616.79
650.059	40813.16
650.411	41235.98
650.763	41394.17
651.115	41733.14
651.467	41574.73
651.819	41657.66
652.171	41586.48
652.523	41591.45
652.875	41424.22
653.227	41329.76
653.578	41740.6
653.93	41518.91
654.282	41429.65
654.633	41384.45
654.985	41413.83
655.337	41549.87
655.688	41494.73
656.039	41669.86
656.391	41345.35
656.742	41432.58
657.094	41509.87
657.445	41512.35
657.796	41385.13
658.147	41329.31
658.498	41328.86
658.849	41416.76
659.2	41368.4
659.551	41231.68
659.902	41449.31
660.253	41118.69
660.604	41365.69
660.955	41275.52
661.306	41311.68
661.656	41235.07
662.007	41228.07
662.358	41381.28
662.708	41264.9
663.059	41303.09
663.409	41035.98
663.76	41296.99
664.11	41240.95
664.461	41412.24
664.811	41336.99
665.161	41246.37
665.511	41145.81
665.862	41157.34
666.212	41326.6
666.562	41322.98
666.912	41198.92
667.262	41115.53
667.612	41066.72
667.962	41225.58
668.312	41080.95
668.662	41305.13
669.011	41059.03
669.361	41084.34
669.711	41184.23
670.06	41182.87
670.41	40994.4
670.76	40909.43
671.109	41150.78
671.459	40972.71
671.808	41045.7
672.157	41046.6
672.507	40736.56
672.856	40899.04
673.205	41037.11
673.554	41018.13
673.904	40802.54
674.253	41109.65
674.602	41174.28
674.951	40336.79
675.3	40304.7
675.649	40794.18
675.998	40714.41
676.346	40837.8
676.695	40890.68
677.044	40498.37
677.393	40754.63
677.741	40673.96
678.09	40537.92
678.438	40558.71
678.787	40567.75
679.135	40672.15
679.484	40443.23
679.832	40382.22
680.181	40266.96
680.529	40338.37
680.877	40454.76
681.225	40348.54
681.573	40581.98
681.922	40299.51
682.27	40147.19
682.618	40143.58
682.966	40085.05
683.314	40217.93
683.661	39913.07
684.009	39815
684.357	39887.76
684.705	39854.09
685.053	39817.03
685.4	39676.24
685.748	39576.36
686.095	39637.83
686.443	39353.77
686.79	39408.91
687.138	39472.41
687.485	39230.15
687.832	39259.53
688.18	39221.79
688.527	39144.73
688.874	39204.39
689.221	39065.41
689.568	38847.34
689.915	38720.79
690.262	38818.19
690.609	38671.07
690.956	38603.28
691.303	38626.1
691.65	38345.21
691.997	38440.57
692.344	38286.9
692.69	38149.96
693.037	38164.19
693.383	37883.75
693.73	38084.42
694.077	37800.59
694.423	37795.62
694.769	37601.5
695.116	37602.18
695.462	37547.04
695.808	37386.14
696.155	37476.75
696.501	37246.7
696.847	37189.76
697.193	37015.75
697.539	37057.78
697.885	36759.49
698.231	36763.55
698.577	36723.33
698.923	36679.49
699.269	36463.45
699.614	36425.93
699.96	36365.15
700.306	36434.97
700.651	36047.87
700.997	36112.27
701.342	36100.07
701.688	36025.72
702.033	35860.98
702.379	35887.87
702.724	35612.4
703.069	35842.45
703.415	35476.58
703.76	35362.23
704.105	35483.81
704.45	35360.88
704.795	35065.97
705.14	35053.77
705.485	35089.92
705.83	34801.12
706.175	34890.61
706.52	34795.24
706.865	34709.37
707.209	34689.48
707.554	34715.47
707.899	34636.15
708.243	34428.02
708.588	34353.45
708.932	34126.33
709.277	34115.94
709.621	34217.18
709.966	33929.5
710.31	34008.15
710.654	33780.58
710.998	33797.76
711.342	33844.99
711.687	33691.32
712.031	33546.01
712.375	33386.69
712.719	33568.38
713.063	33471.66
713.407	33505.33
713.75	33346.24
714.094	33364.77
714.438	33189.86
714.782	33124.33
715.125	33135.85
715.469	33212.91
715.812	32981.73
716.156	32790.32
716.499	33033.03
716.843	32812.7
717.186	32620.16
717.53	32774.28
717.873	32675.3
718.216	32715.75
718.559	32452.93
718.902	32260.17
719.246	32396.89
719.589	32314.4
719.932	32111.47
720.275	32175.65
720.617	32238.25
720.96	31952.15
721.303	32069.67
721.646	31964.81
721.989	31790.58
722.331	31834.42
722.674	31902.44
723.016	31873.74
723.359	31753.74
723.701	31801.2
724.044	31503.58
724.386	31320.53
724.729	31652.95
725.071	31520.53
725.413	31507.19
725.755	31513.75
726.097	31204.38
726.439	31060.43
726.782	31055
727.124	31313.53
727.465	31070.6
727.807	31150.37
728.149	31007.09
728.491	30927.1
728.833	31013.87
729.175	30902.01
729.516	30832.64
729.858	30810.49
730.199	30851.39
730.541	30707.67
730.882	30661.34
731.224	30904.72
731.565	30488.92
731.906	30650.95
732.248	30636.26
732.589	30523.94
732.93	30291.41
733.271	30326.21
733.612	30348.58
733.953	30289.37
734.294	30232.2
734.635	30098.19
734.976	30359.43
735.317	30079.44
735.658	30082.15
735.999	30062.49
736.339	30123.73
736.68	30087.8
737.021	30041.92
737.361	29864.3
737.702	29940.68
738.042	29790.4
738.383	29689.39
738.723	29823.62
739.063	29641.03
739.404	29773.91
739.744	29525.33
740.084	29610.07
740.424	29591.99
740.764	29511.77
741.104	29660.46
741.444	29450.53
741.784	29415.5
742.124	29336.86
742.464	29357.65
742.804	29278.55
743.143	29289.17
743.483	29256.86
743.823	29043.98
744.162	29042.4
744.502	29212.79
744.841	28988.39
745.181	29168.05
745.52	29032.91
745.86	29023.19
746.199	28853.7
746.538	28975.96
746.877	28995.17
747.216	28911.56
747.556	28839.47
747.895	28831.33
748.234	28735.74
748.573	28611.68
748.911	28681.96
749.25	28710.88
749.589	28535.52
749.928	28519.02
750.267	28676.08
750.605	28534.39
750.944	28382.76
751.283	28298.24
751.621	28354.73
751.96	28322.42
752.298	28302.31
752.636	28278.35
752.975	28075.87
753.313	28008.08
753.651	28145.25
753.989	27850.79
754.327	27918.59
754.666	27828.19
755.004	27770.34
755.342	27813.96
755.679	27793.85
756.017	27652.38
756.355	27775.09
756.693	27573.74
757.031	27612.83
757.368	27382.33
757.706	27455.32
758.044	27329
758.381	27256.68
758.719	27202.22
759.056	27124.26
759.394	27210.58
759.731	27003.36
760.068	26971.72
