Data from hue_38_FLMS001491_00090.txt Node
Date: Tue Feb 07 17:32:07 GMT 2017
User: dcchb
Spectrometer: FLMS00149
Trigger mode: 0
Integration Time (sec): 2.000000E-2
Scans to average: 10
Electric dark correction enabled: true
Nonlinearity correction enabled: false
Boxcar width: 0
XAxis mode: Wavelengths
Number of Pixels in Spectrum: 2048
>>>>>Begin Spectral Data<<<<<
341.393	-17.2
341.776	-17.2
342.16	-17.2
342.543	-55.17
342.927	-61.27
343.31	-72.57
343.693	-56.3
344.077	-51.1
344.46	-67.82
344.843	-52.68
345.226	-44.55
345.61	-28.73
345.993	-12.46
346.376	-13.36
346.759	18.5
347.142	18.28
347.525	42.46
347.908	60.08
348.291	70.7
348.674	87.43
349.057	102.12
349.44	118.84
349.823	154.32
350.206	170.36
350.588	200.87
350.971	217.59
351.354	227.76
351.737	257.82
352.119	267.08
352.502	263.47
352.884	310.02
353.267	280.87
353.65	312.73
354.032	298.27
354.414	292.17
354.797	307.99
355.179	335.78
355.562	311.6
355.944	328.55
356.326	324.26
356.709	305.73
357.091	334.88
357.473	364.93
357.855	338.95
358.238	351.83
358.62	346.86
359.002	355.22
359.384	358.61
359.766	326.97
360.148	325.61
360.53	334.88
360.912	356.8
361.294	325.39
361.676	343.47
362.057	329.68
362.439	341.88
362.821	317.03
363.203	326.29
363.584	318.38
363.966	307.08
364.348	327.19
364.729	294.2
365.111	331.04
365.493	329.68
365.874	319.29
366.256	326.29
366.637	336.23
367.019	312.05
367.4	322
367.781	320.19
368.163	301.66
368.544	333.52
368.925	304.6
369.306	331.04
369.688	308.66
370.069	322
370.45	342.79
370.831	305.05
371.212	326.74
371.593	317.25
371.974	298.95
372.355	305.27
372.736	331.94
373.117	316.8
373.498	326.06
373.879	327.65
374.26	317.7
374.641	341.21
375.021	314.99
375.402	346.86
375.783	317.25
376.163	342.56
376.544	331.49
376.925	339.4
377.305	313.64
377.686	353.63
378.066	347.76
378.447	357.48
378.827	350.92
379.208	332.84
379.588	343.47
379.968	334.88
380.349	333.52
380.729	330.36
381.109	337.59
381.489	347.53
381.87	345.05
382.25	352.96
382.63	327.42
383.01	355.22
383.39	340.08
383.77	371.04
384.15	354.09
384.53	361.32
384.91	356.35
385.29	336.91
385.67	341.43
386.049	360.41
386.429	353.41
386.809	354.09
387.189	358.15
387.568	363.13
387.948	355.89
388.328	347.08
388.707	338.04
389.087	354.99
389.466	363.58
389.846	378.04
390.225	364.26
390.605	381.66
390.984	370.13
391.363	371.49
391.743	371.04
392.122	363.35
392.501	373.3
392.881	384.37
393.26	380.53
393.639	389.34
394.018	372.62
394.397	365.39
394.776	402.22
395.155	369
395.534	387.53
395.913	376.46
396.292	369
396.671	395.44
397.05	387.31
397.429	392.05
397.808	390.92
398.186	367.87
398.565	398.15
398.944	392.96
399.323	404.48
399.701	402
400.08	405.84
400.458	410.13
400.837	422.79
401.215	404.48
401.594	429.56
401.972	418.94
402.351	411.03
402.729	401.32
403.107	410.36
403.486	433.18
403.864	405.16
404.242	417.81
404.62	427.31
404.999	414.42
405.377	447.64
405.755	445.84
406.133	414.65
406.511	435.44
406.889	428.44
407.267	450.13
407.645	416.01
408.023	444.25
408.401	435.67
408.779	436.12
409.156	451.71
409.534	448.55
409.912	446.74
410.29	467.3
410.667	457.36
411.045	468.66
411.422	478.83
411.8	459.39
412.178	496.23
412.555	474.54
412.933	482.9
413.31	486.74
413.687	485.61
414.065	490.58
414.442	493.97
414.819	519.05
415.197	497.59
415.574	512.95
415.951	489.68
416.328	500.98
416.705	496
417.082	517.02
417.46	506.63
417.837	514.76
418.214	520.18
418.591	525.61
418.967	546.4
419.344	521.09
419.721	528.32
420.098	532.84
420.475	541.2
420.852	534.19
421.228	543.46
421.605	540.75
421.982	552.27
422.358	567.87
422.735	534.42
423.111	557.02
423.488	547.75
423.864	578.71
424.241	577.36
424.617	582.56
424.994	550.92
425.37	559.51
425.746	571.26
426.123	576.23
426.499	596.34
426.875	589.56
427.251	592.72
427.627	605.38
428.003	590.46
428.379	613.51
428.756	622.78
429.132	633.85
429.507	620.52
429.883	635.21
430.259	603.12
430.635	639.28
431.011	661.42
431.387	643.57
431.763	648.09
432.138	652.84
432.514	674.53
432.89	660.07
433.265	646.28
433.641	677.92
434.016	701.2
434.392	672.27
434.767	705.49
435.143	695.55
435.518	682.44
435.894	693.51
436.269	699.84
436.644	715.21
437.02	705.04
437.395	740.07
437.77	709.11
438.145	725.83
438.52	736
438.895	760.63
439.271	733.29
439.646	767.41
440.021	778.71
440.395	762.66
440.77	772.38
441.145	777.8
441.52	797.24
441.895	782.32
442.27	784.81
442.645	798.59
443.019	808.31
443.394	812.61
443.769	816.22
444.143	822.1
444.518	804.92
444.892	825.71
445.267	816.67
445.641	851.7
446.016	846.05
446.39	852.6
446.764	834.98
447.139	846.73
447.513	849.67
447.887	845.15
448.262	881.53
448.636	854.86
449.01	871.14
449.384	867.07
449.758	884.92
450.132	886.05
450.506	885.37
450.88	889.67
451.254	913.85
451.628	902.55
452.002	919.5
452.376	959.04
452.75	933.05
453.123	959.72
453.497	961.08
453.871	965.82
454.244	998.14
454.618	994.3
454.992	992.26
455.365	1011.92
455.739	1001.08
456.112	999.72
456.486	1030.23
456.859	1048.08
457.232	1071.13
457.606	1077.23
457.979	1080.17
458.352	1063.22
458.725	1078.36
459.099	1091.02
459.472	1106.38
459.845	1130.56
460.218	1123.78
460.591	1148.64
460.964	1160.17
461.337	1154.07
461.71	1180.51
462.083	1186.83
462.456	1197.91
462.829	1222.09
463.201	1249.2
463.574	1234.29
463.947	1267.96
464.32	1286.72
464.692	1289.43
465.065	1321.74
465.438	1333.95
465.81	1352.03
466.183	1352.03
466.555	1388.86
466.928	1388.41
467.3	1400.84
467.672	1421.86
468.045	1443.1
468.417	1467.5
468.789	1472.93
469.161	1467.05
469.534	1536.88
469.906	1553.38
470.278	1578.46
470.65	1597.9
471.022	1622.3
471.394	1703.2
471.766	1723.32
472.138	1727.84
472.51	1761.96
472.882	1817.1
473.253	1792.69
473.625	1891.45
473.997	1878.34
474.369	1943.65
474.74	1911.79
475.112	1994.95
475.484	2067.94
475.855	2082.4
476.227	2137.99
476.598	2185.68
476.97	2227.03
477.341	2267.71
477.713	2329.85
478.084	2363.07
478.455	2445.11
478.827	2496.4
479.198	2602.39
479.569	2588.6
479.94	2707.25
480.311	2764.19
480.682	2813.23
481.053	2879.9
481.424	3005.54
481.795	3012.77
482.166	3137.97
482.537	3180.23
482.908	3271.07
483.279	3344.29
483.65	3436.94
484.021	3526.21
484.391	3612.08
484.762	3677.16
485.133	3752.42
485.503	3834.22
485.874	3944.05
486.244	4024.95
486.615	4125.51
486.985	4235.79
487.356	4367.77
487.726	4412.06
488.097	4531.38
488.467	4628.32
488.837	4764.37
489.207	4880.52
489.578	4959.16
489.948	5026.28
490.318	5170.23
490.688	5207.07
491.058	5381.53
491.428	5532.93
491.798	5588.75
492.168	5713.72
492.538	5817.22
492.908	5934.28
493.278	6036.88
493.648	6111.9
494.017	6234.38
494.387	6355.28
494.757	6397.09
495.126	6586.01
495.496	6590.08
495.866	6680.7
496.235	6826.23
496.605	6862.62
496.974	6944.87
497.344	7084.98
497.713	7262.38
498.082	7268.93
498.452	7412.88
498.821	7421.25
499.19	7491.98
499.559	7674.8
499.928	7733.1
500.298	7829.6
500.667	7933.1
501.036	7981.23
501.405	8113.88
501.774	8197.5
502.143	8302.8
502.512	8320.66
502.88	8447.89
503.249	8569.46
503.618	8567.88
503.987	8653.3
504.356	8739.18
504.724	8795.45
505.093	8863.47
505.462	8904.6
505.83	9057.81
506.199	9143.91
506.567	9284.25
506.936	9294.64
507.304	9408.99
507.672	9475.43
508.041	9538.03
508.409	9605.82
508.777	9658.47
509.145	9815.98
509.514	9826.83
509.882	9955.19
510.25	9947.28
510.618	9992.48
510.986	10134.17
511.354	10220.49
511.722	10319.02
512.09	10377.1
512.458	10432.24
512.826	10507.72
513.193	10545.91
513.561	10556.3
513.929	10710.65
514.297	10861.61
514.664	10912.45
515.032	10905.22
515.4	10971.43
515.767	11090.53
516.135	11146.35
516.502	11038.78
516.869	11323.74
517.237	11333.69
517.604	11362.16
517.972	11427.02
518.339	11523.28
518.706	11502.49
519.073	11540.23
519.44	11692.32
519.808	11767.8
520.175	11838.76
520.542	11983.84
520.909	12099.09
521.276	12009.15
521.643	12242.36
522.009	12248.46
522.376	12340.44
522.743	12372.75
523.11	12542.92
523.477	12617.27
523.843	12724.83
524.21	12760.31
524.577	12873.98
524.943	12911.5
525.31	12982.23
525.676	13095.22
526.043	13268.78
526.409	13260.19
526.776	13389.45
527.142	13380.86
527.508	13484.59
527.874	13593.51
528.241	13677.8
528.607	13701.98
528.973	13745.37
529.339	13847.97
529.705	13987.63
530.071	14116.66
530.437	14194.17
530.803	14225.13
531.169	14322.31
531.535	14327.73
531.901	14351.01
532.267	14414.28
532.632	14535.41
532.998	14616.76
533.364	14773.59
533.73	14782.86
534.095	14871.9
534.461	14912.35
534.826	14974.27
535.192	14971.56
535.557	15100.59
535.923	15209.52
536.288	15158.22
536.653	15241.83
537.019	15293.35
537.384	15339.68
537.749	15364.77
538.114	15438.21
538.479	15579
538.845	15669.62
539.21	15602.05
539.575	15754.59
539.94	15798.43
540.305	15836.39
540.67	15820.57
541.034	15874.58
541.399	15969.5
541.764	16096.72
542.129	16150.51
542.494	16177.4
542.858	16221.47
543.223	16200.22
543.587	16362.93
543.952	16328.13
544.316	16445.42
544.681	16396.83
545.045	16577.61
545.41	16736.25
545.774	16725.18
546.138	16792.3
546.503	16907.1
546.867	16810.38
547.231	16983.03
547.595	17046.76
547.959	17154.1
548.324	17103.7
548.688	17197.49
549.052	17233.87
549.416	17258.73
549.779	17246.3
550.143	17462.56
550.507	17460.53
550.871	17512.51
551.235	17567.19
551.599	17703.46
551.962	17663.91
552.326	17764.02
552.689	17852.84
553.053	17772.84
553.417	17824.14
553.78	18058.71
554.143	18062.55
554.507	18139.38
554.87	18146.39
555.234	18355.42
555.597	18276.33
555.96	18333.05
556.323	18389.32
556.686	18455.98
557.05	18578.01
557.413	18568.75
557.776	18627.96
558.139	18753.6
558.502	18779.59
558.865	18855.3
559.228	19088.28
559.59	19050.32
559.953	18912.24
560.316	19340.03
560.679	19325.57
561.041	19445.11
561.404	19480.82
561.767	19448.95
562.129	19490.31
562.492	19681.71
562.854	19767.81
563.217	19723.07
563.579	19740.24
563.941	19860.47
564.304	20052.1
564.666	20128.26
565.028	20163.74
565.39	20259.1
565.753	20210.97
566.115	20300
566.477	20450.06
566.839	20513.1
567.201	20543.16
567.563	20610.73
567.925	20726.43
568.287	20780.22
568.648	20847.11
569.01	20908.57
569.372	21069.25
569.734	21073.99
570.095	21256.14
570.457	21320.99
570.819	21371.61
571.18	21323.48
571.542	21475.11
571.903	21502.46
572.265	21660.19
572.626	21815.44
572.987	21850.02
573.349	21964.82
573.71	21979.28
574.071	22036
574.432	22313.51
574.794	22473.51
575.155	22505.37
575.516	22518.25
575.877	22688.87
576.238	22691.35
576.599	22817.68
576.96	22997.56
577.32	23019.93
577.681	23216.76
578.042	23317.1
578.403	23464.89
578.763	23615.17
579.124	23705.79
579.485	23934.48
579.845	24023.75
580.206	24207.02
580.566	24167.25
580.927	24391.42
581.287	24612.43
581.648	24760.9
582.008	24946.21
582.368	24952.08
582.728	25225.52
583.089	25379.64
583.449	25464.39
583.809	25789.12
584.169	25940.08
584.529	26064.82
584.889	26447.86
585.249	26496.22
585.609	26464.13
585.969	26868.64
586.329	27106.15
586.688	27305.02
587.048	27432.24
587.408	27477.89
587.768	27735.97
588.127	28021.16
588.487	28200.59
588.846	28509.05
589.206	28533.23
589.565	28750.85
589.925	29193.78
590.284	29169.83
590.643	29434
591.003	29785.63
591.362	30092.29
591.721	30194.66
592.08	30272.85
592.44	30568.66
592.799	30806.85
593.158	30941.08
593.517	31129.1
593.876	31371.12
594.235	31420.61
594.593	31810.21
594.952	32115.51
595.311	32107.6
595.67	32437.99
596.029	32764.99
596.387	32858.09
596.746	33116.84
597.104	33138.31
597.463	33294.46
597.822	33592.99
598.18	33699.42
598.538	33851.29
598.897	34239.98
599.255	34034.56
599.613	34725.16
599.972	34717.48
600.33	34932.16
600.688	35006.06
601.046	35253.73
601.404	35562.2
601.762	35534.4
602.12	35873.6
602.478	36009.19
602.836	36213.93
603.194	36180.94
603.552	36429.97
603.91	36439.01
604.268	36795.39
604.625	36632.91
604.983	36947.47
605.341	37051.65
605.698	37403.73
606.056	37537.52
606.413	37573.9
606.771	37753.56
607.128	37777.06
607.485	37953.32
607.843	37946.09
608.2	38410.04
608.557	38493.87
608.914	38500.65
609.272	38747.65
609.629	38937.03
609.986	39042.56
610.343	38965.95
610.7	39437.13
611.057	39291.82
611.414	39513.28
611.771	39684.13
612.127	39911.69
612.484	39902.43
612.841	40127.96
613.198	40066.94
613.554	40031.46
613.911	40447.72
614.267	40477.1
614.624	40500.38
614.98	40666.25
615.337	40894.26
615.693	40849.29
616.05	40992.34
616.406	41190.98
616.762	41145.78
617.118	41053.58
617.475	41226.91
617.831	41436.4
618.187	41616.28
618.543	41584.42
618.899	41871.41
619.255	41794.81
619.611	41903.5
619.967	42047.23
620.323	42196.15
620.678	42079.54
621.034	42096.04
621.39	42165.19
621.746	42183.72
622.101	42773.08
622.457	42377.61
622.812	42518.18
623.168	42718.62
623.523	42680.21
623.879	42861.67
624.234	42627.55
624.589	42762.01
624.945	42736.48
625.3	42764.95
625.655	42915.23
626.01	42833.42
626.365	42993.42
626.72	43091.72
627.075	42993.87
627.43	43050.82
627.785	42966.75
628.14	43083.81
628.495	43138.27
628.85	43154.32
629.205	43028.9
629.559	43377.81
629.914	43147.54
630.269	43275.9
630.623	43154.77
630.978	43090.82
631.332	43258.04
631.687	43343.24
632.041	43197.93
632.396	43358.61
632.75	43151.61
633.104	43199.97
633.459	43110.02
633.813	43204.26
634.167	43250.81
634.521	43227.76
634.875	43145.28
635.229	43217.14
635.583	43113.87
635.937	43112.28
636.291	43143.24
636.645	43170.59
636.999	43004.49
637.352	43251.49
637.706	42993.87
638.06	43124.26
638.413	42980.08
638.767	42930.37
639.121	43107.99
639.474	42804.5
639.828	42875
640.181	42908.22
640.534	42842.46
640.888	42861.67
641.241	42550.49
641.594	42734.67
641.947	42859.41
642.301	42781.67
642.654	42820.54
643.007	42658.29
643.36	42790.49
643.713	42663.03
644.066	42900.09
644.419	42416.48
644.771	42147.11
645.124	41867.35
645.477	41895.14
645.83	41660.57
646.182	41516.62
646.535	41505.32
646.888	41587.8
647.24	41369.28
647.593	41640.01
647.945	41396.62
648.298	41267.36
648.65	41252.22
649.002	41252.22
649.355	41373.8
649.707	41229.4
650.059	41519.33
650.411	41876.61
650.763	41975.59
651.115	42238.41
651.467	42368.58
651.819	42239.54
652.171	42181.01
652.523	42127.68
652.875	42120.67
653.227	41897.18
653.578	42327.45
653.93	42116.15
654.282	41904.41
654.633	41858.98
654.985	41977.4
655.337	42029.38
655.688	41960.68
656.039	42036.83
656.391	41903.28
656.742	41878.19
657.094	41898.53
657.445	41975.37
657.796	41918.19
658.147	41973.11
658.498	41703.51
658.849	41865.31
659.2	41847.01
659.551	41794.81
659.902	41859.89
660.253	41817.4
660.604	41783.96
660.955	41624.41
661.306	41848.14
661.656	41716.61
662.007	41823.73
662.358	41590.74
662.708	41603.62
663.059	41712.77
663.409	41393.91
663.76	41710.06
664.11	41587.35
664.461	41826.67
664.811	41618.99
665.161	41769.27
665.511	41466.45
665.862	41693.11
666.212	41746.67
666.562	41656.96
666.912	41627.58
667.262	41519.11
667.612	41624.87
667.962	41732.66
668.312	41562.04
668.662	41797.06
669.011	41714.81
669.361	41465.77
669.711	41549.84
670.06	41508.48
670.41	41549.84
670.76	41367.47
671.109	41538.31
671.459	41429.39
671.808	41371.99
672.157	41417.64
672.507	41162.28
672.856	41290.64
673.205	41329.73
673.554	41400.24
673.904	41230.75
674.253	41541.48
674.602	41382.61
674.951	40828.73
675.3	40661.73
675.649	41309.62
675.998	41320.24
676.346	41319.34
676.695	41297.87
677.044	41018.33
677.393	41276.85
677.741	41180.36
678.09	41025.11
678.438	40990.08
678.787	41085.67
679.135	41084.09
679.484	40805.45
679.832	41061.26
680.181	40743.53
680.529	40861.5
680.877	40775.85
681.225	40849.97
681.573	40956.63
681.922	40606.81
682.27	40537.44
682.618	40447.27
682.966	40536.31
683.314	40476.65
683.661	40279.59
684.009	40312.36
684.357	40266.71
684.705	40163.66
685.053	40154.17
685.4	40198.46
685.748	40042.53
686.095	39920.73
686.443	39710.57
686.79	39786.04
687.138	39821.75
687.485	39709.44
687.832	39662.66
688.18	39803.9
688.527	39482.32
688.874	39530.23
689.221	39393.74
689.568	39273.29
689.915	39234.65
690.262	39203.23
690.609	39111.03
690.956	39121.2
691.303	38877.37
691.65	38730.7
691.997	38887.54
692.344	38639.41
692.69	38552.86
693.037	38563.7
693.383	38330.94
693.73	38387.21
694.077	38186.54
694.423	38166.65
694.769	37981.57
695.116	37956.94
695.462	38015.47
695.808	37690.28
696.155	37837.17
696.501	37698.64
696.847	37466.56
697.193	37412.32
697.539	37490.29
697.885	37256.39
698.231	37169.39
698.577	37123.29
698.923	37121.03
699.269	36890.75
699.614	36824.54
699.96	36600.59
700.306	36659.35
700.651	36580.25
700.997	36469.52
701.342	36426.13
701.688	36354.72
702.033	36219.58
702.379	36196.99
702.724	36117.21
703.069	36178.46
703.415	35688.07
703.76	35825.7
704.105	35655.31
704.45	35678.36
704.795	35480.85
705.14	35431.58
705.485	35230.01
705.83	35093.29
706.175	35237.69
706.52	35018.71
706.865	35016.9
707.209	35008.09
707.554	34940.07
707.899	34871.6
708.243	34752.5
708.588	34720.64
708.932	34604.94
709.277	34351.84
709.621	34473.42
709.966	34282.69
710.31	34233.2
710.654	34128.57
710.998	34081.11
711.342	34035.01
711.687	33915.01
712.031	33934.9
712.375	33742.14
712.719	33942.81
713.063	33761.57
713.407	33889.25
713.75	33644.51
714.094	33650.16
714.438	33488.13
714.782	33455.59
715.125	33348.47
715.469	33387.12
715.812	33233
716.156	33084.3
716.499	33155.03
716.843	33042.72
717.186	32881.59
717.53	33054.7
717.873	33035.49
718.216	32807.47
718.559	32810.18
718.902	32647.7
719.246	32619.23
719.589	32502.62
719.932	32459.91
720.275	32400.93
720.617	32394.15
720.96	32376.07
721.303	32242.97
721.646	32275.73
721.989	32049.3
722.331	32195.96
722.674	32040.26
723.016	32105.79
723.359	32034.84
723.701	32151.89
724.044	31753.71
724.386	31738.12
724.729	31785.8
725.071	31719.14
725.413	31747.61
725.755	31636.88
726.097	31616.54
726.439	31527.96
726.782	31409.77
727.124	31552.59
727.465	31420.61
727.807	31362.08
728.149	31387.4
728.491	31174.75
728.833	31299.04
729.175	31213.39
729.516	31193.95
729.858	31071.92
730.199	31065.6
730.541	31075.99
730.882	30846.62
731.224	31003.22
731.565	30802.55
731.906	30921.64
732.248	30711.25
732.589	30620.64
732.93	30485.72
733.271	30557.81
733.612	30642.1
733.953	30528.66
734.294	30497.7
734.635	30469.23
734.976	30424.03
735.317	30147.43
735.658	30280.31
735.999	30257.93
736.339	30248.22
736.68	30200.53
737.021	30162.34
737.361	30035.79
737.702	30192.85
738.042	30116.02
738.383	29968
738.723	30121.89
739.063	29842.58
739.404	29909.02
739.744	29863.37
740.084	29855.46
740.424	29901.56
740.764	29810.26
741.104	29815.23
741.444	29660.89
741.784	29659.53
742.124	29721.68
742.464	29625.86
742.804	29583.6
743.143	29358.07
743.483	29451.4
743.823	29361.69
744.162	29363.27
744.502	29387.22
744.841	29127.12
745.181	29396.94
745.52	29104.74
745.86	29142.93
746.199	29070.17
746.538	28971.64
746.877	29069.94
747.216	29021.36
747.556	28983.62
747.895	29035.14
748.234	28909.49
748.573	28789.05
748.911	28742.72
749.25	28789.72
749.589	28656.62
749.928	28664.53
750.267	28630.86
750.605	28641.03
750.944	28435.61
751.283	28383.63
751.621	28415.04
751.96	28345.22
752.298	28291.43
752.636	28321.49
752.975	28090.76
753.313	28083.08
753.651	28251.21
753.989	28029.52
754.327	27942.74
754.666	27819.13
755.004	27913.81
755.342	27942.51
755.679	27876.3
756.017	27687.38
756.355	27813.25
756.693	27543.88
757.031	27565.12
