Data from hue_90_FLMS001491_20.txt Node
Date: Mon Feb 06 15:24:46 GMT 2017
User: dcchb
Spectrometer: FLMS00149
Trigger mode: 0
Integration Time (sec): 2.000000E-2
Scans to average: 10
Electric dark correction enabled: true
Nonlinearity correction enabled: false
Boxcar width: 0
XAxis mode: Wavelengths
Number of Pixels in Spectrum: 2048
>>>>>Begin Spectral Data<<<<<
341.393	0.3
341.776	0.3
342.16	0.3
342.543	-38.8
342.927	-73.37
343.31	-77.44
343.693	-66.14
344.077	-60.04
344.46	-71.57
344.843	-55.97
345.226	-37.89
345.61	-20.49
345.993	-19.14
346.376	-9.19
346.759	7.98
347.142	27.64
347.525	34.65
347.908	56.79
348.291	68.54
348.674	101.76
349.057	120.52
349.44	128.65
349.823	142.89
350.206	168.2
350.588	193.06
350.971	209.33
351.354	250.01
351.737	220.4
352.119	239.16
352.502	261.31
352.884	262.44
353.267	290.68
353.65	272.83
354.032	284.13
354.414	296.56
354.797	301.53
355.179	312.6
355.562	337.24
355.944	338.82
356.326	312.15
356.709	334.53
357.091	330.91
357.473	347.41
357.855	331.59
358.238	337.46
358.62	341.3
359.002	362.55
359.384	340.63
359.766	334.3
360.148	336.33
360.53	342.89
360.912	330.23
361.294	334.3
361.676	330.68
362.057	355.77
362.439	315.32
362.821	312.6
363.203	327.29
363.584	320.29
363.966	316.22
364.348	320.97
364.729	334.75
365.111	310.8
365.493	333.62
365.874	304.47
366.256	313.73
366.637	312.38
367.019	301.53
367.4	292.94
367.781	328.42
368.163	305.15
368.544	290.46
368.925	310.34
369.306	302.21
369.688	304.24
370.069	293.62
370.45	325.49
370.831	306.73
371.212	316.67
371.593	321.19
371.974	308.09
372.355	311.25
372.736	321.19
373.117	329.78
373.498	307.63
373.879	329.33
374.26	321.64
374.641	309.67
375.021	320.74
375.402	314.64
375.783	308.09
376.163	351.25
376.544	333.4
376.925	325.49
377.305	325.71
377.686	313.28
378.066	317.8
378.447	327.07
378.827	306.5
379.208	319.61
379.588	320.29
379.968	317.8
380.349	321.19
380.729	328.88
381.109	326.16
381.489	336.11
381.87	341.53
382.25	341.98
382.63	342.89
383.01	332.72
383.39	335.66
383.77	356.67
384.15	326.39
384.53	341.76
384.91	363.9
385.29	352.15
385.67	354.86
386.049	353.96
386.429	346.5
386.809	337.01
387.189	343.79
387.568	355.09
387.948	337.01
388.328	362.32
388.707	335.88
389.087	359.61
389.466	366.61
389.846	344.24
390.225	363.22
390.605	353.73
390.984	351.02
391.363	368.87
391.743	380.4
392.122	351.7
392.501	385.82
392.881	368.87
393.26	362.32
393.639	374.52
394.018	355.09
394.397	389.44
394.776	374.3
395.155	381.98
395.534	372.04
395.913	375.43
396.292	379.95
396.671	382.66
397.05	367.52
397.429	380.85
397.808	368.87
398.186	392.38
398.565	378.59
398.944	378.37
399.323	374.52
399.701	407.74
400.08	400.74
400.458	397.35
400.837	414.07
401.215	395.99
401.594	400.96
401.972	408.42
402.351	409.55
402.729	412.94
403.107	391.02
403.486	386.5
403.864	403.68
404.242	412.72
404.62	400.51
404.999	419.04
405.377	413.62
405.755	427.86
406.133	407.29
406.511	413.39
406.889	432.38
407.267	427.4
407.645	418.59
408.023	433.96
408.401	443
408.779	434.86
409.156	417.46
409.534	440.74
409.912	449.55
410.29	438.93
410.667	457.23
411.045	449.78
411.422	444.35
411.8	468.08
412.178	453.84
412.555	467.63
412.933	455.88
413.31	468.53
413.687	465.82
414.065	499.49
414.442	463.56
414.819	503.11
415.197	480.28
415.574	481.41
415.951	477.8
416.328	490.45
416.705	459.72
417.082	508.31
417.46	489.55
417.837	494.29
418.214	513.96
418.591	490
418.967	487.29
419.344	496.78
419.721	496.1
420.098	506.95
420.475	502.43
420.852	517.57
421.228	507.4
421.605	520.28
421.982	500.62
422.358	537.91
422.735	520.96
423.111	527.06
423.488	528.42
423.864	541.98
424.241	555.76
424.617	551.02
424.994	545.82
425.37	546.5
425.746	528.64
426.123	548.76
426.499	554.63
426.875	579.26
427.251	584.91
427.627	573.39
428.003	582.2
428.379	576.78
428.756	578.13
429.132	584.01
429.507	616.78
429.883	603.44
430.259	622.88
430.635	584.91
431.011	609.32
431.387	606.61
431.763	640.28
432.138	604.35
432.514	624.23
432.89	639.83
433.265	660.84
433.641	659.49
434.016	655.87
434.392	674.86
434.767	663.33
435.143	661.07
435.518	671.92
435.894	680.28
436.269	712.82
436.644	700.84
437.02	709.2
437.395	694.97
437.77	688.41
438.145	716.66
438.52	726.61
438.895	738.13
439.271	725.7
439.646	748.3
440.021	742.65
440.395	746.94
440.77	746.49
441.145	750.56
441.52	758.69
441.895	779.03
442.27	766.6
442.645	765.47
443.019	799.6
443.394	787.85
443.769	786.04
444.143	778.81
444.518	805.47
444.892	792.14
445.267	789.43
445.641	829.43
446.016	809.99
446.39	832.59
446.764	818.35
447.139	828.3
447.513	821.97
447.887	834.62
448.262	820.61
448.636	836.43
449.01	846.38
449.384	889.54
449.758	900.61
450.132	859.48
450.506	867.39
450.88	877.56
451.254	875.53
451.628	901.97
452.002	904.91
452.376	900.16
452.75	886.15
453.123	894.51
453.497	915.75
453.871	930.89
454.244	945.13
454.618	971.8
454.992	984.45
455.365	965.92
455.739	991.23
456.112	983.77
456.486	1011.8
456.859	1024.45
457.232	1031.68
457.606	1040.04
457.979	1020.38
458.352	1054.28
458.725	1038.46
459.099	1081.4
459.472	1123.66
459.845	1115.97
460.218	1094.73
460.591	1111
460.964	1159.14
461.337	1164.11
461.71	1165.69
462.083	1225.12
462.456	1183.99
462.829	1207.5
463.201	1219.93
463.574	1240.04
463.947	1247.72
464.32	1255.63
464.692	1302.18
465.065	1287.72
465.438	1341.28
465.81	1328.85
466.183	1344.89
466.555	1378.34
466.928	1382.63
467.3	1424.44
467.672	1409.75
468.045	1445.91
468.417	1481.16
468.789	1473.7
469.161	1502.86
469.534	1518.67
469.906	1557.77
470.278	1560.03
470.65	1580.82
471.022	1640.71
471.394	1672.79
471.766	1689.29
472.138	1718.67
472.51	1763.87
472.882	1816.52
473.253	1810.19
473.625	1866.24
473.997	1908.95
474.369	1927.7
474.74	1978.1
475.112	1997.08
475.484	2049.06
475.855	2109.39
476.227	2104.2
476.598	2233.68
476.97	2230.97
477.341	2293.57
477.713	2374.92
478.084	2392.55
478.455	2501.7
478.827	2534.24
479.198	2604.75
479.569	2682.49
479.94	2768.13
480.311	2794.57
480.682	2904.4
481.053	2973.55
481.424	3078.41
481.795	3112.76
482.166	3199.08
482.537	3257.61
482.908	3370.38
483.279	3416.7
483.65	3529.92
484.021	3711.16
484.391	3738.05
484.762	3798.84
485.133	3883.58
485.503	4025.5
485.874	4102.11
486.244	4212.84
486.615	4346.62
486.985	4428.43
487.356	4516.11
487.726	4622.55
488.097	4773.73
488.467	4857.12
488.837	5030.67
489.207	5103.67
489.578	5206.04
489.948	5305.92
490.318	5487.16
490.688	5556.08
491.058	5658.45
491.428	5826.81
491.798	5970.54
492.168	6095.05
492.538	6147.03
492.908	6288.49
493.278	6422.5
493.648	6504.53
494.017	6650.97
494.387	6737.07
494.757	6771.87
495.126	7036.04
495.496	7088.02
495.866	7179.54
496.235	7323.95
496.605	7396.94
496.974	7548.57
497.344	7600.1
497.713	7688.23
498.082	7836.02
498.452	7963.25
498.821	7987.66
499.19	8089.12
499.559	8219.52
499.928	8319.63
500.298	8409.57
500.667	8551.71
501.036	8563.01
501.405	8725.26
501.774	8737.69
502.143	8828.54
502.512	8920.74
502.88	9089.1
503.249	9059.04
503.618	9193.05
503.987	9248.42
504.356	9355.98
504.724	9387.85
505.093	9493.15
505.462	9530.44
505.83	9604.34
506.199	9698.12
506.567	9831.68
506.936	9753.49
507.304	9906.48
507.672	9984.67
508.041	10027.38
508.409	10108.51
508.777	10199.8
509.145	10287.26
509.514	10270.08
509.882	10346.92
510.25	10312.12
510.618	10475.28
510.986	10474.37
511.354	10628.72
511.722	10567.48
512.09	10760.47
512.458	10675.27
512.826	10789.17
513.193	10802.5
513.561	10868.26
513.929	10949.16
514.297	10967.01
514.664	11066.9
515.032	11066.67
515.4	11082.94
515.767	11120.68
516.135	11200.45
516.502	11147.12
516.869	11316.61
517.237	11335.59
517.604	11370.17
517.972	11414.46
518.339	11463.5
518.706	11504.63
519.073	11474.8
519.44	11547.79
519.808	11629.37
520.175	11569.71
520.542	11719.31
520.909	11752.08
521.276	11676.83
521.643	11745.07
522.009	11773.09
522.376	11806.99
522.743	11880.89
523.11	11987.78
523.477	12037.27
523.843	12058.28
524.21	12120.66
524.577	12168.56
524.943	12122.69
525.31	12188
525.676	12152.07
526.043	12217.15
526.409	12219.18
526.776	12286.75
527.142	12335.57
527.508	12309.35
527.874	12342.57
528.241	12412.63
528.607	12433.19
528.973	12509.12
529.339	12412.63
529.705	12483.58
530.071	12491.04
530.437	12445.62
530.803	12555.67
531.169	12492.62
531.535	12472.51
531.901	12538.95
532.267	12498.05
532.632	12534.43
532.998	12482
533.364	12572.17
533.73	12502.34
534.095	12556.8
534.461	12512.06
534.826	12586.63
535.192	12518.39
535.557	12606.74
535.923	12455.34
536.288	12525.84
536.653	12475.45
537.019	12511.38
537.384	12510.7
537.749	12471.16
538.114	12377.82
538.479	12382.34
538.845	12375.34
539.21	12384.38
539.575	12261.9
539.94	12293.31
540.305	12325.4
540.67	12294.21
541.034	12252.63
541.399	12187.55
541.764	12207.89
542.129	12213.53
542.494	12205.63
542.858	12235.23
543.223	12179.86
543.587	12228
543.952	12113.2
544.316	12102.35
544.681	12073.88
545.045	12069.58
545.41	12106.42
545.774	12068
546.138	11907.55
546.503	12017.61
546.867	11870.27
547.231	11997.5
547.595	11957.27
547.959	11912.98
548.324	11825.75
548.688	11822.58
549.052	11769.93
549.416	11763.15
549.779	11694.9
550.143	11750.27
550.507	11733.77
550.871	11749.37
551.235	11678.41
551.599	11683.38
551.962	11642.93
552.326	11612.87
552.689	11649.71
553.053	11582.59
553.417	11538.52
553.78	11663.72
554.143	11516.6
554.507	11621.01
554.87	11549.6
555.234	11604.96
555.597	11493.1
555.96	11497.62
556.323	11525.87
556.686	11438.19
557.05	11479.99
557.413	11450.62
557.776	11522.93
558.139	11489.94
558.502	11538.98
558.865	11495.36
559.228	11581.91
559.59	11537.85
559.953	11480.9
560.316	11604.06
560.679	11469.6
561.041	11528.81
561.404	11525.64
561.767	11560.22
562.129	11468.92
562.492	11593.44
562.854	11583.04
563.217	11531.97
563.579	11502.82
563.941	11592.31
564.304	11578.75
564.666	11608.35
565.028	11629.37
565.39	11666.66
565.753	11698.29
566.115	11657.39
566.477	11708.24
566.839	11639.31
567.201	11686.09
567.563	11696.49
567.925	11698.52
568.287	11714.34
568.648	11733.77
569.01	11733.32
569.372	11772.87
569.734	11734
570.095	11814.9
570.457	11843.6
570.819	11875.92
571.18	11799.53
571.542	11902.58
571.903	11827.1
572.265	11860.1
572.626	11872.3
572.987	11792.98
573.349	11801.34
573.71	11986.42
574.071	12001.79
574.432	12013.09
574.794	12077.95
575.155	12021
575.516	11915.92
575.877	11924.05
576.238	12008.34
576.599	12077.95
576.96	12002.24
577.32	11978.96
577.681	12040.43
578.042	11996.59
578.403	11937.38
578.763	11987.78
579.124	12019.87
579.485	12096.93
579.845	12061
580.206	12035.69
580.566	12090.37
580.927	12048.12
581.287	12075.46
581.648	12019.19
582.008	12136.47
582.368	12030.49
582.728	11978.51
583.089	12013.31
583.449	12034.78
583.809	12117.72
584.169	12067.32
584.529	12033.2
584.889	12042.01
585.249	12004.5
585.609	11978.29
585.969	12041.34
586.329	11933.99
586.688	12011.05
587.048	12041.79
587.408	11922.69
587.768	11927.67
588.127	11946.65
588.487	11880.89
588.846	11955.01
589.206	11858.52
589.565	11877.27
589.925	11953.2
590.284	11807.67
590.643	11945.29
591.003	11884.05
591.362	11904.84
591.721	11877.95
592.08	11979.42
592.44	11863.26
592.799	11916.59
593.158	11908.23
593.517	11842.02
593.876	11895.35
594.235	11850.38
594.593	11888.57
594.952	11878.4
595.311	11755.92
595.67	11804.96
596.029	11887.22
596.387	11925.63
596.746	11875.46
597.104	11799.31
597.463	11824.62
597.822	11835.01
598.18	11834.79
598.538	11755.24
598.897	11827.78
599.255	11732.87
599.613	11848.57
599.972	11810.16
600.33	11872.07
600.688	11788.69
601.046	11835.69
601.404	11819.19
601.762	11849.48
602.12	11935.8
602.478	11822.81
602.836	11925.63
603.194	11747.78
603.552	11833.66
603.91	11735.36
604.268	11876.82
604.625	11770.83
604.983	11872.3
605.341	11772.87
605.698	11790.5
606.056	11836.14
606.413	11811.29
606.771	11837.73
607.128	11851.06
607.485	11792.3
607.843	11882.47
608.2	11862.58
608.557	11871.4
608.914	11817.61
609.272	11810.61
609.629	12021.45
609.986	11978.51
610.343	11942.58
610.7	11983.03
611.057	11972.86
611.414	11987.33
611.771	11942.58
612.127	12029.58
612.484	11962.47
612.841	12079.08
613.198	12006.76
613.554	12001.56
613.911	12093.99
614.267	12102.58
614.624	11981.68
614.98	12033.43
615.337	12092.63
615.693	12042.47
616.05	12020.55
616.406	12173.08
616.762	12081.11
617.118	12081.33
617.475	12093.54
617.831	12075.46
618.187	12089.92
618.543	12161.78
618.899	12152.52
619.255	12232.74
619.611	12190.48
619.967	12092.41
620.323	12131.96
620.678	12114.78
621.034	12065.29
621.39	12115.01
621.746	12075.01
622.101	12252.63
622.457	12124.27
622.812	12149.13
623.168	12135.12
623.523	12217.6
623.879	12197.72
624.234	12138.28
624.589	12173.76
624.945	12187.77
625.3	12231.84
625.655	12195
626.01	12255.79
626.365	12170.82
626.72	12194.1
627.075	12170.37
627.43	12183.71
627.785	12099.41
628.14	12094.44
628.495	12221.22
628.85	12113.88
629.205	12110.03
629.559	12150.49
629.914	12149.36
630.269	12101
630.623	12077.27
630.978	12103.03
631.332	12100.54
631.687	12123.14
632.041	11986.42
632.396	12087.21
632.75	11976.03
633.104	12011.73
633.459	11949.81
633.813	11951.85
634.167	11944.39
634.521	11968.8
634.875	11935.35
635.229	11905.75
635.583	11948.68
635.937	11963.82
636.291	11841.34
636.645	11839.08
636.999	11811.29
637.352	11803.6
637.706	11818.06
638.06	11809.7
638.413	11844.5
638.767	11739.42
639.121	11769.03
639.474	11724.96
639.828	11678.63
640.181	11790.95
640.534	11741.68
640.888	11654.68
641.241	11637.05
641.594	11687.9
641.947	11708.01
642.301	11677.28
642.654	11773.32
643.007	11723.6
643.36	11636.37
643.713	11626.21
644.066	11715.02
644.419	11627.79
644.771	11537.39
645.124	11406.32
645.477	11455.14
645.83	11311.41
646.182	11267.12
646.535	11244.29
646.888	11356.38
647.24	11222.83
647.593	11297.4
647.945	11253.11
648.298	11144.86
648.65	11172.88
649.002	11122.04
649.355	11217.63
649.707	11225.31
650.059	11266.44
650.411	11394.8
650.763	11397.29
651.115	11521.58
651.467	11513.89
651.819	11489.71
652.171	11479.32
652.523	11442.93
652.875	11537.17
653.227	11477.96
653.578	11541.24
653.93	11465.31
654.282	11433.89
654.633	11452.42
654.985	11445.87
655.337	11455.14
655.688	11490.39
656.039	11534.23
656.391	11400.45
656.742	11417.4
657.094	11519.09
657.445	11521.8
657.796	11509.82
658.147	11501.92
658.498	11407.23
658.849	11475.02
659.2	11433.89
659.551	11314.58
659.902	11492.65
660.253	11426.89
660.604	11515.47
660.955	11468.02
661.306	11499.43
661.656	11457.62
662.007	11485.87
662.358	11532.87
662.708	11501.46
663.059	11487.9
663.409	11453.1
663.76	11503.5
664.11	11508.24
664.461	11430.73
664.811	11442.93
665.161	11521.58
665.511	11484.97
665.862	11512.31
666.212	11551.86
666.562	11556.6
666.912	11495.36
667.262	11506.89
667.612	11552.54
667.962	11530.61
668.312	11478.64
668.662	11566.32
669.011	11432.09
669.361	11534.91
669.711	11378.3
670.06	11461.69
670.41	11449.49
670.76	11453.33
671.109	11408.58
671.459	11501.24
671.808	11444.52
672.157	11459.66
672.507	11394.35
672.856	11450.62
673.205	11349.6
673.554	11428.92
673.904	11428.7
674.253	11433.89
674.602	11420.34
674.951	11213.79
675.3	11196.84
675.649	11367.68
675.998	11362.94
676.346	11337.17
676.695	11366.33
677.044	11283.39
677.393	11280.9
677.741	11355.7
678.09	11250.62
678.438	11267.34
678.787	11255.37
679.135	11268.93
679.484	11139.66
679.832	11214.47
680.181	11237.74
680.529	11245.88
680.877	11096.73
681.225	11097.63
681.573	11167.69
681.922	11123.39
682.27	11101.02
682.618	11094.92
682.966	11009.95
683.314	10964.75
683.661	11015.6
684.009	10937.64
684.357	10985.77
684.705	10881.82
685.053	10887.02
685.4	10879.78
685.748	10769.96
686.095	10787.81
686.443	10775.15
686.79	10749.17
687.138	10807.02
687.485	10763.63
687.832	10739.9
688.18	10745.32
688.527	10723.86
688.874	10638.66
689.221	10618.32
689.568	10549.17
689.915	10655.16
690.262	10560.02
690.609	10503.98
690.956	10486.57
691.303	10459.46
691.65	10386.46
691.997	10367.26
692.344	10329.97
692.69	10342.62
693.037	10387.59
693.383	10222.63
693.73	10171.55
694.077	10167.94
694.423	10136.98
694.769	10034.61
695.116	10061.27
695.462	10114.15
695.808	10007.49
696.155	10074.16
696.501	9969.3
696.847	9938.11
697.193	9904.44
697.539	9917.55
697.885	9846.82
698.231	9798.46
698.577	9737.89
698.923	9708.74
699.269	9757.33
699.614	9613.6
699.96	9625.58
700.306	9685.92
700.651	9503.78
700.997	9612.47
701.342	9522.08
701.688	9459.48
702.033	9498.13
702.379	9440.95
702.724	9379.03
703.069	9395.53
703.415	9305.81
703.76	9365.25
704.105	9225.59
704.45	9237.34
704.795	9180.85
705.14	9175.87
705.485	9210
705.83	9121.64
706.175	9106.27
706.52	9090.45
706.865	9020.62
707.209	9003.45
707.554	8959.61
707.899	9031.92
708.243	8955.54
708.588	8880.52
708.932	8848.2
709.277	8819.05
709.621	8915.77
709.966	8806.17
710.31	8809.56
710.654	8741.31
710.998	8786.05
711.342	8731.59
711.687	8762.1
712.031	8711.71
712.375	8670.8
712.719	8662.67
713.063	8572.95
713.407	8631.93
713.75	8598.94
714.094	8601.43
714.438	8568.88
714.782	8574.76
715.125	8509.23
715.469	8531.6
715.812	8458.38
716.156	8426.74
716.499	8466.29
716.843	8415.44
717.186	8421.32
717.53	8450.24
717.873	8435.33
718.216	8415.44
718.559	8411.6
718.902	8378.61
719.246	8378.38
719.589	8328.89
719.932	8270.14
720.275	8280.3
720.617	8299.29
720.96	8284.82
721.303	8332.28
721.646	8231.49
721.989	8221.32
722.331	8287.76
722.674	8261.77
723.016	8252.06
723.359	8218.61
723.701	8252.51
724.044	8210.48
724.386	8118.5
724.729	8246.86
725.071	8150.82
725.413	8142.91
725.755	8158.27
726.097	8135.9
726.439	8134.55
726.782	8113.08
727.124	8133.87
727.465	8078.28
727.807	8059.75
728.149	8119.18
728.491	8053.64
728.833	8113.08
729.175	8051.61
729.516	8008
729.858	8036.92
730.199	8063.81
730.541	8075.11
730.882	7996.92
731.224	8051.38
731.565	8029.46
731.906	8011.61
732.248	8057.71
732.589	7981.1
732.93	8034.44
733.271	8033.53
733.612	8047.99
733.953	8067.66
734.294	8064.72
734.635	7968.67
734.976	8067.2
735.317	8001.89
735.658	8027.43
735.999	8019.75
736.339	7992.85
736.68	8026.53
737.021	8072.4
737.361	8009.35
737.702	8051.61
738.042	8072.17
738.383	8047.32
738.723	8066.3
739.063	8162.79
739.404	8091.16
739.744	8107.2
740.084	8024.04
740.424	8068.56
740.764	8072.63
741.104	8165.96
741.444	8059.07
741.784	8110.82
742.124	8111.5
742.464	8087.32
742.804	8167.31
743.143	8165.51
743.483	8233.3
743.823	8127.99
744.162	8250.02
744.502	8235.79
744.841	8253.41
745.181	8377.25
745.52	8305.39
745.86	8370.7
746.199	8337.03
746.538	8337.03
746.877	8430.36
747.216	8538.6
747.556	8503.12
747.895	8541.54
748.234	8543.12
748.573	8569.11
748.911	8661.31
749.25	8723.01
749.589	8755.09
749.928	8827.86
750.267	8866.05
750.605	8911.02
750.944	8946.5
751.283	9019.27
751.621	9088.87
751.96	9131.58
752.298	9204.8
752.636	9318.7
752.975	9312.59
753.313	9427.62
753.651	9589.2
753.989	9634.85
754.327	9702.64
754.666	9783.54
755.004	9896.31
755.342	10089.97
755.679	10130.2
756.017	10175.4
756.355	10299.69
756.693	10411.32
757.031	10593.69
757.368	10625.78
757.706	10785.32
758.044	10862.38
758.381	10957.97
758.719	11156.16
759.056	11269.38
759.394	11343.05
759.731	11483.61
760.068	11649.03
760.405	11746.2
760.743	11892.41
761.08	11966.31
