Data from hue_40_FLMS001491_80.txt Node
Date: Mon Feb 06 15:08:26 GMT 2017
User: dcchb
Spectrometer: FLMS00149
Trigger mode: 0
Integration Time (sec): 2.000000E-2
Scans to average: 10
Electric dark correction enabled: true
Nonlinearity correction enabled: false
Boxcar width: 0
XAxis mode: Wavelengths
Number of Pixels in Spectrum: 2048
>>>>>Begin Spectral Data<<<<<
341.393	-15.54
341.776	-15.54
342.16	-15.54
342.543	-46.72
342.927	-87.85
343.31	-67.74
343.693	-74.74
344.077	-75.87
344.46	-60.96
344.843	-53.5
345.226	-40.17
345.61	-23.67
345.993	-17.34
346.376	6.38
346.759	14.29
347.142	23.56
347.525	38.7
347.908	57
348.291	76.89
348.674	89.09
349.057	108.08
349.44	125.02
349.823	155.53
350.206	163.67
350.588	187.85
350.971	197.11
351.354	219.26
351.737	234.85
352.119	242.31
352.502	265.13
352.884	275.3
353.267	283.89
353.65	285.25
354.032	303.1
354.414	296.09
354.797	316.43
355.179	307.39
355.562	325.25
355.944	348.75
356.326	322.08
356.709	324.57
357.091	351.46
357.473	347.62
357.855	323.44
358.238	349.88
358.62	336.77
359.002	344
359.384	330.44
359.766	339.03
360.148	344.91
360.53	329.99
360.912	356.88
361.294	341.06
361.676	320.5
362.057	337
362.439	358.24
362.821	297.9
363.203	326.38
363.584	323.44
363.966	318.01
364.348	326.6
364.729	341.06
365.111	299.48
365.493	326.83
365.874	326.6
366.256	313.04
366.637	323.44
367.019	316.43
367.4	316.21
367.781	302.87
368.163	315.08
368.544	321.4
368.925	322.76
369.306	320.27
369.688	323.44
370.069	316.43
370.45	301.52
370.831	306.49
371.212	325.02
371.593	313.95
371.974	308.75
372.355	294.06
372.736	320.27
373.117	327.73
373.498	310.1
373.879	324.79
374.26	325.02
374.641	315.98
375.021	316.21
375.402	308.07
375.783	311.91
376.163	322.99
376.544	324.12
376.925	303.55
377.305	326.38
377.686	313.49
378.066	317.56
378.447	319.6
378.827	333.38
379.208	337.9
379.588	338.58
379.968	321.63
380.349	347.62
380.729	339.71
381.109	323.66
381.489	343.55
381.87	329.31
382.25	338.58
382.63	321.4
383.01	353.49
383.39	347.17
383.77	338.8
384.15	315.53
384.53	343.1
384.91	357.34
385.29	346.94
385.67	345.58
386.049	362.76
386.429	343.1
386.809	346.71
387.189	355.75
387.568	335.41
387.948	361.18
388.328	337.22
388.707	347.39
389.087	347.39
389.466	358.69
389.846	344.45
390.225	393.72
390.605	368.86
390.984	375.19
391.363	370.44
391.743	354.4
392.122	334.74
392.501	361.18
392.881	365.24
393.26	357.56
393.639	365.47
394.018	379.03
394.397	377.45
394.776	358.69
395.155	360.5
395.534	385.81
395.913	381.97
396.292	357.11
396.671	372.02
397.05	372.25
397.429	384
397.808	369.54
398.186	387.16
398.565	369.99
398.944	354.17
399.323	381.52
399.701	386.26
400.08	395.53
400.458	389.88
400.837	372.7
401.215	388.75
401.594	400.72
401.972	390.78
402.351	399.82
402.729	403.66
403.107	428.97
403.486	383.78
403.864	413.83
404.242	417.45
404.62	413.83
404.999	421.06
405.377	384
405.755	384
406.133	425.58
406.511	398.24
406.889	413.15
407.267	414.06
407.645	402.08
408.023	417.22
408.401	426.49
408.779	419.25
409.156	444.34
409.534	440.72
409.912	441.17
410.29	416.77
410.667	426.03
411.045	442.3
411.422	444.11
411.8	465.35
412.178	429.2
412.555	459.48
412.933	461.29
413.31	470.1
413.687	454.73
414.065	455.19
414.442	457.9
414.819	494.73
415.197	472.13
415.574	471.23
415.951	473.04
416.328	471.91
416.705	464.45
417.082	483.21
417.46	494.05
417.837	487.5
418.214	459.93
418.591	485.47
418.967	481.63
419.344	512.36
419.721	501.96
420.098	507.16
420.475	505.81
420.852	511.23
421.228	512.59
421.605	505.58
421.982	501.51
422.358	505.13
422.735	490.89
423.111	500.16
423.488	523.66
423.864	531.79
424.241	531.57
424.617	548.06
424.994	538.8
425.37	526.82
425.746	560.04
426.123	538.35
426.499	538.57
426.875	535.18
427.251	563.21
427.627	551.91
428.003	567.95
428.379	558.01
428.756	574.28
429.132	555.75
429.507	574.96
429.883	557.56
430.259	605.01
430.635	595.52
431.011	584.67
431.387	606.14
431.763	619.25
432.138	606.82
432.514	631.68
432.89	614.28
433.265	624.45
433.641	625.35
434.016	635.75
434.392	626.48
434.767	663.54
435.143	645.01
435.518	645.92
435.894	656.54
436.269	662.86
436.644	662.41
437.02	667.38
437.395	671.23
437.77	669.64
438.145	673.94
438.52	677.1
438.895	679.59
439.271	699.25
439.646	681.39
440.021	717.55
440.395	729.98
440.77	675.97
441.145	725.46
441.52	720.04
441.895	730.88
442.27	734.73
442.645	693.15
443.019	738.79
443.394	715.29
443.769	731.79
444.143	736.99
444.518	771.34
444.892	752.35
445.267	766.59
445.641	755.52
446.016	757.1
446.39	735.18
446.764	784.67
447.139	781.96
447.513	768.85
447.887	779.47
448.262	803.2
448.636	795.97
449.01	814.05
449.384	793.93
449.758	809.98
450.132	802.52
450.506	821.96
450.88	807.04
451.254	795.74
451.628	851.11
452.002	832.35
452.376	852.01
452.75	822.63
453.123	860.37
453.497	877.55
453.871	869.64
454.244	863.08
454.618	877.55
454.992	892.91
455.365	889.52
455.739	922.29
456.112	927.72
456.486	913.03
456.859	929.3
457.232	951.67
457.606	936.76
457.979	927.04
458.352	964.32
458.725	988.96
459.099	1000.03
459.472	1008.39
459.845	1021.27
460.218	1021.05
460.591	1022.63
460.964	1024.66
461.337	1018.33
461.71	1067.37
462.083	1090.65
462.456	1083.87
462.829	1092.91
463.201	1094.94
463.574	1083.19
463.947	1116.86
464.32	1129.52
464.692	1136.75
465.065	1148.27
465.438	1169.29
465.81	1211.1
466.183	1202.28
466.555	1241.61
466.928	1240.02
467.3	1248.61
467.672	1290.19
468.045	1289.74
468.417	1287.48
468.789	1359.34
469.161	1327.25
469.534	1355.95
469.906	1387.14
470.278	1427.36
470.65	1461.71
471.022	1463.75
471.394	1454.71
471.766	1479.57
472.138	1514.59
472.51	1566.34
472.882	1573.57
473.253	1592.56
473.625	1653.35
473.997	1670.75
474.369	1691.54
474.74	1735.15
475.112	1773.57
475.484	1788.71
475.855	1846.11
476.227	1855.37
476.598	1920.46
476.97	1967.01
477.341	2014.92
477.713	2015.6
478.084	2086.1
478.455	2142.6
478.827	2156.84
479.198	2286.78
479.569	2300.33
479.94	2377.62
480.311	2424.17
480.682	2505.75
481.053	2545.53
481.424	2624.39
481.795	2703.94
482.166	2749.36
482.537	2816.71
482.908	2898.06
483.279	2924.5
483.65	3005.18
484.021	3109.81
484.391	3195.45
484.762	3269.35
485.133	3312.29
485.503	3398.39
485.874	3448.78
486.244	3578.95
486.615	3673.86
486.985	3746.17
487.356	3832.72
487.726	3909.56
488.097	4059.38
488.467	4108.42
488.837	4237.46
489.207	4291.7
489.578	4459.6
489.948	4473.39
490.318	4620.5
490.688	4663.66
491.058	4798.8
491.428	4884.22
491.798	4943.66
492.168	5107.49
492.538	5147.72
492.908	5275.62
493.278	5394.72
493.648	5432.68
494.017	5557.42
494.387	5666.35
494.757	5721.26
495.126	5825.44
495.496	5945.89
495.866	6027.69
496.235	6078.54
496.605	6262.04
496.974	6295.71
497.344	6423.84
497.713	6461.36
498.082	6549.94
498.452	6681.24
498.821	6735.92
499.19	6855.02
499.559	6960.55
499.928	7028.35
500.298	7098.63
500.667	7207.55
501.036	7242.58
501.405	7332.97
501.774	7323.48
502.143	7490.26
502.512	7487.77
502.88	7682.79
503.249	7673.08
503.618	7770.93
503.987	7902.22
504.356	7926.18
504.724	8031.71
505.093	8120.07
505.462	8170.69
505.83	8201.42
506.199	8318.26
506.567	8381.08
506.936	8406.39
507.304	8520.51
507.672	8618.13
508.041	8708.53
508.409	8692.26
508.777	8842.54
509.145	8936.32
509.514	8933.38
509.882	8977.67
510.25	9070.55
510.618	9139.48
510.986	9216.09
511.354	9275.52
511.722	9362.75
512.09	9476.64
512.458	9441.62
512.826	9604.32
513.193	9658.56
513.561	9718.22
513.929	9764.55
514.297	9800.25
514.664	9948.5
515.032	9957.99
515.4	10047.93
515.767	10060.13
516.135	10179.9
516.502	10108.27
516.869	10297.86
517.237	10337.41
517.604	10320.01
517.972	10426.45
518.339	10497.86
518.706	10537.63
519.073	10598.42
519.44	10666.22
519.808	10819.66
520.175	10785.08
520.542	10930.16
520.909	11002.03
521.276	11038.18
521.643	11140.1
522.009	11245.64
522.376	11253.32
522.743	11300.78
523.11	11435.69
523.477	11564.95
523.843	11606.08
524.21	11735.79
524.577	11747.32
524.943	11865.96
525.31	11910.03
525.676	11990.02
526.043	11968.33
526.409	12058.95
526.776	12228.21
527.142	12250.36
527.508	12288.77
527.874	12445.83
528.241	12484.25
528.607	12636.11
528.973	12724.02
529.339	12721.98
529.705	12825.26
530.071	12821.41
530.437	12921.75
530.803	13066.61
531.169	13099.15
531.535	13081.52
531.901	13115.42
532.267	13178.47
532.632	13352.7
532.998	13412.59
533.364	13453.94
533.73	13441.96
534.095	13603.54
534.461	13616.2
534.826	13710.88
535.192	13757.89
535.557	13858
535.923	13900.48
536.288	13889.18
536.653	13940.71
537.019	14021.61
537.384	14081.95
537.749	14099.35
538.114	14168.05
538.479	14155.16
538.845	14346.8
539.21	14275.61
539.575	14421.6
539.94	14368.94
540.305	14562.61
540.67	14451.65
541.034	14565.32
541.399	14604.64
541.764	14607.81
542.129	14773.68
542.494	14828.14
542.858	14837.63
543.223	14900.68
543.587	15027.91
543.952	14949.49
544.316	15084.63
544.681	15136.38
545.045	15174.8
545.41	15245.08
545.774	15340.22
546.138	15306.32
546.503	15322.14
546.867	15387
547.231	15588.35
547.595	15547.44
547.959	15656.59
548.324	15741.56
548.688	15700.21
549.052	15683.94
549.416	15839.19
549.779	15855.68
550.143	15916.02
550.507	16046.87
550.871	16036.47
551.235	16033.53
551.599	16062.91
551.962	16237.6
552.326	16212.96
552.689	16350.81
553.053	16242.57
553.417	16339.06
553.78	16567.76
554.143	16475.1
554.507	16581.09
554.87	16646.17
555.234	16745.38
555.597	16704.93
555.96	16791.25
556.323	16869.22
556.686	16852.49
557.05	17017.69
557.413	16956.45
557.776	17117.8
558.139	17088.19
558.502	17099.49
558.865	17261.07
559.228	17474.85
559.59	17367.06
559.953	17412.03
560.316	17591.46
560.679	17576.54
561.041	17652.93
561.404	17784
561.767	17859.47
562.129	17862.41
562.492	18016.98
562.854	17966.82
563.217	17977.44
563.579	18140.14
563.941	18257.2
564.304	18275.73
564.666	18359.12
565.028	18503.98
565.39	18512.11
565.753	18646.8
566.115	18607.02
566.477	18694.03
566.839	18791.88
567.201	18839.56
567.563	18955.94
567.925	19031.42
568.287	19021.03
568.648	19088.59
569.01	19120.46
569.372	19345.08
569.734	19263.28
570.095	19433.44
570.457	19456.04
570.819	19607.9
571.18	19627.34
571.542	19677.05
571.903	19788.24
572.265	19861.68
572.626	19930.61
572.987	20062.35
573.349	20145.97
573.71	20144.39
574.071	20219.19
574.432	20302.12
574.794	20495.79
575.155	20424.6
575.516	20529.46
575.877	20696.91
576.238	20851.26
576.599	20919.05
576.96	20904.82
577.32	21058.94
577.681	21244.02
578.042	21289.21
578.403	21423.45
578.763	21476.33
579.124	21569.66
579.485	21800.16
579.845	21931.23
580.206	21909.31
580.566	22038.35
580.927	22267.72
581.287	22484.44
581.648	22484.44
582.008	22666.58
582.368	22798.78
582.728	22965.55
583.089	23005.33
583.449	23137.98
583.809	23268.15
584.169	23701.13
584.529	23667.23
584.889	24019.76
585.249	24057.05
585.609	24021.57
585.969	24416.82
586.329	24447.1
586.688	24700.42
587.048	24817.71
587.408	24998.04
587.768	25180.19
588.127	25322.1
588.487	25529.33
588.846	25886.16
589.206	25871.69
589.565	25939.26
589.925	26407.27
590.284	26376.54
590.643	26580.83
591.003	26905.34
591.362	27103.75
591.721	27205.44
592.08	27402.95
592.44	27635.49
592.799	27844.3
593.158	27913.22
593.517	28061.69
593.876	28235.02
594.235	28368.58
594.593	28664.61
594.952	28946.19
595.311	29000.88
595.67	29247.42
596.029	29636.79
596.387	29787.52
596.746	29888.99
597.104	29897.58
597.463	30215.76
597.822	30415.98
598.18	30438.13
598.538	30535.07
598.897	30946.14
599.255	30889.64
599.613	31390.42
599.972	31374.6
600.33	31542.96
600.688	31608.94
601.046	31747.47
601.404	32182.26
601.762	32111.98
602.12	32372.31
602.478	32492.76
602.836	32685.07
603.194	32611.18
603.552	32796.26
603.91	32800.55
604.268	33193.53
604.625	33097.27
604.983	33464.04
605.341	33360.76
605.698	33541.77
606.056	33781.32
606.413	33852.05
606.771	34107.63
607.128	34164.58
607.485	34035.09
607.843	34243.68
608.2	34574.74
608.557	34642.08
608.914	34672.59
609.272	34851.34
609.629	35032.81
609.986	35165.01
610.343	35207.72
610.7	35532.68
611.057	35562.74
611.414	35621.94
611.771	35705.56
612.127	35865.1
612.484	35880.24
612.841	36140.12
613.198	36159.56
613.554	36167.47
613.911	36366.56
614.267	36535.59
614.624	36576.72
614.98	36707.79
615.337	36862.82
615.693	36773.78
616.05	36934.9
616.406	37168.34
616.762	37052.19
617.118	37068.46
617.475	37189.36
617.831	37434.78
618.187	37389.13
618.543	37456.7
618.899	37721.1
619.255	37842
619.611	37666.64
619.967	38029.34
620.323	37978.94
620.678	38026.85
621.034	37813.53
621.39	38034.08
621.746	37942.56
622.101	38396.34
622.457	38123.57
622.812	38208.32
623.168	38379.16
623.523	38269.78
623.879	38586.84
624.234	38250.8
624.589	38380.06
624.945	38614.86
625.3	38550.23
625.655	38513.17
626.01	38774.86
626.365	38665.93
626.72	38544.35
627.075	38633.62
627.43	38740.51
627.785	38736.67
628.14	38916.55
628.495	38855.98
628.85	38796.55
629.205	38669.77
629.559	39050.56
629.914	38786.16
630.269	38890.33
630.623	38927.39
630.978	38806.72
631.332	38969.65
631.687	38997.68
632.041	38811.69
632.396	38975.75
632.75	38879.94
633.104	38788.87
633.459	38661.41
633.813	38706.84
634.167	38829.32
634.521	38868.19
634.875	38798.36
635.229	38735.31
635.583	38604.01
635.937	38716.78
636.291	38655.99
636.645	38837.23
636.999	38614.63
637.352	38789.77
637.706	38532.83
638.06	38704.58
638.413	38546.16
638.767	38559.72
639.121	38640.17
639.474	38388.43
639.828	38449.22
640.181	38441.31
640.534	38609.89
640.888	38367.18
641.241	38237.02
641.594	38398.14
641.947	38513.17
642.301	38244.25
642.654	38331.03
643.007	38397.24
643.36	38383.45
643.713	38220.75
644.066	38497.35
644.419	38160.41
644.771	37914.09
645.124	37566.53
645.477	37664.83
645.83	37299.41
646.182	37231.17
646.535	37110.72
646.888	37181.68
647.24	37006.54
647.593	37223.26
647.945	37254.67
648.298	36881.35
648.65	36898.3
649.002	36934.23
649.355	36792.08
649.707	36932.87
650.059	37008.35
650.411	37434.33
650.763	37534.66
651.115	37763.58
651.467	37608.56
651.819	37759.29
652.171	37700.08
652.523	37616.02
652.875	37555.91
653.227	37401.78
653.578	37876.57
653.93	37663.7
654.282	37438.17
654.633	37334.44
654.985	37529.92
655.337	37480.65
655.688	37421.67
656.039	37617.6
656.391	37212.64
656.742	37393.42
657.094	37362.01
657.445	37512.97
657.796	37404.72
658.147	37299.41
658.498	37198.4
658.849	37406.08
659.2	37282.92
659.551	37300.77
659.902	37286.08
660.253	37219.64
660.604	37285.86
660.955	37156.59
661.306	37356.59
661.656	37168.57
662.007	37253.09
662.358	37207.44
662.708	37110.95
663.059	37124.96
663.409	37009.25
663.76	37056.26
664.11	37072.98
664.461	37159.08
664.811	37184.84
665.161	37092.19
665.511	36944.62
665.862	37124.28
666.212	37145.75
666.562	37233.43
666.912	37037.95
667.262	36989.59
667.612	37079.53
667.962	37066.65
668.312	37016.94
668.662	37150.94
669.011	37002.02
669.361	36921.35
669.711	37021.23
670.06	37010.16
670.41	36833.66
670.76	36969.25
671.109	36918.18
671.459	37047.67
671.808	36974
672.157	36997.73
672.507	36737.85
672.856	36731.07
673.205	36642.03
673.554	36897.62
673.904	36818.3
674.253	36915.24
674.602	36836.15
674.951	36347.8
675.3	35987.58
675.649	36670.5
675.998	36775.36
676.346	36710.96
676.695	36714.12
677.044	36510.51
677.393	36497.63
677.741	36641.8
678.09	36496.72
678.438	36432.54
678.787	36552.99
679.135	36487.01
679.484	36392.55
679.832	36350.29
680.181	36156.62
680.529	36299.89
680.877	36172.66
681.225	36183.74
681.573	36424.86
681.922	36135.38
682.27	36046.57
682.618	36079.11
682.966	35943.74
683.314	36095.15
683.661	35984.2
684.009	35804.54
684.357	35809.06
684.705	35570.19
685.053	35692.23
685.4	35633.02
685.748	35499.01
686.095	35455.4
686.443	35480.93
686.79	35280.26
687.138	35404.55
687.485	35280.71
687.832	35189.19
688.18	35246.14
688.527	35096.53
688.874	34986.71
689.221	34953.94
689.568	34878.91
689.915	34814.73
690.262	34821.29
690.609	34642.76
690.956	34605.47
691.303	34459.26
691.65	34321.87
691.997	34397.8
692.344	34216.11
692.69	34147.18
693.037	34053.17
693.383	33887.3
693.73	34021.76
694.077	33914.87
694.423	33838.71
694.769	33574.09
695.116	33614.09
695.462	33514.43
695.808	33577.7
696.155	33519.4
696.501	33335.23
696.847	33414.55
697.193	33159.18
697.539	33138.85
697.885	32848.23
698.231	32908.34
698.577	32731.85
698.923	32895.46
699.269	32669.48
699.614	32510.61
699.96	32564.62
700.306	32667.45
700.651	32345.19
700.997	32242.6
701.342	32249.83
701.688	32120.34
702.033	32195.14
702.379	31900.91
702.724	31824.08
703.069	31957.86
703.415	31568.49
703.76	31676.74
704.105	31681.71
704.45	31636.29
704.795	31356.07
705.14	31192.23
705.485	31211.89
705.83	31026.59
706.175	31049.86
706.52	30989.3
706.865	30954.04
707.209	31007.38
707.554	30813.71
707.899	30966.7
708.243	30708.4
708.588	30622.3
708.932	30493.72
709.277	30369.65
709.621	30507.73
709.966	30284.91
710.31	30307.73
710.654	30015.09
710.998	30239.49
711.342	30188.64
711.687	30020.06
712.031	29938.7
712.375	29878.82
712.719	29692.84
713.063	29845.15
713.407	29961.75
713.75	29616
714.094	29675.89
714.438	29545.72
714.782	29637.7
715.125	29435.89
715.469	29449.68
715.812	29252.85
716.156	29206.75
716.499	29181.89
716.843	29162
717.186	29092.85
717.53	29133.75
717.873	29268.89
718.216	29142.79
718.559	28863.7
718.902	28672.07
719.246	28874.33
719.589	28743.48
719.932	28633.2
720.275	28667.78
720.617	28477.5
720.96	28570.38
721.303	28598.63
721.646	28362.93
721.989	28263.49
722.331	28449.03
722.674	28284.51
723.016	28327.22
723.359	28239.09
723.701	28150.73
724.044	28033.9
724.386	27917.06
724.729	28083.84
725.071	27922.26
725.413	27916.38
725.755	27898.76
726.097	27753.23
726.439	27809.72
726.782	27635.04
727.124	27837.06
727.465	27584.87
727.807	27543.74
728.149	27482.5
728.491	27323.18
728.833	27461.48
729.175	27426.45
729.516	27381.48
729.858	27335.38
730.199	27374.48
730.541	27392.78
730.882	27272.79
731.224	27261.71
731.565	27090.87
731.906	27032.79
732.248	27088.16
732.589	27038.44
732.93	26914.38
733.271	26979.01
733.612	27011.78
733.953	26964.77
734.294	26854.72
734.635	26871.89
734.976	26862.85
735.317	26755.06
735.658	26602.52
735.999	26642.97
736.339	26646.14
736.68	26693.14
737.021	26539.47
737.361	26482.98
737.702	26635.29
738.042	26478.91
738.383	26423.99
738.723	26497.21
739.063	26353.26
739.404	26472.13
739.744	26351.45
740.084	26186.94
740.424	26260.61
740.764	26313.26
741.104	26221.74
741.444	26190.78
741.784	25948.75
742.124	26013.61
742.464	25862.65
742.804	25816.1
743.143	25898.58
743.483	25899.26
743.823	25757.57
744.162	25784.92
744.502	25772.03
744.841	25725.48
745.181	25873.73
745.52	25700.62
745.86	25709.44
746.199	25480.74
746.538	25504.02
746.877	25536.79
747.216	25606.39
747.556	25488.65
747.895	25534.3
748.234	25248.43
748.573	25239.17
748.911	25306.28
749.25	25387.64
749.589	25168.89
749.928	25160.98
750.267	25257.92
750.605	25094.31
750.944	25075.1
751.283	24895.45
751.621	24974.99
751.96	24800.08
752.298	24862.68
752.636	24829.46
752.975	24790.82
753.313	24645.06
753.651	24806.86
753.989	24501.56
754.327	24507.43
754.666	24431.05
755.004	24467.66
755.342	24438.96
755.679	24378.62
756.017	24357.83
756.355	24140.21
756.693	24285.07
757.031	24123.94
757.368	24179.53
