Data from hue_180_FLMS001491_00004.txt Node
Date: Tue Feb 07 16:46:28 GMT 2017
User: dcchb
Spectrometer: FLMS00149
Trigger mode: 0
Integration Time (sec): 2.000000E-2
Scans to average: 10
Electric dark correction enabled: true
Nonlinearity correction enabled: false
Boxcar width: 0
XAxis mode: Wavelengths
Number of Pixels in Spectrum: 2048
>>>>>Begin Spectral Data<<<<<
341.393	-12.43
341.776	-12.43
342.16	-12.43
342.543	-67.79
342.927	-51.98
343.31	-63.73
343.693	-69.15
344.077	-76.38
344.46	-45.2
344.843	-52.43
345.226	-36.38
345.61	-37.74
345.993	-12.2
346.376	-5.2
346.759	4.75
347.142	37.06
347.525	48.81
347.908	51.98
348.291	54.24
348.674	96.72
349.057	104.86
349.44	114.12
349.823	123.61
350.206	152.31
350.588	199.09
350.971	206.1
351.354	219.66
351.737	242.03
352.119	250.16
352.502	275.92
352.884	272.76
353.267	268.69
353.65	301.01
354.032	306.43
354.414	305.75
354.797	309.37
355.179	331.52
355.562	332.42
355.944	323.61
356.326	334.91
356.709	335.13
357.091	326.55
357.473	327.45
357.855	343.95
358.238	350.73
358.62	343.72
359.002	349.14
359.384	329.93
359.766	325.64
360.148	335.13
360.53	321.35
360.912	327.68
361.294	317.51
361.676	335.58
362.057	308.69
362.439	334.91
362.821	344.62
363.203	321.8
363.584	323.16
363.966	332.87
364.348	345.3
364.729	305.08
365.111	317.51
365.493	310.05
365.874	325.87
366.256	319.99
366.637	297.39
367.019	316.15
367.4	309.6
367.781	305.75
368.163	334.23
368.544	297.62
368.925	297.62
369.306	325.42
369.688	312.99
370.069	310.05
370.45	327
370.831	319.99
371.212	315.7
371.593	314.34
371.974	302.14
372.355	314.34
372.736	309.37
373.117	309.82
373.498	327
373.879	305.3
374.26	307.56
374.641	340.78
375.021	346.43
375.402	329.03
375.783	317.05
376.163	330.84
376.544	341.01
376.925	335.81
377.305	341.46
377.686	340.78
378.066	327
378.447	338.97
378.827	343.49
379.208	337.17
379.588	346.66
379.968	328.35
380.349	339.88
380.729	342.82
381.109	313.89
381.489	338.75
381.87	350.05
382.25	344.62
382.63	332.42
383.01	317.28
383.39	330.61
383.77	348.01
384.15	348.92
384.53	365.64
384.91	350.73
385.29	360.22
385.67	346.21
386.049	364.28
386.429	343.95
386.809	354.79
387.189	355.92
387.568	358.41
387.948	342.82
388.328	345.75
388.707	354.57
389.087	356.15
389.466	376.71
389.846	371.06
390.225	362.7
390.605	380.78
390.984	360.89
391.363	358.41
391.743	356.37
392.122	378.3
392.501	384.85
392.881	387.79
393.26	375.81
393.639	397.5
394.018	373.55
394.397	383.04
394.776	372.65
395.155	384.4
395.534	393.66
395.913	383.04
396.292	387.33
396.671	399.99
397.05	405.87
397.429	386.43
397.808	394.57
398.186	406.32
398.565	399.54
398.944	407.45
399.323	401.8
399.701	418.07
400.08	431.4
400.458	434.79
400.837	421.68
401.215	412.64
401.594	404.96
401.972	412.87
402.351	429.82
402.729	433.66
403.107	422.81
403.486	445.41
403.864	455.13
404.242	450.84
404.62	455.13
404.999	456.26
405.377	466.88
405.755	485.64
406.133	470.72
406.511	464.39
406.889	471.63
407.267	485.86
407.645	504.17
408.023	515.47
408.401	493.32
408.779	486.54
409.156	481.57
409.534	503.94
409.912	536.26
410.29	536.03
410.667	523.6
411.045	547.33
411.422	530.83
411.8	559.53
412.178	568.57
412.555	558.86
412.933	588.01
413.31	586.2
413.687	591.62
414.065	612.87
414.442	600.44
414.819	605.63
415.197	616.71
415.574	603.83
415.951	643.37
416.328	633.88
416.705	658.06
417.082	646.08
417.46	674.11
417.837	693.77
418.214	689.93
418.591	671.17
418.967	703.26
419.344	710.04
419.721	712.75
420.098	736.25
420.475	732.41
420.852	743.71
421.228	770.38
421.605	763.6
421.982	781.9
422.358	778.51
422.735	791.39
423.111	809.7
423.488	858.28
423.864	862.8
424.241	889.02
424.617	878.85
424.994	900.99
425.37	866.64
425.746	898.73
426.123	913.2
426.499	905.51
426.875	939.64
427.251	962.46
427.627	950.94
428.003	993.19
428.379	959.3
428.756	994.32
429.132	1019.18
429.507	1037.26
429.883	1071.84
430.259	1034.1
430.635	1057.83
431.011	1068.45
431.387	1116.81
431.763	1065.28
432.138	1123.81
432.514	1125.85
432.89	1150.25
433.265	1180.53
433.641	1184.15
434.016	1202
434.392	1203.81
434.767	1254.43
435.143	1245.16
435.518	1298.27
435.894	1307.54
436.269	1307.99
436.644	1360.64
437.02	1398.61
437.395	1392.05
437.77	1415.56
438.145	1429.57
438.52	1424.82
438.895	1478.38
439.271	1497.81
439.646	1509.34
440.021	1496.46
440.395	1526.74
440.77	1535.55
441.145	1558.15
441.52	1590.92
441.895	1586.17
442.27	1624.36
442.645	1635.66
443.019	1652.39
443.394	1657.36
443.769	1689.22
444.143	1689
444.518	1718.15
444.892	1714.98
445.267	1717.02
445.641	1775.09
446.016	1788.88
446.39	1767.19
446.764	1816
447.139	1798.6
447.513	1842.44
447.887	1830.69
448.262	1851.02
448.636	1847.41
449.01	1881.76
449.384	1905.49
449.758	1916.56
450.132	1959.5
450.506	1938.03
450.88	1962.66
451.254	1988.65
451.628	2005.15
452.002	2026.61
452.376	2073.39
452.75	2083.11
453.123	2085.14
453.497	2119.94
453.871	2126.72
454.244	2193.84
454.618	2180.06
454.992	2242.2
455.365	2214.18
455.739	2288.75
456.112	2291.92
456.486	2315.19
456.859	2323.78
457.232	2362.65
457.606	2428.41
457.979	2438.58
458.352	2477.9
458.725	2513.61
459.099	2533.94
459.472	2566.26
459.845	2641.29
460.218	2639.03
460.591	2648.52
460.964	2665.69
461.337	2736.2
461.71	2770.32
462.083	2822.07
462.456	2839.25
462.829	2841.28
463.201	2911.56
463.574	2897.78
463.947	2956.76
464.32	3041.05
464.692	3058
465.065	3114.49
465.438	3107.71
465.81	3156.08
466.183	3241.72
466.555	3300.48
466.928	3345.9
467.3	3321.27
467.672	3361.72
468.045	3480.59
468.417	3508.16
468.789	3513.35
469.161	3572.11
469.534	3675.61
469.906	3712.9
470.278	3758.77
470.65	3799.9
471.022	3874.02
471.394	3963.96
471.766	4007.58
472.138	4056.39
472.51	4175.26
472.882	4196.95
473.253	4316.04
473.625	4352.88
473.997	4404.63
474.369	4467.23
474.74	4555.81
475.112	4609.82
475.484	4744.06
475.855	4806.2
476.227	4885.52
476.598	5020.88
476.97	5050.26
477.341	5215.23
477.713	5264.49
478.084	5298.84
478.455	5487.09
478.827	5561.21
479.198	5745.84
479.569	5705.84
479.94	5877.81
480.311	5975.89
480.682	6115.55
481.053	6284.35
481.424	6353.28
481.795	6447.97
482.166	6533.16
482.537	6726.15
482.908	6818.58
483.279	6911.23
483.65	7072.36
484.021	7225.8
484.391	7338.79
484.762	7378.34
485.133	7459.92
485.503	7612.91
485.874	7819.68
486.244	7856.29
486.615	8087.92
486.985	8101.48
487.356	8342.15
487.726	8399.55
488.097	8623.05
488.467	8609.72
488.837	8797.06
489.207	8935.36
489.578	9063.94
489.948	9231.4
490.318	9263.94
490.688	9384.84
491.058	9614.89
491.428	9693.76
491.798	9786.18
492.168	9958.38
492.538	9983.24
492.908	10117.47
493.278	10179.85
493.648	10268.2
494.017	10414.19
494.387	10572.15
494.757	10683.33
495.126	10752.71
495.496	10797.68
495.866	10831.81
496.235	10995.19
496.605	11072.03
496.974	11095.75
497.344	11311.12
497.713	11327.39
498.082	11384.79
498.452	11500.94
498.821	11497.32
499.19	11529.19
499.559	11655.96
499.928	11712.01
500.298	11749.52
500.667	11869.97
501.036	11801.05
501.405	11972.34
501.774	11948.61
502.143	12032.23
502.512	12087.59
502.88	12227.93
503.249	12203.29
503.618	12239.45
503.987	12306.12
504.356	12395.15
504.724	12409.84
505.093	12418.88
505.462	12451.42
505.83	12583.85
506.199	12646
506.567	12684.64
506.936	12733.45
507.304	12784.3
507.672	12846.89
508.041	12878.98
508.409	12987.23
508.777	13020.22
509.145	13085.98
509.514	12995.14
509.882	13081.92
510.25	13100.22
510.618	13119.43
510.986	13131.63
511.354	13263.83
511.722	13296.6
512.09	13347.67
512.458	13255.7
512.826	13364.39
513.193	13356.03
513.561	13394
513.929	13466.99
514.297	13514.22
514.664	13504.5
515.032	13520.32
515.4	13570.49
515.767	13523.94
516.135	13657.72
516.502	13537.05
516.869	13653.43
517.237	13660.43
517.604	13657.04
517.972	13749.69
518.339	13743.37
518.706	13749.92
519.073	13745.85
519.44	13804.16
519.808	13832.18
520.175	13744.5
520.542	13817.26
520.909	13852.52
521.276	13813.42
521.643	13850.26
522.009	13916.7
522.376	13923.02
522.743	13948.56
523.11	13961.89
523.477	14077.82
523.843	13965.96
524.21	14144.49
524.577	14138.16
524.943	14005.96
525.31	14123.24
525.676	14205.73
526.043	14129.57
526.409	14142.45
526.776	14149.23
527.142	14232.39
527.508	14188.55
527.874	14203.69
528.241	14078.95
528.607	14162.57
528.973	14257.48
529.339	14220.64
529.705	14263.81
530.071	14205.05
530.437	14161.44
530.803	14196.24
531.169	14158.95
531.535	14163.24
531.901	13963.47
532.267	14062.68
532.632	14011.83
532.998	14010.93
533.364	13973.64
533.73	13952.63
534.095	13963.93
534.461	13992.85
534.826	13923.48
535.192	13763.71
535.557	13853.87
535.923	13741.11
536.288	13734.78
536.653	13715.8
537.019	13582.69
537.384	13606.42
537.749	13673.09
538.114	13532.53
538.479	13493.66
538.845	13445.07
539.21	13343.15
539.575	13388.8
539.94	13324.17
540.305	13316.49
540.67	13159.2
541.034	13114.01
541.399	13138.86
541.764	13050.28
542.129	13099.99
542.494	13013.44
542.858	12976.83
543.223	12892.99
543.587	12924.41
543.952	12704.75
544.316	12681.02
544.681	12675.82
545.045	12736.84
545.41	12548.6
545.774	12591.76
546.138	12413.01
546.503	12365.78
546.867	12299.79
547.231	12366.45
547.595	12294.14
547.959	12197.65
548.324	12129.17
548.688	12103.41
549.052	12054.15
549.416	12049.17
549.779	11964.21
550.143	11968.27
550.507	11912
550.871	11902.06
551.235	11792.91
551.599	11779.8
551.962	11728.28
552.326	11716.08
552.689	11684.44
553.053	11575.06
553.417	11539.81
553.78	11573.71
554.143	11539.13
554.507	11495.74
554.87	11458.46
555.234	11553.37
555.597	11344.79
555.96	11443.54
556.323	11357.67
556.686	11326.03
557.05	11251.68
557.413	11250.1
557.776	11138.92
558.139	11243.77
558.502	11197.9
558.865	11125.58
559.228	11087.84
559.59	11055.98
559.953	11044.23
560.316	11144.79
560.679	11080.61
561.041	11046.72
561.404	11104.11
561.767	11085.13
562.129	10994.97
562.492	11107.5
562.854	10993.84
563.217	10991.8
563.579	11048.52
563.941	11028.64
564.304	10962.2
564.666	10990.9
565.028	11025.25
565.39	10940.96
565.753	10984.8
566.115	11038.81
566.477	10927.17
566.839	10959.71
567.201	10990.67
567.563	10989.77
567.925	11038.13
568.287	11021.86
568.648	10941.18
569.01	11011.24
569.372	10984.34
569.734	10958.58
570.095	10977.34
570.457	11029.77
570.819	11028.64
571.18	10968.53
571.542	11041.97
571.903	11018.24
572.265	11041.07
572.626	10993.61
572.987	10993.61
573.349	10981.18
573.71	11064.12
574.071	11095.53
574.432	10991.8
574.794	11080.39
575.155	11036.09
575.516	11024.79
575.877	11046.04
576.238	11058.01
576.599	10997.22
576.96	11011.69
577.32	10996.55
577.681	11035.64
578.042	11087.39
578.403	11031.12
578.763	11068.41
579.124	11018.92
579.485	11062.53
579.845	11108.63
580.206	10988.19
580.566	11025.92
580.927	10957.9
581.287	10972.37
581.648	10949.54
582.008	11021.63
582.368	10972.82
582.728	11070.67
583.089	10956.1
583.449	10972.14
583.809	10882.65
584.169	10939.37
584.529	10864.12
584.889	10973.95
585.249	10831.13
585.609	10824.35
585.969	10872.03
586.329	10807.4
586.688	10778.93
587.048	10762.2
587.408	10824.12
587.768	10803.11
588.127	10777.34
588.487	10734.41
588.846	10828.64
589.206	10724.92
589.565	10771.92
589.925	10794.07
590.284	10724.92
590.643	10714.52
591.003	10792.26
591.362	10750
591.721	10733.5
592.08	10757.46
592.44	10743.45
592.799	10720.85
593.158	10725.14
593.517	10702.77
593.876	10717.46
594.235	10627.97
594.593	10643.34
594.952	10638.14
595.311	10548.65
595.67	10570.57
596.029	10659.61
596.387	10574.64
596.746	10667.74
597.104	10543.68
597.463	10587.97
597.822	10563.79
598.18	10537.8
598.538	10545.49
598.897	10572.6
599.255	10427.75
599.613	10652.6
599.972	10598.37
600.33	10538.03
600.688	10548.2
601.046	10577.8
601.404	10568.08
601.762	10574.19
602.12	10525.15
602.478	10547.52
602.836	10544.81
603.194	10493.74
603.552	10501.64
603.91	10430.46
604.268	10542.1
604.625	10523.34
604.983	10548.42
605.341	10468.88
605.698	10511.14
606.056	10455.54
606.413	10449.22
606.771	10536.67
607.128	10557.01
607.485	10458.26
607.843	10515.2
608.2	10584.81
608.557	10584.35
608.914	10483.79
609.272	10543.45
609.629	10577.35
609.986	10567.86
610.343	10581.42
610.7	10667.52
611.057	10623
611.414	10583.68
611.771	10528.76
612.127	10573.51
612.484	10619.61
612.841	10669.32
613.198	10633.62
613.554	10587.52
613.911	10650.12
614.267	10634.75
614.624	10602.66
614.98	10604.92
615.337	10694.63
615.693	10612.6
616.05	10655.99
616.406	10749.77
616.762	10654.18
617.118	10616.67
617.475	10704.35
617.831	10677.01
618.187	10649.44
618.543	10710.68
618.899	10765.14
619.255	10772.82
619.611	10729.44
619.967	10736.44
620.323	10792.48
620.678	10653.96
621.034	10678.82
621.39	10654.41
621.746	10747.74
622.101	10784.8
622.457	10682.66
622.812	10752.94
623.168	10785.25
623.523	10785.93
623.879	10815.31
624.234	10728.08
624.589	10721.3
624.945	10738.47
625.3	10801.98
625.655	10766.27
626.01	10697.12
626.365	10705.93
626.72	10688.76
627.075	10735.76
627.43	10760.85
627.785	10714.75
628.14	10719.72
628.495	10718.59
628.85	10703
629.205	10652.83
629.559	10642.43
629.914	10680.4
630.269	10688.98
630.623	10589.1
630.978	10623.68
631.332	10634.3
631.687	10616.9
632.041	10554.75
632.396	10630
632.75	10528.31
633.104	10591.36
633.459	10551.59
633.813	10520.85
634.167	10520.85
634.521	10510.91
634.875	10568.31
635.229	10498.71
635.583	10479.27
635.937	10408.31
636.291	10410.12
636.645	10450.57
636.999	10367.41
637.352	10430.91
637.706	10376.45
638.06	10421.19
638.413	10397.24
638.767	10361.76
639.121	10325.38
639.474	10284.93
639.828	10330.58
640.181	10324.25
640.534	10392.72
640.888	10309.11
641.241	10228.43
641.594	10288.54
641.947	10316.79
642.301	10247.19
642.654	10263.01
643.007	10280.18
643.36	10275.66
643.713	10203.35
644.066	10277.92
644.419	10186.4
644.771	10165.61
645.124	10080.86
645.477	10013.07
645.83	10002.22
646.182	9897.14
646.535	9922
646.888	9886.52
647.24	9895.78
647.593	9969.68
647.945	9942.34
648.298	9841.1
648.65	9849.23
649.002	9783.02
649.355	9905.28
649.707	9892.4
650.059	9913.41
650.411	10048.1
650.763	10027.53
651.115	10189.79
651.467	10193.4
651.819	10167.19
652.171	10090.13
652.523	10132.61
652.875	10132.84
653.227	10061.2
653.578	10101.88
653.93	10216.68
654.282	10123.58
654.633	10103.01
654.985	10047.87
655.337	10119.51
655.688	10140.75
656.039	10164.93
656.391	10092.84
656.742	10088.77
657.094	10090.36
657.445	10184.59
657.796	10172.39
658.147	10160.86
658.498	10090.81
658.849	10228.88
659.2	10190.01
659.551	10121.54
659.902	10227.98
660.253	10143.01
660.604	10189.34
660.955	10145.5
661.306	10164.03
661.656	10144.82
662.007	10201.99
662.358	10241.09
662.708	10217.13
663.059	10210.58
663.409	10152.95
663.76	10169
664.11	10168.55
664.461	10211.03
664.811	10208.77
665.161	10224.59
665.511	10217.36
665.862	10216.91
666.212	10264.14
666.562	10214.19
666.912	10279.05
667.262	10230.01
667.612	10196.12
667.962	10248.54
668.312	10245.83
668.662	10232.5
669.011	10265.94
669.361	10196.34
669.711	10258.04
670.06	10151.6
670.41	10191.6
670.76	10208.77
671.109	10228.21
671.459	10172.84
671.808	10174.42
672.157	10246.06
672.507	10146.85
672.856	10130.13
673.205	10145.95
673.554	10175.78
673.904	10170.58
674.253	10169.45
674.602	10208.09
674.951	10026.85
675.3	9916.8
675.649	10082.9
675.998	10130.13
676.346	10056.23
676.695	10113.63
677.044	10077.02
677.393	10092.39
677.741	9985.5
678.09	10054.88
678.438	10032.05
678.787	10015.1
679.135	10034.99
679.484	9900.98
679.832	9907.99
680.181	9921.1
680.529	9894.66
680.877	9871.38
681.225	9903.69
681.573	9903.02
681.922	9845.39
682.27	9822.11
682.618	9846.75
682.966	9786.64
683.314	9783.92
683.661	9720.87
684.009	9703.25
684.357	9700.76
684.705	9651.27
685.053	9654.66
685.4	9665.73
685.748	9675.45
686.095	9670.71
686.443	9561.78
686.79	9517.26
687.138	9579.64
687.485	9539.41
687.832	9552.07
688.18	9579.64
688.527	9453.99
688.874	9376.48
689.221	9419.87
689.568	9330.38
689.915	9369.7
690.262	9313.2
690.609	9277.27
690.956	9190.27
691.303	9271.17
691.65	9188.01
691.997	9138.06
692.344	9060.33
692.69	9150.49
693.037	9130.16
693.383	9033.89
693.73	9110.72
694.077	8977.62
694.423	9019.65
694.769	8920.44
695.116	8933.55
695.462	8907.56
695.808	8809.49
696.155	8842.93
696.501	8740.56
696.847	8749.6
697.193	8714.8
697.539	8678.87
697.885	8622.37
698.231	8647.46
698.577	8604.75
698.923	8578.53
699.269	8580.11
699.614	8430.51
699.96	8490.17
700.306	8536.5
700.651	8394.81
700.997	8426.45
701.342	8320.46
701.688	8357.29
702.033	8373.11
702.379	8248.14
702.724	8242.5
703.069	8246.34
703.415	8126.34
703.76	8127.7
704.105	8158.88
704.45	8113.23
704.795	8057.64
705.14	8034.14
705.485	8054.03
705.83	7922.73
706.175	7948.49
706.52	7901.49
706.865	7893.35
707.209	7983.52
707.554	7845.67
707.899	7854.26
708.243	7846.35
708.588	7779.91
708.932	7774.48
709.277	7685.9
709.621	7746.01
709.966	7626.24
710.31	7713.92
710.654	7638.67
710.998	7670.76
711.342	7658.78
711.687	7577.2
712.031	7572.91
712.375	7537.2
712.719	7552.57
713.063	7526.36
713.407	7566.35
713.75	7520.25
714.094	7495.4
714.438	7472.57
714.782	7461.95
715.125	7426.7
715.469	7448.39
715.812	7423.53
716.156	7351.67
716.499	7373.37
716.843	7352.35
717.186	7325.68
717.53	7408.84
717.873	7378.11
718.216	7349.86
718.559	7324.55
718.902	7275.97
719.246	7295.4
719.589	7282.97
719.932	7226.7
720.275	7243.2
720.617	7224.89
720.96	7219.7
721.303	7215.63
721.646	7266.25
721.989	7208.4
722.331	7217.66
722.674	7162.98
723.016	7233.26
723.359	7225.8
723.701	7240.71
724.044	7153.48
724.386	7119.81
724.729	7155.97
725.071	7183.54
725.413	7187.83
725.755	7162.3
726.097	7094.95
726.439	7119.59
726.782	7119.81
727.124	7171.11
727.465	7138.12
727.807	7141.96
728.149	7109.42
728.491	7101.28
728.833	7130.89
729.175	7125.69
729.516	7066.25
729.858	7108.97
730.199	7140.6
730.541	7081.62
730.882	7115.52
731.224	7107.84
731.565	7066.93
731.906	7086.37
732.248	7123.88
732.589	7120.72
732.93	7070.55
733.271	7120.94
733.612	7181.05
733.953	7103.32
734.294	7097.89
734.635	7111.23
734.976	7125.91
735.317	7119.13
735.658	7094.05
735.999	7115.29
736.339	7108.97
736.68	7174.27
737.021	7129.3
737.361	7105.35
737.702	7145.8
738.042	7133.15
738.383	7138.34
738.723	7141.06
739.063	7143.32
739.404	7125.69
739.744	7209.3
740.084	7190.55
740.424	7189.19
740.764	7259.92
741.104	7249.98
741.444	7230.54
741.784	7288.17
742.124	7287.49
742.464	7289.53
742.804	7297.21
743.143	7374.04
743.483	7382.86
743.823	7339.47
744.162	7417.21
744.502	7466.7
744.841	7533.14
745.181	7515.51
745.52	7517.99
745.86	7594.15
746.199	7648.61
746.538	7681.15
746.877	7715.28
747.216	7766.8
747.556	7781.49
747.895	7913.01
748.234	7878.44
748.573	7919.79
748.911	8028.72
749.25	8070.75
749.589	8118.43
749.928	8250.18
750.267	8346.22
750.605	8381.25
750.944	8431.42
751.283	8535.37
751.621	8609.94
751.96	8653.78
752.298	8863.5
752.636	8934.45
752.975	9037.95
753.313	9124.51
753.651	9276.59
753.989	9378.51
754.327	9519.07
754.666	9533.31
755.004	9751.38
755.342	9911.15
755.679	10076.8
756.017	10132.84
756.355	10345.26
756.693	10466.62
757.031	10712.03
757.368	10766.04
757.706	10939.37
758.044	11099.37
758.381	11368.06
758.719	11462.75
759.056	11659.58
759.394	11826.36
759.731	12009.4
