Data from hue_80_FLMS001491_77.txt Node
Date: Mon Feb 06 15:23:32 GMT 2017
User: dcchb
Spectrometer: FLMS00149
Trigger mode: 0
Integration Time (sec): 2.000000E-2
Scans to average: 10
Electric dark correction enabled: true
Nonlinearity correction enabled: false
Boxcar width: 0
XAxis mode: Wavelengths
Number of Pixels in Spectrum: 2048
>>>>>Begin Spectral Data<<<<<
341.393	-7.53
341.776	-7.53
342.16	-7.53
342.543	-45.72
342.927	-60.41
343.31	-50.46
343.693	-85.27
344.077	-60.41
344.46	-51.82
344.843	-57.47
345.226	-46.4
345.61	-23.57
345.993	-23.12
346.376	-26.51
346.759	12.36
347.142	41.74
347.525	46.03
347.908	60.04
348.291	76.99
348.674	96.65
349.057	91.23
349.44	154.05
349.823	151.79
350.206	172.58
350.588	213.94
350.971	212.58
351.354	209.64
351.737	243.09
352.119	244.67
352.502	260.26
352.884	272.46
353.267	266.82
353.65	275.63
354.032	296.64
354.414	318.57
354.797	316.31
355.179	309.3
355.562	316.08
355.944	343.65
356.326	341.84
356.709	338
357.091	338.9
357.473	352.91
357.855	344.55
358.238	344.33
358.62	335.29
359.002	343.2
359.384	340.94
359.766	362.86
360.148	357.66
360.53	332.58
360.912	324.44
361.294	332.58
361.676	345.23
362.057	333.93
362.439	346.36
362.821	316.53
363.203	328.51
363.584	343.42
363.966	324.67
364.348	327.38
364.729	341.16
365.111	316.08
365.493	325.12
365.874	321.05
366.256	322.86
366.637	305.91
367.019	316.31
367.4	317.66
367.781	316.53
368.163	313.59
368.544	326.25
368.925	326.02
369.306	322.18
369.688	314.72
370.069	309.98
370.45	311.79
370.831	320.6
371.212	288.96
371.593	294.16
371.974	319.24
372.355	303.65
372.736	322.86
373.117	326.7
373.498	320.37
373.879	318.11
374.26	331.45
374.641	313.14
375.021	309.75
375.402	309.75
375.783	314.27
376.163	326.02
376.544	334.38
376.925	321.28
377.305	319.92
377.686	307.72
378.066	340.49
378.447	312.92
378.827	337.1
379.208	340.71
379.588	330.09
379.968	323.08
380.349	325.8
380.729	331.45
381.109	326.93
381.489	342.29
381.87	312.69
382.25	349.07
382.63	326.47
383.01	351.56
383.39	327.83
383.77	340.26
384.15	344.1
384.53	341.16
384.91	340.94
385.29	334.16
385.67	345.01
386.049	343.42
386.429	384.78
386.809	356.76
387.189	349.75
387.568	347.26
387.948	370.99
388.328	364.21
388.707	372.35
389.087	369.19
389.466	354.5
389.846	379.35
390.225	353.14
390.605	351.56
390.984	353.82
391.363	370.99
391.743	339.36
392.122	386.13
392.501	382.52
392.881	375.29
393.26	368.51
393.639	362.41
394.018	380.26
394.397	387.04
394.776	368.28
395.155	382.74
395.534	380.48
395.913	386.36
396.292	379.81
396.671	373.25
397.05	376.64
397.429	366.93
397.808	378.9
398.186	359.02
398.565	410.54
398.944	380.71
399.323	393.37
399.701	371.67
400.08	375.51
400.458	390.65
400.837	386.13
401.215	394.72
401.594	389.52
401.972	419.58
402.351	411.22
402.729	412.12
403.107	399.01
403.486	398.34
403.864	415.06
404.242	414.38
404.62	404.66
404.999	429.3
405.377	421.84
405.755	378
406.133	430.43
406.511	435.17
406.889	419.13
407.267	422.97
407.645	426.58
408.023	424.78
408.401	426.81
408.779	440.14
409.156	435.62
409.534	449.41
409.912	437.21
410.29	438.34
410.667	481.5
411.045	468.62
411.422	443.53
411.8	467.94
412.178	427.71
412.555	469.97
412.933	485.34
413.31	494.61
413.687	466.13
414.065	472.23
414.442	482.4
414.819	478.33
415.197	481.72
415.574	476.08
415.951	491.22
416.328	482.4
416.705	461.61
417.082	496.19
417.46	505.68
417.837	507.94
418.214	498.22
418.591	508.84
418.967	502.06
419.344	503.64
419.721	501.84
420.098	509.75
420.475	536.64
420.852	524.89
421.228	528.96
421.605	532.8
421.982	542.51
422.358	535.96
422.735	543.64
423.111	557.2
423.488	545
423.864	545.9
424.241	566.47
424.617	560.14
424.994	537.32
425.37	552.23
425.746	562.85
426.123	567.37
426.499	549.29
426.875	569.41
427.251	563.53
427.627	588.39
428.003	589.97
428.379	561.27
428.756	598.33
429.132	586.13
429.507	585.45
429.883	598.11
430.259	609.18
430.635	608.5
431.011	593.81
431.387	613.92
431.763	633.59
432.138	628.61
432.514	617.54
432.89	627.94
433.265	665.22
433.641	659.12
434.016	649.4
434.392	661.83
434.767	672.23
435.143	669.52
435.518	668.61
435.894	673.13
436.269	699.8
436.644	678.78
437.02	709.52
437.395	708.84
437.77	721.94
438.145	713.81
438.52	676.52
438.895	742.96
439.271	732.79
439.646	734.15
440.021	720.14
440.395	740.7
440.77	733.47
441.145	738.67
441.52	761.04
441.895	770.53
442.27	746.8
442.645	768.95
443.019	774.6
443.394	790.19
443.769	790.87
444.143	769.17
444.518	783.19
444.892	768.5
445.267	786.12
445.641	794.94
446.016	795.16
446.39	804.65
446.764	814.15
447.139	811.43
447.513	824.77
447.887	821.83
448.262	843.97
448.636	843.07
449.01	837.2
449.384	822.05
449.758	861.83
450.132	860.92
450.506	888.04
450.88	886.01
451.254	885.78
451.628	870.87
452.002	919.91
452.376	905.22
452.75	889.62
453.123	925.78
453.497	922.17
453.871	910.19
454.244	947.7
454.618	942.28
454.992	953.35
455.365	980.69
455.739	988.15
456.112	984.76
456.486	982.05
456.859	994.48
457.232	1023.18
457.606	1018.89
457.979	1032.9
458.352	1033.8
458.725	1044.87
459.099	1057.3
459.472	1086.91
459.845	1072.44
460.218	1112.67
460.591	1086.45
460.964	1127.81
461.337	1133.91
461.71	1133.23
462.083	1183.85
462.456	1199.22
462.829	1199.22
463.201	1181.14
463.574	1183.18
463.947	1223.17
464.32	1248.03
464.692	1281.25
465.065	1287.58
465.438	1289.84
465.81	1330.29
466.183	1328.26
466.555	1347.92
466.928	1354.7
467.3	1370.29
467.672	1409.38
468.045	1442.15
468.417	1458.65
468.789	1461.13
469.161	1505.65
469.534	1524.41
469.906	1557.18
470.278	1548.82
470.65	1614.12
471.022	1622.03
471.394	1653.67
471.766	1653.45
472.138	1716.04
472.51	1760.34
472.882	1799.66
473.253	1845.53
473.625	1852.31
473.997	1905.19
474.369	1921.69
474.74	1952.19
475.112	2013.44
475.484	2022.48
475.855	2114.68
476.227	2110.83
476.598	2198.06
476.97	2234.22
477.341	2309.25
477.713	2339.08
478.084	2436.7
478.455	2509.92
478.827	2551.95
479.198	2682.12
479.569	2684.15
479.94	2764.15
480.311	2818.39
480.682	2915.56
481.053	2998.95
481.424	3068.55
481.795	3191.48
482.166	3256.57
482.537	3303.57
482.908	3474.19
483.279	3444.58
483.65	3618.37
484.021	3775.88
484.391	3853.16
484.762	3971.12
485.133	4018.13
485.503	4087.96
485.874	4238.91
486.244	4333.37
486.615	4514.16
486.985	4587.83
487.356	4736.08
487.726	4788.28
488.097	4963.64
488.467	5029.63
488.837	5197.53
489.207	5307.59
489.578	5513.23
489.948	5571.99
490.318	5784.18
490.688	5842.49
491.058	6027.12
491.428	6164.29
491.798	6348.91
492.168	6491.74
492.538	6537.16
492.908	6715.01
493.278	6877.49
493.648	6979.86
494.017	7116.8
494.387	7260.53
494.757	7380.98
495.126	7555.89
495.496	7645.38
495.866	7794.75
496.235	7986.84
496.605	8074.07
496.974	8214.63
497.344	8374.4
497.713	8541.17
498.082	8570.78
498.452	8742.98
498.821	8822.97
499.19	8919.47
499.559	9125.57
499.928	9241.95
500.298	9379.57
500.667	9538.21
501.036	9616.4
501.405	9752.67
501.774	9715.61
502.143	9922.38
502.512	10072.66
502.88	10151.3
503.249	10261.58
503.618	10331.64
503.987	10447.79
504.356	10577.5
504.724	10670.16
505.093	10735.92
505.462	10820.21
505.83	11002.8
506.199	11087.55
506.567	11230.14
506.936	11275.79
507.304	11396.92
507.672	11486.41
508.041	11612.28
508.409	11737.02
508.777	11860.41
509.145	12031.93
509.514	12005.26
509.882	12060.4
510.25	12170.91
510.618	12283
510.986	12320.06
511.354	12429.66
511.722	12522.09
512.09	12626.04
512.458	12696.54
512.826	12819.03
513.193	12845.02
513.561	12874.17
513.929	12984.45
514.297	13177.89
514.664	13172.01
515.032	13278.22
515.4	13420.37
515.767	13412.91
516.135	13489.52
516.502	13452.01
516.869	13703.75
517.237	13737.65
517.604	13780.13
517.972	13911.2
518.339	13918.89
518.706	13947.36
519.073	13992.1
519.44	14071.65
519.808	14235.04
520.175	14193.91
520.542	14349.16
520.909	14375.6
521.276	14388.93
521.643	14472.32
522.009	14606.1
522.376	14689.94
522.743	14700.11
523.11	14879.09
523.477	14957.5
523.843	14931.06
524.21	15057.84
524.577	15201.79
524.943	15249.02
525.31	15199.53
525.676	15395.68
526.043	15455.34
526.409	15350.94
526.776	15577.82
527.142	15617.6
527.508	15592.29
527.874	15692.4
528.241	15686.07
528.607	15745.96
528.973	15840.87
529.339	15983.92
529.705	16022.33
530.071	16029.34
530.437	16108.88
530.803	16131.03
531.169	16175.78
531.535	16076.79
531.901	16100.75
532.267	16196.34
532.632	16222.55
532.998	16341.87
533.364	16207.64
533.73	16301.42
534.095	16420.97
534.461	16408.99
534.826	16427.52
535.192	16403.11
535.557	16461.87
535.923	16459.38
536.288	16563.34
536.653	16546.84
537.019	16361.31
537.384	16585.26
537.749	16608.08
538.114	16510.68
538.479	16530.79
538.845	16546.61
539.21	16433.4
539.575	16516.11
539.94	16540.06
540.305	16577.8
540.67	16446.28
541.034	16533.51
541.399	16610.57
541.764	16548.42
542.129	16611.92
542.494	16549.78
542.858	16567.63
543.223	16433.62
543.587	16583
543.952	16476.11
544.316	16492.38
544.681	16427.52
545.045	16537.35
545.41	16504.13
545.774	16583.67
546.138	16448.08
546.503	16431.81
546.867	16502.09
547.231	16469.55
547.595	16451.7
547.959	16548.42
548.324	16466.16
548.688	16510.91
549.052	16511.81
549.416	16449.44
549.779	16413.06
550.143	16433.62
550.507	16560.17
550.871	16502.77
551.235	16424.13
551.599	16646.95
551.962	16471.59
552.326	16512.49
552.689	16549.1
553.053	16402.89
553.417	16481.3
553.78	16545.26
554.143	16473.85
554.507	16451.47
554.87	16560.17
555.234	16613.5
555.597	16503.45
555.96	16498.7
556.323	16505.94
556.686	16422.55
557.05	16610.57
557.413	16522.88
557.776	16556.1
558.139	16626.38
558.502	16618.7
558.865	16646.95
559.228	16728.08
559.59	16666.16
559.953	16688.3
560.316	16781.64
560.679	16774.4
561.041	16789.09
561.404	16768.75
561.767	16862.99
562.129	16790
562.492	16984.79
562.854	16908.86
563.217	16925.13
563.579	16950.9
563.941	17026.83
564.304	17039.03
564.666	17189.99
565.028	17055.53
565.39	17073.15
565.753	17146.37
566.115	17188.63
566.477	17220.27
566.839	17285.35
567.201	17387.49
567.563	17295.75
567.925	17487.61
568.287	17400.38
568.648	17407.16
569.01	17481.05
569.372	17436.53
569.734	17473.82
570.095	17614.83
570.457	17654.15
570.819	17566.7
571.18	17697.09
571.542	17601.73
571.903	17679.92
572.265	17756.3
572.626	17746.81
572.987	17709.52
573.349	17759.69
573.71	17782.74
574.071	17861.38
574.432	17902.06
574.794	17967.59
575.155	17966.46
575.516	17877.43
575.877	17918.33
576.238	17968.95
576.599	18061.6
576.96	17987.03
577.32	17961.49
577.681	17980.7
578.042	18038.33
578.403	18120.81
578.763	18090.98
579.124	18144.54
579.485	18165.33
579.845	18209.39
580.206	18101.15
580.566	18131.88
580.927	18103.18
581.287	18173.69
581.648	18087.36
582.008	18132.33
582.368	18164.88
582.728	18198.32
583.089	17996.07
583.449	18144.31
583.809	18167.14
584.169	18223.86
584.529	18075.61
584.889	18267.47
585.249	18059.34
585.609	18044.2
585.969	18079.68
586.329	18054.37
586.688	18079.45
587.048	18006.69
587.408	17992
587.768	18075.39
588.127	17998.1
588.487	17883.3
588.846	18076.74
589.206	17976.18
589.565	18028.16
589.925	17996.07
590.284	17957.2
590.643	18021.38
591.003	18017.76
591.362	17917.88
591.721	18006.69
592.08	17935.73
592.44	18046.01
592.799	18055.5
593.158	18007.59
593.517	17982.06
593.876	18021.38
594.235	17939.8
594.593	17956.52
594.952	17945.45
595.311	17961.94
595.67	17976.86
596.029	18049.17
596.387	18010.08
596.746	18070.41
597.104	17989.29
597.463	17936.86
597.822	18056.18
598.18	17982.28
598.538	17946.58
598.897	18068.15
599.255	17778.44
599.613	18104.54
599.972	17975.28
600.33	17988.83
600.688	17920.36
601.046	17975.95
601.404	18055.27
601.762	17989.74
602.12	18105.67
602.478	18033.13
602.836	18098.44
603.194	17953.81
603.552	17984.54
603.91	17926.92
604.268	18070.19
604.625	17985.45
604.983	17999.23
605.341	17965.56
605.698	18079.68
606.056	18069.74
606.413	18114.48
606.771	18105.89
607.128	18151.77
607.485	17987.93
607.843	18010.53
608.2	18104.54
608.557	18236.96
608.914	18088.72
609.272	18152.22
609.629	18175.95
609.986	18290.52
610.343	18154.48
610.7	18276.28
611.057	18203.29
611.414	18283.06
611.771	18223.86
612.127	18398.77
612.484	18291.43
612.841	18419.33
613.198	18310.63
613.554	18382.04
613.911	18434.7
614.267	18363.97
614.624	18338.88
614.98	18505.43
615.337	18408.03
615.693	18469.95
616.05	18437.18
616.406	18583.85
616.762	18507.47
617.118	18454.36
617.475	18526.45
617.831	18659.55
618.187	18594.24
618.543	18496.62
618.899	18741.13
619.255	18648.7
619.611	18653.45
619.967	18664.98
620.323	18847.57
620.678	18621.13
621.034	18664.3
621.39	18621.13
621.746	18642.6
622.101	18808.47
622.457	18725.09
622.812	18860.22
623.168	18757.18
623.523	18846.44
623.879	18760.57
624.234	18698.19
624.589	18743.84
624.945	18753.33
625.3	18712.66
625.655	18711.08
626.01	18755.37
626.365	18832.88
626.72	18758.08
627.075	18714.69
627.43	18748.36
627.785	18644.64
628.14	18619.1
628.495	18832.65
628.85	18741.36
629.205	18612.32
629.559	18794.24
629.914	18666.11
630.269	18647.57
630.623	18633.34
630.978	18661.36
631.332	18726.44
631.687	18671.3
632.041	18589.5
632.396	18602.83
632.75	18713.11
633.104	18651.19
633.459	18457.07
633.813	18540.23
634.167	18431.54
634.521	18423.85
634.875	18526.9
635.229	18413
635.583	18407.58
635.937	18353.57
636.291	18395.15
636.645	18373.68
636.999	18385.43
637.352	18418.88
637.706	18317.41
638.06	18375.49
638.413	18315.83
638.767	18297.98
639.121	18296.62
639.474	18145.89
639.828	18302.72
640.181	18229.73
640.534	18216.63
640.888	18243.74
641.241	18213.46
641.594	18149.28
641.947	18222.73
642.301	18153.8
642.654	18159.68
643.007	18080.36
643.36	18096.63
643.713	18073.8
644.066	18069.74
644.419	18032
644.771	17938.21
645.124	17791.78
645.477	17785.45
645.83	17582.29
646.182	17560.15
646.535	17515.85
646.888	17594.72
647.24	17443.09
647.593	17487.15
647.945	17505.01
648.298	17415.29
648.65	17488.96
649.002	17311.11
649.355	17471.56
649.707	17361.05
650.059	17406.03
650.411	17558.79
650.763	17654.61
651.115	17870.42
651.467	17823.19
651.819	17851.89
652.171	17849.4
652.523	17820.93
652.875	17780.7
653.227	17673.36
653.578	17869.06
653.93	17933.24
654.282	17702.74
654.633	17698.22
654.985	17742.74
655.337	17770.08
655.688	17786.81
656.039	17807.6
656.391	17624.78
656.742	17741.84
657.094	17723.08
657.445	17730.54
657.796	17794.26
658.147	17717.43
658.498	17760.14
658.849	17806.69
659.2	17815.05
659.551	17742.51
659.902	17827.48
660.253	17801.5
660.604	17816.64
660.955	17789.52
661.306	17900.7
661.656	17780.93
662.007	17817.31
662.358	17780.25
662.708	17822.06
663.059	17855.73
663.409	17729.18
663.76	17849.63
664.11	17835.62
664.461	17917.42
664.811	17902.28
665.161	17886.46
665.511	17869.29
665.862	17915.62
666.212	17909.29
666.562	17867.26
666.912	17862.06
667.262	17859.35
667.612	17895.05
667.962	17832.23
668.312	17816.86
668.662	17945.22
669.011	17826.58
669.361	17768.05
669.711	17893.92
670.06	17782.74
670.41	17808.73
670.76	17731.44
671.109	17814.6
671.459	17736.86
671.808	17773.25
672.157	17753.36
672.507	17635.85
672.856	17719.92
673.205	17693.7
673.554	17675.62
673.904	17667.49
674.253	17757.43
674.602	17717.66
674.951	17428.4
675.3	17374.61
675.649	17691.67
675.998	17570.54
676.346	17601.73
676.695	17771.89
677.044	17568.73
677.393	17563.99
677.741	17467.94
678.09	17533.48
678.438	17527.83
678.787	17454.16
679.135	17542.52
679.484	17337.55
679.832	17499.81
680.181	17310.43
680.529	17459.81
680.877	17320.15
681.225	17376.2
681.573	17451.67
681.922	17285.8
682.27	17278.12
682.618	17233.83
682.966	17118.58
683.314	17140.5
683.661	17146.37
684.009	16959.71
684.357	17033.38
684.705	16956.77
685.053	16994.96
685.4	17031.57
685.748	16875.42
686.095	16879.03
686.443	16865.25
686.79	16695.54
687.138	16819.83
687.485	16756.1
687.832	16642.43
688.18	16668.19
688.527	16588.65
688.874	16661.86
689.221	16521.08
689.568	16488.54
689.915	16481.76
690.262	16520.17
690.609	16324.92
690.956	16422.77
691.303	16293.51
691.65	16188.66
691.997	16180.75
692.344	16205.38
692.69	16002.22
693.037	16091.71
693.383	16011.26
693.73	16026.4
694.077	15889.23
694.423	15824.6
694.769	15787.99
695.116	15769.68
695.462	15740.31
695.808	15601.1
696.155	15606.98
696.501	15580.54
696.847	15498.05
697.193	15399.07
697.539	15443.82
697.885	15363.59
698.231	15282.24
698.577	15297.83
698.923	15220.55
699.269	15208.8
699.614	15081.34
699.96	15003.38
700.306	15006.77
700.651	14910.72
700.997	14866.21
701.342	14816.49
701.688	14799.99
702.033	14719.54
702.379	14728.81
702.724	14698.07
703.069	14612.65
703.415	14456.72
703.76	14480.45
704.105	14429.61
704.45	14372.88
704.795	14291.98
705.14	14319.33
705.485	14260.57
705.83	14209.05
706.175	14168.6
706.52	14168.37
706.865	14119.56
707.209	14106.68
707.554	14074.36
707.899	14056.96
708.243	13960.01
708.588	13954.14
708.932	13917.76
709.277	13899.22
709.621	13846.12
709.966	13722.05
710.31	13814.93
710.654	13676.18
710.998	13711.21
711.342	13708.27
711.687	13531.33
712.031	13526.58
712.375	13583.3
712.719	13565.22
713.063	13424.44
713.407	13499.01
713.75	13485
714.094	13469.41
714.438	13341.05
714.782	13355.51
715.125	13303.99
715.469	13403.64
715.812	13230.09
716.156	13162.52
716.499	13121.84
716.843	13140.15
717.186	13109.19
717.53	13102.86
717.873	13146.48
718.216	13145.35
718.559	12993.94
718.902	12887.73
719.246	12984.67
719.589	13002.75
719.932	12918.23
720.275	12961.4
720.617	12910.32
720.96	12792.59
721.303	12929.08
721.646	12896.54
721.989	12846.82
722.331	12838.69
722.674	12769.76
723.016	12769.09
723.359	12774.06
723.701	12754.85
724.044	12693.61
724.386	12740.39
724.729	12680.27
725.071	12663.1
725.413	12685.25
725.755	12733.15
726.097	12651.8
726.439	12619.03
726.782	12639.37
727.124	12628.07
727.465	12554.4
727.807	12646.15
728.149	12557.11
728.491	12627.39
728.833	12596.43
729.175	12534.06
729.516	12487.74
729.858	12574.06
730.199	12493.84
730.541	12529.32
730.882	12514.4
731.224	12569.54
731.565	12488.64
731.906	12494.74
732.248	12515.31
732.589	12442.77
732.93	12483.67
733.271	12412.26
733.612	12475.53
733.953	12583.33
734.294	12427.4
734.635	12460.39
734.976	12408.19
735.317	12408.19
735.658	12463.33
735.999	12399.83
736.339	12438.92
736.68	12533.84
737.021	12417.68
737.361	12404.35
737.702	12486.38
738.042	12475.99
738.383	12470.56
738.723	12471.69
739.063	12456.1
739.404	12503.78
739.744	12439.38
740.084	12481.64
740.424	12464.46
740.764	12536.55
741.104	12535.87
741.444	12475.31
741.784	12443.67
742.124	12573.38
742.464	12490.22
742.804	12563.44
743.143	12529.09
743.483	12642.53
743.823	12476.89
744.162	12641.86
744.502	12685.47
744.841	12607.73
745.181	12752.14
745.52	12663.1
745.86	12789.88
746.199	12831
746.538	12840.72
746.877	12925.47
747.216	12933.15
747.556	12985.12
747.895	12983.99
748.234	13066.25
748.573	13073.03
748.911	13146.25
749.25	13225.12
749.589	13248.39
749.928	13286.36
750.267	13404.77
750.605	13468.5
750.944	13523.19
751.283	13536.07
751.621	13663.52
751.96	13740.13
752.298	13694.26
752.636	13855.84
752.975	13859.68
753.313	14029.84
753.651	14124.08
753.989	14134.25
754.327	14232.32
754.666	14250.4
755.004	14443.62
755.342	14553.9
755.679	14662.37
756.017	14687.23
756.355	14922.47
756.693	14949.82
