Data from hue_230_FLMS001491_00053.txt Node
Date: Tue Feb 07 16:37:26 GMT 2017
User: dcchb
Spectrometer: FLMS00149
Trigger mode: 0
Integration Time (sec): 2.000000E-2
Scans to average: 10
Electric dark correction enabled: true
Nonlinearity correction enabled: false
Boxcar width: 0
XAxis mode: Wavelengths
Number of Pixels in Spectrum: 2048
>>>>>Begin Spectral Data<<<<<
341.393	10.83
341.776	10.83
342.16	10.83
342.543	-73.46
342.927	-72.33
343.31	-65.55
343.693	-78.88
344.077	-52.89
344.46	-74.59
344.843	-44.08
345.226	-37.53
345.61	-35.04
345.993	-23.29
346.376	-5.21
346.759	-2.5
347.142	16.03
347.525	50.38
347.908	55.8
348.291	81.79
348.674	105.97
349.057	109.59
349.44	114.33
349.823	148.68
350.206	181
350.588	186.2
350.971	196.82
351.354	211.05
351.737	233.2
352.119	226.87
352.502	255.8
352.884	252.18
353.267	281.11
353.65	303.71
354.032	304.38
354.414	284.72
354.797	287.66
355.179	291.96
355.562	316.81
355.944	325.4
356.326	348
356.709	326.08
357.091	304.61
357.473	330.82
357.855	348.9
358.238	340.09
358.62	343.93
359.002	344.84
359.384	332.41
359.766	336.93
360.148	332.18
360.53	321.11
360.912	330.37
361.294	333.99
361.676	323.14
362.057	324.95
362.439	322.46
362.821	311.39
363.203	308.9
363.584	328.79
363.966	324.95
364.348	333.76
364.729	321.79
365.111	294.44
365.493	305.51
365.874	322.69
366.256	333.31
366.637	316.14
367.019	319.07
367.4	316.81
367.781	310.03
368.163	317.49
368.544	313.65
368.925	306.87
369.306	314.33
369.688	320.43
370.069	289.47
370.45	321.33
370.831	309.81
371.212	322.24
371.593	307.55
371.974	298.28
372.355	296.02
372.736	298.74
373.117	304.38
373.498	307.1
373.879	312.07
374.26	312.29
374.641	323.59
375.021	308.45
375.402	302.35
375.783	297.61
376.163	307.1
376.544	336.47
376.925	325.85
377.305	331.73
377.686	319.53
378.066	310.03
378.447	317.94
378.827	315.68
379.208	329.69
379.588	322.46
379.968	319.3
380.349	309.81
380.729	344.84
381.109	315.23
381.489	338.28
381.87	320.2
382.25	330.15
382.63	324.27
383.01	334.21
383.39	333.54
383.77	322.24
384.15	334.21
384.53	325.85
384.91	343.71
385.29	346.87
385.67	345.06
386.049	359.98
386.429	349.81
386.809	350.94
387.189	343.25
387.568	362.69
387.948	362.01
388.328	347.55
388.707	358.85
389.087	330.6
389.466	361.56
389.846	361.56
390.225	369.92
390.605	340.77
390.984	344.38
391.363	366.98
391.743	372.63
392.122	361.33
392.501	341.22
392.881	361.56
393.26	387.09
393.639	373.31
394.018	370.82
394.397	359.3
394.776	387.09
395.155	392.29
395.534	386.87
395.913	384.38
396.292	384.38
396.671	380.31
397.05	405.17
397.429	383.03
397.808	374.67
398.186	383.7
398.565	395.46
398.944	397.26
399.323	409.01
399.701	398.39
400.08	380.31
400.458	395.23
400.837	403.14
401.215	426.87
401.594	406.75
401.972	411.73
402.351	423.25
402.729	392.52
403.107	403.37
403.486	430.48
403.864	405.85
404.242	403.59
404.62	421.9
404.999	463.48
405.377	434.32
405.755	454.66
406.133	441.78
406.511	449.47
406.889	455.34
407.267	441.56
407.645	451.5
408.023	442.69
408.401	472.52
408.779	454.89
409.156	477.49
409.534	479.07
409.912	454.44
410.29	486.75
410.667	502.12
411.045	528.11
411.422	505.96
411.8	513.87
412.178	508.22
412.555	536.24
412.933	537.82
413.31	521.78
413.687	555.9
414.065	558.39
414.442	577.6
414.819	555.68
415.197	566.98
415.574	585.96
415.951	590.48
416.328	602.46
416.705	616.69
417.082	590.03
417.46	605.62
417.837	622.12
418.214	630.03
418.591	642.45
418.967	652.17
419.344	652.62
419.721	650.14
420.098	682.45
420.475	673.87
420.852	704.15
421.228	665.73
421.605	704.6
421.982	709.35
422.358	729.68
422.735	739.63
423.111	751.38
423.488	752.96
423.864	743.24
424.241	768.33
424.617	785.28
424.994	806.29
425.37	792.73
425.746	801.77
426.123	815.33
426.499	826.86
426.875	822.79
427.251	828.66
427.627	842
428.003	874.54
428.379	849.68
428.756	885.84
429.132	914.99
429.507	879.96
429.883	903.46
430.259	947.08
430.635	922.22
431.011	944.37
431.387	944.14
431.763	956.57
432.138	978.49
432.514	972.84
432.89	1011.71
433.265	1043.8
433.641	1048.55
434.016	1058.72
434.392	1049
434.767	1092.16
435.143	1083.12
435.518	1112.05
435.894	1152.72
436.269	1166.73
436.644	1183.46
437.02	1166.96
437.395	1171.25
437.77	1216.23
438.145	1223.91
438.52	1251.03
438.895	1236.79
439.271	1234.98
439.646	1297.8
440.021	1342.78
440.395	1310.46
440.77	1327.18
441.145	1318.82
441.52	1370.12
441.895	1371.02
442.27	1391.59
442.645	1406.28
443.019	1418.93
443.394	1385.26
443.769	1440.17
444.143	1457.57
444.518	1464.81
444.892	1477.46
445.267	1470.91
445.641	1479.72
446.016	1484.01
446.39	1516.33
446.764	1561.75
447.139	1523.79
447.513	1546.84
447.887	1524.24
448.262	1559.94
448.636	1572.83
449.01	1558.36
449.384	1649.21
449.758	1604.46
450.132	1621.19
450.506	1653.73
450.88	1660.51
451.254	1667.74
451.628	1657.8
452.002	1688.98
452.376	1680.17
452.75	1710.22
453.123	1718.58
453.497	1737.12
453.871	1759.49
454.244	1803.55
454.618	1811.69
454.992	1799.94
455.365	1821.86
455.739	1857.79
456.112	1849.88
456.486	1903.21
456.859	1909.77
457.232	1966.71
457.606	1973.04
457.979	1968.75
458.352	2031.57
458.725	2018.92
459.099	2046.94
459.472	2104.79
459.845	2062.76
460.218	2117.44
460.591	2107.28
460.964	2131
461.337	2163.32
461.71	2216.42
462.083	2234.5
462.456	2223.66
462.829	2252.58
463.201	2268.17
463.574	2289.87
463.947	2279.7
464.32	2369.87
464.692	2355.18
465.065	2373.26
465.438	2441.28
465.81	2452.58
466.183	2469.75
466.555	2494.61
466.928	2539.81
467.3	2511.11
467.672	2588.39
468.045	2641.72
468.417	2647.6
468.789	2640.14
469.161	2675.17
469.534	2727.82
469.906	2782.06
470.278	2773.7
470.65	2813.25
471.022	2851.44
471.394	2931.21
471.766	2898.67
472.138	2938.21
472.51	3013.24
472.882	3052.33
473.253	3069.28
473.625	3125.78
473.997	3151.32
474.369	3182.95
474.74	3226.12
475.112	3267.7
475.484	3334.81
475.855	3348.37
476.227	3382.72
476.598	3454.81
476.97	3516.5
477.341	3581.36
477.713	3585.2
478.084	3607.57
478.455	3699.78
478.827	3720.57
479.198	3796.72
479.569	3817.06
479.94	3928.02
480.311	3968.7
480.682	4037.17
481.053	4073.1
481.424	4134.11
481.795	4157.62
482.166	4252.08
482.537	4255.92
482.908	4349.25
483.279	4375.24
483.65	4447.78
484.021	4542.92
484.391	4555.12
484.762	4650.49
485.133	4662.91
485.503	4735
485.874	4796.92
486.244	4852.97
486.615	4930.93
486.985	4944.26
487.356	5009.35
487.726	5069.46
488.097	5124.82
488.467	5128.21
488.837	5256.34
489.207	5327.3
489.578	5361.65
489.948	5412.05
490.318	5454.76
490.688	5478.03
491.058	5555.09
491.428	5630.8
491.798	5639.84
492.168	5737.01
492.538	5795.54
492.908	5829.66
493.278	5890.68
493.648	5855.2
494.017	5915.76
494.387	6047.06
494.757	6023.1
495.126	6057.68
495.496	6128.64
495.866	6117.57
496.235	6171.8
496.605	6238.01
496.974	6208.86
497.344	6249.77
497.713	6316.43
498.082	6333.6
498.452	6412.92
498.821	6406.37
499.19	6456.54
499.559	6459.25
499.928	6502.87
500.298	6539.25
500.667	6574.5
501.036	6534.05
501.405	6638.91
501.774	6594.16
502.143	6722.75
502.512	6665.57
502.88	6725.01
503.249	6703.54
503.618	6778.79
503.987	6823.76
504.356	6749.41
504.724	6870.77
505.093	6871.22
505.462	6820.37
505.83	6986.69
506.199	6904.21
506.567	6991.89
506.936	7016.3
507.304	7069.18
507.672	7071.66
508.041	7052.68
508.409	7128.39
508.777	7111.66
509.145	7182.17
509.514	7153.47
509.882	7159.35
510.25	7183.3
510.618	7251.32
510.986	7198.21
511.354	7306.23
511.722	7290.87
512.09	7354.59
512.458	7361.83
512.826	7332.9
513.193	7427.59
513.561	7431.65
513.929	7465.78
514.297	7455.16
514.664	7511.88
515.032	7510.52
515.4	7541.03
515.767	7518.66
516.135	7548.04
516.502	7475.04
516.869	7631.65
517.237	7595.49
517.604	7558.43
517.972	7579.67
518.339	7667.35
518.706	7658.77
519.073	7694.7
519.44	7643.17
519.808	7677.75
520.175	7665.77
520.542	7757.52
520.909	7694.25
521.276	7670.52
521.643	7733.79
522.009	7846.56
522.376	7847.01
522.743	7809.72
523.11	7913
523.477	7898.08
523.843	7947.8
524.21	7972.21
524.577	8024.63
524.943	7952.32
525.31	8007.01
525.676	7960.68
526.043	8013.33
526.409	8009.27
526.776	8089.72
527.142	8047.91
527.508	8121.58
527.874	8125.87
528.241	8087.46
528.607	8116.38
528.973	8187.57
529.339	8070.96
529.705	8078.64
530.071	8162.94
530.437	8169.94
530.803	8157.06
531.169	8206.32
531.535	8158.42
531.901	8091.3
532.267	8196.83
532.632	8237.06
532.998	8182.82
533.364	8248.36
533.73	8200.67
534.095	8196.38
534.461	8195.93
534.826	8217.85
535.192	8208.36
535.557	8167.68
535.923	8171.52
536.288	8253.55
536.653	8223.72
537.019	8103.05
537.384	8144.18
537.749	8174.91
538.114	8092.2
538.479	8050.85
538.845	8120.68
539.21	8124.52
539.575	8147.34
539.94	8104.41
540.305	8116.38
540.67	8083.39
541.034	8080.9
541.399	8076.16
541.764	8014.92
542.129	8110.51
542.494	8010.17
542.858	8053.11
543.223	8047.01
543.587	8034.35
543.952	7966.1
544.316	7981.7
544.681	7941.92
545.045	7945.77
545.41	7982.6
545.774	7960
546.138	7894.92
546.503	7948.03
546.867	7892.66
547.231	7944.41
547.595	7870.74
547.959	7881.36
548.324	7906.22
548.688	7865.77
549.052	7886.78
549.416	7902.15
549.779	7847.24
550.143	7800.23
550.507	7820.8
550.871	7841.81
551.235	7764.08
551.599	7746.9
551.962	7768.6
552.326	7766.34
552.689	7793
553.053	7723.17
553.417	7738.54
553.78	7840.68
554.143	7796.62
554.507	7756.39
554.87	7773.79
555.234	7792.55
555.597	7743.96
555.96	7691.99
556.323	7704.42
556.686	7747.58
557.05	7778.31
557.413	7748.48
557.776	7695.15
558.139	7781.25
558.502	7755.71
558.865	7771.53
559.228	7830.74
559.59	7719.78
559.953	7784.64
560.316	7863.28
560.679	7791.42
561.041	7746.9
561.404	7776.28
561.767	7825.54
562.129	7793.45
562.492	7811.98
562.854	7829.84
563.217	7849.27
563.579	7819.22
563.941	7885.88
564.304	7836.62
564.666	7869.16
565.028	7881.81
565.39	7855.82
565.753	7908.03
566.115	7998.19
566.477	7986.22
566.839	7922.04
567.201	7980.12
567.563	8037.51
567.925	8075.71
568.287	8044.07
568.648	8074.12
569.01	8002.71
569.372	8084.07
569.734	8109.38
570.095	8175.59
570.457	8115.48
570.819	8128.81
571.18	8138.3
571.542	8194.12
571.903	8175.14
572.265	8218.98
572.626	8210.17
572.987	8242.03
573.349	8202.48
573.71	8278.64
574.071	8249.94
574.432	8243.16
574.794	8364.51
575.155	8340.56
575.516	8390.95
575.877	8424.17
576.238	8396.83
576.599	8366.77
576.96	8409.03
577.32	8380.1
577.681	8442.7
578.042	8473.21
578.403	8458.75
578.763	8459.42
579.124	8514.79
579.485	8545.75
579.845	8569.48
580.206	8574
580.566	8569.03
580.927	8538.97
581.287	8576.71
581.648	8527.9
582.008	8621
582.368	8668.23
582.728	8665.07
583.089	8597.05
583.449	8651.51
583.809	8647.44
584.169	8723.6
584.529	8672.07
584.889	8701.45
585.249	8656.03
585.609	8713.43
585.969	8804.27
586.329	8693.99
586.688	8796.59
587.048	8796.59
587.408	8720.89
587.768	8762.47
588.127	8776.25
588.487	8760.66
588.846	8861
589.206	8806.99
589.565	8857.61
589.925	8901.67
590.284	8876.36
590.643	8898.06
591.003	8907.77
591.362	8925.85
591.721	8837.72
592.08	8868.91
592.44	8884.95
592.799	8935.57
593.158	8896.25
593.517	8889.92
593.876	8918.85
594.235	8887.44
594.593	8957.04
594.952	8984.61
595.311	8931.95
595.67	8995.23
596.029	9016.25
596.387	8990.48
596.746	9073.65
597.104	8910.49
597.463	9006.98
597.822	9044.72
598.18	8992.07
598.538	9040.88
598.897	9053.53
599.255	8967.66
599.613	9082.01
599.972	8991.39
600.33	9064.83
600.688	8993.87
601.046	9050.37
601.404	9141.89
601.762	9103.48
602.12	9116.36
602.478	9121.33
602.836	9091.05
603.194	9094.66
603.552	9066.64
603.91	9053.31
604.268	9082.46
604.625	9124.04
604.983	9103.02
605.341	9150.71
605.698	9198.39
606.056	9071.16
606.413	9088.11
606.771	9172.85
607.128	9197.03
607.485	9135.56
607.843	9157.94
608.2	9270.7
608.557	9208.33
608.914	9184.6
609.272	9223.92
609.629	9193.64
609.986	9220.08
610.343	9233.87
610.7	9269.57
611.057	9224.15
611.414	9363.36
611.771	9268.22
612.127	9369.23
612.484	9297.37
612.841	9356.58
613.198	9276.58
613.554	9312.51
613.911	9338.72
614.267	9365.39
614.624	9314.32
614.98	9369.01
615.337	9387.31
615.693	9365.62
616.05	9321.32
616.406	9430.25
616.762	9393.64
617.118	9377.59
617.475	9393.86
617.831	9369.01
618.187	9426.18
618.543	9392.28
618.899	9478.61
619.255	9486.06
619.611	9509.79
619.967	9428.89
620.323	9504.37
620.678	9514.99
621.034	9465.95
621.39	9468.89
621.746	9471.6
622.101	9524.03
622.457	9397.25
622.812	9530.58
623.168	9519.06
623.523	9467.99
623.879	9531.71
624.234	9449.68
624.589	9467.31
624.945	9498.27
625.3	9496.91
625.655	9494.2
626.01	9472.05
626.365	9515.89
626.72	9469.79
627.075	9453.07
627.43	9425.73
627.785	9467.31
628.14	9400.64
628.495	9492.39
628.85	9464.14
629.205	9415.11
629.559	9513.41
629.914	9373.07
630.269	9430.02
630.623	9435.9
630.978	9348.44
631.332	9411.94
631.687	9486.06
632.041	9331.04
632.396	9377.14
632.75	9325.84
633.104	9330.14
633.459	9357.71
633.813	9309.57
634.167	9299.63
634.521	9338.95
634.875	9282.91
635.229	9303.92
635.583	9204.49
635.937	9239.06
636.291	9295.79
636.645	9227.77
636.999	9275.22
637.352	9237.03
637.706	9162
638.06	9229.57
638.413	9236.13
638.767	9219.4
639.121	9147.77
639.474	9106.19
639.828	9198.61
640.181	9141.89
640.534	9190.93
640.888	9130.14
641.241	9065.51
641.594	9103.48
641.947	9113.64
642.301	9115.9
642.654	9071.39
643.007	9058.05
643.36	9034.1
643.713	9067.77
644.066	9078.62
644.419	9045.85
644.771	9052.86
645.124	8898.28
645.477	8940.54
645.83	8830.04
646.182	8787.1
646.535	8815.57
646.888	8824.16
647.24	8729.93
647.593	8736.93
647.945	8748.23
648.298	8697.84
648.65	8746.65
649.002	8660.55
649.355	8740.32
649.707	8752.52
650.059	8806.76
650.411	8813.77
650.763	8906.42
651.115	8995.91
651.467	8901.9
651.819	8909.36
652.171	8984.16
652.523	8926.3
652.875	8835.91
653.227	8862.13
653.578	9013.99
653.93	8952.52
654.282	8867.32
654.633	8857.61
654.985	8865.97
655.337	8888.79
655.688	8877.04
656.039	8959.75
656.391	8903.48
656.742	8909.58
657.094	8910.03
657.445	8962.91
657.796	8841.56
658.147	8880.88
658.498	8892.18
658.849	8952.74
659.2	8858.96
659.551	8900.77
659.902	8940.77
660.253	8949.36
660.604	8871.84
660.955	8876.14
661.306	8891.05
661.656	8919.98
662.007	8944.61
662.358	8917.27
662.708	8945.51
663.059	8846.53
663.409	8866.19
663.76	8991.61
664.11	8844.27
664.461	8922.69
664.811	8894.67
665.161	8915.23
665.511	8906.64
665.862	8874.55
666.212	8948.23
666.562	8971.5
666.912	8955.91
667.262	8949.81
667.612	8951.39
667.962	8949.81
668.312	8888.34
668.662	8954.33
669.011	8984.61
669.361	8884.5
669.711	8874.55
670.06	8921.33
670.41	8828.91
670.76	8915.91
671.109	8903.25
671.459	8875.68
671.808	8828.68
672.157	8943.93
672.507	8853.76
672.856	8804.73
673.205	8815.8
673.554	8857.38
673.904	8844.95
674.253	8877.27
674.602	8833.2
674.951	8676.14
675.3	8640.89
675.649	8845.63
675.998	8789.81
676.346	8748.46
676.695	8792.07
677.044	8739.87
677.393	8783.26
677.741	8784.84
678.09	8805.63
678.438	8762.47
678.787	8772.64
679.135	8725.86
679.484	8670.04
679.832	8694.45
680.181	8577.61
680.529	8693.54
680.877	8609.25
681.225	8670.49
681.573	8580.55
681.922	8589.14
682.27	8576.71
682.618	8602.92
682.966	8467.11
683.314	8514.34
683.661	8535.58
684.009	8496.49
684.357	8434.79
684.705	8478.18
685.053	8458.97
685.4	8483.83
685.748	8386.43
686.095	8411.06
686.443	8301.69
686.79	8309.6
687.138	8345.76
687.485	8350.5
687.832	8312.99
688.18	8279.54
688.527	8273.89
688.874	8241.35
689.221	8228.92
689.568	8181.69
689.915	8188.47
690.262	8148.25
690.609	8113.22
690.956	8098.76
691.303	8100.11
691.65	8037.29
691.997	8077.06
692.344	8026.89
692.69	8022.37
693.037	7964.3
693.383	7939.21
693.73	7936.5
694.077	7895.82
694.423	7908.48
694.769	7860.8
695.116	7846.56
695.462	7800.68
695.808	7798.42
696.155	7758.2
696.501	7730.18
696.847	7735.38
697.193	7676.62
697.539	7662.61
697.885	7589.16
698.231	7534.93
698.577	7554.82
698.923	7574.7
699.269	7552.33
699.614	7507.59
699.96	7442.5
700.306	7475.95
700.651	7426.01
700.997	7367.02
701.342	7320.92
701.688	7353.69
702.033	7301.94
702.379	7270.53
702.724	7269.4
703.069	7271.43
703.415	7172.23
703.76	7180.14
704.105	7190.31
704.45	7201.38
704.795	7088.84
705.14	7114.15
705.485	7077.99
705.83	7085.22
706.175	7096.97
706.52	7016.75
706.865	7052.68
707.209	6938.79
707.554	6920.26
707.899	6992.8
708.243	6932.91
708.588	6952.57
708.932	6866.7
709.277	6839.58
709.621	6882.97
709.966	6832.57
710.31	6812.69
710.654	6808.17
710.998	6767.49
711.342	6797.77
711.687	6732.69
712.031	6697.89
712.375	6718.45
712.719	6725.01
713.063	6667.38
713.407	6734.27
713.75	6701.28
714.094	6649.53
714.438	6674.61
714.782	6621.73
715.125	6609.3
715.469	6635.97
715.812	6605.91
716.156	6552.81
716.499	6583.32
716.843	6562.75
717.186	6564.79
717.53	6544.22
717.873	6503.54
718.216	6543.32
718.559	6437.33
718.902	6492.02
719.246	6512.36
719.589	6498.35
719.932	6475.52
720.275	6421.96
720.617	6441.17
720.96	6406.6
721.303	6441.62
721.646	6441.17
721.989	6382.64
722.331	6360.04
722.674	6440.04
723.016	6366.6
723.359	6347.39
723.701	6339.25
724.044	6329.54
724.386	6335.86
724.729	6319.14
725.071	6317.33
725.413	6326.15
725.755	6371.57
726.097	6308.29
726.439	6297.9
726.782	6304.68
727.124	6351.91
727.465	6325.92
727.807	6245.7
728.149	6359.82
728.491	6283.44
728.833	6260.84
729.175	6242.99
729.516	6207.28
729.858	6264.45
730.199	6281.63
730.541	6306.03
730.882	6267.39
731.224	6295.87
731.565	6236.21
731.906	6245.02
732.248	6269.88
732.589	6264.23
732.93	6217
733.271	6230.33
733.612	6264.23
733.953	6261.29
734.294	6266.94
734.635	6268.97
734.976	6223.1
735.317	6226.49
735.658	6245.92
735.999	6233.95
736.339	6265.36
736.68	6326.37
737.021	6249.09
737.361	6222.65
737.702	6326.37
738.042	6281.63
738.383	6249.09
738.723	6293.38
739.063	6259.48
739.404	6305.58
739.744	6314.17
740.084	6288.63
740.424	6326.6
740.764	6361.63
741.104	6301.74
741.444	6309.42
741.784	6290.89
742.124	6382.87
742.464	6343.55
742.804	6351.23
743.143	6369.99
743.483	6403.43
743.823	6318.01
744.162	6413.83
744.502	6403.21
744.841	6430.78
745.181	6527.72
745.52	6485.69
745.86	6524.79
746.199	6518.23
746.538	6515.97
746.877	6594.61
747.216	6593.26
747.556	6582.19
747.895	6655.86
748.234	6687.72
748.573	6709.41
748.911	6752.35
749.25	6826.7
749.589	6855.62
749.928	6878.22
750.267	6922.52
750.605	7011.55
750.944	7059.46
751.283	7116.41
751.621	7138.78
751.96	7173.81
752.298	7339.68
752.636	7345.33
752.975	7386.23
753.313	7436.63
753.651	7539.22
753.989	7539.22
754.327	7661.03
754.666	7715.49
755.004	7824.64
755.342	7958.42
755.679	8058.53
756.017	8095.37
756.355	8244.97
756.693	8230.96
757.031	8438.86
757.368	8500.78
757.706	8573.77
758.044	8699.42
758.381	8770.38
758.719	8863.93
759.056	9016.47
759.394	9126.07
759.731	9222.34
760.068	9350.25
760.405	9426.63
760.743	9486.06
761.08	9643.12
761.417	9760.86
761.754	9869.33
762.091	10006.95
762.428	10022.55
762.765	10175.09
763.102	10345.93
763.438	10431.35
763.775	10502.31
764.112	10666.15
764.449	10811.45
764.785	10894.16
765.122	10914.73
765.458	11012.8
765.795	11142.97
766.131	11240.82
766.467	11322.85
766.804	11458.22
767.14	11546.8
767.476	11656.85
767.812	11627.25
768.148	11771.2
768.485	11874.93
768.821	11924.87
769.157	12018.2
