Data from hue_160_FLMS001491_00021.txt Node
Date: Tue Feb 07 16:50:57 GMT 2017
User: dcchb
Spectrometer: FLMS00149
Trigger mode: 0
Integration Time (sec): 2.000000E-2
Scans to average: 10
Electric dark correction enabled: true
Nonlinearity correction enabled: false
Boxcar width: 0
XAxis mode: Wavelengths
Number of Pixels in Spectrum: 2048
>>>>>Begin Spectral Data<<<<<
341.393	-16.41
341.776	-16.41
342.16	-16.41
342.543	-64.55
342.927	-57.77
343.31	-95.73
343.693	-76.75
344.077	-66.35
344.46	-66.58
344.843	-51.21
345.226	-45.34
345.61	-48.73
345.993	-17.77
346.376	7.77
346.759	9.12
347.142	17.94
347.525	60.42
347.908	60.87
348.291	82.34
348.674	110.82
349.057	119.18
349.44	114.66
349.823	134.09
350.206	183.81
350.588	188.33
350.971	204.37
351.354	233.98
351.737	235.78
352.119	220.42
352.502	241.66
352.884	252.73
353.267	285.27
353.65	298.38
354.032	299.74
354.414	310.81
354.797	312.39
355.179	337.48
355.562	323.92
355.944	312.84
356.326	334.09
356.709	345.84
357.091	333.18
357.473	331.6
357.855	330.92
358.238	353.97
358.62	343.8
359.002	321.21
359.384	347.19
359.766	331.15
360.148	335.22
360.53	325.5
360.912	331.6
361.294	327.76
361.676	338.61
362.057	324.14
362.439	332.96
362.821	334.54
363.203	328.44
363.584	321.43
363.966	319.85
364.348	328.89
364.729	328.21
365.111	316.91
365.493	314.43
365.874	317.82
366.256	317.14
366.637	319.4
367.019	309.91
367.4	300.64
367.781	321.66
368.163	310.81
368.544	312.17
368.925	307.2
369.306	321.66
369.688	318.72
370.069	300.42
370.45	316.46
370.831	301.09
371.212	308.55
371.593	312.39
371.974	306.07
372.355	310.13
372.736	311.71
373.117	290.02
373.498	331.83
373.879	312.17
374.26	312.62
374.641	304.71
375.021	316.23
375.402	337.25
375.783	335.9
376.163	326.18
376.544	333.41
376.925	319.17
377.305	327.99
377.686	322.11
378.066	349.45
378.447	333.86
378.827	321.43
379.208	302.68
379.588	335.22
379.968	341.54
380.349	322.56
380.729	319.17
381.109	312.84
381.489	333.64
381.87	331.15
382.25	318.49
382.63	348.78
383.01	325.27
383.39	348.78
383.77	330.47
384.15	342
384.53	331.15
384.91	343.58
385.29	357.36
385.67	347.42
386.049	353.75
386.429	325.73
386.809	346.06
387.189	349.45
387.568	364.82
387.948	348.32
388.328	340.87
388.707	353.3
389.087	342.22
389.466	361.66
389.846	335.44
390.225	351.26
390.605	354.43
390.984	345.39
391.363	360.53
391.743	360.53
392.122	371.6
392.501	381.32
392.881	364.14
393.26	362.79
393.639	361.88
394.018	370.47
394.397	378.83
394.776	362.79
395.155	381.32
395.534	361.66
395.913	377.93
396.292	369.57
396.671	376.8
397.05	358.04
397.429	371.15
397.808	377.7
398.186	403.24
398.565	389
398.944	373.18
399.323	371.83
399.701	389.23
400.08	395.1
400.458	389.45
400.837	402.11
401.215	404.37
401.594	385.61
401.972	393.52
402.351	417.47
402.729	401.43
403.107	393.52
403.486	407.53
403.864	413.86
404.242	429.9
404.62	426.51
404.999	415.44
405.377	405.72
405.755	413.18
406.133	412.96
406.511	419.28
406.889	415.44
407.267	437.36
407.645	436.23
408.023	434.88
408.401	439.4
408.779	434.65
409.156	452.05
409.534	443.01
409.912	433.52
410.29	459.51
410.667	432.84
411.045	436.01
411.422	454.99
411.8	461.32
412.178	459.28
412.555	467.87
412.933	462.67
413.31	469.22
413.687	469.68
414.065	468.32
414.442	485.95
414.819	484.37
415.197	494.31
415.574	482.11
415.951	469.68
416.328	505.16
416.705	489.11
417.082	501.77
417.46	495.66
417.837	506.51
418.214	509
418.591	516.68
418.967	518.49
419.344	526.17
419.721	526.85
420.098	534.99
420.475	542.9
420.852	537.92
421.228	539.96
421.605	551.71
421.982	553.52
422.358	546.06
422.735	550.35
423.111	543.8
423.488	545.61
423.864	582.22
424.241	560.97
424.617	559.39
424.994	592.61
425.37	581.99
425.746	577.02
426.123	575.89
426.499	576.57
426.875	611.59
427.251	617.02
427.627	600.97
428.003	595.78
428.379	629.22
428.756	613.63
429.132	640.97
429.507	632.61
429.883	643.23
430.259	662.67
430.635	659.5
431.011	659.73
431.387	672.16
431.763	666.51
432.138	666.28
432.514	698.6
432.89	699.28
433.265	704.92
433.641	671.71
434.016	714.42
434.392	734.3
434.767	729.33
435.143	710.12
435.518	715.77
435.894	728.43
436.269	748.77
436.644	755.09
437.02	746.96
437.395	751.48
437.77	776.11
438.145	764.81
438.52	772.27
438.895	811.81
439.271	792.83
439.646	801.65
440.021	809.55
440.395	821.31
440.77	806.84
441.145	832.61
441.52	846.62
441.895	839.84
442.27	834.41
442.645	840.51
443.019	863.79
443.394	862.43
443.769	882.1
444.143	875.32
444.518	870.12
444.892	898.37
445.267	878.03
445.641	888.87
446.016	900.85
446.39	925.71
446.764	908.76
447.139	919.16
447.513	931.36
447.887	930.46
448.262	936.78
448.636	952.6
449.01	953.73
449.384	964.81
449.758	967.52
450.132	977.46
450.506	963
450.88	971.36
451.254	984.24
451.628	1009.55
452.002	1018.14
452.376	1027.4
452.75	1024.92
453.123	1035.76
453.497	1043
453.871	1059.49
454.244	1066.72
454.618	1097.01
454.992	1079.15
455.365	1119.6
455.739	1120.96
456.112	1152.82
456.486	1124.35
456.859	1151.47
457.232	1169.77
457.606	1199.83
457.979	1186.72
458.352	1187.85
458.725	1215.19
459.099	1269.66
459.472	1259.94
459.845	1285.7
460.218	1283.67
460.591	1286.83
460.964	1296.55
461.337	1302.42
461.71	1348.3
462.083	1382.65
462.456	1379.94
462.829	1386.26
463.201	1401.18
463.574	1418.13
463.947	1441.63
464.32	1450.22
464.692	1454.96
465.065	1532.7
465.438	1524.11
465.81	1559.59
466.183	1562.3
466.555	1625.13
466.928	1635.07
467.3	1627.61
467.672	1656.99
468.045	1671.68
468.417	1688.85
468.789	1738.8
469.161	1771.56
469.534	1819.7
469.906	1822.64
470.278	1861.73
470.65	1915.97
471.022	1927.49
471.394	1955.06
471.766	1991.44
472.138	2017.66
472.51	2061.95
472.882	2121.61
473.253	2174.49
473.625	2202.51
473.997	2297.43
474.369	2300.14
474.74	2343.53
475.112	2397.08
475.484	2442.96
475.855	2480.02
476.227	2543.52
476.598	2633.69
476.97	2659.22
477.341	2768.6
477.713	2801.82
478.084	2854.7
478.455	2942.83
478.827	3046.56
479.198	3129.27
479.569	3197.29
479.94	3316.38
480.311	3338.3
480.682	3449.49
481.053	3540.1
481.424	3657.62
481.795	3683.38
482.166	3795.47
482.537	3884.05
482.908	3976.7
483.279	4053.76
483.65	4181.44
484.021	4330.14
484.391	4422.79
484.762	4473.87
485.133	4581.21
485.503	4724.71
485.874	4826.4
486.244	4959.05
486.615	5072.04
486.985	5177.35
487.356	5347.29
487.726	5427.51
488.097	5545.48
488.467	5637.45
488.837	5825.24
489.207	5941.85
489.578	6067.72
489.948	6148.17
490.318	6273.14
490.688	6397.43
491.058	6563.75
491.428	6700.02
491.798	6779.79
492.168	6952.9
492.538	7036.74
492.908	7157.64
493.278	7322.38
493.648	7391.75
494.017	7507.01
494.387	7725.76
494.757	7815.92
495.126	7979.99
495.496	8071.06
495.866	8130.04
496.235	8246.2
496.605	8324.16
496.974	8416.36
497.344	8615.23
497.713	8717.82
498.082	8739.29
498.452	8878.27
498.821	8989.23
499.19	9019.51
499.559	9160.07
499.928	9276.9
500.298	9274.64
500.667	9502.43
501.036	9473.51
501.405	9612.94
501.774	9674.86
502.143	9770
502.512	9776.1
502.88	9915.3
503.249	9997.11
503.618	10005.92
503.987	10152.81
504.356	10194.39
504.724	10284.33
505.093	10299.93
505.462	10388.51
505.83	10480.94
506.199	10609.07
506.567	10709.63
506.936	10682.29
507.304	10786.47
507.672	10805.22
508.041	10869.4
508.409	10925
508.777	11037.08
509.145	11073.92
509.514	11075.05
509.882	11125.67
510.25	11234.37
510.618	11207.25
510.986	11300.8
511.354	11410.86
511.722	11428.03
512.09	11473.68
512.458	11495.83
512.826	11507.8
513.193	11651.76
513.561	11612.89
513.929	11736.95
514.297	11754.13
514.664	11828.93
515.032	11820.79
515.4	11863.28
515.767	11924.74
516.135	11957.51
516.502	11773.79
516.869	11956.61
517.237	11954.57
517.604	11966.1
517.972	12075.93
518.339	12049.26
518.706	12068.02
519.073	12178.3
519.44	12109.6
519.808	12220.78
520.175	12262.81
520.542	12316.82
520.909	12301.23
521.276	12405.41
521.643	12442.47
522.009	12414
522.376	12503.71
522.743	12529.25
523.11	12562.47
523.477	12562.47
523.843	12615.57
524.21	12662.8
524.577	12731.73
524.943	12674.55
525.31	12697.15
525.676	12784.38
526.043	12796.81
526.409	12837.26
526.776	12909.58
527.142	12811.05
527.508	12896.02
527.874	12885.4
528.241	12951.83
528.607	12902.34
528.973	12914.77
529.339	12917.71
529.705	12947.31
530.071	12953.87
530.437	12891.5
530.803	12966.3
531.169	12998.61
531.535	12931.5
531.901	12931.5
532.267	12970.82
532.632	12882.01
532.998	12891.5
533.364	12912.51
533.73	12872.97
534.095	12957.94
534.461	12878.16
534.826	12812.63
535.192	12927.2
535.557	12831.16
535.923	12901.44
536.288	12861.22
536.653	12793.65
537.019	12731.73
537.384	12771.73
537.749	12748.68
538.114	12721.56
538.479	12653.09
538.845	12720.88
539.21	12550.94
539.575	12525.86
539.94	12551.85
540.305	12580.54
540.67	12470.27
541.034	12450.38
541.399	12484.95
541.764	12413.09
542.129	12449.7
542.494	12381
542.858	12314.34
543.223	12262.59
543.587	12304.17
543.952	12160.22
544.316	12230.95
544.681	12199.31
545.045	12204.51
545.41	12190.27
545.774	12128.13
546.138	12101.46
546.503	12099.65
546.867	11995.25
547.231	11960.45
547.595	11904.86
547.959	11961.13
548.324	11851.07
548.688	11840
549.052	11843.84
549.416	11798.19
549.779	11781.92
550.143	11739.44
550.507	11713.45
550.871	11688.82
551.235	11656.5
551.599	11645.2
551.962	11540.8
552.326	11633
552.689	11650.63
553.053	11457.18
553.417	11507.35
553.78	11585.77
554.143	11478.88
554.507	11455.6
554.87	11474.81
555.234	11524.53
555.597	11349.62
555.96	11362.95
556.323	11378.54
556.686	11278.43
557.05	11315.49
557.413	11386.68
557.776	11397.3
558.139	11384.42
558.502	11357.98
558.865	11283.63
559.228	11359.33
559.59	11349.16
559.953	11318.66
560.316	11331.99
560.679	11345.1
561.041	11314.82
561.404	11362.27
561.767	11372.89
562.129	11328.83
562.492	11369.28
562.854	11264.87
563.217	11283.63
563.579	11297.87
563.941	11356.17
564.304	11364.98
564.666	11477.3
565.028	11404.76
565.39	11435.94
565.753	11387.58
566.115	11442.04
566.477	11383.29
566.839	11480.91
567.201	11466
567.563	11466.45
567.925	11473.23
568.287	11498.54
568.648	11483.4
569.01	11501.7
569.372	11498.31
569.734	11483.17
570.095	11557.52
570.457	11451.99
570.819	11571.98
571.18	11517.3
571.542	11566.56
571.903	11578.31
572.265	11572.44
572.626	11600.01
572.987	11567.24
573.349	11539.89
573.71	11583.06
574.071	11616.95
574.432	11582.15
574.794	11682.04
575.155	11675.03
575.516	11594.13
575.877	11628.03
576.238	11602.27
576.599	11659.44
576.96	11689.04
577.32	11620.12
577.681	11709.16
578.042	11657.18
578.403	11689.27
578.763	11645.43
579.124	11648.82
579.485	11602.04
579.845	11734.24
580.206	11734.24
580.566	11649.72
580.927	11698.31
581.287	11685.43
581.648	11715.03
582.008	11697.18
582.368	11658.99
582.728	11774.92
583.089	11688.36
583.449	11687.01
583.809	11642.72
584.169	11670.96
584.529	11634.13
584.889	11712.09
585.249	11629.16
585.609	11582.83
585.969	11743.96
586.329	11634.36
586.688	11578.31
587.048	11536.5
587.408	11571.53
587.768	11494.92
588.127	11491.99
588.487	11564.98
588.846	11622.38
589.206	11523.62
589.565	11560.01
589.925	11608.82
590.284	11484.08
590.643	11517.07
591.003	11489.95
591.362	11553.45
591.721	11517.97
592.08	11461.48
592.44	11532.66
592.799	11563.62
593.158	11483.62
593.517	11463.74
593.876	11473.23
594.235	11438.43
594.593	11391.2
594.952	11491.08
595.311	11414.25
595.67	11443.85
596.029	11581.7
596.387	11466
596.746	11420.12
597.104	11398.88
597.463	11411.54
597.822	11440.46
598.18	11332.22
598.538	11387.58
598.897	11428.71
599.255	11322.72
599.613	11443.17
599.972	11379.9
600.33	11411.54
600.688	11382.16
601.046	11417.86
601.404	11509.39
601.762	11437.3
602.12	11411.99
602.478	11443.4
602.836	11466.45
603.194	11380.12
603.552	11370.63
603.91	11392.33
604.268	11435.72
604.625	11359.33
604.983	11409.5
605.341	11339
605.698	11501.03
606.056	11466.45
606.413	11424.19
606.771	11425.55
607.128	11518.2
607.485	11330.18
607.843	11434.13
608.2	11446.11
608.557	11477.52
608.914	11493.34
609.272	11491.76
609.629	11507.35
609.986	11471.65
610.343	11482.49
610.7	11574.02
611.057	11539.22
611.414	11508.71
611.771	11520.01
612.127	11574.24
612.484	11548.03
612.841	11549.39
613.198	11505.09
613.554	11541.48
613.911	11581.48
614.267	11634.58
614.624	11582.83
614.98	11607.01
615.337	11664.18
615.693	11683.17
616.05	11594.81
616.406	11676.39
616.762	11656.5
617.118	11635.26
617.475	11677.74
617.831	11619.89
618.187	11723.62
618.543	11690.17
618.899	11725.43
619.255	11670.96
619.611	11799.1
619.967	11729.49
620.323	11813.33
620.678	11719.78
621.034	11707.57
621.39	11683.85
621.746	11611.3
622.101	11833.9
622.457	11719.1
622.812	11717.29
623.168	11712.77
623.523	11734.69
623.879	11764.97
624.234	11638.87
624.589	11747.35
624.945	11750.28
625.3	11772.2
625.655	11745.99
626.01	11781.92
626.365	11734.01
626.72	11819.89
627.075	11720.45
627.43	11618.08
627.785	11696.27
628.14	11730.62
628.495	11711.42
628.85	11668.93
629.205	11669.83
629.559	11682.26
629.914	11686.11
630.269	11638.87
630.623	11662.15
630.978	11580.57
631.332	11682.94
631.687	11641.81
632.041	11623.73
632.396	11622.15
632.75	11644.07
633.104	11611.3
633.459	11558.88
633.813	11556.17
634.167	11554.58
634.521	11544.19
634.875	11570.63
635.229	11568.59
635.583	11471.42
635.937	11473.23
636.291	11482.27
636.645	11499.44
636.999	11375.6
637.352	11477.75
637.706	11428.71
638.06	11496.73
638.413	11355.72
638.767	11405.43
639.121	11405.43
639.474	11321.59
639.828	11367.02
640.181	11342.61
640.534	11354.59
640.888	11312.78
641.241	11149.4
641.594	11284.76
641.947	11353.46
642.301	11310.97
642.654	11271.88
643.007	11261.48
643.36	11204.54
643.713	11211.54
644.066	11292.67
644.419	11201.82
644.771	11116.85
645.124	11023.75
645.477	11061.49
645.83	10867.37
646.182	10865.11
646.535	10868.95
646.888	10926.58
647.24	10846.35
647.593	10946.01
647.945	10924.32
648.298	10824.43
648.65	10851.55
649.002	10861.72
649.355	10863.53
649.707	10870.08
650.059	10906.46
650.411	11014.48
650.763	11025.33
651.115	11211.99
651.467	11080.92
651.819	11059.91
652.171	11115.5
652.523	11095.39
652.875	11067.59
653.227	11072.34
653.578	11125.89
653.93	11117.76
654.282	11050.87
654.633	11061.26
654.985	11082.73
655.337	11132
655.688	11066.69
656.039	11117.08
656.391	11052.22
656.742	11169.96
657.094	11104.88
657.445	11102.39
657.796	11100.13
658.147	11064.43
658.498	11102.62
658.849	11112.79
659.2	11051.77
659.551	11047.03
659.902	11090.87
660.253	11168.38
660.604	11110.53
660.955	11098.55
661.306	11113.01
661.656	11149.4
662.007	11102.62
662.358	11122.28
662.708	11152.33
663.059	11147.81
663.409	11067.14
663.76	11186.91
664.11	11128.38
664.461	11161.37
664.811	11161.6
665.161	11201.82
665.511	11178.1
665.862	11178.1
666.212	11221.48
666.562	11155.27
666.912	11166.57
667.262	11039.57
667.612	11185.33
667.962	11221.26
668.312	11228.26
668.662	11146.23
669.011	11088.15
669.361	11153.46
669.711	11170.19
670.06	11133.35
670.41	11089.51
670.76	11060.81
671.109	11144.88
671.459	11116.18
671.808	11103.75
672.157	11102.17
672.507	11060.36
672.856	11110.3
673.205	11083.41
673.554	11145.1
673.904	11058.33
674.253	11141.94
674.602	11078.21
674.951	10923.64
675.3	10883.87
675.649	11076.18
675.998	10964.32
676.346	11001.38
676.695	11019.46
677.044	10959.34
677.393	11019.23
677.741	11019.68
678.09	10959.8
678.438	10923.87
678.787	10933.58
679.135	10907.14
679.484	10855.62
679.832	10859.01
680.181	10896.07
680.529	10802.06
680.877	10839.12
681.225	10807.94
681.573	10861.95
681.922	10779.46
682.27	10673.02
682.618	10802.29
682.966	10646.81
683.314	10795.28
683.661	10682.52
684.009	10663.99
684.357	10617.66
684.705	10638.22
685.053	10663.31
685.4	10588.28
685.748	10537.89
686.095	10546.02
686.443	10510.99
686.79	10449.98
687.138	10440.26
687.485	10521.16
687.832	10442.3
688.18	10459.92
688.527	10282.98
688.874	10313.26
689.221	10346.48
689.568	10255.41
689.915	10336.99
690.262	10311.9
690.609	10197.33
690.956	10249.76
691.303	10180.83
691.65	10116.2
691.997	10168.63
692.344	10048.41
692.69	10021.06
693.037	10001.86
693.383	9901.97
693.73	9944.23
694.077	9861.29
694.423	9854.29
694.769	9853.61
695.116	9808.19
695.462	9801.63
695.808	9787.85
696.155	9774.07
696.501	9634.18
696.847	9645.25
697.193	9578.82
697.539	9645.03
697.885	9577.23
698.231	9555.54
698.577	9499.72
698.923	9418.82
699.269	9439.84
699.614	9397.35
699.96	9368.65
700.306	9337.69
700.651	9331.59
700.997	9269.67
701.342	9261.54
701.688	9189.22
702.033	9147.87
702.379	9219.28
702.724	9066.51
703.069	9160.07
703.415	9059.28
703.76	9018.15
704.105	8990.58
704.45	8970.7
704.795	8894.09
705.14	8924.37
705.485	8919.62
705.83	8894.31
706.175	8818.84
706.52	8810.25
706.865	8748.56
707.209	8770.02
707.554	8742.68
707.899	8775.67
708.243	8674.21
708.588	8659.07
708.932	8586.98
709.277	8621.1
709.621	8567.09
709.966	8564.83
710.31	8548.11
710.654	8453.87
710.998	8487.77
711.342	8486.87
711.687	8429.92
712.031	8495
712.375	8425.63
712.719	8450.94
713.063	8365.29
713.407	8383.14
713.75	8379.07
714.094	8326.42
714.438	8270.6
714.782	8272.64
715.125	8256.59
715.469	8293.43
715.812	8296.59
716.156	8213.88
716.499	8250.72
716.843	8241.22
717.186	8190.15
717.53	8217.5
717.873	8165.29
718.216	8182.02
718.559	8150.83
718.902	8120.55
719.246	8124.84
719.589	8108.57
719.932	8090.72
720.275	8106.99
720.617	8085.97
720.96	8104.96
721.303	8050.27
721.646	8079.65
721.989	7989.25
722.331	8041.91
722.674	8034.68
723.016	7974.56
723.359	8023.6
723.701	8070.38
724.044	7916.26
724.386	7953.32
724.729	7982.25
725.071	7998.07
725.413	7963.94
725.755	7906.09
726.097	7898.63
726.439	7924.62
726.782	7896.83
727.124	7988.58
727.465	7911.97
727.807	7870.61
728.149	7890.72
728.491	7938.41
728.833	7925.3
729.175	7880.78
729.516	7887.11
729.858	7866.09
730.199	7846.66
730.541	7876.94
730.882	7900.89
731.224	7904.74
731.565	7802.59
731.906	7812.31
732.248	7855.47
732.589	7871.74
732.93	7762.14
733.271	7874.23
733.612	7886.66
733.953	7854.57
734.294	7839.43
734.635	7852.31
734.976	7870.84
735.317	7822.03
735.658	7803.72
735.999	7871.06
736.339	7850.05
736.68	7851.4
737.021	7870.61
737.361	7791.74
737.702	7890.05
738.042	7880.56
738.383	7900.22
738.723	7869.71
739.063	7906.77
739.404	7923.72
739.744	7916.03
740.084	7872.65
740.424	7963.49
740.764	7912.19
741.104	7994.68
741.444	7968.24
741.784	7983.38
742.124	8024.51
742.464	8012.3
742.804	7994.45
743.143	8034.68
743.483	8088.91
743.823	8060.21
744.162	8121.91
744.502	8109.48
744.841	8135.69
745.181	8228.57
745.52	8193.54
745.86	8227.89
746.199	8237.38
746.538	8326.42
746.877	8413.65
747.216	8380.88
747.556	8487.55
747.895	8429.02
748.234	8470.82
748.573	8548.79
748.911	8673.75
749.25	8676.47
749.589	8612.06
749.928	8784.03
750.267	8899.29
750.605	8949
750.944	8972.96
751.283	9019.51
751.621	9082.56
751.96	9127.08
752.298	9271.48
752.636	9381.76
752.975	9487.52
753.313	9555.77
753.651	9722.31
753.989	9728.87
754.327	9852.26
754.666	9879.6
755.004	10060.39
755.342	10178.57
755.679	10258.12
756.017	10321.17
756.355	10475.74
756.693	10608.85
757.031	10773.81
757.368	10861.95
757.706	11061.26
758.044	11197.98
758.381	11344.19
758.719	11416.51
759.056	11583.96
759.394	11840.9
759.731	11837.97
760.068	12061.01
