Data from hue_250_FLMS001491_00030.txt Node
Date: Tue Feb 07 16:00:46 GMT 2017
User: dcchb
Spectrometer: FLMS00149
Trigger mode: 0
Integration Time (sec): 2.000000E-2
Scans to average: 10
Electric dark correction enabled: true
Nonlinearity correction enabled: false
Boxcar width: 0
XAxis mode: Wavelengths
Number of Pixels in Spectrum: 2048
>>>>>Begin Spectral Data<<<<<
341.393	1.48
341.776	1.48
342.16	1.48
342.543	-61.79
342.927	-53.88
343.31	-75.35
343.693	-46.43
344.077	-69.48
344.46	-48.91
344.843	-65.63
345.226	-48.91
345.61	-28.8
345.993	-4.17
346.376	2.39
346.759	6.45
347.142	32.44
347.525	28.6
347.908	46.45
348.291	65.21
348.674	94.81
349.057	111.31
349.44	115.83
349.823	156.28
350.206	162.38
350.588	197.18
350.971	200.35
351.354	214.58
351.737	235.15
352.119	230.63
352.502	266.11
352.884	266.56
353.267	273.79
353.65	300.01
354.032	284.19
354.414	285.77
354.797	300.01
355.179	313.34
355.562	302.94
355.944	340.46
356.326	317.18
356.709	330.74
357.091	340.23
357.473	343.85
357.855	316.05
358.238	330.51
358.62	342.72
359.002	330.06
359.384	317.63
359.766	306.79
360.148	324.19
360.53	365.77
360.912	340.01
361.294	337.52
361.676	344.75
362.057	325.54
362.439	317.41
362.821	329.38
363.203	324.19
363.584	318.99
363.966	326.9
364.348	295.94
364.729	314.92
365.111	317.63
365.493	324.86
365.874	315.6
366.256	314.92
366.637	308.14
367.019	311.31
367.4	313.79
367.781	297.29
368.163	312.21
368.544	299.78
368.925	321.25
369.306	317.63
369.688	307.69
370.069	318.99
370.45	318.76
370.831	288.71
371.212	299.78
371.593	310.18
371.974	309.95
372.355	304.07
372.736	314.92
373.117	324.19
373.498	327.12
373.879	307.46
374.26	291.42
374.641	324.19
375.021	309.72
375.402	307.24
375.783	318.99
376.163	325.09
376.544	320.57
376.925	313.34
377.305	331.42
377.686	325.09
378.066	323.96
378.447	344.07
378.827	319.44
379.208	343.17
379.588	309.05
379.968	327.35
380.349	329.16
380.729	344.3
381.109	347.91
381.489	336.62
381.87	340.91
382.25	333.9
382.63	327.58
383.01	329.84
383.39	364.41
383.77	351.3
384.15	336.16
384.53	340.46
384.91	346.11
385.29	347.91
385.67	352.21
386.049	336.84
386.429	351.98
386.809	353.56
387.189	366.45
387.568	365.99
387.948	376.39
388.328	373.68
388.707	355.37
389.087	384.75
389.466	369.16
389.846	353.79
390.225	370.06
390.605	354.02
390.984	375.26
391.363	369.61
391.743	362.38
392.122	372.77
392.501	399.66
392.881	390.17
393.26	402.6
393.639	387.91
394.018	399.66
394.397	393.56
394.776	383.85
395.155	391.08
395.534	365.99
395.913	398.31
396.292	414.35
396.671	407.35
397.05	397.18
397.429	406.22
397.808	399.21
398.186	397.18
398.565	417.07
398.944	409.83
399.323	405.77
399.701	394.69
400.08	419.78
400.458	421.58
400.837	454.58
401.215	416.61
401.594	405.09
401.972	427.23
402.351	414.58
402.729	439.89
403.107	453
403.486	440.34
403.864	439.44
404.242	442.6
404.62	455.93
404.999	449.15
405.377	461.81
405.755	473.79
406.133	463.84
406.511	446.67
406.889	474.24
407.267	486.22
407.645	497.29
408.023	483.5
408.401	477.4
408.779	490.06
409.156	505.65
409.534	499.55
409.912	522.37
410.29	501.58
410.667	524.18
411.045	502.26
411.422	525.31
411.8	557.85
412.178	570.96
412.555	546.55
412.933	549.49
413.31	559.89
413.687	572.99
414.065	566.21
414.442	555.82
414.819	596.04
415.197	615.7
415.574	614.57
415.951	596.72
416.328	615.03
416.705	621.81
417.082	630.17
417.46	647.34
417.837	617.96
418.214	636.27
418.591	631.07
418.967	643.05
419.344	634.91
419.721	661.58
420.098	682.82
420.475	679.43
420.852	656.83
421.228	692.76
421.605	700.9
421.982	729.37
422.358	728.24
422.735	725.53
423.111	716.49
423.488	742.03
423.864	773.44
424.241	772.31
424.617	781.8
424.994	787
425.37	799.65
425.746	816.15
426.123	803.95
426.499	855.02
426.875	821.35
427.251	856.38
427.627	884.62
428.003	869.48
428.379	891.4
428.756	882.59
429.132	906.54
429.507	892.31
429.883	918.3
430.259	950.38
430.635	923.72
431.011	926.88
431.387	978.41
431.763	980.67
432.138	968.24
432.514	1016.82
432.89	1024.73
433.265	1011.63
433.641	1032.19
434.016	1059.08
434.392	1083.26
434.767	1102.25
435.143	1115.35
435.518	1116.93
435.894	1146.99
436.269	1157.38
436.644	1175.92
437.02	1190.83
437.395	1183.37
437.77	1222.24
438.145	1215.46
438.52	1256.14
438.895	1270.83
439.271	1281.45
439.646	1302.69
440.021	1314.89
440.395	1317.38
440.77	1322.58
441.145	1360.32
441.52	1357.83
441.895	1374.55
442.27	1349.24
442.645	1381.11
443.019	1419.75
443.394	1410.49
443.769	1416.81
444.143	1416.59
444.518	1431.95
444.892	1462.46
445.267	1487.55
445.641	1460.2
446.016	1477.83
446.39	1488.22
446.764	1508.79
447.139	1506.75
447.513	1553.53
447.887	1540.43
448.262	1500.88
448.636	1565.51
449.01	1586.53
449.384	1595.79
449.758	1607.09
450.132	1611.38
450.506	1602.12
450.88	1645.06
451.254	1625.85
451.628	1674.89
452.002	1689.57
452.376	1695
452.75	1696.13
453.123	1677.82
453.497	1727.54
453.871	1762.11
454.244	1759.18
454.618	1762.57
454.992	1796.92
455.365	1813.41
455.739	1856.12
456.112	1860.42
456.486	1856.8
456.859	1910.36
457.232	1947.65
457.606	1901.55
457.979	1962.56
458.352	1970.24
458.725	2024.03
459.099	1994.2
459.472	2084.59
459.845	2087.76
460.218	2089.34
460.591	2093.63
460.964	2110.35
461.337	2182.22
461.71	2219.73
462.083	2199.84
462.456	2212.5
462.829	2224.48
463.201	2260.41
463.574	2236.9
463.947	2319.16
464.32	2327.07
464.692	2365.26
465.065	2345.38
465.438	2413.17
465.81	2409.56
466.183	2448.2
466.555	2513.06
466.928	2494.07
467.3	2508.08
467.672	2552.38
468.045	2612.94
468.417	2605.48
468.789	2648.19
469.161	2671.7
469.534	2688.19
469.906	2778.81
470.278	2728.19
470.65	2782.88
471.022	2810.22
471.394	2861.07
471.766	2898.13
472.138	2924.12
472.51	2966.6
472.882	3026.49
473.253	3063.1
473.625	3087.73
473.997	3161.17
474.369	3162.76
474.74	3194.62
475.112	3222.64
475.484	3291.11
475.855	3331.11
476.227	3377.21
476.598	3428.51
476.97	3459.02
477.341	3487.04
477.713	3591.45
478.084	3590.09
478.455	3690.43
478.827	3729.52
479.198	3781.5
479.569	3832.34
479.94	3881.61
480.311	3901.49
480.682	4023.3
481.053	4060.59
481.424	4147.59
481.795	4201.15
482.166	4200.24
482.537	4241.6
482.908	4347.81
483.279	4359.79
483.65	4426.68
484.021	4540.57
484.391	4551.42
484.762	4590.29
485.133	4574.92
485.503	4691.08
485.874	4781.7
486.244	4807.23
486.615	4853.78
486.985	4921.35
487.356	4982.82
487.726	5038.19
488.097	5115.25
488.467	5145.53
488.837	5182.14
489.207	5241.57
489.578	5348.01
489.948	5383.71
490.318	5450.83
490.688	5404.28
491.058	5541
491.428	5609.47
491.798	5614.67
492.168	5723.59
492.538	5747.32
492.908	5792.97
493.278	5866.19
493.648	5804.72
494.017	5926.52
494.387	6047.43
494.757	6065.5
495.126	6072.28
495.496	6096.01
495.866	6148.21
496.235	6135.56
496.605	6227.76
496.974	6274.99
497.344	6304.82
497.713	6336.68
498.082	6411.71
498.452	6379.17
498.821	6426.4
499.19	6376
499.559	6498.49
499.928	6531.25
500.298	6528.77
500.667	6560.41
501.036	6567.86
501.405	6646.05
501.774	6658.03
502.143	6728.31
502.512	6686.96
502.88	6726.73
503.249	6782.1
503.618	6774.86
503.987	6883.56
504.356	6846.05
504.724	6886.95
505.093	6946.61
505.462	6860.29
505.83	6972.15
506.199	6999.49
506.567	7122.43
506.936	7042.88
507.304	7086.95
507.672	7114.52
508.041	7125.36
508.409	7237.45
508.777	7206.72
509.145	7299.82
509.514	7233.16
509.882	7320.61
510.25	7317.9
510.618	7318.13
510.986	7308.41
511.354	7385.7
511.722	7414.85
512.09	7476.09
512.458	7442.42
512.826	7461.17
513.193	7527.39
513.561	7490.33
513.929	7542.75
514.297	7580.49
514.664	7674.5
515.032	7582.53
515.4	7679.7
515.767	7626.82
516.135	7705.01
516.502	7671.79
516.869	7832.69
517.237	7747.72
517.604	7723.99
517.972	7742.3
518.339	7829.53
518.706	7794.72
519.073	7798.34
519.44	7892.35
519.808	7924.89
520.175	7885.57
520.542	8015.96
520.909	7981.61
521.276	7949.07
521.643	8055.06
522.009	7992.46
522.376	8120.82
522.743	8087.82
523.11	8126.92
523.477	8155.62
523.843	8208.5
524.21	8224.09
524.577	8242.85
524.943	8204.88
525.31	8279.01
525.676	8365.78
526.043	8379.12
526.409	8403.07
526.776	8502.28
527.142	8392.22
527.508	8461.83
527.874	8436.52
528.241	8430.19
528.607	8486.46
528.973	8522.61
529.339	8506.8
529.705	8617.08
530.071	8586.12
530.437	8625.89
530.803	8629.28
531.169	8648.26
531.535	8595.16
531.901	8657.98
532.267	8624.53
532.632	8691.88
532.998	8659.33
533.364	8710.18
533.73	8705.43
534.095	8767.13
534.461	8753.12
534.826	8759.67
535.192	8731.65
535.557	8759.22
535.923	8776.62
536.288	8750.18
536.653	8738.2
537.019	8809.61
537.384	8758.54
537.749	8766.45
538.114	8768.03
538.479	8800.12
538.845	8723.51
539.21	8770.29
539.575	8789.05
539.94	8780.24
540.305	8835.83
540.67	8694.59
541.034	8834.7
541.399	8775.72
541.764	8792.21
542.129	8789.73
542.494	8848.26
542.858	8835.6
543.223	8817.3
543.587	8804.19
543.952	8758.54
544.316	8814.81
544.681	8753.12
545.045	8809.84
545.41	8817.75
545.774	8778.43
546.138	8832.44
546.503	8822.95
546.867	8767.81
547.231	8875.83
547.595	8824.53
547.959	8834.47
548.324	8757.41
548.688	8805.77
549.052	8866.11
549.416	8863.62
549.779	8782.27
550.143	8748.15
550.507	8836.73
550.871	8792.21
551.235	8775.04
551.599	8861.14
551.962	8853.45
552.326	8843.51
552.689	8899.33
553.053	8813.23
553.417	8864.75
553.78	8948.59
554.143	8843.28
554.507	8901.36
554.87	8874.7
555.234	8910.18
555.597	8897.75
555.96	8940.68
556.323	8974.35
556.686	8985.88
557.05	8999.66
557.413	9043.05
557.776	9060.23
558.139	9043.96
558.502	9016.61
558.865	9034.92
559.228	9065.43
559.59	9114.46
559.953	9086.67
560.316	9197.4
560.679	9170.28
561.041	9216.16
561.404	9161.92
561.767	9212.09
562.129	9253.44
562.492	9294.8
562.854	9295.93
563.217	9300.22
563.579	9311.07
563.941	9331.86
564.304	9291.18
564.666	9378.41
565.028	9376.38
565.39	9440.78
565.753	9397.62
566.115	9437.62
566.477	9436.04
566.839	9495.92
567.201	9552.64
567.563	9567.11
567.925	9595.13
568.287	9600.33
568.648	9605.07
569.01	9643.94
569.372	9735.69
569.734	9625.86
570.095	9737.95
570.457	9756.71
570.819	9753.77
571.18	9739.31
571.542	9873.77
571.903	9868.57
572.265	9889.58
572.626	9837.61
572.987	9896.14
573.349	9912.18
573.71	9990.6
574.071	9986.98
574.432	10010.94
574.794	10081.9
575.155	10076.02
575.516	10062.24
575.877	10031.28
576.238	10180.42
576.599	10147.2
576.96	10195.57
577.32	10183.14
577.681	10183.81
578.042	10281.44
578.403	10241.44
578.763	10221.33
579.124	10283.7
579.485	10330.25
579.845	10324.83
580.206	10400.53
580.566	10318.5
580.927	10394.43
581.287	10425.16
581.648	10359.4
582.008	10509.23
582.368	10410.47
582.728	10485.73
583.089	10449.57
583.449	10511.26
583.809	10455.9
584.169	10530.92
584.529	10529.12
584.889	10650.02
585.249	10572.96
585.609	10591.49
585.969	10635.33
586.329	10558.49
586.688	10547.65
587.048	10618.15
587.408	10603.46
587.768	10612.28
588.127	10620.64
588.487	10650.69
588.846	10714.87
589.206	10662.67
589.565	10673.97
589.925	10791.71
590.284	10728.21
590.643	10720.98
591.003	10699.51
591.362	10734.31
591.721	10767.3
592.08	10835.1
592.44	10829.45
592.799	10743.12
593.158	10799.84
593.517	10808.88
593.876	10852.5
594.235	10779.96
594.593	10789.45
594.952	10884.81
595.311	10783.8
595.67	10869.45
596.029	10958.71
596.387	10869.22
596.746	10892.04
597.104	10937.69
597.463	10899.95
597.822	10913.74
598.18	10918.26
598.538	10931.37
598.897	10907.86
599.255	10845.27
599.613	11030.12
599.972	10922.78
600.33	10952.83
600.688	10965.04
601.046	11032.61
601.404	11006.62
601.762	11015.88
602.12	11030.35
602.478	11028.99
602.836	11023.79
603.194	11081.64
603.552	11066.95
603.91	11067.18
604.268	11088.65
604.625	11079.61
604.983	11078.48
605.341	11024.47
605.698	11142.43
606.056	11101.3
606.413	11116.44
606.771	11168.65
607.128	11193.28
607.485	11154.86
607.843	11123
608.2	11200.28
608.557	11153.28
608.914	11193.05
609.272	11186.73
609.629	11205.03
609.986	11235.09
610.343	11158.48
610.7	11239.83
611.057	11290.45
611.414	11171.36
611.771	11251.81
612.127	11294.07
612.484	11278.02
612.841	11289.32
613.198	11221.53
613.554	11336.78
613.911	11374.97
614.267	11299.94
614.624	11315.99
614.98	11371.81
615.337	11449.77
615.693	11346.72
616.05	11382.65
616.406	11473.5
616.762	11345.82
617.118	11427.62
617.475	11429.21
617.831	11472.37
618.187	11495.19
618.543	11392.82
618.899	11539.03
619.255	11477.57
619.611	11439.15
619.967	11569.99
620.323	11532.48
620.678	11462.42
621.034	11465.81
621.39	11523.89
621.746	11374.07
622.101	11553.04
622.457	11478.7
622.812	11535.64
623.168	11440.05
623.523	11537.45
623.879	11532.03
624.234	11483.89
624.589	11558.24
624.945	11487.96
625.3	11556.89
625.655	11488.19
626.01	11480.28
626.365	11439.15
626.72	11524.57
627.075	11450.22
627.43	11477.57
627.785	11455.42
628.14	11456.32
628.495	11529.54
628.85	11421.07
629.205	11377.91
629.559	11449.09
629.914	11432.59
630.269	11436.66
630.623	11408.41
630.978	11356.66
631.332	11400.51
631.687	11432.14
632.041	11359.83
632.396	11277.57
632.75	11351.47
633.104	11322.99
633.459	11264.01
633.813	11250.9
634.167	11303.11
634.521	11217.69
634.875	11277.34
635.229	11262.2
635.583	11299.27
635.937	11225.82
636.291	11240.51
636.645	11226.5
636.999	11254.29
637.352	11203
637.706	11103.34
638.06	11175.88
638.413	11136.56
638.767	11176.78
639.121	11124.81
639.474	11095.2
639.828	11077.8
640.181	11037.58
640.534	11173.39
640.888	11000.74
641.241	11002.32
641.594	11003
641.947	11060.63
642.301	11007.52
642.654	11097.91
643.007	10993.06
643.36	10993.96
643.713	10927.3
644.066	10998.26
644.419	10844.59
644.771	10878.03
645.124	10759.17
645.477	10742.67
645.83	10623.35
646.182	10596.46
646.535	10600.3
646.888	10567.53
647.24	10551.04
647.593	10582.45
647.945	10518.27
648.298	10582.9
648.65	10503.13
649.002	10472.62
649.355	10527.76
649.707	10521.21
650.059	10600.3
650.411	10727.53
650.763	10649.56
651.115	10819.73
651.467	10746.74
651.819	10816.34
652.171	10699.28
652.523	10689.56
652.875	10733.86
653.227	10688.43
653.578	10762.56
653.93	10672.84
654.282	10684.59
654.633	10643.24
654.985	10732.27
655.337	10725.49
655.688	10711.26
656.039	10697.02
656.391	10678.04
656.742	10684.59
657.094	10666.06
657.445	10709.9
657.796	10768.88
658.147	10750.58
658.498	10675.1
658.849	10698.38
659.2	10634.65
659.551	10652.95
659.902	10656.8
660.253	10598.04
660.604	10728.66
660.955	10629.9
661.306	10716
661.656	10690.47
662.007	10716.46
662.358	10689.11
662.708	10683.91
663.059	10731.82
663.409	10660.41
663.76	10778.15
664.11	10682.33
664.461	10763.69
664.811	10670.36
665.161	10660.86
665.511	10659.96
665.862	10661.99
666.212	10718.94
666.562	10723.46
666.912	10679.39
667.262	10690.92
667.612	10649.79
667.962	10682.78
668.312	10669.9
668.662	10733.18
669.011	10627.64
669.361	10672.61
669.711	10679.85
670.06	10624.25
670.41	10612.5
670.76	10579.74
671.109	10638.27
671.459	10632.39
671.808	10640.53
672.157	10642.79
672.507	10480.53
672.856	10617.93
673.205	10577.7
673.554	10591.26
673.904	10514.43
674.253	10571.37
674.602	10527.99
674.951	10485.73
675.3	10359.63
675.649	10551.04
675.998	10452.51
676.346	10469.68
676.695	10531.83
677.044	10449.12
677.393	10523.24
677.741	10518.49
678.09	10429.68
678.438	10496.8
678.787	10428.33
679.135	10498.38
679.484	10399.63
679.832	10373.64
680.181	10383.13
680.529	10388.55
680.877	10332.96
681.225	10353.75
681.573	10387.2
681.922	10302.23
682.27	10236.69
682.618	10221.55
682.966	10216.58
683.314	10265.17
683.661	10169.58
684.009	10138.39
684.357	10060.2
684.705	10038.06
685.053	10139.3
685.4	10107.66
685.748	10054.1
686.095	9999.64
686.443	10001.45
686.79	9952.41
687.138	9982.69
687.485	9981.79
687.832	9930.71
688.18	10014.55
688.527	9966.87
688.874	9906.76
689.221	9858.85
689.568	9779.31
689.915	9795.58
690.262	9802.58
690.609	9767.78
690.956	9783.37
691.303	9804.16
691.65	9723.71
691.997	9713.09
692.344	9621.12
692.69	9597.16
693.037	9599.87
693.383	9498.86
693.73	9526.2
694.077	9487.34
694.423	9434
694.769	9444.62
695.116	9417.51
695.462	9385.19
695.808	9318.07
696.155	9368.47
696.501	9233.78
696.847	9258.87
697.193	9164.63
697.539	9157.85
697.885	9209.6
698.231	9069.04
698.577	9153.78
698.923	9077.63
699.269	9045.09
699.614	8980
699.96	8962.6
700.306	8955.37
700.651	8936.62
700.997	8918.99
701.342	8915.15
701.688	8826.56
702.033	8863.4
702.379	8791.99
702.724	8755.83
703.069	8818.88
703.415	8651.65
703.76	8685.77
704.105	8715.38
704.45	8651.65
704.795	8549.05
705.14	8552.22
705.485	8543.63
705.83	8523.52
706.175	8522.39
706.52	8437.87
706.865	8455.5
707.209	8493.69
707.554	8441.71
707.899	8382.51
708.243	8390.87
708.588	8334.15
708.932	8338.89
709.277	8249.63
709.621	8301.83
709.966	8232
710.31	8289.85
710.654	8208.05
710.998	8218.44
711.342	8135.96
711.687	8182.06
712.031	8122.85
712.375	8079.69
712.719	8159.46
713.063	8067.26
713.407	8075.17
713.75	8064.55
714.094	8068.62
714.438	8004.66
714.782	8050.31
715.125	7930.09
715.469	7961.73
715.812	7991.1
716.156	7893.7
716.499	7985.68
716.843	7928.28
717.186	7879.92
717.53	7878.56
717.873	7921.73
718.216	7828.85
718.559	7842.18
718.902	7817.55
719.246	7813.93
719.589	7770.09
719.932	7752.92
720.275	7757.66
720.617	7749.08
720.96	7714.27
721.303	7787.94
721.646	7708.4
721.989	7688.06
722.331	7721.28
722.674	7715.4
723.016	7660.94
723.359	7716.53
723.701	7635.86
724.044	7648.29
724.386	7588.18
724.729	7645.35
725.071	7636.54
725.413	7631.34
725.755	7608.51
726.097	7582.07
726.439	7482.19
726.782	7556.99
727.124	7585.24
727.465	7527.16
727.807	7513.83
728.149	7518.35
728.491	7507.05
728.833	7560.61
729.175	7557.44
729.516	7481.06
729.858	7476.77
730.199	7462.3
730.541	7496.43
730.882	7483.55
731.224	7454.85
731.565	7477.44
731.906	7505.01
732.248	7458.46
732.589	7371.68
732.93	7391.35
733.271	7462.3
733.612	7417.11
733.953	7452.13
734.294	7405.58
734.635	7469.76
734.976	7453.26
735.317	7443.32
735.658	7424.11
735.999	7414.4
736.339	7399.48
736.68	7484
737.021	7477.67
737.361	7436.54
737.702	7511.57
738.042	7466.6
738.383	7371.23
738.723	7435.19
739.063	7407.39
739.404	7412.59
739.744	7429.08
740.084	7382.53
740.424	7481.74
740.764	7422.08
741.104	7530.1
741.444	7469.08
741.784	7437.45
742.124	7423.89
742.464	7455.07
742.804	7484.9
743.143	7447.16
743.483	7452.59
743.823	7502.3
744.162	7495.75
744.502	7487.39
744.841	7449.42
745.181	7556.99
745.52	7561.28
745.86	7596.99
746.199	7584.11
746.538	7591.79
746.877	7690.55
747.216	7708.62
747.556	7680.83
747.895	7711.56
748.234	7734.39
748.573	7756.99
748.911	7828.17
749.25	7836.31
749.589	7870.65
749.928	7864.78
750.267	7944.78
750.605	8004.21
750.944	8040.37
751.283	8017.32
751.621	8165.56
751.96	8147.26
752.298	8226.35
752.636	8324.2
752.975	8320.13
753.313	8428.15
753.651	8452.79
753.989	8561.03
754.327	8593.35
754.666	8652.78
755.004	8731.65
755.342	8729.16
755.679	8822.49
756.017	8892.77
756.355	9011.42
756.693	9055.93
757.031	9207.79
757.368	9265.87
757.706	9350.39
758.044	9383.16
758.381	9527.33
758.719	9581.57
759.056	9726.88
759.394	9786.31
759.731	9869.47
760.068	9976.36
760.405	10085.96
760.743	10140.65
761.08	10263.59
761.417	10339.74
761.754	10547.87
762.091	10512.62
762.428	10669
762.765	10657.25
763.102	10884.59
763.438	10956.9
