Data from hue_36_FLMS001491_00092.txt Node
Date: Tue Feb 07 17:30:32 GMT 2017
User: dcchb
Spectrometer: FLMS00149
Trigger mode: 0
Integration Time (sec): 2.000000E-2
Scans to average: 10
Electric dark correction enabled: true
Nonlinearity correction enabled: false
Boxcar width: 0
XAxis mode: Wavelengths
Number of Pixels in Spectrum: 2048
>>>>>Begin Spectral Data<<<<<
341.393	-8.95
341.776	-8.95
342.16	-8.95
342.543	-69.29
342.927	-75.62
343.31	-68.61
343.693	-78.11
344.077	-66.35
344.46	-58.44
344.843	-47.82
345.226	-61.16
345.61	-20.71
345.993	3.02
346.376	-15.73
346.759	13.19
347.142	28.56
347.525	13.42
347.908	71.04
348.291	62.91
348.674	115.34
349.057	109.46
349.44	117.6
349.823	153.98
350.206	166.18
350.588	188.78
350.971	213.19
351.354	205.5
351.737	231.94
352.119	257.48
352.502	245.73
352.884	264.71
353.267	294.31
353.65	289.12
354.032	289.12
354.414	310.36
354.797	303.58
355.179	320.98
355.562	316.23
355.944	327.99
356.326	331.83
356.709	327.31
357.091	343.35
357.473	348.55
357.855	334.99
358.238	359.17
358.62	335.22
359.002	346.06
359.384	350.81
359.766	328.66
360.148	343.8
360.53	337.25
360.912	325.05
361.294	329.34
361.676	343.8
362.057	337.25
362.439	312.84
362.821	348.78
363.203	318.72
363.584	323.47
363.966	322.34
364.348	322.34
364.729	316.91
365.111	316.23
365.493	330.02
365.874	314.65
366.256	319.62
366.637	297.93
367.019	294.99
367.4	308.1
367.781	303.13
368.163	322.56
368.544	316.91
368.925	302
369.306	325.05
369.688	315.56
370.069	294.54
370.45	303.35
370.831	311.26
371.212	297.03
371.593	316.91
371.974	318.04
372.355	317.59
372.736	299.74
373.117	306.74
373.498	304.03
373.879	295.22
374.26	313.75
374.641	328.44
375.021	292.96
375.402	314.43
375.783	319.4
376.163	327.08
376.544	330.92
376.925	332.96
377.305	327.99
377.686	343.35
378.066	322.79
378.447	313.52
378.827	329.57
379.208	324.82
379.588	339.74
379.968	335.9
380.349	322.79
380.729	329.34
381.109	341.77
381.489	320.08
381.87	333.64
382.25	343.13
382.63	344.26
383.01	316.46
383.39	331.38
383.77	334.77
384.15	345.39
384.53	339.28
384.91	335.67
385.29	337.25
385.67	312.39
386.049	374.54
386.429	352.84
386.809	349.45
387.189	350.58
387.568	346.97
387.948	342.67
388.328	352.17
388.707	349.68
389.087	351.71
389.466	363.92
389.846	350.81
390.225	349.23
390.605	347.19
390.984	353.75
391.363	348.55
391.743	354.88
392.122	363.47
392.501	363.92
392.881	361.43
393.26	367.98
393.639	376.12
394.018	365.5
394.397	370.24
394.776	363.24
395.155	368.44
395.534	358.95
395.913	372.96
396.292	371.6
396.671	360.98
397.05	382.9
397.429	379.28
397.808	373.41
398.186	351.94
398.565	395.78
398.944	379.28
399.323	383.13
399.701	374.54
400.08	397.36
400.458	370.92
400.837	406.4
401.215	410.24
401.594	382.45
401.972	381.54
402.351	423.58
402.729	407.31
403.107	420.19
403.486	393.97
403.864	421.77
404.242	416.57
404.62	400.07
404.999	393.07
405.377	404.59
405.755	408.66
406.133	409.34
406.511	425.16
406.889	431.03
407.267	424.48
407.645	433.52
408.023	429.9
408.401	418.6
408.779	427.64
409.156	438.72
409.534	415.22
409.912	449.11
410.29	447.53
410.667	456.34
411.045	420.41
411.422	438.72
411.8	440.07
412.178	467.42
412.555	462.9
412.933	469.9
413.31	460.86
413.687	461.77
414.065	477.36
414.442	465.61
414.819	474.87
415.197	480.3
415.574	488.89
415.951	488.43
416.328	472.61
416.705	498.6
417.082	476.91
417.46	498.38
417.837	510.13
418.214	485.72
418.591	494.31
418.967	473.29
419.344	481.2
419.721	516.91
420.098	497.7
420.475	500.41
420.852	502.44
421.228	519.85
421.605	514.65
421.982	506.96
422.358	536.34
422.735	527.75
423.111	505.38
423.488	541.77
423.864	541.31
424.241	533.4
424.617	530.69
424.994	571.14
425.37	553.06
425.746	545.61
426.123	542.22
426.499	563.91
426.875	568.21
427.251	563.91
427.627	565.49
428.003	563.23
428.379	570.92
428.756	592.39
429.132	589.9
429.507	594.87
429.883	586.06
430.259	600.75
430.635	609.56
431.011	601.2
431.387	613.18
431.763	582.22
432.138	631.48
432.514	601.65
432.89	617.24
433.265	626.06
433.641	644.81
434.016	647.75
434.392	637.36
434.767	647.3
435.143	638.71
435.518	659.05
435.894	670.12
436.269	674.42
436.644	676.45
437.02	683.68
437.395	672.16
437.77	667.64
438.145	686.62
438.52	700.63
438.895	699.5
439.271	723
439.646	716.22
440.021	723.46
440.395	739.95
440.77	746.51
441.145	736.56
441.52	735.43
441.895	760.97
442.27	741.99
442.645	749.44
443.019	763.23
443.394	737.24
443.769	750.35
444.143	756.45
444.518	771.59
444.892	763.68
445.267	760.74
445.641	780.63
446.016	774.53
446.39	776.34
446.764	790.12
447.139	795.77
447.513	795.77
447.887	798.48
448.262	805.04
448.636	793.51
449.01	808.2
449.384	828.09
449.758	836.67
450.132	868.31
450.506	843.9
450.88	837.12
451.254	820.4
451.628	859.5
452.002	886.84
452.376	868.76
452.75	880.97
453.123	858.59
453.497	875.77
453.871	897.69
454.244	901.76
454.618	899.72
454.992	903.56
455.365	933.85
455.739	928.87
456.112	967.97
456.486	958.03
456.859	980.85
457.232	985.6
457.606	985.82
457.979	980.17
458.352	991.25
458.725	1022.43
459.099	1005.26
459.472	1044.58
459.845	1041.19
460.218	1042.32
460.591	1053.62
460.964	1081.41
461.337	1090.45
461.71	1070.57
462.083	1127.29
462.456	1131.13
462.829	1120.06
463.201	1159.38
463.574	1176.55
463.947	1194.4
464.32	1189.43
464.692	1189.43
465.065	1216.32
465.438	1227.62
465.81	1253.61
466.183	1287.96
466.555	1273.5
466.928	1284.12
467.3	1303.33
467.672	1331.58
468.045	1350.78
468.417	1343.33
468.789	1367.28
469.161	1376.77
469.534	1422.19
469.906	1443.44
470.278	1466.94
470.65	1485.7
471.022	1509.42
471.394	1509.65
471.766	1558.69
472.138	1598.91
472.51	1625.13
472.882	1656.31
473.253	1643.21
473.625	1691.57
473.997	1761.39
474.369	1748.97
474.74	1799.59
475.112	1846.14
475.484	1887.94
475.855	1915.29
476.227	1953.25
476.598	2005.23
476.97	1996.42
477.341	2067.6
477.713	2112.8
478.084	2150.31
478.455	2219.46
478.827	2256.97
479.198	2338.55
479.569	2363.64
479.94	2449.96
480.311	2520.24
480.682	2581.03
481.053	2683.4
481.424	2693.35
481.795	2724.98
482.166	2818.32
482.537	2864.64
482.908	2986.67
483.279	3034.36
483.65	3098.08
484.021	3188.25
484.391	3259.66
484.762	3356.15
485.133	3423.05
485.503	3509.6
485.874	3574.23
486.244	3680.21
486.615	3740.1
486.985	3841.34
487.356	3944.16
487.726	3988.23
488.097	4103.93
488.467	4159.98
488.837	4274.77
489.207	4389.35
489.578	4478.61
489.948	4604.03
490.318	4698.04
490.688	4750.24
491.058	4841.54
491.428	4940.07
491.798	5060.97
492.168	5220.74
492.538	5252.6
492.908	5378.47
493.278	5441.52
493.648	5507.74
494.017	5613.72
494.387	5728.75
494.757	5815.07
495.126	5893.26
495.496	5925.8
495.866	6094.84
496.235	6155.4
496.605	6295.29
496.974	6370.99
497.344	6420.48
497.713	6529.18
498.082	6566.01
498.452	6678.78
498.821	6747.93
499.19	6823.18
499.559	6907.7
499.928	7005.78
500.298	7043.52
500.667	7189.27
501.036	7143.63
501.405	7318.99
501.774	7333.45
502.143	7359.21
502.512	7455.48
502.88	7590.85
503.249	7626.32
503.618	7723.27
503.987	7810.95
504.356	7846.21
504.724	7910.16
505.093	7900.89
505.462	8014.11
505.83	8104.5
506.199	8181.34
506.567	8312.41
506.936	8358.74
507.304	8436.02
507.672	8470.14
508.041	8482.8
508.409	8602.57
508.777	8692.74
509.145	8776.35
509.514	8822.23
509.882	8836.91
510.25	8873.98
510.618	8899.74
510.986	9027.42
511.354	9074.65
511.722	9077.13
512.09	9258.15
512.458	9262.89
512.826	9356.9
513.193	9366.62
513.561	9486.61
513.929	9580.85
514.297	9625.37
514.664	9687.06
515.032	9784.01
515.4	9792.14
515.767	9831.69
516.135	9934.96
516.502	9794.86
516.869	10038.92
517.237	10084.57
517.604	10013.83
517.972	10115.52
518.339	10240.72
518.706	10178.12
519.073	10300.15
519.44	10334.28
519.808	10414.05
520.175	10464.67
520.542	10591.22
520.909	10663.76
521.276	10675.51
521.643	10791.21
522.009	10763.42
522.376	10869.63
522.743	10971.77
523.11	11055.84
523.477	11102.17
523.843	11125.22
524.21	11260.81
524.577	11346.23
524.943	11341.48
525.31	11468.71
525.676	11522.72
526.043	11564.75
526.409	11643.85
526.776	11672.77
527.142	11776.27
527.508	11857.85
527.874	11954.57
528.241	12071.18
528.607	12069.6
528.973	12202.02
529.339	12155.47
529.705	12300.55
530.071	12398.63
530.437	12484.5
530.803	12499.42
531.169	12585.52
531.535	12610.6
531.901	12557.72
532.267	12654.89
532.632	12753.2
532.998	12788.22
533.364	12900.99
533.73	12901.67
534.095	12988.22
534.461	13078.84
534.826	13126.07
535.192	13178.5
535.557	13219.85
535.923	13336.46
536.288	13384.82
536.653	13400.18
537.019	13455.78
537.384	13504.14
537.749	13539.62
538.114	13626.39
538.479	13595.66
538.845	13667.97
539.21	13725.15
539.575	13713.17
539.94	13754.75
540.305	13903.22
540.67	13875.65
541.034	13959.94
541.399	14046.5
541.764	14076.32
542.129	14048.75
542.494	14198.36
542.858	14291.46
543.223	14288.97
543.587	14387.96
543.952	14346.6
544.316	14431.57
544.681	14412.81
545.045	14547.05
545.41	14703.43
545.774	14653.94
546.138	14673.82
546.503	14700.49
546.867	14780.26
547.231	14863.2
547.595	14916.75
547.959	14947.04
548.324	15013.93
548.688	15016.41
549.052	14999.92
549.416	15106.58
549.779	15151.78
550.143	15255.95
550.507	15312.68
550.871	15420.7
551.235	15378.44
551.599	15504.99
551.962	15453.69
552.326	15558.32
552.689	15631.31
553.053	15670.86
553.417	15631.99
553.78	15827.69
554.143	15816.39
554.507	15874.24
554.87	15986.78
555.234	15971.64
555.597	15939.78
555.96	16050.28
556.323	16084.86
556.686	16154.46
557.05	16286.66
557.413	16224.29
557.776	16351.07
558.139	16492.53
558.502	16396.94
558.865	16596.71
559.228	16605.75
559.59	16558.52
559.953	16663.15
560.316	16848.46
560.679	16897.49
561.041	16993.31
561.404	16937.94
561.767	17217.49
562.129	17122.8
562.492	17280.53
562.854	17237.15
563.217	17223.36
563.579	17338.39
563.941	17321.44
564.304	17468.78
564.666	17615.89
565.028	17635.78
565.39	17678.04
565.753	17760.07
566.115	17740.41
566.477	17870.8
566.839	17911.25
567.201	17960.97
567.563	17987.18
567.925	18067.41
568.287	18066.95
568.648	18271.24
569.01	18370
569.372	18449.77
569.734	18442.54
570.095	18590.56
570.457	18598.47
570.819	18611.8
571.18	18798.01
571.542	18882.3
571.903	18918.23
572.265	19112.35
572.626	19066.7
572.987	19186.25
573.349	19175.17
573.71	19347.82
574.071	19355.73
574.432	19605.67
574.794	19641.83
575.155	19668.27
575.516	19691.09
575.877	19895.38
576.238	19962.72
576.599	20036.85
576.96	20146.22
577.32	20250.85
577.681	20397.29
578.042	20601.58
578.403	20638.19
578.763	20724.29
579.124	20865.07
579.485	21114.11
579.845	21175.57
580.206	21328.56
580.566	21446.3
580.927	21613.98
581.287	21766.29
581.648	21812.84
582.008	22095.77
582.368	22212.16
582.728	22342.77
583.089	22601.3
583.449	22720.39
583.809	22903.89
584.169	23158.12
584.529	23187.27
584.889	23603.98
585.249	23568.5
585.609	23786.8
585.969	24067.47
586.329	24118.77
586.688	24419.1
587.048	24681.02
587.408	24778.19
587.768	25052.31
588.127	25262.02
588.487	25382.47
588.846	25701.56
589.206	25808.9
589.565	26057.7
589.925	26412.5
590.284	26727.74
590.643	26911.69
591.003	27200.05
591.362	27403.88
591.721	27557.1
592.08	27734.04
592.44	27999.35
592.799	28213.13
593.158	28502.39
593.517	28649.95
593.876	28955.03
594.235	29053.11
594.593	29348.47
594.952	29552.08
595.311	29762.47
595.67	30044.49
596.029	30389.57
596.387	30669.56
596.746	30803.12
597.104	30847.64
597.463	31044.69
597.822	31492.14
598.18	31554.06
598.538	31723.32
598.897	32082.63
599.255	31963.09
599.613	32689.39
599.972	32571.21
600.33	32835.15
600.688	32825.66
601.046	33304.07
601.404	33571.86
601.762	33638.3
602.12	34013.88
602.478	34168.45
602.836	34302.91
603.194	34271.95
603.552	34562.34
603.91	34448.44
604.268	34903.57
604.625	34790.81
604.983	35156.9
605.341	35131.36
605.698	35623.78
606.056	35793.95
606.413	35836.66
606.771	36071.23
607.128	36179.47
607.485	36234.84
607.843	36388.73
608.2	36661.04
608.557	36813.81
608.914	36830.98
609.272	37120.92
609.629	37317.97
609.986	37594.35
610.343	37535.82
610.7	37807.23
611.057	37880.67
611.414	37884.96
611.771	38202.92
612.127	38345.52
612.484	38492.86
612.841	38604.95
613.198	38771.49
613.554	38710.03
613.911	39061.88
614.267	39162.22
614.624	39223.01
614.98	39358.6
615.337	39567.41
615.693	39459.61
616.05	39607.86
616.406	39974.17
616.762	39780.96
617.118	39870.45
617.475	39915.65
617.831	40201.51
618.187	40157.67
618.543	40415.52
618.899	40640.6
619.255	40513.14
619.611	40505.01
619.967	40744.55
620.323	40945.45
620.678	40814.15
621.034	40814.6
621.39	40928.05
621.746	40883.08
622.101	41331.65
622.457	41114.48
622.812	41241.26
623.168	41394.02
623.523	41374.59
623.879	41584.75
624.234	41356.74
624.589	41627.46
624.945	41655.94
625.3	41679.67
625.655	41691.42
626.01	41859.1
626.365	41843.96
626.72	41958.08
627.075	41944.97
627.43	42008.92
627.785	41840.34
628.14	42130.73
628.495	42057.74
628.85	42171.63
629.205	41978.87
629.559	42330.05
629.914	41977.74
630.269	42180.9
630.623	42141.12
630.978	42110.16
631.332	42251.86
631.687	42355.13
632.041	42252.31
632.396	42228.8
632.75	42031.3
633.104	42259.99
633.459	42036.72
633.813	42124.4
634.167	42091.41
634.521	42024.29
634.875	42308.58
635.229	42204.17
635.583	41954.01
635.937	42071.75
636.291	42058.64
636.645	42071.75
636.999	42052.31
637.352	42076.49
637.706	42055.93
638.06	42086.66
638.413	41951.98
638.767	41970.05
639.121	41936.16
639.474	41850.96
639.828	41829.72
640.181	41884.63
640.534	41880.34
640.888	41765.77
641.241	41733.22
641.594	41700.68
641.947	41947
642.301	41671.98
642.654	41902.94
643.007	42006.44
643.36	41743.85
643.713	41755.82
644.066	41748.14
644.419	41688.25
644.771	41487.36
645.124	40967.37
645.477	41000.59
645.83	40732.57
646.182	40658.22
646.535	40524.22
646.888	40586.14
647.24	40351.79
647.593	40736.87
647.945	40670.65
648.298	40491.22
648.65	40316.99
649.002	40329.87
649.355	40466.59
649.707	40344.79
650.059	40662.74
650.411	40989.97
650.763	41125.56
651.115	41507.69
651.467	41281.03
651.819	41310.41
652.171	41235.16
652.523	41045.79
652.875	41161.71
653.227	41002.17
653.578	41201.71
653.93	41121.26
654.282	41013.24
654.633	40848.73
654.985	40983.41
655.337	41007.59
655.688	41026.8
656.039	41225.89
656.391	40860.93
656.742	40811.22
657.094	41033.36
657.445	40967.82
657.796	41055.95
658.147	40966.24
658.498	40875.62
658.849	41030.64
659.2	40937.77
659.551	40833.36
659.902	41015.96
660.253	40948.39
660.604	40949.97
660.955	40815.06
661.306	40840.14
661.656	40877.88
662.007	40858.45
662.358	40887.15
662.708	40915.62
663.059	40810.09
663.409	40678.34
663.76	41006.24
664.11	40902.74
664.461	40898.44
664.811	40850.54
665.161	40790.2
665.511	40658.22
665.862	40813.25
666.212	40916.97
666.562	40863.64
666.912	40808.96
667.262	40650.99
667.612	40650.99
667.962	40729.64
668.312	40536.42
668.662	40845.79
669.011	40683.08
669.361	40622.97
669.711	40686.02
670.06	40616.87
670.41	40538
670.76	40667.94
671.109	40662.97
671.459	40522.64
671.808	40623.65
672.157	40537.78
672.507	40349.53
672.856	40483.99
673.205	40472.01
673.554	40514.5
673.904	40384.33
674.253	40709.3
674.602	40520.83
674.951	40015.98
675.3	39746.16
675.649	40355.41
675.998	40199.03
676.346	40283.77
676.695	40432.47
677.044	40133.94
677.393	40253.26
677.741	40326.03
678.09	40067.28
678.438	40069.54
678.787	40216.43
679.135	40199.71
679.484	39971.46
679.832	40108.86
680.181	39922.2
680.529	39900.05
680.877	39916.55
681.225	39818.7
681.573	39960.84
681.922	39757.68
682.27	39651.92
682.618	39645.6
682.966	39552.94
683.314	39679.95
683.661	39545.71
684.009	39437.92
684.357	39399.95
684.705	39271.82
685.053	39404.47
685.4	39277.02
685.748	39181.2
686.095	39227.3
686.443	38957.48
686.79	38991.6
687.138	39008.32
687.485	39064.82
687.832	38922.9
688.18	38705.51
688.527	38723.36
688.874	38579.86
689.221	38448.57
689.568	38575.57
689.915	38482.24
690.262	38489.69
690.609	38353.43
690.956	38140.55
691.303	38131.96
691.65	38023.72
691.997	38091.06
692.344	37829.15
692.69	37706.66
693.037	37605.88
693.383	37410.4
693.73	37596.38
694.077	37295.38
694.423	37304.19
694.769	37125.66
695.116	37143.74
695.462	37140.35
695.808	36970.86
696.155	37176.28
696.501	36644.09
696.847	36856.74
697.193	36553.25
697.539	36713.24
697.885	36399.58
698.231	36292.24
698.577	36282.52
698.923	36306.7
699.269	36151.68
699.614	35946.48
699.96	35915.98
700.306	36050.44
700.651	35768.41
700.997	35633.27
701.342	35794.4
701.688	35628.07
702.033	35460.85
702.379	35453.84
702.724	35308.31
703.069	35498.13
703.415	35079.16
703.76	35064.02
704.105	34935.21
704.45	34882.56
704.795	34759.17
705.14	34673.98
705.485	34612.28
705.83	34370.03
706.175	34556.46
706.52	34378.16
706.865	34319.18
707.209	34290.93
707.554	34069.92
707.899	34227.43
708.243	34060.21
708.588	33999.42
708.932	33796.48
709.277	33734.56
709.621	33827.67
709.966	33547.9
710.31	33650.05
710.654	33393.78
710.998	33411.18
711.342	33482.37
711.687	33313.79
712.031	33220.91
712.375	33114.47
712.719	33267.91
713.063	33043.74
713.407	33151.76
713.75	32986.34
714.094	32941.59
714.438	32733.01
714.782	32830.18
715.125	32572.79
715.469	32712.9
715.812	32546.8
716.156	32401.04
716.499	32371.89
716.843	32446.46
717.186	32172.35
717.53	32573.24
717.873	32382.96
718.216	32289.86
718.559	32222.29
718.902	32048.51
719.246	32024.55
719.589	31772.36
719.932	31803.99
720.275	31856.2
720.617	31818.01
720.96	31692.58
721.303	31743.43
721.646	31763.77
721.989	31447.62
722.331	31566.49
722.674	31411.69
723.016	31511.8
723.359	31273.39
723.701	31395.42
724.044	31248.3
724.386	30928.54
724.729	31297.34
725.071	31240.62
725.413	31153.84
725.755	31107.06
726.097	31051.25
726.439	30890.12
726.782	30846.28
727.124	30969.44
727.465	30794.76
727.807	30814.87
728.149	30679.96
728.491	30554.08
728.833	30703.68
729.175	30387.53
729.516	30575.1
729.858	30456.46
730.199	30568.77
730.541	30359.06
730.882	30318.16
731.224	30454.88
731.565	30133.98
731.906	30252.4
732.248	30242
732.589	30060.31
732.93	29917.72
733.271	30071.16
733.612	30179.18
733.953	30107.54
734.294	29849.7
734.635	29787.32
734.976	29860.99
735.317	29720.21
735.658	29732.41
735.999	29754.1
736.339	29577.16
736.68	29784.16
737.021	29634.33
737.361	29410.38
737.702	29498.97
738.042	29578.52
738.383	29327.22
738.723	29495.35
739.063	29423.49
739.404	29438.18
739.744	29289.26
740.084	29159.09
740.424	29214.46
740.764	29088.13
741.104	29261.24
741.444	29122.48
741.784	29017.63
742.124	29124.74
742.464	28905.77
742.804	28979.89
743.143	28877.74
743.483	28807.69
743.823	28668.48
744.162	28656.28
744.502	28684.98
744.841	28520.01
745.181	28795.26
745.52	28625.55
745.86	28661.93
746.199	28542.16
746.538	28510.97
746.877	28574.02
747.216	28477.08
747.556	28289.51
747.895	28313.92
748.234	28239.79
748.573	28257.87
748.911	28196.18
749.25	28157.08
749.589	28082.06
749.928	28103.07
750.267	28139.23
750.605	28000.93
750.944	27965
751.283	27805
751.621	27861.05
751.96	27756.87
752.298	27735.63
752.636	27804.78
752.975	27561.17
753.313	27447.95
753.651	27631.9
753.989	27392.58
754.327	27413.38
754.666	27349.42
755.004	27270.78
755.342	27217.67
755.679	27207.5
756.017	27160.05
756.355	27196.88
756.693	26909.66
757.031	27040.28
757.368	26865.37
