Data from hue_170_FLMS001491_00011.txt Node
Date: Tue Feb 07 16:48:18 GMT 2017
User: dcchb
Spectrometer: FLMS00149
Trigger mode: 0
Integration Time (sec): 2.000000E-2
Scans to average: 10
Electric dark correction enabled: true
Nonlinearity correction enabled: false
Boxcar width: 0
XAxis mode: Wavelengths
Number of Pixels in Spectrum: 2048
>>>>>Begin Spectral Data<<<<<
341.393	-20.35
341.776	-20.35
342.16	-20.35
342.543	-50.41
342.927	-86.79
343.31	-70.97
343.693	-73.91
344.077	-81.82
344.46	-64.65
344.843	-55.15
345.226	-42.27
345.61	-30.75
345.993	-2.95
346.376	0.89
346.759	6.09
347.142	13.77
347.525	61.23
347.908	60.32
348.291	93.54
348.674	80.89
349.057	105.75
349.44	114.56
349.823	123.37
350.206	150.72
350.588	184.16
350.971	211.51
351.354	219.42
351.737	219.42
352.119	250.6
352.502	250.6
352.884	267.32
353.267	273.43
353.65	292.86
354.032	290.37
354.414	286.08
354.797	307.77
355.179	315.91
355.562	316.14
355.944	335.8
356.326	335.12
356.709	327.66
357.091	333.08
357.473	325.4
357.855	337.6
358.238	339.19
358.62	329.02
359.002	326.53
359.384	333.76
359.766	334.67
360.148	328.79
360.53	332.18
360.912	339.19
361.294	330.6
361.676	314.1
362.057	332.63
362.439	307.1
362.821	331.95
363.203	320.66
363.584	332.63
363.966	324.5
364.348	322.01
364.729	319.07
365.111	311.39
365.493	324.27
365.874	303.71
366.256	312.52
366.637	300.09
367.019	310.26
367.4	313.65
367.781	313.42
368.163	304.16
368.544	311.16
368.925	325.85
369.306	308
369.688	313.88
370.069	287.21
370.45	295.12
370.831	308
371.212	331.28
371.593	299.19
371.974	311.39
372.355	305.06
372.736	307.1
373.117	298.06
373.498	308.45
373.879	303.03
374.26	289.47
374.641	303.71
375.021	291.96
375.402	329.47
375.783	301.9
376.163	319.53
376.544	322.24
376.925	285.18
377.305	338.06
377.686	317.27
378.066	319.3
378.447	309.13
378.827	331.73
379.208	333.76
379.588	332.63
379.968	319.75
380.349	340.32
380.729	330.15
381.109	352.52
381.489	331.28
381.87	345.29
382.25	350.49
382.63	349.58
383.01	349.81
383.39	343.93
383.77	323.14
384.15	348.23
384.53	323.37
384.91	348.68
385.29	353.65
385.67	342.8
386.049	342.8
386.429	331.73
386.809	334.67
387.189	339.19
387.568	347.77
387.948	355
388.328	333.99
388.707	347.55
389.087	362.91
389.466	350.71
389.846	364.04
390.225	352.52
390.605	360.2
390.984	373.76
391.363	363.14
391.743	355.68
392.122	362.46
392.501	383.7
392.881	376.47
393.26	374.67
393.639	377.6
394.018	393.87
394.397	387.09
394.776	393.65
395.155	388.9
395.534	378.06
395.913	395.91
396.292	366.3
396.671	385.51
397.05	385.96
397.429	389.13
397.808	387.09
398.186	377.83
398.565	398.39
398.944	399.75
399.323	391.84
399.701	401.78
400.08	392.97
400.458	399.75
400.837	398.62
401.215	407.43
401.594	402.46
401.972	416.7
402.351	421.22
402.729	382.35
403.107	408.11
403.486	426.87
403.864	437.71
404.242	430.93
404.62	429.13
404.999	408.11
405.377	438.17
405.755	450.6
406.133	429.81
406.511	434.55
406.889	413.08
407.267	453.99
407.645	443.59
408.023	445.62
408.401	452.18
408.779	455.12
409.156	477.94
409.534	487.88
409.912	476.58
410.29	484.72
410.667	508
411.045	500.76
411.422	507.77
411.8	512.06
412.178	499.86
412.555	521.55
412.933	510.03
413.31	541.89
413.687	515.45
414.065	526.98
414.442	520.42
414.819	523.59
415.197	537.15
415.574	531.95
415.951	542.12
416.328	564.26
416.705	576.02
417.082	564.94
417.46	575.34
417.837	592.74
418.214	594.32
418.591	598.16
418.967	570.37
419.344	594.32
419.721	589.12
420.098	610.82
420.475	615.34
420.852	623.7
421.228	625.05
421.605	647.88
421.982	627.31
422.358	652.62
422.735	647.2
423.111	651.49
423.488	685.62
423.864	644.49
424.241	665.96
424.617	692.17
424.994	699.63
425.37	708.67
425.746	701.89
426.123	740.08
426.499	724.26
426.875	723.58
427.251	744.83
427.627	751.83
428.003	774.88
428.379	753.86
428.756	760.19
429.132	777.82
429.507	802.22
429.883	792.06
430.259	834.54
430.635	821.89
431.011	828.44
431.387	842.45
431.763	849.46
432.138	859.4
432.514	838.16
432.89	856.91
433.265	868.89
433.641	895.78
434.016	902.56
434.392	931.94
434.767	926.97
435.143	933.52
435.518	959.06
435.894	955.21
436.269	990.69
436.644	994.54
437.02	1007.42
437.395	981.65
437.77	1014.87
438.145	1007.42
438.52	1035.44
438.895	1034.99
439.271	1047.64
439.646	1077.92
440.021	1082.22
440.395	1084.25
440.77	1088.77
441.145	1105.49
441.52	1159.96
441.895	1133.06
442.27	1152.72
442.645	1137.58
443.019	1178.03
443.394	1197.69
443.769	1176.68
444.143	1192.27
444.518	1183.23
444.892	1199.05
445.267	1221.2
445.641	1215.55
446.016	1219.61
446.39	1224.13
446.764	1256.22
447.139	1264.59
447.513	1259.84
447.887	1277.92
448.262	1308.88
448.636	1314.53
449.01	1324.92
449.384	1330.12
449.758	1324.7
450.132	1343
450.506	1354.07
450.88	1355.88
451.254	1362.66
451.628	1388.88
452.002	1418.25
452.376	1405.15
452.75	1417.12
453.123	1437.24
453.497	1444.69
453.871	1485.6
454.244	1513.17
454.618	1482.43
454.992	1559.94
455.365	1532.6
455.739	1562.66
456.112	1624.58
456.486	1604.24
456.859	1603.33
457.232	1656.67
457.606	1671.58
457.979	1668.19
458.352	1700.51
458.725	1726.72
459.099	1733.05
459.472	1771.69
459.845	1793.61
460.218	1818.02
460.591	1836.55
460.964	1829.54
461.337	1912.93
461.71	1916.32
462.083	1957.45
462.456	1953.61
462.829	1988.18
463.201	1997.67
463.574	2044
463.947	2027.96
464.32	2083.77
464.692	2084.45
465.065	2146.6
465.438	2194.96
465.81	2219.81
466.183	2250.77
466.555	2268.17
466.928	2310.21
467.3	2326.7
467.672	2380.04
468.045	2439.92
468.417	2464.33
468.789	2464.55
469.161	2528.73
469.534	2580.03
469.906	2634.49
470.278	2646.92
470.65	2688.05
471.022	2735.96
471.394	2834.49
471.766	2842.17
472.138	2893.7
472.51	2966.69
472.882	3002.84
473.253	3032.67
473.625	3125.55
473.997	3193.57
474.369	3254.14
474.74	3299.56
475.112	3356.51
475.484	3435.15
475.855	3565.99
476.227	3558.99
476.598	3681.25
476.97	3748.81
477.341	3813.22
477.713	3902.93
478.084	3949.03
478.455	4109.71
478.827	4135.24
479.198	4332.53
479.569	4306.09
479.94	4473.77
480.311	4554.67
480.682	4674.21
481.053	4786.3
481.424	4908.33
481.795	4991.95
482.166	5129.57
482.537	5226.29
482.908	5352.84
483.279	5440.29
483.65	5537.02
484.021	5720.97
484.391	5871.7
484.762	5914.41
485.133	6003.9
485.503	6164.34
485.874	6253.38
486.244	6396.43
486.615	6523.43
486.985	6682.07
487.356	6844.55
487.726	6945.34
488.097	7092.45
488.467	7200.25
488.837	7400.47
489.207	7562.27
489.578	7694.7
489.948	7776.28
490.318	7913.45
490.688	8034.12
491.058	8172.88
491.428	8299.43
491.798	8384.85
492.168	8546.65
492.538	8628.46
492.908	8832.52
493.278	8964.04
493.648	9026.19
494.017	9165.62
494.387	9298.27
494.757	9461.88
495.126	9537.81
495.496	9612.39
495.866	9712.72
496.235	9839.5
496.605	9975.54
496.974	9990.46
497.344	10096.44
497.713	10267.96
498.082	10314.74
498.452	10492.59
498.821	10472.7
499.19	10579.59
499.559	10723.55
499.928	10813.03
500.298	10868.17
500.667	10940.04
501.036	10939.36
501.405	11112.91
501.774	11208.96
502.143	11278.56
502.512	11344.77
502.88	11429.52
503.249	11472.68
503.618	11537.99
503.987	11549.74
504.356	11610.98
504.724	11723.52
505.093	11799
505.462	11790.86
505.83	11835.38
506.199	11999.67
506.567	12144.3
506.936	12088.48
507.304	12262.49
507.672	12277.86
508.041	12336.16
508.409	12385.2
508.777	12420.68
509.145	12495.93
509.514	12430.39
509.882	12611.86
510.25	12587.68
510.618	12671.97
510.986	12630.39
511.354	12807.33
511.722	12833.09
512.09	12919.65
512.458	12874.45
512.826	12971.85
513.193	13022.47
513.561	13055.24
513.929	13064.05
514.297	13240.09
514.664	13151.05
515.032	13218.85
515.4	13346.08
515.767	13276.47
516.135	13353.53
516.502	13166.19
516.869	13448.9
517.237	13431.95
517.604	13391.05
517.972	13464.26
518.339	13636.92
518.706	13470.37
519.073	13489.57
519.44	13577.26
519.808	13663.36
520.175	13589.91
520.542	13746.07
520.909	13725.05
521.276	13753.75
521.643	13732.73
522.009	13860.19
522.376	13890.69
522.743	13885.04
523.11	13987.41
523.477	13987.87
523.843	14076.45
524.21	14080.29
524.577	14096.56
524.943	14082.78
525.31	14243.68
525.676	14282.1
526.043	14265.6
526.409	14262.66
526.776	14345.37
527.142	14328.87
527.508	14290.01
527.874	14347.86
528.241	14379.49
528.607	14275.32
528.973	14401.42
529.339	14365.26
529.705	14365.26
530.071	14492.03
530.437	14424.69
530.803	14403.45
531.169	14465.14
531.535	14420.17
531.901	14376.11
532.267	14379.27
532.632	14502.66
532.998	14403
533.364	14441.64
533.73	14358.93
534.095	14396.44
534.461	14410.68
534.826	14342.43
535.192	14278.71
535.557	14341.3
535.923	14249.55
536.288	14243
536.653	14301.08
537.019	14214.3
537.384	14142.89
537.749	14105.15
538.114	14087.75
538.479	13958.04
538.845	14121.65
539.21	14022.22
539.575	13958.71
539.94	13949
540.305	14008.43
540.67	13875.78
541.034	13897.93
541.399	13867.42
541.764	13786.97
542.129	13823.8
542.494	13722.56
542.858	13702.22
543.223	13713.98
543.587	13671.04
543.952	13522.34
544.316	13527.99
544.681	13513.98
545.045	13565.05
545.41	13489.35
545.774	13464.49
546.138	13364.38
546.503	13350.37
546.867	13205.97
547.231	13367.09
547.595	13250.71
547.959	13300.2
548.324	13173.88
548.688	13188.79
549.052	13197.6
549.416	13044.39
549.779	13091.17
550.143	13072.86
550.507	13063.15
550.871	13020.21
551.235	12946.31
551.599	13010.49
551.962	12877.16
552.326	12907.22
552.689	12892.75
553.053	12739.54
553.417	12762.59
553.78	12888.69
554.143	12795.36
554.507	12717.39
554.87	12696.38
555.234	12742.48
555.597	12649.14
555.96	12638.3
556.323	12710.16
556.686	12688.24
557.05	12601.91
557.413	12620.22
557.776	12574.8
558.139	12629.48
558.502	12593.55
558.865	12502.03
559.228	12554.91
559.59	12593.55
559.953	12464.29
560.316	12622.03
560.679	12584.51
561.041	12568.69
561.404	12592.88
561.767	12600.11
562.129	12536.61
562.492	12578.41
562.854	12510.84
563.217	12458.64
563.579	12498.87
563.941	12543.38
564.304	12530.28
564.666	12549.71
565.028	12461.58
565.39	12538.64
565.753	12616.38
566.115	12567.57
566.477	12632.65
566.839	12666.09
567.201	12716.26
567.563	12602.82
567.925	12741.35
568.287	12714.68
568.648	12638.98
569.01	12694.12
569.372	12738.63
569.734	12662.25
570.095	12727.56
570.457	12790.84
570.819	12782.47
571.18	12721.46
571.542	12773.21
571.903	12731.63
572.265	12848.01
572.626	12785.64
572.987	12747.45
573.349	12784.73
573.71	12872.87
574.071	12741.8
574.432	12837.84
574.794	12910.61
575.155	12789.93
575.516	12731.18
575.877	12888.69
576.238	12884.17
576.599	12855.47
576.96	12840.33
577.32	12865.86
577.681	12922.13
578.042	12937.27
578.403	12896.37
578.763	12898.86
579.124	12919.87
579.485	13028.57
579.845	12997.16
580.206	12808.46
580.566	12873.77
580.927	12972.53
581.287	12947.22
581.648	12837.39
582.008	12976.82
582.368	12867.44
582.728	12899.99
583.089	12825.41
583.449	12792.19
583.809	12761.68
584.169	12862.92
584.529	12756.94
584.889	12965.75
585.249	12851.17
585.609	12728.24
585.969	12795.58
586.329	12751.29
586.688	12812.76
587.048	12669.94
587.408	12650.5
587.768	12707.45
588.127	12713.78
588.487	12583.61
588.846	12716.94
589.206	12629.94
589.565	12658.18
589.925	12699.76
590.284	12693.44
590.643	12659.99
591.003	12741.57
591.362	12688.01
591.721	12638.98
592.08	12646.21
592.44	12639.88
592.799	12637.39
593.158	12627.68
593.517	12629.71
593.876	12589.03
594.235	12634
594.593	12579.32
594.952	12563.5
595.311	12566.66
595.67	12530.96
596.029	12633.1
596.387	12655.25
596.746	12661.12
597.104	12531.18
597.463	12611.41
597.822	12570.73
598.18	12565.98
598.538	12482.14
598.897	12546.1
599.255	12563.5
599.613	12637.39
599.972	12511.97
600.33	12546.55
600.688	12486.89
601.046	12575.7
601.404	12596.72
601.762	12551.75
602.12	12530.96
602.478	12566.44
602.836	12511.3
603.194	12474.46
603.552	12625.87
603.91	12449.6
604.268	12536.38
604.625	12535.48
604.983	12504.52
605.341	12499.77
605.698	12502.48
606.056	12588.36
606.413	12470.84
606.771	12505.42
607.128	12567.79
607.485	12496.38
607.843	12542.93
608.2	12610.28
608.557	12627.22
608.914	12579.32
609.272	12659.31
609.629	12651.4
609.986	12630.39
610.343	12613.67
610.7	12659.09
611.057	12578.86
611.414	12628.81
611.771	12617.51
612.127	12655.25
612.484	12677.39
612.841	12751.74
613.198	12692.31
613.554	12719.88
613.911	12776.15
614.267	12700.44
614.624	12768.92
614.98	12763.04
615.337	12826.32
615.693	12779.08
616.05	12728.46
616.406	12812.3
616.762	12835.35
617.118	12779.31
617.475	12765.3
617.831	12839.2
618.187	12844.62
618.543	12767.79
618.899	12883.49
619.255	12782.93
619.611	12795.81
619.967	12886.65
620.323	12933.43
620.678	12798.97
621.034	12810.72
621.39	12802.14
621.746	12828.35
622.101	12963.94
622.457	12977.72
622.812	12894.34
623.168	12912.64
623.523	12866.99
623.879	12987.22
624.234	12873.09
624.589	12916.26
624.945	12930.27
625.3	12890.27
625.655	12860.21
626.01	12854.34
626.365	12859.31
626.72	12890.27
627.075	12861.57
627.43	12898.86
627.785	12802.59
628.14	12867.67
628.495	12889.36
628.85	12907.44
629.205	12833.09
629.559	12867.67
629.914	12840.1
630.269	12859.76
630.623	12790.84
630.978	12768.92
631.332	12768.69
631.687	12857.95
632.041	12799.2
632.396	12776.83
632.75	12685.08
633.104	12696.38
633.459	12609.6
633.813	12634.91
634.167	12642.82
634.521	12636.49
634.875	12745.19
635.229	12627.45
635.583	12489.83
635.937	12554.23
636.291	12486.66
636.645	12610.05
636.999	12494.12
637.352	12516.49
637.706	12461.81
638.06	12535.02
638.413	12509.26
638.767	12504.97
639.121	12500
639.474	12391.07
639.828	12427
640.181	12401.24
640.534	12400.11
640.888	12358.98
641.241	12369.15
641.594	12372.77
641.947	12412.77
642.301	12340.45
642.654	12318.08
643.007	12330.74
643.36	12327.8
643.713	12301.58
644.066	12409.6
644.419	12350.62
644.771	12189.72
645.124	12112.44
645.477	12072.66
645.83	12003.74
646.182	11900.01
646.535	11906.57
646.888	11930.07
647.24	11880.8
647.593	11919.22
647.945	11914.25
648.298	11770.3
648.65	11812.56
649.002	11764.42
649.355	11783.63
649.707	11890.97
650.059	11870.41
650.411	12106.11
650.763	12081.93
651.115	12119.67
651.467	12153.79
651.819	12217.07
652.171	12121.7
652.523	12152.43
652.875	12111.76
653.227	12050.06
653.578	12226.56
653.93	12076.28
654.282	12104.07
654.633	12097.07
654.985	12207.57
655.337	12143.62
655.688	12157.18
656.039	12215.71
656.391	12107.01
656.742	12158.76
657.094	12184.98
657.445	12175.94
657.796	12144.75
658.147	12088.26
658.498	12203.96
658.849	12226.56
659.2	12204.41
659.551	12197.41
659.902	12223.39
660.253	12110.18
660.604	12145.43
660.955	12111.31
661.306	12218.2
661.656	12213
662.007	12149.72
662.358	12241.47
662.708	12173.23
663.059	12218.87
663.409	12224.07
663.76	12278.31
664.11	12207.35
664.461	12270.85
664.811	12243.96
665.161	12198.54
665.511	12215.94
665.862	12210.96
666.212	12246.22
666.562	12276.95
666.912	12239.89
667.262	12191.3
667.612	12199.21
667.962	12212.55
668.312	12245.77
668.662	12311.3
669.011	12198.76
669.361	12268.14
669.711	12235.37
670.06	12208.03
670.41	12143.62
670.76	12196.95
671.109	12184.98
671.459	12128.48
671.808	12196.73
672.157	12184.07
672.507	12129.16
672.856	11979.33
673.205	12132.1
673.554	12151.76
673.904	12083.28
674.253	12230.4
674.602	12215.48
674.951	12013.68
675.3	11947.92
675.649	12109.5
675.998	12011.42
676.346	12005.32
676.695	12101.81
677.044	11997.86
677.393	12059.1
677.741	12010.52
678.09	12016.39
678.438	11951.99
678.787	12013.91
679.135	11909.73
679.484	11875.83
679.832	11944.3
680.181	11846.91
680.529	11902.27
680.877	11851.65
681.225	11765.33
681.573	11921.71
681.922	11814.36
682.27	11740.47
682.618	11738.66
682.966	11694.82
683.314	11690.53
683.661	11651.88
684.009	11601.26
684.357	11660.02
684.705	11552
685.053	11619.79
685.4	11550.64
685.748	11503.19
686.095	11518.1
686.443	11428.84
686.79	11497.76
687.138	11431.1
687.485	11433.13
687.832	11397.43
688.18	11427.48
688.527	11302.51
688.874	11351.55
689.221	11260.93
689.568	11180.71
689.915	11222.97
690.262	11175.06
690.609	11143.2
690.956	11099.36
691.303	11103.2
691.65	11080.15
691.997	11035.63
692.344	10912.02
692.69	10928.29
693.037	10943.2
693.383	10824.33
693.73	10833.83
694.077	10782.08
694.423	10780.04
694.769	10660.95
695.116	10700.72
695.462	10654.85
695.808	10636.32
696.155	10638.12
696.501	10574.62
696.847	10490.56
697.193	10436.77
697.539	10477
697.885	10394.97
698.231	10348.87
698.577	10354.52
698.923	10299.15
699.269	10290.34
699.614	10206.5
699.96	10182.09
700.306	10141.87
700.651	10146.16
700.997	10067.74
701.342	10075.43
701.688	10033.17
702.033	10004.47
702.379	9975.32
702.724	9916.34
703.069	9915.43
703.415	9791.37
703.76	9835.66
704.105	9808.99
704.45	9739.39
704.795	9738.03
705.14	9716.57
705.485	9601.54
705.83	9584.82
706.175	9594.08
706.52	9535.33
706.865	9495.33
707.209	9535.55
707.554	9433.64
707.899	9460.08
708.243	9495.78
708.588	9397.48
708.932	9353.19
709.277	9359.51
709.621	9293.53
709.966	9297.37
710.31	9258.95
710.654	9150.71
710.998	9226.64
711.342	9170.37
711.687	9173.98
712.031	9087.43
712.375	9082.91
712.719	9118.84
713.063	9144.38
713.407	9125.4
713.75	9025.96
714.094	9007.66
714.438	9006.08
714.782	9001.33
715.125	8960.43
715.469	8963.59
715.812	8920.66
716.156	8910.71
716.499	8893.76
716.843	8894.22
717.186	8772.86
717.53	8910.03
717.873	8943.48
718.216	8871.39
718.559	8797.49
718.902	8842.47
719.246	8823.71
719.589	8756.14
719.932	8728.8
720.275	8677.05
720.617	8729.02
720.96	8719.08
721.303	8645.18
721.646	8700.32
721.989	8647.22
722.331	8682.7
722.674	8710.27
723.016	8700.1
723.359	8669.14
723.701	8618.74
724.044	8591.85
724.386	8560.21
724.729	8630.49
725.071	8636.82
725.413	8540.1
725.755	8601.57
726.097	8560.44
726.439	8482.02
726.782	8561.57
727.124	8568.35
727.465	8544.39
727.807	8530.38
728.149	8470.05
728.491	8478.86
728.833	8477.96
729.175	8457.62
729.516	8512.53
729.858	8472.31
730.199	8508.91
730.541	8451.97
730.882	8442.48
731.224	8537.61
731.565	8456.71
731.906	8503.04
732.248	8490.84
732.589	8444.06
732.93	8457.16
733.271	8437.96
733.612	8461.91
733.953	8504.17
734.294	8476.6
734.635	8456.71
734.976	8511.63
735.317	8508.01
735.658	8416.94
735.999	8494.9
736.339	8550.95
736.68	8425.08
737.021	8482.93
737.361	8445.87
737.702	8581.46
738.042	8489.48
738.383	8477.73
738.723	8563.83
739.063	8505.07
739.404	8538.29
739.744	8619.87
740.084	8561.79
740.424	8614.9
740.764	8583.04
741.104	8574.22
741.444	8589.82
741.784	8574.22
742.124	8642.02
742.464	8672.3
742.804	8678.18
743.143	8658.97
743.483	8668.46
743.823	8610.61
744.162	8737.61
744.502	8769.02
744.841	8757.72
745.181	8805.4
745.52	8840.43
745.86	8910.94
746.199	8884.5
746.538	8980.99
746.877	9023.7
747.216	9015.57
747.556	9059.18
747.895	9142.34
748.234	9170.82
748.573	9218.27
748.911	9253.08
749.25	9373.3
749.589	9320.64
749.928	9487.65
750.267	9615.78
750.605	9592.05
750.944	9685.15
751.283	9805.38
751.621	9835.89
751.96	9873.17
752.298	9965.83
752.636	10075.88
752.975	10151.36
753.313	10283.33
753.651	10447.85
753.989	10506.15
754.327	10614.85
754.666	10712.7
755.004	10848.74
755.342	11019.81
755.679	11122.86
756.017	11223.87
756.355	11365.34
756.693	11491.44
757.031	11644.43
757.368	11706.12
757.706	11905.21
758.044	12062.49
758.381	12217.29
