Data from hue_230_FLMS001491_00036.txt Node
Date: Tue Feb 07 16:37:08 GMT 2017
User: dcchb
Spectrometer: FLMS00149
Trigger mode: 0
Integration Time (sec): 2.000000E-2
Scans to average: 10
Electric dark correction enabled: true
Nonlinearity correction enabled: false
Boxcar width: 0
XAxis mode: Wavelengths
Number of Pixels in Spectrum: 2048
>>>>>Begin Spectral Data<<<<<
341.393	-19.66
341.776	-19.66
342.16	-19.66
342.543	-59.21
342.927	-68.7
343.31	-58.3
343.693	-75.93
344.077	-77.74
344.46	-63.5
344.843	-52.88
345.226	-34.12
345.61	-25.54
345.993	-17.17
346.376	5.65
346.759	10.85
347.142	22.37
347.525	40.45
347.908	54.69
348.291	60.79
348.674	85.65
349.057	124.74
349.44	123.39
349.823	130.62
350.206	159.77
350.588	197.06
350.971	203.61
351.354	229.82
351.737	229.37
352.119	231.41
352.502	243.61
352.884	273.67
353.267	287.45
353.65	293.1
354.032	292.42
354.414	295.59
354.797	291.07
355.179	316.6
355.562	322.03
355.944	314.57
356.326	343.95
356.709	327.68
357.091	341.69
357.473	336.26
357.855	343.27
358.238	336.49
358.62	341.91
359.002	349.82
359.384	329.26
359.766	334.91
360.148	342.36
360.53	331.97
360.912	339.65
361.294	343.95
361.676	341.69
362.057	332.42
362.439	313.89
362.821	327.68
363.203	318.86
363.584	327.9
363.966	333.78
364.348	340.78
364.729	306.66
365.111	324.29
365.493	325.42
365.874	312.76
366.256	315.25
366.637	322.03
367.019	311.63
367.4	311.63
367.781	311.4
368.163	313.44
368.544	324.74
368.925	323.61
369.306	306.66
369.688	321.57
370.069	314.34
370.45	311.86
370.831	278.64
371.212	322.7
371.593	323.16
371.974	308.24
372.355	327
372.736	333.32
373.117	314.12
373.498	310.05
373.879	327.68
374.26	303.04
374.641	316.83
375.021	318.41
375.402	315.25
375.783	303.27
376.163	318.86
376.544	329.48
376.925	310.95
377.305	309.14
377.686	303.72
378.066	323.61
378.447	307.11
378.827	332.87
379.208	333.1
379.588	330.61
379.968	328.58
380.349	333.78
380.729	340.56
381.109	339.2
381.489	327.22
381.87	341.46
382.25	346.88
382.63	336.49
383.01	340.78
383.39	337.39
383.77	320.44
384.15	354.34
384.53	342.59
384.91	327.9
385.29	326.32
385.67	337.39
386.049	351.18
386.429	334
386.809	351.4
387.189	361.8
387.568	353.89
387.948	350.27
388.328	349.14
388.707	352.76
389.087	354.79
389.466	370.84
389.846	372.19
390.225	359.76
390.605	355.7
390.984	359.54
391.363	374.91
391.743	378.3
392.122	359.09
392.501	351.18
392.881	352.76
393.26	351.86
393.639	378.3
394.018	383.49
394.397	373.1
394.776	406.32
395.155	365.19
395.534	384.4
395.913	378.3
396.292	375.81
396.671	380.55
397.05	388.46
397.429	391.85
397.808	409.03
398.186	390.95
398.565	386.88
398.944	391.18
399.323	425.3
399.701	399.31
400.08	397.28
400.458	376.49
400.837	410.16
401.215	429.59
401.594	400.89
401.972	414.45
402.351	404.06
402.729	425.3
403.107	411.29
403.486	411.97
403.864	437.95
404.242	442.47
404.62	452.19
404.999	461.68
405.377	435.92
405.755	459.42
406.133	438.41
406.511	446.32
406.889	467.33
407.267	463.04
407.645	463.26
408.023	479.76
408.401	463.94
408.779	486.77
409.156	505.3
409.534	490.16
409.912	495.35
410.29	494.22
410.667	500.1
411.045	505.3
411.422	530.16
411.8	519.53
412.178	522.47
412.555	530.16
412.933	523.83
413.31	589.59
413.687	553.43
414.065	571.28
414.442	560.66
414.819	597.5
415.197	583.71
415.574	597.27
415.951	601.79
416.328	585.52
416.705	602.47
417.082	616.93
417.46	620.32
417.837	631.85
418.214	627.33
418.591	642.92
418.967	646.31
419.344	621.45
419.721	668.23
420.098	646.76
420.475	676.59
420.852	667.55
421.228	670.49
421.605	716.14
421.982	713.43
422.358	738.06
422.735	746.2
423.111	734.22
423.488	767.66
423.864	785.97
424.241	788
424.617	755.69
424.994	792.52
425.37	806.08
425.746	818.06
426.123	826.19
426.499	817.61
426.875	841.11
427.251	854.67
427.627	849.7
428.003	871.84
428.379	870.03
428.756	905.29
429.132	900.09
429.507	899.64
429.883	937.6
430.259	935.34
430.635	929.92
431.011	960.65
431.387	961.78
431.763	967.88
432.138	981.22
432.514	992.06
432.89	984.15
433.265	1032.06
433.641	1052.18
434.016	1038.16
434.392	1058.73
434.767	1089.46
435.143	1084.27
435.518	1114.1
435.894	1122.68
436.269	1145.73
436.644	1180.53
437.02	1203.13
437.395	1185.28
437.77	1233.19
438.145	1257.59
438.52	1278.61
438.895	1258.72
439.271	1300.3
439.646	1322.23
440.021	1300.3
440.395	1320.42
440.77	1333.3
441.145	1354.99
441.52	1385.95
441.895	1386.18
442.27	1422.11
442.645	1380.75
443.019	1435.22
443.394	1449.91
443.769	1444.71
444.143	1453.75
444.518	1481.99
444.892	1475.67
445.267	1509.11
445.641	1491.26
446.016	1492.16
446.39	1512.5
446.764	1526.97
447.139	1538.72
447.513	1534.65
447.887	1550.92
448.262	1547.08
448.636	1560.86
449.01	1604.7
449.384	1617.58
449.758	1604.03
450.132	1577.81
450.506	1631.82
450.88	1663.01
451.254	1625.04
451.628	1674.76
452.002	1673.85
452.376	1693.97
452.75	1697.58
453.123	1739.39
453.497	1743.01
453.871	1755.21
454.244	1778.26
454.618	1834.3
454.992	1821.87
455.365	1830.91
455.739	1846.28
456.112	1863.91
456.486	1901.64
456.859	1881.08
457.232	1928.99
457.606	1939.84
457.979	1950.01
458.352	1992.94
458.725	2003.34
459.099	2015.54
459.472	2067.06
459.845	2083.11
460.218	2100.28
460.591	2129.89
460.964	2094.18
461.337	2182.99
461.71	2175.54
462.083	2196.33
462.456	2239.94
462.829	2237.23
463.201	2272.71
463.574	2281.75
463.947	2288.53
464.32	2326.27
464.692	2378.47
465.065	2377.79
465.438	2422.99
465.81	2436.32
466.183	2467.51
466.555	2510.89
466.928	2513.61
467.3	2531.91
467.672	2557.67
468.045	2665.47
468.417	2627.5
468.789	2622.76
469.161	2677.67
469.534	2740.72
469.906	2745.69
470.278	2750.21
470.65	2805.35
471.022	2854.84
471.394	2889.87
471.766	2906.36
472.138	2919.47
472.51	2975.51
472.882	3027.27
473.253	3045.57
473.625	3124.89
473.997	3169.18
474.369	3180.26
474.74	3207.83
475.112	3260.03
475.484	3284.21
475.855	3343.41
476.227	3378.89
476.598	3465.45
476.97	3447.59
477.341	3549.74
477.713	3579.34
478.084	3615.27
478.455	3644.88
478.827	3704.76
479.198	3809.84
479.569	3853.91
479.94	3879.45
480.311	3932.55
480.682	4017.3
481.053	4062.04
481.424	4115.15
481.795	4128.03
482.166	4166.67
482.537	4243.05
482.908	4284.41
483.279	4323.5
483.65	4436.49
484.021	4497.06
484.391	4567.56
484.762	4593.33
485.133	4643.27
485.503	4704.96
485.874	4777.73
486.244	4804.39
486.615	4869.25
486.985	4896.82
487.356	5003.03
487.726	5010.26
488.097	5101.11
488.467	5125.06
488.837	5197.83
489.207	5234.21
489.578	5328.22
489.948	5346.75
490.318	5436.02
490.688	5426.3
491.058	5545.16
491.428	5589.01
491.798	5605.73
492.168	5711.26
492.538	5675.33
492.908	5781.54
493.278	5836
493.648	5875.1
494.017	5924.82
494.387	5877.13
494.757	5985.15
495.126	5983.35
495.496	6043
495.866	6085.72
496.235	6107.41
496.605	6168.88
496.974	6222.66
497.344	6272.6
497.713	6266.28
498.082	6294.75
498.452	6353.51
498.821	6347.4
499.19	6388.08
499.559	6491.81
499.928	6421.98
500.298	6514.86
500.667	6550.79
501.036	6493.39
501.405	6624.91
501.774	6607.28
502.143	6597.34
502.512	6663.78
502.88	6711.01
503.249	6696.1
503.618	6745.59
503.987	6808.63
504.356	6775.19
504.724	6800.95
505.093	6815.19
505.462	6826.71
505.83	6833.94
506.199	6913.94
506.567	6925.47
506.936	6927.95
507.304	7040.04
507.672	7066.03
508.041	7031.23
508.409	7069.87
508.777	7122.75
509.145	7099.47
509.514	7119.59
509.882	7210.21
510.25	7172.24
510.618	7191.68
510.986	7213.14
511.354	7231.67
511.722	7290.2
512.09	7331.33
512.458	7311.9
512.826	7348.73
513.193	7353.25
513.561	7334.95
513.929	7368.39
514.297	7432.35
514.664	7461.27
515.032	7496.3
515.4	7479.13
515.767	7503.53
516.135	7524.1
516.502	7447.04
516.869	7550.31
517.237	7595.73
517.604	7481.39
517.972	7613.59
518.339	7628.73
518.706	7603.19
519.073	7608.16
519.44	7567.94
519.808	7635.96
520.175	7618.1
520.542	7754.15
520.909	7709.4
521.276	7703.53
521.643	7777.87
522.009	7838.21
522.376	7801.38
522.743	7819.23
523.11	7862.39
523.477	7858.55
523.843	7909.62
524.21	7912.79
524.577	8021.48
524.943	7922.28
525.31	7957.53
525.676	8004.76
526.043	8020.58
526.409	8049.51
526.776	8119.33
527.142	8063.06
527.508	8039.34
527.874	8058.77
528.241	8143.97
528.607	8106.45
528.973	8158.66
529.339	8083.4
529.705	8209.28
530.071	8175.15
530.437	8184.42
530.803	8239.56
531.169	8216.06
531.535	8185.32
531.901	8200.01
532.267	8132.89
532.632	8160.46
532.998	8169.73
533.364	8231.65
533.73	8204.98
534.095	8315.94
534.461	8265.77
534.826	8221.03
535.192	8249.73
535.557	8319.1
535.923	8226.22
536.288	8280.01
536.653	8250.86
537.019	8224.42
537.384	8251.08
537.749	8176.73
538.114	8197.52
538.479	8211.08
538.845	8188.71
539.21	8139.67
539.575	8182.84
539.94	8120.69
540.305	8167.92
540.67	8104.65
541.034	8092.89
541.399	8133.8
541.764	8125.21
542.129	8161.37
542.494	8069.17
542.858	8145.1
543.223	8131.54
543.587	8155.72
543.952	8078.66
544.316	8095.15
544.681	8069.84
545.045	8031.88
545.41	8009.73
545.774	8038.21
546.138	8041.6
546.503	7995.95
546.867	7963.41
547.231	8012.44
547.595	7971.99
547.959	7994.14
548.324	7933.58
548.688	7965.89
549.052	7967.47
549.416	7923.63
549.779	7923.18
550.143	7839.12
550.507	7895.84
550.871	7942.39
551.235	7884.99
551.599	7911.43
551.962	7870.08
552.326	7943.07
552.689	7866.01
553.053	7876.63
553.417	7845.22
553.78	7901.26
554.143	7844.09
554.507	7888.83
554.87	7844.09
555.234	7891.54
555.597	7809.51
555.96	7906.68
556.323	7854.93
556.686	7818.78
557.05	7854.26
557.413	7842.96
557.776	7882.5
558.139	7866.01
558.502	7862.62
558.865	7872.56
559.228	7882.05
559.59	7860.81
559.953	7873.24
560.316	7967.93
560.679	7946.23
561.041	7956.17
561.404	7975.61
561.767	7933.8
562.129	7918.44
562.492	7993.69
562.854	7942.62
563.217	7953.69
563.579	7975.61
563.941	7924.99
564.304	7954.14
564.666	8068.71
565.028	8052.67
565.39	8013.57
565.753	8045.89
566.115	8098.32
566.477	8122.95
566.839	8109.62
567.201	8178.99
567.563	8141.25
567.925	8209.28
568.287	8101.03
568.648	8194.59
569.01	8202.5
569.372	8278.65
569.734	8234.59
570.095	8269.39
570.457	8288.6
570.819	8277.07
571.18	8294.02
571.542	8274.13
571.903	8312.1
572.265	8290.4
572.626	8377.18
572.987	8372.44
573.349	8403.17
573.71	8404.07
574.071	8428.7
574.432	8487.46
574.794	8431.42
575.155	8440.68
575.516	8514.35
575.877	8517.97
576.238	8434.35
576.599	8576.5
576.96	8575.59
577.32	8612.65
577.681	8604.29
578.042	8592.32
578.403	8539.44
578.763	8695.36
579.124	8641.81
579.485	8691.3
579.845	8639.09
580.206	8728.36
580.566	8754.12
580.927	8808.58
581.287	8738.98
581.648	8734.01
582.008	8793.22
582.368	8763.84
582.728	8836.6
583.089	8787.79
583.449	8816.72
583.809	8829.82
584.169	8920.44
584.529	8813.55
584.889	8889.94
585.249	8884.96
585.609	8894.46
585.969	8919.54
586.329	8878.86
586.688	8951.4
587.048	8958.18
587.408	8962.02
587.768	8967.22
588.127	8996.15
588.487	8915.47
588.846	9027.56
589.206	8953.66
589.565	9025.98
589.925	9075.02
590.284	9054.23
590.643	9076.82
591.003	9063.26
591.362	9134.22
591.721	9065.52
592.08	9088.8
592.44	9118.86
592.799	9089.03
593.158	9087.9
593.517	9164.96
593.876	9193.66
594.235	9129.93
594.593	9188.01
594.952	9166.54
595.311	9056.94
595.67	9082.25
596.029	9190.72
596.387	9208.8
596.746	9255.58
597.104	9194.79
597.463	9210.83
597.822	9217.38
598.18	9290.38
598.538	9206.31
598.897	9289.7
599.255	9221.9
599.613	9404.05
599.972	9287.21
600.33	9327.66
600.688	9295.12
601.046	9331.73
601.404	9369.25
601.762	9312.07
602.12	9288.8
602.478	9333.54
602.836	9357.49
603.194	9297.16
603.552	9325.4
603.91	9350.49
604.268	9360.21
604.625	9391.62
604.983	9361.11
605.341	9286.76
605.698	9331.96
606.056	9420.09
606.413	9404.05
606.771	9454.21
607.128	9451.28
607.485	9368.12
607.843	9430.03
608.2	9450.6
608.557	9475.01
608.914	9417.83
609.272	9446.08
609.629	9488.79
609.986	9527.43
610.343	9466.87
610.7	9503.7
611.057	9497.83
611.414	9540.09
611.771	9502.8
612.127	9566.53
612.484	9523.59
612.841	9595.91
613.198	9576.02
613.554	9507.09
613.911	9613.98
614.267	9601.78
614.624	9579.64
614.98	9620.99
615.337	9606.3
615.693	9600.43
616.05	9670.03
616.406	9649.24
616.762	9627.32
617.118	9590.71
617.475	9612.63
617.831	9586.41
618.187	9709.12
618.543	9627.32
618.899	9766.3
619.255	9583.93
619.611	9677.49
619.967	9758.39
620.323	9697.6
620.678	9694.66
621.034	9780.53
621.39	9637.49
621.746	9692.4
622.101	9821.21
622.457	9732.4
622.812	9707.99
623.168	9729.91
623.523	9787.31
623.879	9709.8
624.234	9667.09
624.589	9771.72
624.945	9759.52
625.3	9740.31
625.655	9724.26
626.01	9756.13
626.365	9746.41
626.72	9744.38
627.075	9705.06
627.43	9677.49
627.785	9682.23
628.14	9707.09
628.495	9711.84
628.85	9634.1
629.205	9576.25
629.559	9729.01
629.914	9608.33
630.269	9695.56
630.623	9702.57
630.978	9656.24
631.332	9646.98
631.687	9650.37
632.041	9594.78
632.396	9580.54
632.75	9560.43
633.104	9588.45
633.459	9535.12
633.813	9569.24
634.167	9628.45
634.521	9502.8
634.875	9548.22
635.229	9511.39
635.583	9511.84
635.937	9540.77
636.291	9484.95
636.645	9501.9
636.999	9391.17
637.352	9497.6
637.706	9480.43
638.06	9479.52
638.413	9413.76
638.767	9417.15
639.121	9467.1
639.474	9360.88
639.828	9402.24
640.181	9448.34
640.534	9389.13
640.888	9340.32
641.241	9276.37
641.594	9326.08
641.947	9394.78
642.301	9323.37
642.654	9350.49
643.007	9297.83
643.36	9276.59
643.713	9322.92
644.066	9340.55
644.419	9263.49
644.771	9252.64
645.124	9121.12
645.477	9158.86
645.83	9075.24
646.182	8991.18
646.535	8928.58
646.888	9029.59
647.24	8967.9
647.593	9014.45
647.945	8941.91
648.298	8963.61
648.65	8971.52
649.002	8922.03
649.355	8951.86
649.707	8912.99
650.059	9040.67
650.411	9143.26
650.763	9118.18
651.115	9209.48
651.467	9131.06
651.819	9069.37
652.171	9217.38
652.523	9079.76
652.875	9099.65
653.227	9032.3
653.578	9152.53
653.93	9181
654.282	9124.05
654.633	9050.61
654.985	9157.95
655.337	9119.76
655.688	9118.86
656.039	9171.06
656.391	9089.03
656.742	9103.94
657.094	9145.07
657.445	9134
657.796	9134.9
658.147	9116.82
658.498	9058.74
658.849	9109.59
659.2	9092.64
659.551	9138.74
659.902	9101.46
660.253	9133.55
660.604	9130.16
660.955	9124.05
661.306	9128.35
661.656	9118.86
662.007	9169.02
662.358	9138.06
662.708	9212.87
663.059	9157.5
663.409	9103.04
663.76	9156.37
664.11	9181.23
664.461	9178.52
664.811	9156.14
665.161	9197.27
665.511	9126.31
665.862	9150.27
666.212	9200.89
666.562	9206.09
666.912	9172.87
667.262	9194.33
667.612	9128.8
667.962	9185.52
668.312	9151.4
668.662	9178.52
669.011	9161.57
669.361	9169.93
669.711	9121.79
670.06	9116.37
670.41	9176.26
670.76	9092.42
671.109	9087.44
671.459	9125.64
671.808	9087.9
672.157	9122.92
672.507	9104.17
672.856	9085.64
673.205	9027.79
673.554	9115.69
673.904	9075.47
674.253	9083.38
674.602	9072.3
674.951	8900.78
675.3	8969.26
675.649	9022.59
675.998	9032.98
676.346	8993.21
676.695	9056.94
677.044	8929.93
677.393	9025.53
677.741	8987.79
678.09	8997.28
678.438	8992.31
678.787	8976.49
679.135	8941.23
679.484	8893.78
679.832	8957.28
680.181	8962.7
680.529	8990.05
680.877	8865.53
681.225	8876.38
681.573	8943.27
681.922	8810.16
682.27	8756.38
682.618	8823.95
682.966	8762.03
683.314	8816.49
683.661	8825.3
684.009	8718.87
684.357	8712.99
684.705	8713.44
685.053	8668.47
685.4	8637.51
685.748	8617.17
686.095	8644.97
686.443	8626.21
686.79	8618.98
687.138	8583.28
687.485	8559.1
687.832	8517.97
688.18	8541.24
688.527	8503.73
688.874	8522.26
689.221	8460.12
689.568	8449.72
689.915	8396.39
690.262	8419.21
690.609	8299.22
690.956	8347.35
691.303	8329.72
691.65	8273.45
691.997	8233.46
692.344	8219.67
692.69	8221.48
693.037	8172.44
693.383	8197.3
693.73	8168.37
694.077	8161.59
694.423	8093.8
694.769	8056.51
695.116	8089.96
695.462	8013.12
695.808	7947.36
696.155	7910.53
696.501	7937.19
696.847	7896.52
697.193	7866.23
697.539	7911.88
697.885	7819.68
698.231	7845.22
698.577	7817.87
698.923	7779.68
699.269	7717.31
699.614	7656.3
699.96	7641.16
700.306	7641.83
700.651	7645.45
700.997	7625.34
701.342	7543.53
701.688	7529.29
702.033	7549.63
702.379	7487.03
702.724	7456.3
703.069	7525.9
703.415	7383.53
703.76	7367.49
704.105	7370.2
704.45	7337.43
704.795	7296.08
705.14	7308.28
705.485	7284.33
705.83	7271.45
706.175	7258.57
706.52	7285.46
706.865	7217.44
707.209	7200.94
707.554	7183.77
707.899	7173.14
708.243	7178.12
708.588	7145.57
708.932	7059.48
709.277	7031.68
709.621	7066.25
709.966	7032.13
710.31	7002.98
710.654	6934.73
710.998	6981.51
711.342	6931.12
711.687	6969.53
712.031	6878.92
712.375	6863.55
712.719	6902.42
713.063	6870.55
713.407	6911.23
713.75	6923.66
714.094	6839.82
714.438	6819.03
714.782	6904.45
715.125	6791.69
715.469	6844.11
715.812	6723.67
716.156	6753.49
716.499	6715.53
716.843	6688.64
717.186	6732.7
717.53	6717.34
717.873	6680.28
718.216	6744.23
718.559	6697.23
718.902	6614.97
719.246	6654.74
719.589	6641.18
719.932	6615.65
720.275	6648.64
720.617	6611.58
720.96	6580.39
721.303	6573.84
721.646	6594.18
721.989	6575.65
722.331	6584.91
722.674	6565.93
723.016	6536.55
723.359	6542.2
723.701	6544.23
724.044	6537
724.386	6508.08
724.729	6547.62
725.071	6520.96
725.413	6507.17
725.755	6485.48
726.097	6503.56
726.439	6417.23
726.782	6482.54
727.124	6502.43
727.465	6433.96
727.807	6487.74
728.149	6437.12
728.491	6442.32
728.833	6470.11
729.175	6455.2
729.516	6405.48
729.858	6449.32
730.199	6461.07
730.541	6388.31
730.882	6414.52
731.224	6485.71
731.565	6355.99
731.906	6419.49
732.248	6452.03
732.589	6380.62
732.93	6372.26
733.271	6374.3
733.612	6390.57
733.953	6387.18
734.294	6403.67
734.635	6353.96
734.976	6382.21
735.317	6388.76
735.658	6392.37
735.999	6385.59
736.339	6343.34
736.68	6403.9
737.021	6369.32
737.361	6386.27
737.702	6450.9
738.042	6440.96
738.383	6421.07
738.723	6445.25
739.063	6388.31
739.404	6437.8
739.744	6445.25
740.084	6467.85
740.424	6434.41
740.764	6454.52
741.104	6432.37
741.444	6441.86
741.784	6453.62
742.124	6489.32
742.464	6504.69
742.804	6523.22
743.143	6508.3
743.483	6455.65
743.823	6513.5
744.162	6515.76
744.502	6604.57
744.841	6566.61
745.181	6667.85
745.52	6633.27
745.86	6680.5
746.199	6684.8
746.538	6716.43
746.877	6811.57
747.216	6820.61
747.556	6817.45
747.895	6922.98
748.234	6859.71
748.573	6881.4
748.911	6946.03
749.25	7008.18
749.589	7002.75
749.928	7054.28
750.267	7161.39
750.605	7226.93
750.944	7229.41
751.283	7301.73
751.621	7347.38
751.96	7389.41
752.298	7406.13
752.636	7548.05
752.975	7563.87
753.313	7656.3
753.651	7786.69
753.989	7781.49
754.327	7866.91
754.666	7929.96
755.004	8014.48
755.342	8176.28
755.679	8235.04
756.017	8308.71
756.355	8399.78
756.693	8484.07
757.031	8630.06
757.368	8710.05
757.706	8759.54
758.044	8824.63
758.381	9074.79
758.719	9100.55
759.056	9262.81
759.394	9336.25
759.731	9376.02
760.068	9576.7
760.405	9638.16
760.743	9679.52
761.08	9865.05
761.417	9982.79
761.754	10066.63
762.091	10169.68
762.428	10253.97
762.765	10349.33
763.102	10495.54
763.438	10593.17
763.775	10708.19
764.112	10809.66
764.449	10952.48
764.785	11043.55
765.122	11128.07
765.458	11257.33
765.795	11329.87
766.131	11395.18
766.467	11506.36
766.804	11575.97
767.14	11644.21
767.476	11808.73
767.812	11847.37
768.148	11922.17
768.485	12067.48
768.821	12156.29
769.157	12221.83
