Data from hue_260_FLMS001491_00008.txt Node
Date: Tue Feb 07 15:58:29 GMT 2017
User: dcchb
Spectrometer: FLMS00149
Trigger mode: 0
Integration Time (sec): 2.000000E-2
Scans to average: 10
Electric dark correction enabled: true
Nonlinearity correction enabled: false
Boxcar width: 0
XAxis mode: Wavelengths
Number of Pixels in Spectrum: 2048
>>>>>Begin Spectral Data<<<<<
341.393	-10.79
341.776	-10.79
342.16	-10.79
342.543	-56.89
342.927	-60.05
343.31	-61.18
343.693	-53.28
344.077	-60.51
344.46	-51.92
344.843	-73.39
345.226	-51.24
345.61	-21.19
345.993	-26.61
346.376	-15.99
346.759	19.27
347.142	16.1
347.525	26.5
347.908	55.2
348.291	89.77
348.674	92.71
349.057	115.76
349.44	127.06
349.823	137.68
350.206	170.22
350.588	197.11
350.971	179.94
351.354	212.71
351.737	238.92
352.119	245.47
352.502	251.35
352.884	255.64
353.267	289.99
353.65	280.95
354.032	286.15
354.414	282.76
354.797	300.61
355.179	315.75
355.562	311.69
355.944	311.46
356.326	321.63
356.709	336.77
357.091	332.03
357.473	337.67
357.855	337.9
358.238	343.78
358.62	322.08
359.002	326.38
359.384	350.1
359.766	347.62
360.148	330.67
360.53	321.4
360.912	327.96
361.294	329.99
361.676	332.03
362.057	316.66
362.439	338.35
362.821	336.32
363.203	320.27
363.584	328.86
363.966	338.13
364.348	320.05
364.729	301.97
365.111	309.88
365.493	332.03
365.874	308.52
366.256	306.72
366.637	311.91
367.019	340.61
367.4	315.75
367.781	302.87
368.163	302.2
368.544	304.91
368.925	308.97
369.306	308.97
369.688	310.33
370.069	324.34
370.45	316.88
370.831	305.81
371.212	297.68
371.593	317.79
371.974	306.04
372.355	287.96
372.736	304.91
373.117	328.41
373.498	332.48
373.879	325.7
374.26	326.6
374.641	318.24
375.021	310.33
375.402	311.01
375.783	313.72
376.163	318.24
376.544	309.65
376.925	316.88
377.305	313.95
377.686	328.18
378.066	306.94
378.447	334.06
378.827	322.08
379.208	312.82
379.588	339.48
379.968	333.16
380.349	311.23
380.729	328.86
381.109	351.01
381.489	325.25
381.87	364.57
382.25	329.09
382.63	332.7
383.01	349.65
383.39	343.55
383.77	342.42
384.15	340.39
384.53	345.13
384.91	355.3
385.29	346.26
385.67	342.42
386.049	348.97
386.429	342.65
386.809	357.34
387.189	374.51
387.568	358.01
387.948	351.23
388.328	354.17
388.707	373.61
389.087	350.56
389.466	373.61
389.846	364.34
390.225	374.74
390.605	361.4
390.984	371.35
391.363	358.92
391.743	363.89
392.122	388.52
392.501	371.8
392.881	384.45
393.26	388.97
393.639	382.87
394.018	383.32
394.397	375.64
394.776	391.46
395.155	397.79
395.534	385.81
395.913	392.81
396.292	384.91
396.671	403.66
397.05	412.93
397.429	399.37
397.808	420.38
398.186	419.25
398.565	413.83
398.944	395.53
399.323	402.08
399.701	415.41
400.08	414.73
400.458	420.84
400.837	410.67
401.215	402.53
401.594	433.49
401.972	426.03
402.351	434.17
402.729	429.65
403.107	436.2
403.486	433.49
403.864	423.32
404.242	433.49
404.62	446.37
404.999	450.44
405.377	441.4
405.755	448.41
406.133	482.76
406.511	467.39
406.889	469.65
407.267	493.6
407.645	479.59
408.023	503.32
408.401	494.73
408.779	519.14
409.156	510.1
409.534	512.13
409.912	505.35
410.29	532.02
410.667	544.22
411.045	544.9
411.422	540.83
411.8	552.58
412.178	538.8
412.555	543.32
412.933	566.6
413.31	543.77
413.687	575.18
414.065	610.44
414.442	591
414.819	611.34
415.197	618.35
415.574	618.35
415.951	627.38
416.328	619.93
416.705	646.59
417.082	629.87
417.46	638.68
417.837	667.84
418.214	666.93
418.591	682.3
418.967	657.67
419.344	673.26
419.721	709.42
420.098	699.47
420.475	720.26
420.852	720.26
421.228	723.65
421.605	748.96
421.982	754.16
422.358	734.05
422.735	761.84
423.111	783.31
423.488	789.41
423.864	795.29
424.241	811.56
424.617	812.01
424.994	823.76
425.37	839.13
425.746	849.53
426.123	870.99
426.499	847.94
426.875	889.3
427.251	900.15
427.627	914.38
428.003	929.3
428.379	920.48
428.756	947.83
429.132	951.44
429.507	968.84
429.883	988.28
430.259	976.3
430.635	983.53
431.011	998.67
431.387	994.61
431.763	1028.5
432.138	1039.58
432.514	1098.11
432.89	1069.41
433.265	1119.58
433.641	1104.21
434.016	1099.69
434.392	1141.5
434.767	1173.58
435.143	1154.38
435.518	1204.32
435.894	1218.56
436.269	1230.98
436.644	1250.19
437.02	1278.21
437.395	1258.78
437.77	1298.55
438.145	1334.03
438.52	1344.65
438.895	1357.53
439.271	1356.86
439.646	1389.17
440.021	1411.32
440.395	1375.16
440.77	1443.63
441.145	1438.89
441.52	1446.35
441.895	1466.91
442.27	1485.22
442.645	1490.86
443.019	1512.11
443.394	1525.89
443.769	1550.3
444.143	1505.33
444.518	1569.51
444.892	1569.05
445.267	1586.91
445.641	1605.66
446.016	1583.74
446.39	1602.05
446.764	1633.46
447.139	1632.78
447.513	1657.64
447.887	1669.39
448.262	1658.32
448.636	1676.62
449.01	1704.19
449.384	1719.33
449.758	1713.68
450.132	1711.88
450.506	1741.25
450.88	1733.57
451.254	1749.16
451.628	1779.44
452.002	1786
452.376	1799.33
452.75	1820.8
453.123	1854.7
453.497	1864.64
453.871	1867.58
454.244	1906.67
454.618	1921.59
454.992	1983.06
455.365	1958.2
455.739	1992.32
456.112	1989.38
456.486	2033.68
456.859	2027.57
457.232	2083.62
457.606	2033.45
457.979	2126.55
458.352	2133.79
458.725	2187.34
459.099	2159.1
459.472	2223.05
459.845	2227.57
460.218	2243.16
460.591	2257.62
460.964	2266.44
461.337	2324.06
461.71	2333.78
462.083	2353.21
462.456	2352.99
462.829	2358.41
463.201	2402.48
463.574	2424.85
463.947	2487
464.32	2515.24
464.692	2526.09
465.065	2540.1
465.438	2601.8
465.81	2603.6
466.183	2622.36
466.555	2695.13
466.928	2698.52
467.3	2687.9
467.672	2764.96
468.045	2810.83
468.417	2802.69
468.789	2815.12
469.161	2829.36
469.534	2895.35
469.906	2942.58
470.278	2946.87
470.65	2969.02
471.022	3044.72
471.394	3085.63
471.766	3115.45
472.138	3157.26
472.51	3199.75
472.882	3217.6
473.253	3299.18
473.625	3286.98
473.997	3398.61
474.369	3436.35
474.74	3423.92
475.112	3486.97
475.484	3542.56
475.855	3586.18
476.227	3582.11
476.598	3667.3
476.97	3707.08
477.341	3785.27
477.713	3812.84
478.084	3832.72
478.455	3929.9
478.827	3963.79
479.198	4087.63
479.569	4107.52
479.94	4173.51
480.311	4180.74
480.682	4259.15
481.053	4376.89
481.424	4422.99
481.795	4437.91
482.166	4488.75
482.537	4545.25
482.908	4614.62
483.279	4646.04
483.65	4701.4
484.021	4809.42
484.391	4824.56
484.762	4902.53
485.133	4930.77
485.503	5017.1
485.874	5102.75
486.244	5111.79
486.615	5205.8
486.985	5269.07
487.356	5296.64
487.726	5359.46
488.097	5468.84
488.467	5453.47
488.837	5585.22
489.207	5615.73
489.578	5674.94
489.948	5749.28
490.318	5764.65
490.688	5794.93
491.058	5901.37
491.428	5907.25
491.798	5948.15
492.168	6116.51
492.538	6127.35
492.908	6145.88
493.278	6267.24
493.648	6226.33
494.017	6319.89
494.387	6317.86
494.757	6425.88
495.126	6440.57
495.496	6444.18
495.866	6470.85
496.235	6557.17
496.605	6600.56
496.974	6606.21
497.344	6672.42
497.713	6648.47
498.082	6755.59
498.452	6764.4
498.821	6791.06
499.19	6789.26
499.559	6862.93
499.928	6946.31
500.298	6952.64
500.667	6964.85
501.036	6980.44
501.405	7014.34
501.774	7041.23
502.143	7080.1
502.512	7081.9
502.88	7168.91
503.249	7171.85
503.618	7179.3
503.987	7260.2
504.356	7278.96
504.724	7296.59
505.093	7272.41
505.462	7314.21
505.83	7361.67
506.199	7367.32
506.567	7429.24
506.936	7438.28
507.304	7473.08
507.672	7481.44
508.041	7534.1
508.409	7567.54
508.777	7567.09
509.145	7632.17
509.514	7662.91
509.882	7632.85
510.25	7692.28
510.618	7730.25
510.986	7791.72
511.354	7839.4
511.722	7805.27
512.09	7781.09
512.458	7782.9
512.826	7879.85
513.193	7891.83
513.561	7879.62
513.929	7898.15
514.297	8028.77
514.664	8005.5
515.032	7967.98
515.4	8047.75
515.767	8063.35
516.135	8068.54
516.502	7985.84
516.869	8061.99
517.237	8090.69
517.604	8078.04
517.972	8173.17
518.339	8234.87
518.706	8205.49
519.073	8165.49
519.44	8189.9
519.808	8289.1
520.175	8243.23
520.542	8373.17
520.909	8387.18
521.276	8303.57
521.643	8345.6
522.009	8367.97
522.376	8462.21
522.743	8395.54
523.11	8469.66
523.477	8521.41
523.843	8530.91
524.21	8565.93
524.577	8584.69
524.943	8628.53
525.31	8631.24
525.676	8707.62
526.043	8709.43
526.409	8699.94
526.776	8761.41
527.142	8727.06
527.508	8798.7
527.874	8837.34
528.241	8870.78
528.607	8853.83
528.973	8876.66
529.339	8877.34
529.705	8864.46
530.071	8953.72
530.437	8854.51
530.803	8949.65
531.169	8988.75
531.535	8925.47
531.901	8935.64
532.267	8901.97
532.632	8969.76
532.998	9008.63
533.364	9054.96
533.73	8982.42
534.095	9016.77
534.461	9006.83
534.826	9046.6
535.192	9041.63
535.557	9099.7
535.923	9072.36
536.288	9044.34
536.653	9062.87
537.019	8998.69
537.384	9039.14
537.749	9063.1
538.114	9112.36
538.479	9041.4
538.845	8990.78
539.21	9009.31
539.575	9061.06
539.94	9056.99
540.305	9102.64
540.67	9021.74
541.034	9038.24
541.399	9067.61
541.764	9018.12
542.129	9035.75
542.494	9028.75
542.858	9039.37
543.223	9042.08
543.587	9092.02
543.952	9014.51
544.316	8995.07
544.681	8969.54
545.045	9053.83
545.41	9021.97
545.774	8991.23
546.138	8998.46
546.503	9017.67
546.867	8955.3
547.231	9078.69
547.595	8954.17
547.959	9009.31
548.324	8966.37
548.688	8994.17
549.052	9031.91
549.416	8964.11
549.779	8973.38
550.143	9029.2
550.507	8981.52
550.871	9012.7
551.235	8950.78
551.599	8985.13
551.962	8958.92
552.326	9014.96
552.689	9004.57
553.053	8928.18
553.417	9004.34
553.78	9079.59
554.143	8957.34
554.507	8987.16
554.87	8960.5
555.234	9065.35
555.597	9025.13
555.96	9005.7
556.323	9080.72
556.686	9021.97
557.05	9054.28
557.413	9027.62
557.776	9065.13
558.139	9078.69
558.502	9068.07
558.865	9072.81
559.228	9090.21
559.59	9171.79
559.953	9122.08
560.316	9216.54
560.679	9172.7
561.041	9197.1
561.404	9191.45
561.767	9204.33
562.129	9188.74
562.492	9257.67
562.854	9295.86
563.217	9285.69
563.579	9281.62
563.941	9322.3
564.304	9410.88
564.666	9367.95
565.028	9401.17
565.39	9398.91
565.753	9373.6
566.115	9453.37
566.477	9520.94
566.839	9474.16
567.201	9578.79
567.563	9543.99
567.925	9585.34
568.287	9511.44
568.648	9612.91
569.01	9687.94
569.372	9680.93
569.734	9624.66
570.095	9747.37
570.457	9743.76
570.819	9726.58
571.18	9681.38
571.542	9745.34
571.903	9880.7
572.265	9831.21
572.626	9872.79
572.987	9858.1
573.349	9913.69
573.71	9961.6
574.071	9929.51
574.432	9960.47
574.794	9993.24
575.155	10007.25
575.516	9960.92
575.877	10064.88
576.238	10043.18
576.599	10090.86
576.96	10105.55
577.32	10129.06
577.681	10180.13
578.042	10164.08
578.403	10269.17
578.763	10222.84
579.124	10251.99
579.485	10291.54
579.845	10324.3
580.206	10266.68
580.566	10316.62
580.927	10350.07
581.287	10387.35
581.648	10360.24
582.008	10401.14
582.368	10422.16
582.728	10429.16
583.089	10458.99
583.449	10490.18
583.809	10495.83
584.169	10493.57
584.529	10467.35
584.889	10579.67
585.249	10556.16
585.609	10543.73
585.969	10566.33
586.329	10625.31
586.688	10632.32
587.048	10607.01
587.408	10554.58
587.768	10647.23
588.127	10640.91
588.487	10599.78
588.846	10723.39
589.206	10642.94
589.565	10629.16
589.925	10751.86
590.284	10691.75
590.643	10718.64
591.003	10787.57
591.362	10818.53
591.721	10769.26
592.08	10803.61
592.44	10831.18
592.799	10829.83
593.158	10801.81
593.517	10909.15
593.876	10902.59
594.235	10832.77
594.593	10830.05
594.952	10913.22
595.311	10918.41
595.67	10992.31
596.029	10976.04
596.387	10955.7
596.746	10946.44
597.104	10974.46
597.463	10874.35
597.822	10991.41
598.18	10960.67
598.538	10940.79
598.897	11045.64
599.255	10873.67
599.613	11064.62
599.972	11016.94
600.33	11009.48
600.688	11048.81
601.046	11098.07
601.404	11054
601.762	11060.1
602.12	11070.73
602.478	11067.34
602.836	11176.49
603.194	11072.53
603.552	11160.44
603.91	11068.24
604.268	11147.56
604.625	11052.2
604.983	11102.36
605.341	11103.04
605.698	11152.08
606.056	11167.9
606.413	11146.43
606.771	11201.57
607.128	11175.13
607.485	11144.17
607.843	11138.97
608.2	11241.12
608.557	11268.91
608.914	11208.12
609.272	11269.14
609.629	11286.09
609.986	11379.42
610.343	11294.45
610.7	11354.11
611.057	11305.52
611.414	11315.92
611.771	11322.47
612.127	11376.93
612.484	11404.28
612.841	11400.21
613.198	11360.44
613.554	11369.25
613.911	11390.04
614.267	11424.39
614.624	11394.33
614.98	11441.56
615.337	11478.62
615.693	11446.76
616.05	11459.64
616.406	11572.18
616.762	11525.63
617.118	11478.62
617.475	11473.2
617.831	11536.48
618.187	11515.69
618.543	11502.8
618.899	11572.86
619.255	11522.24
619.611	11499.42
619.967	11520.21
620.323	11565.18
620.678	11529.24
621.034	11521.34
621.39	11544.39
621.746	11536.7
622.101	11688.11
622.457	11583.71
622.812	11534.22
623.168	11618.73
623.523	11593.42
623.879	11616.47
624.234	11540.09
624.589	11595.91
624.945	11603.37
625.3	11607.89
625.655	11532.86
626.01	11567.66
626.365	11595.46
626.72	11611.73
627.075	11615.8
627.43	11542.13
627.785	11553.88
628.14	11503.03
628.495	11526.08
628.85	11613.08
629.205	11488.12
629.559	11530.83
629.914	11566.76
630.269	11498.96
630.623	11494.22
630.978	11386.2
631.332	11561.11
631.687	11452.86
632.041	11402.69
632.396	11463.94
632.75	11370.6
633.104	11457.38
633.459	11354.11
633.813	11412.19
634.167	11340.55
634.521	11293.54
634.875	11389.81
635.229	11282.47
635.583	11280.66
635.937	11332.41
636.291	11354.56
636.645	11305.97
636.999	11204.28
637.352	11242.47
637.706	11291.29
638.06	11229.59
638.413	11219.2
638.767	11234.34
639.121	11234.34
639.474	11120.44
639.828	11118.63
640.181	11145.53
640.534	11138.29
640.888	11117.5
641.241	11001.35
641.594	11053.33
641.947	11134
642.301	11079.54
642.654	11134.9
643.007	11134.9
643.36	10997.96
643.713	11020.78
644.066	11051.29
644.419	10971.07
644.771	10962.25
645.124	10854.46
645.477	10817.63
645.83	10736.5
646.182	10728.59
646.535	10656.5
646.888	10724.52
647.24	10662.15
647.593	10685.88
647.945	10630.96
648.298	10630.96
648.65	10623.28
649.002	10587.35
649.355	10650.62
649.707	10675.26
650.059	10715.25
650.411	10796.83
650.763	10736.05
651.115	10939.2
651.467	10942.82
651.819	10880.22
652.171	10833.44
652.523	10867.79
652.875	10871.41
653.227	10720.45
653.578	10934.23
653.93	10883.16
654.282	10851.07
654.633	10796.83
654.985	10853.1
655.337	10821.01
655.688	10849.94
656.039	10834.12
656.391	10786.89
656.742	10753.45
657.094	10793.67
657.445	10854.91
657.796	10838.64
658.147	10808.13
658.498	10807.68
658.849	10819.88
659.2	10832.77
659.551	10781.24
659.902	10822.37
660.253	10781.24
660.604	10816.27
660.955	10772.2
661.306	10845.42
661.656	10884.74
662.007	10869.83
662.358	10840.45
662.708	10879.54
663.059	10775.59
663.409	10805.87
663.76	10827.79
664.11	10812.2
664.461	10866.89
664.811	10923.84
665.161	10855.14
665.511	10805.87
665.862	10847.68
666.212	10847.91
666.562	10898.98
666.912	10859.21
667.262	10812.2
667.612	10844.29
667.962	10796.16
668.312	10822.14
668.662	10962.48
669.011	10885.65
669.361	10817.17
669.711	10807.46
670.06	10872.09
670.41	10814.91
670.76	10751.19
671.109	10854.23
671.459	10793.22
671.808	10759.55
672.157	10732.88
672.507	10687.01
672.856	10798.87
673.205	10767.23
673.554	10780.56
673.904	10819.66
674.253	10767.23
674.602	10760.68
674.951	10534.47
675.3	10564.3
675.649	10768.81
675.998	10667.8
676.346	10687.01
676.695	10701.24
677.044	10553.45
677.393	10615.82
677.741	10652.43
678.09	10650.62
678.438	10509.38
678.787	10599.78
679.135	10623.96
679.484	10495.37
679.832	10515.71
680.181	10461.25
680.529	10496.5
680.877	10475.71
681.225	10502.38
681.573	10451.76
681.922	10434.13
682.27	10422.38
682.618	10399.33
682.966	10315.27
683.314	10409.73
683.661	10363.17
684.009	10288.83
684.357	10261.26
684.705	10262.39
685.053	10350.74
685.4	10178.32
685.748	10227.13
686.095	10212.9
686.443	10155.04
686.79	10206.79
687.138	10124.08
687.485	10129.51
687.832	10080.24
688.18	10146.46
688.527	10068.72
688.874	9932.45
689.221	9975.84
689.568	9930.19
689.915	9920.25
690.262	9887.25
690.609	9899.46
690.956	9919.34
691.303	9868.72
691.65	9803.87
691.997	9776.75
692.344	9696.52
692.69	9719.57
693.037	9680.48
693.383	9584.89
693.73	9593.93
694.077	9559.81
694.423	9541.95
694.769	9526.36
695.116	9543.53
695.462	9489.98
695.808	9404.33
696.155	9410.2
696.501	9303.31
696.847	9345.57
697.193	9340.6
697.539	9320.04
697.885	9175.86
698.231	9209.31
698.577	9219.7
698.923	9213.83
699.269	9147.61
699.614	9066.71
699.96	9002.31
700.306	9111.46
700.651	9005.47
700.997	8953.49
701.342	8948.07
701.688	8965.24
702.033	8897
702.379	8933.83
702.724	8894.29
703.069	8863.1
703.415	8745.59
703.76	8713.5
704.105	8817
704.45	8748.75
704.795	8722.54
705.14	8611.36
705.485	8600.28
705.83	8583.56
706.175	8586.05
706.52	8578.81
706.865	8471.47
707.209	8523
707.554	8464.92
707.899	8472.15
708.243	8418.14
708.588	8372.72
708.932	8350.35
709.277	8275.55
709.621	8324.81
709.966	8263.12
710.31	8313.51
710.654	8239.84
710.998	8290.23
711.342	8246.62
711.687	8250.24
712.031	8128.66
712.375	8175.21
712.719	8140.86
713.063	8149.67
713.407	8204.36
713.75	8169.33
714.094	8083.69
714.438	8130.01
714.782	8038.49
715.125	8046.85
715.469	8071.48
715.812	8059.05
716.156	7976.8
716.499	7925.95
716.843	7924.14
717.186	7983.12
717.53	7885.95
717.873	7996.68
718.216	7923.46
718.559	7878.27
718.902	7882.34
719.246	7859.28
719.589	7897.02
719.932	7835.78
720.275	7846.18
720.617	7758.27
720.96	7822
721.303	7811.38
721.646	7833.07
721.989	7796.69
722.331	7826.97
722.674	7809.79
723.016	7776.8
723.359	7750.14
723.701	7762.56
724.044	7735.45
724.386	7698.16
724.729	7737.25
725.071	7703.58
725.413	7742.9
725.755	7702.45
726.097	7655.9
726.439	7655
726.782	7671.72
727.124	7713.07
727.465	7667.65
727.807	7691.15
728.149	7618.39
728.491	7603.7
728.833	7657.71
729.175	7562.57
729.516	7573.64
729.858	7595.11
730.199	7677.37
730.541	7606.64
730.882	7577.71
731.224	7628.1
731.565	7562.12
731.906	7612.06
732.248	7567.77
732.589	7563.47
732.93	7504.04
733.271	7554.66
733.612	7544.49
733.953	7551.72
734.294	7534.77
734.635	7520.54
734.976	7545.17
735.317	7499.07
735.658	7469.01
735.999	7530.93
736.339	7529.35
736.68	7527.32
737.021	7534.1
737.361	7506.98
737.702	7631.04
738.042	7551.95
738.383	7533.19
738.723	7550.14
739.063	7543.13
739.404	7638.73
739.744	7566.64
740.084	7571.38
740.424	7539.75
740.764	7515.34
741.104	7592.17
741.444	7559.41
741.784	7623.36
742.124	7599.4
742.464	7613.64
742.804	7625.17
743.143	7636.01
743.483	7667.88
743.823	7644.15
744.162	7635.56
744.502	7699.29
744.841	7664.26
745.181	7736.58
745.52	7787.65
745.86	7826.74
746.199	7817.7
746.538	7837.82
746.877	7897.93
747.216	7983.35
747.556	7940.41
747.895	7971.82
748.234	7967.98
748.573	8010.24
748.911	8033.07
749.25	8142.22
749.589	8134.53
749.928	8247.07
750.267	8281.42
750.605	8337.92
750.944	8325.26
751.283	8438.25
751.621	8552.15
751.96	8557.8
752.298	8635.99
752.636	8695.65
752.975	8754.4
753.313	8778.81
753.651	8906.26
753.989	8925.47
754.327	8981.29
754.666	9096.09
755.004	9221.96
755.342	9325.69
755.679	9457.89
756.017	9439.58
756.355	9599.58
756.693	9716.19
757.031	9849.29
757.368	10010.87
757.706	10023.3
758.044	10190.52
758.381	10309.84
758.719	10360.01
759.056	10515.49
759.394	10627.8
759.731	10737.63
760.068	10854.23
760.405	10920.9
760.743	11075.92
761.08	11270.27
761.417	11346.88
761.754	11423.94
762.091	11580.32
762.428	11722.69
762.765	11844.72
763.102	12048.78
