Data from hue_220_FLMS001491_00014.txt Node
Date: Tue Feb 07 16:38:35 GMT 2017
User: dcchb
Spectrometer: FLMS00149
Trigger mode: 0
Integration Time (sec): 2.000000E-2
Scans to average: 10
Electric dark correction enabled: true
Nonlinearity correction enabled: false
Boxcar width: 0
XAxis mode: Wavelengths
Number of Pixels in Spectrum: 2048
>>>>>Begin Spectral Data<<<<<
341.393	-15.76
341.776	-15.76
342.16	-15.76
342.543	-35.2
342.927	-66.16
343.31	-54.41
343.693	-78.81
344.077	-61.86
344.46	-45.37
344.843	-61.41
345.226	-41.07
345.61	-35.87
345.993	-42.43
346.376	-12.37
346.759	23.33
347.142	26.27
347.525	56.55
347.908	69.89
348.291	76.89
348.674	82.09
349.057	98.58
349.44	108.3
349.823	127.96
350.206	170.9
350.588	189.66
350.971	193.95
351.354	229.65
351.737	253.16
352.119	244.34
352.502	260.61
352.884	268.07
353.267	252.03
353.65	308.3
354.032	301.97
354.414	301.07
354.797	294.51
355.179	313.72
355.562	331.8
355.944	346.49
356.326	336.77
356.709	327.28
357.091	333.83
357.473	346.49
357.855	320.73
358.238	336.09
358.62	328.18
359.002	327.73
359.384	325.92
359.766	345.36
360.148	331.57
360.53	340.61
360.912	336.09
361.294	343.1
361.676	326.38
362.057	333.38
362.439	337.67
362.821	298.58
363.203	326.15
363.584	328.18
363.966	324.12
364.348	334.96
364.729	335.87
365.111	300.16
365.493	315.08
365.874	318.92
366.256	313.49
366.637	306.94
367.019	303.55
367.4	307.62
367.781	327.96
368.163	323.21
368.544	307.17
368.925	337.9
369.306	307.17
369.688	297.22
370.069	341.97
370.45	297.9
370.831	313.27
371.212	290.9
371.593	313.27
371.974	311.46
372.355	318.92
372.736	287.28
373.117	329.09
373.498	307.85
373.879	317.34
374.26	318.47
374.641	319.82
375.021	313.72
375.402	318.69
375.783	311.91
376.163	320.73
376.544	315.75
376.925	333.61
377.305	333.61
377.686	340.61
378.066	327.73
378.447	309.65
378.827	332.03
379.208	324.79
379.588	331.35
379.968	317.79
380.349	311.91
380.729	324.57
381.109	322.08
381.489	318.69
381.87	344.23
382.25	351.01
382.63	335.19
383.01	340.16
383.39	339.48
383.77	339.26
384.15	346.04
384.53	335.19
384.91	353.72
385.29	352.59
385.67	350.56
386.049	352.59
386.429	329.09
386.809	342.65
387.189	337.22
387.568	341.52
387.948	359.37
388.328	346.04
388.707	356.43
389.087	369.76
389.466	375.87
389.846	365.7
390.225	366.37
390.605	349.88
390.984	349.65
391.363	377
391.743	365.02
392.122	356.66
392.501	369.31
392.881	388.97
393.26	357.56
393.639	359.6
394.018	381.06
394.397	363.21
394.776	388.29
395.155	371.8
395.534	402.31
395.913	395.75
396.292	409.09
396.671	381.29
397.05	383.32
397.429	391.46
397.808	381.06
398.186	381.74
398.565	390.33
398.944	398.46
399.323	395.3
399.701	383.1
400.08	406.15
400.458	411.57
400.837	406.83
401.215	397.33
401.594	431.23
401.972	420.61
402.351	412.02
402.729	441.85
403.107	433.27
403.486	434.62
403.864	423.32
404.242	446.82
404.62	433.72
404.999	436.88
405.377	435.98
405.755	455.19
406.133	478.46
406.511	471.23
406.889	470.78
407.267	464.9
407.645	467.84
408.023	483.21
408.401	464.68
408.779	482.3
409.156	495.18
409.534	503.77
409.912	483.89
410.29	531.34
410.667	507.39
411.045	544
411.422	517.11
411.8	508.52
412.178	546.48
412.555	542.42
412.933	579.93
413.31	602.07
413.687	575.86
414.065	597.33
414.442	606.59
414.819	596.2
415.197	599.59
415.574	627.38
415.951	616.31
416.328	624.9
416.705	642.53
417.082	653.6
417.46	650.66
417.837	650.66
418.214	649.3
418.591	678.91
418.967	673.03
419.344	683.88
419.721	721.17
420.098	714.39
420.475	730.21
420.852	726.82
421.228	729.53
421.605	746.7
421.982	752.58
422.358	772.24
422.735	795.52
423.111	790.09
423.488	834.84
423.864	825.35
424.241	813.37
424.617	832.13
424.994	853.14
425.37	859.47
425.746	885
426.123	886.36
426.499	893.82
426.875	910.54
427.251	922.74
427.627	929.98
428.003	948.96
428.379	945.79
428.756	973.36
429.132	987.83
429.507	1012.23
429.883	1001.39
430.259	1012.91
430.635	1026.24
431.011	1036.87
431.387	1036.87
431.763	1110.31
432.138	1092.01
432.514	1117.09
432.89	1141.72
433.265	1152.34
433.641	1164.32
434.016	1209.06
434.392	1190.76
434.767	1236.18
435.143	1267.14
435.518	1252.23
435.894	1279.12
436.269	1306.69
436.644	1328.84
437.02	1378.55
437.395	1351.89
437.77	1334.26
438.145	1412
438.52	1450.19
438.895	1445.89
439.271	1468.72
439.646	1505.55
440.021	1542.61
440.395	1525.89
440.77	1508.04
441.145	1534.25
441.52	1603.86
441.895	1623.74
442.27	1618.55
442.645	1606.34
443.019	1671.42
443.394	1664.87
443.769	1676.4
444.143	1647.02
444.518	1724.53
444.892	1701.03
445.267	1731.54
445.641	1754.13
446.016	1753.23
446.39	1774.93
446.764	1760.24
447.139	1799.33
447.513	1800.91
447.887	1823.51
448.262	1816.51
448.636	1818.54
449.01	1866
449.384	1876.84
449.758	1877.75
450.132	1895.15
450.506	1933.79
450.88	1923.4
451.254	1918.88
451.628	1969.5
452.002	1947.58
452.376	1997.74
452.75	2034.35
453.123	2031.87
453.497	2075.03
453.871	2056.73
454.244	2104.63
454.618	2127.91
454.992	2148.02
455.365	2140.11
455.739	2187.34
456.112	2207
456.486	2222.37
456.859	2254.46
457.232	2264.4
457.606	2294.01
457.979	2344.4
458.352	2371.29
458.725	2385.08
459.099	2387.79
459.472	2407
459.845	2408.58
460.218	2477.51
460.591	2496.94
460.964	2490.61
461.337	2577.39
461.71	2565.86
462.083	2641.57
462.456	2614.68
462.829	2638.63
463.201	2658.07
463.574	2670.04
463.947	2718.4
464.32	2812.86
464.692	2795.46
465.065	2814.67
465.438	2820.77
465.81	2891.51
466.183	2920.66
466.555	2976.93
466.928	2999.53
467.3	2983.48
467.672	2988.9
468.045	3101.9
468.417	3090.37
468.789	3110.48
469.161	3158.17
469.534	3169.69
469.906	3281.1
470.278	3274.55
470.65	3320.42
471.022	3358.61
471.394	3451.49
471.766	3485.39
472.138	3441.55
472.51	3525.16
472.882	3595.22
473.253	3594.99
473.625	3670.24
473.997	3703.24
474.369	3737.59
474.74	3789.11
475.112	3854.42
475.484	3884.7
475.855	3926.51
476.227	3955.88
476.598	4049.44
476.97	4078.14
477.341	4173.73
477.713	4255.99
478.084	4200.4
478.455	4388.42
478.827	4355.87
479.198	4503.67
479.569	4483.78
479.94	4574.85
480.311	4628.86
480.682	4674.28
481.053	4813.94
481.424	4836.77
481.795	4910.66
482.166	4967.61
482.537	4994.5
482.908	5051.68
483.279	5127.83
483.65	5200.15
484.021	5260.03
484.391	5339.8
484.762	5420.25
485.133	5423.87
485.503	5471.55
485.874	5599.01
486.244	5584.32
486.615	5693.92
486.985	5820.47
487.356	5837.19
487.726	5847.59
488.097	5937.3
488.467	5998.99
488.837	6093.23
489.207	6151.76
489.578	6183.85
489.948	6266.11
490.318	6342.49
490.688	6385.88
491.058	6405.31
491.428	6477.4
491.798	6499.77
492.168	6665.19
492.538	6687.79
492.908	6739.31
493.278	6799.65
493.648	6810.05
494.017	6969.14
494.387	6943.15
494.757	6965.75
495.126	7023.15
495.496	7077.61
495.866	7015.47
496.235	7106.54
496.605	7221.11
496.974	7168.91
497.344	7267.89
497.713	7241.9
498.082	7323.03
498.452	7369.81
498.821	7340.43
499.19	7383.82
499.559	7487.09
499.928	7474.21
500.298	7535.68
500.667	7560.31
501.036	7518.5
501.405	7607.77
501.774	7576.58
502.143	7642.57
502.512	7633.98
502.88	7736.12
503.249	7726.63
503.618	7709.01
503.987	7787.87
504.356	7779.06
504.724	7807.99
505.093	7826.97
505.462	7884.59
505.83	7858.38
506.199	7890.02
506.567	8006.4
506.936	7997.13
507.304	7989.68
507.672	8025.83
508.041	8103.8
508.409	8101.09
508.777	8116
509.145	8166.17
509.514	8130.69
509.882	8178.82
510.25	8166.85
510.618	8202.33
510.986	8164.36
511.354	8229.44
511.722	8301.76
512.09	8300.63
512.458	8263.34
512.826	8297.69
513.193	8327.3
513.561	8283.45
513.929	8334.07
514.297	8387.86
514.664	8500.4
515.032	8394.41
515.4	8469.21
515.767	8471.7
516.135	8403.9
516.502	8374.3
516.869	8494.07
517.237	8483.45
517.604	8380.63
517.972	8495.2
518.339	8513.05
518.706	8525.26
519.073	8433.28
519.44	8507.18
519.808	8530
520.175	8486.39
520.542	8593.28
520.909	8590.11
521.276	8525.48
521.643	8646.83
522.009	8618.81
522.376	8636.21
522.743	8582.43
523.11	8649.09
523.477	8708.08
523.843	8714.63
524.21	8727.51
524.577	8739.71
524.943	8733.61
525.31	8719.38
525.676	8801.18
526.043	8782.88
526.409	8805.93
526.776	8862.65
527.142	8799.37
527.508	8786.27
527.874	8828.52
528.241	8874.63
528.607	8809.54
528.973	8888.41
529.339	8777
529.705	8884.57
530.071	8831.24
530.437	8805.25
530.803	8836.66
531.169	8845.02
531.535	8788.07
531.901	8801.86
532.267	8791.92
532.632	8831.46
532.998	8848.19
533.364	8825.59
533.73	8821.97
534.095	8855.87
534.461	8786.49
534.826	8802.08
535.192	8814.06
535.557	8813.16
535.923	8802.76
536.288	8771.58
536.653	8730.9
537.019	8720.96
537.384	8732.48
537.749	8693.61
538.114	8664.01
538.479	8592.6
538.845	8659.72
539.21	8564.13
539.575	8596.89
539.94	8572.03
540.305	8678.02
540.67	8531.36
541.034	8546.95
541.399	8540.17
541.764	8558.93
542.129	8470.79
542.494	8485.03
542.858	8532.71
543.223	8458.37
543.587	8497.01
543.952	8439.38
544.316	8451.81
544.681	8351.93
545.045	8360.06
545.41	8369.78
545.774	8376.11
546.138	8323.91
546.503	8308.31
546.867	8319.39
547.231	8273.74
547.595	8229.67
547.959	8266.51
548.324	8190.12
548.688	8193.74
549.052	8162.33
549.416	8213.63
549.779	8069.45
550.143	8095.44
550.507	8162.1
550.871	8139.05
551.235	8037.59
551.599	8130.69
551.962	8039.85
552.326	8075.1
552.689	8072.16
553.053	7965.27
553.417	7934.09
553.78	8024.03
554.143	8028.32
554.507	8045.49
554.87	8000.98
555.234	8028.77
555.597	7874.2
555.96	7975.89
556.323	8031.03
556.686	7908.32
557.05	7920.98
557.413	7919.4
557.776	7959.62
558.139	7900.87
558.502	7956.01
558.865	7906.29
559.228	7937.93
559.59	7895.22
559.953	7944.93
560.316	8009.34
560.679	7915.55
561.041	7942.9
561.404	8007.98
561.767	7963.46
562.129	7886.63
562.492	8017.7
562.854	7979.06
563.217	7997.13
563.579	7953.75
563.941	7979.28
564.304	7970.47
564.666	7989.22
565.028	8091.82
565.39	8086.17
565.753	8069.67
566.115	8000.07
566.477	8020.64
566.839	8073.97
567.201	8123.68
567.563	8072.39
567.925	8103.12
568.287	8123.23
568.648	8111.48
569.01	8137.02
569.372	8112.39
569.734	8055.89
570.095	8238.71
570.457	8199.84
570.819	8203.91
571.18	8230.57
571.542	8292.95
571.903	8239.16
572.265	8309.44
572.626	8259.05
572.987	8264.25
573.349	8305.83
573.71	8370.01
574.071	8350.57
574.432	8383.11
574.794	8452.49
575.155	8390.12
575.516	8329.1
575.877	8363.45
576.238	8407.97
576.599	8485.03
576.96	8448.2
577.32	8440.06
577.681	8444.58
578.042	8481.19
578.403	8548.76
578.763	8522.54
579.124	8535.88
579.485	8556.22
579.845	8547.63
580.206	8534.75
580.566	8555.76
580.927	8602.09
581.287	8652.48
581.648	8529.32
582.008	8690.9
582.368	8654.29
582.728	8731.8
583.089	8733.16
583.449	8675.76
583.809	8723.44
584.169	8730.45
584.529	8684.12
584.889	8797.79
585.249	8807.51
585.609	8798.24
585.969	8780.84
586.329	8775.64
586.688	8851.12
587.048	8799.37
587.408	8875.08
587.768	8815.42
588.127	8865.59
588.487	8841.41
588.846	8920.73
589.206	8907.62
589.565	8992.14
589.925	8922.08
590.284	8937.22
590.643	9008.18
591.003	8964.11
591.362	9001.18
591.721	9016.09
592.08	8958.92
592.44	9044.11
592.799	9013.38
593.158	9034.62
593.517	9072.13
593.876	9026.94
594.235	8990.33
594.593	9061.51
594.952	9058.35
595.311	9072.36
595.67	9115.3
596.029	9154.84
596.387	9110.55
596.746	9128.86
597.104	9149.65
597.463	9128.18
597.822	9198.46
598.18	9060.38
598.538	9101.96
598.897	9174.05
599.255	9161.17
599.613	9216.76
599.972	9162.98
600.33	9154.62
600.688	9204.79
601.046	9185.13
601.404	9268.51
601.762	9219.25
602.12	9324.56
602.478	9212.7
602.836	9284.11
603.194	9183.77
603.552	9242.3
603.91	9206.37
604.268	9271
604.625	9250.89
604.983	9263.32
605.341	9203.43
605.698	9254.5
606.056	9340.15
606.413	9295.18
606.771	9308.29
607.128	9320.94
607.485	9308.29
607.843	9344.22
608.2	9280.94
608.557	9403.88
608.914	9329.53
609.272	9340.38
609.629	9355.29
609.986	9383.99
610.343	9403.88
610.7	9439.13
611.057	9454.05
611.414	9365.46
611.771	9394.61
612.127	9443.88
612.484	9482.75
612.841	9499.47
613.198	9394.39
613.554	9440.71
613.911	9477.77
614.267	9507.6
614.624	9466.93
614.98	9494.72
615.337	9569.52
615.693	9533.14
616.05	9468.51
616.406	9536.75
616.762	9534.04
617.118	9578.79
617.475	9548.05
617.831	9567.49
618.187	9553.48
618.543	9617.66
618.899	9641.84
619.255	9569.52
619.611	9523.65
619.967	9664.21
620.323	9649.29
620.678	9623.31
621.034	9597.32
621.39	9613.36
621.746	9615.62
622.101	9675.06
622.457	9615.17
622.812	9658.79
623.168	9645.9
623.523	9643.42
623.879	9659.46
624.234	9578.79
624.589	9600.71
624.945	9641.38
625.3	9629.63
625.655	9679.8
626.01	9638.22
626.365	9653.14
626.72	9603.19
627.075	9653.36
627.43	9667.6
627.785	9608.17
628.14	9605
628.495	9680.03
628.85	9624.66
629.205	9590.09
629.559	9598.9
629.914	9589.86
630.269	9566.81
630.623	9548.05
630.978	9504.21
631.332	9639.8
631.687	9482.97
632.041	9519.13
632.396	9560.71
632.75	9563.65
633.104	9577.43
633.459	9456.98
633.813	9508.06
634.167	9511.67
634.521	9462.63
634.875	9495.17
635.229	9449.3
635.583	9415.4
635.937	9432.12
636.291	9425.12
636.645	9383.99
636.999	9353.48
637.352	9412.92
637.706	9307.38
638.06	9376.76
638.413	9378.11
638.767	9314.39
639.121	9354.61
639.474	9291.11
639.828	9311.9
640.181	9292.02
640.534	9322.52
640.888	9323.65
641.241	9266.93
641.594	9206.59
641.947	9286.37
642.301	9303.99
642.654	9297.67
643.007	9237.78
643.36	9250.21
643.713	9229.42
644.066	9276.42
644.419	9192.81
644.771	9100.83
645.124	9058.8
645.477	9035.53
645.83	9016.09
646.182	8953.04
646.535	8851.12
646.888	8929.54
647.24	8891.35
647.593	8932.93
647.945	8927.96
648.298	8842.08
648.65	8840.5
649.002	8882.31
649.355	8936.54
649.707	8924.34
650.059	8966.15
650.411	9047.28
650.763	9053.15
651.115	9086.82
651.467	9056.54
651.819	9062.19
652.171	9103.55
652.523	9073.94
652.875	9070.78
653.227	9018.58
653.578	9128.18
653.93	9053.83
654.282	9033.94
654.633	9066.71
654.985	9116.88
655.337	9058.8
655.688	9067.16
656.039	9151.45
656.391	9035.98
656.742	9102.19
657.094	9070.55
657.445	9099.25
657.796	9091.57
658.147	9048.41
658.498	9090.89
658.849	9129.76
659.2	9128.18
659.551	9094.05
659.902	9086.37
660.253	9129.53
660.604	9162.75
660.955	9094.51
661.306	9127.5
661.656	9114.62
662.007	9115.3
662.358	9096.31
662.708	9153.04
663.059	9104.9
663.409	9056.99
663.76	9125.47
664.11	9144.9
664.461	9159.36
664.811	9105.35
665.161	9142.41
665.511	9096.99
665.862	9082.3
666.212	9149.87
666.562	9187.39
666.912	9139.93
667.262	9164.11
667.612	9167.27
667.962	9085.47
668.312	9062.87
668.662	9216.99
669.011	9188.29
669.361	9134.05
669.711	9193.94
670.06	9143.77
670.41	9074.17
670.76	9122.98
671.109	9132.47
671.459	9092.25
671.808	9073.04
672.157	9133.15
672.507	9074.85
672.856	9033.72
673.205	9041.17
673.554	9075.98
673.904	9025.58
674.253	9080.04
674.602	9032.36
674.951	8893.16
675.3	8908.97
675.649	8974.96
675.998	8992.81
676.346	8997.79
676.695	9022.87
677.044	8965.92
677.393	8918.69
677.741	8935.19
678.09	8992.59
678.438	8921.4
678.787	8870.33
679.135	8961.63
679.484	8891.35
679.832	8910.78
680.181	8871.91
680.529	8923.21
680.877	8827.17
681.225	8856.55
681.573	8858.58
681.922	8798.47
682.27	8800.5
682.618	8813.84
682.966	8762.99
683.314	8754.18
683.661	8672.14
684.009	8709.66
684.357	8684.12
684.705	8682.09
685.053	8726.61
685.4	8691.35
685.748	8670.11
686.095	8584.69
686.443	8576.33
686.79	8587.18
687.138	8528.87
687.485	8497.23
687.832	8455.2
688.18	8488.19
688.527	8452.26
688.874	8487.06
689.221	8427.86
689.568	8360.74
689.915	8304.92
690.262	8401.64
690.609	8313.74
690.956	8332.72
691.303	8302.89
691.65	8296.34
691.997	8206.39
692.344	8189.67
692.69	8229.22
693.037	8217.69
693.383	8082.33
693.73	8125.04
694.077	8113.97
694.423	8005.5
694.769	7980.19
695.116	8079.84
695.462	8041.43
695.808	7920.3
696.155	7990.13
696.501	7902.9
696.847	7901.54
697.193	7817.48
697.539	7835.33
697.885	7766.18
698.231	7788.33
698.577	7668.78
698.923	7710.36
699.269	7727.99
699.614	7638.5
699.96	7601.89
700.306	7602.79
700.651	7536.13
700.997	7470.37
701.342	7498.39
701.688	7442.35
702.033	7431.73
702.379	7407.09
702.724	7375
703.069	7422.01
703.415	7295.46
703.76	7366.42
704.105	7324.38
704.45	7263.37
704.795	7207.55
705.14	7182.47
705.485	7248.91
705.83	7125.97
706.175	7205.97
706.52	7169.81
706.865	7159.42
707.209	7113.99
707.554	7096.82
707.899	7055.69
708.243	7031.96
708.588	7014.56
708.932	7003.26
709.277	6974.56
709.621	6982.25
709.966	6923.26
710.31	6917.39
710.654	6908.12
710.998	6849.14
711.342	6903.83
711.687	6907.9
712.031	6862.25
712.375	6816.37
712.719	6800.78
713.063	6749.26
713.407	6842.14
713.75	6785.87
714.094	6811.18
714.438	6742.93
714.782	6782.03
715.125	6709.26
715.469	6707.9
715.812	6707.9
716.156	6655.25
716.499	6708.13
716.843	6689.6
717.186	6583.16
717.53	6635.36
717.873	6635.59
718.216	6653.44
718.559	6631.29
718.902	6591.07
719.246	6633.33
719.589	6614.57
719.932	6582.71
720.275	6535.03
720.617	6492.09
720.96	6535.93
721.303	6565.31
721.646	6504.29
721.989	6491.86
722.331	6531.18
722.674	6490.96
723.016	6522.6
723.359	6485.31
723.701	6521.69
724.044	6444.86
724.386	6468.81
724.729	6483.73
725.071	6459.1
725.413	6440.79
725.755	6412.77
726.097	6422.03
726.439	6383.84
726.782	6396.05
727.124	6425.2
727.465	6379.32
727.807	6405.09
728.149	6417.06
728.491	6399.21
728.833	6404.41
729.175	6345.65
729.516	6375.26
729.858	6354.92
730.199	6402.83
730.541	6354.69
730.882	6382.04
731.224	6413
731.565	6382.26
731.906	6355.37
732.248	6395.37
732.589	6395.14
732.93	6383.62
733.271	6341.13
733.612	6360.57
733.953	6387.23
734.294	6367.35
734.635	6348.82
734.976	6360.12
735.317	6378.65
735.658	6379.55
735.999	6399.44
736.339	6347.69
736.68	6434.24
737.021	6415.26
737.361	6349.04
737.702	6410.51
738.042	6353.11
738.383	6427.01
738.723	6421.81
739.063	6397.63
739.404	6471.3
739.744	6474.01
740.084	6427.23
740.424	6453.45
740.764	6443.73
741.104	6490.06
741.444	6503.39
741.784	6537.74
742.124	6535.03
742.464	6521.92
742.804	6542.26
743.143	6575.7
743.483	6589.71
743.823	6585.42
744.162	6563.95
744.502	6570.28
744.841	6659.32
745.181	6725.53
745.52	6692.99
745.86	6755.81
746.199	6746.09
746.538	6834
746.877	6857.28
747.216	6886.43
747.556	6864.28
747.895	6988.57
748.234	6955.35
748.573	6990.61
748.911	7045.07
749.25	7139.3
749.589	7157.16
749.928	7199.87
750.267	7335
750.605	7367.55
750.944	7446.64
751.283	7462.69
751.621	7563.7
751.96	7653.19
752.298	7751.94
752.636	7813.41
752.975	7845.95
753.313	7854.54
753.651	8019.05
753.989	8133.18
754.327	8257.69
754.666	8330.01
755.004	8467.18
755.342	8547.85
755.679	8714.63
756.017	8747.17
756.355	8983.78
756.693	9083.66
757.031	9219.48
757.368	9306.7
757.706	9481.39
758.044	9592.8
758.381	9746.69
758.719	9857.65
759.056	10052.22
759.394	10184.2
759.731	10297.64
760.068	10416.73
760.405	10632.32
760.743	10694.01
761.08	10922.26
761.417	11016.04
761.754	11277.05
762.091	11425.29
762.428	11586.64
762.765	11669.35
763.102	11898.95
763.438	12020.31
763.775	12174.43
764.112	12410.35
764.449	12599.05
764.785	12777.35
765.122	12837.69
765.458	12938.47
765.795	13235.64
766.131	13311.57
766.467	13481.96
766.804	13650.77
767.14	13802.41
767.476	13880.6
767.812	13988.62
768.148	14223.41
768.485	14316.29
768.821	14381.6
769.157	14562.39
