Data from hue_00_FLMS001491_35.txt Node
Date: Mon Feb 06 15:29:37 GMT 2017
User: dcchb
Spectrometer: FLMS00149
Trigger mode: 0
Integration Time (sec): 2.000000E-2
Scans to average: 10
Electric dark correction enabled: true
Nonlinearity correction enabled: false
Boxcar width: 0
XAxis mode: Wavelengths
Number of Pixels in Spectrum: 2048
>>>>>Begin Spectral Data<<<<<
341.393	-8.57
341.776	-8.57
342.16	-8.57
342.543	-52.64
342.927	-53.09
343.31	-79.76
343.693	-70.94
344.077	-52.19
344.46	-23.04
344.843	-51.96
345.226	-30.72
345.61	-25.07
345.993	-21.91
346.376	-9.03
346.759	-0.21
347.142	18.54
347.525	47.92
347.908	50.63
348.291	56.96
348.674	80.92
349.057	109.84
349.44	118.2
349.823	131.08
350.206	158.65
350.588	174.02
350.971	212.89
351.354	201.14
351.737	232.32
352.119	241.82
352.502	279.55
352.884	273
353.267	275.49
353.65	281.14
354.032	294.7
354.414	304.64
354.797	318.88
355.179	327.46
355.562	315.49
355.944	321.14
356.326	331.76
356.709	335.6
357.091	345.54
357.473	330.63
357.855	342.15
358.238	344.19
358.62	356.84
359.002	355.26
359.384	346.9
359.766	356.39
360.148	322.49
360.53	336.95
360.912	340.34
361.294	313
361.676	341.7
362.057	336.28
362.439	339.67
362.821	344.41
363.203	322.72
363.584	322.72
363.966	319.33
364.348	316.16
364.729	350.74
365.111	313.68
365.493	313.45
365.874	303.73
366.256	310.06
366.637	302.15
367.019	293.11
367.4	304.41
367.781	327.01
368.163	314.81
368.544	308.25
368.925	293.11
369.306	322.72
369.688	314.81
370.069	310.06
370.45	311.64
370.831	309.38
371.212	313.45
371.593	327.92
371.974	323.17
372.355	300.12
372.736	316.84
373.117	329.72
373.498	315.49
373.879	306.22
374.26	304.86
374.641	320.68
375.021	310.29
375.402	299.22
375.783	336.73
376.163	331.98
376.544	331.53
376.925	334.47
377.305	337.41
377.686	330.4
378.066	328.59
378.447	326.79
378.827	315.49
379.208	322.49
379.588	320.91
379.968	336.5
380.349	357.07
380.729	329.95
381.109	319.1
381.489	334.47
381.87	356.39
382.25	329.5
382.63	350.51
383.01	346.22
383.39	341.02
383.77	320.46
384.15	342.15
384.53	346.45
384.91	340.8
385.29	342.38
385.67	329.27
386.049	326.79
386.429	357.74
386.809	324.07
387.189	354.58
387.568	361.59
387.948	361.36
388.328	347.58
388.707	348.48
389.087	353.68
389.466	357.52
389.846	349.16
390.225	356.16
390.605	371.76
390.984	364.3
391.363	343.51
391.743	369.27
392.122	382.83
392.501	377.18
392.881	351.42
393.26	358.2
393.639	367.01
394.018	361.36
394.397	359.55
394.776	372.21
395.155	358.87
395.534	357.97
395.913	370.17
396.292	383.73
396.671	365.65
397.05	391.19
397.429	374.47
397.808	381.7
398.186	357.52
398.565	369.27
398.944	374.69
399.323	373.34
399.701	393.45
400.08	398.65
400.458	372.66
400.837	370.17
401.215	408.14
401.594	384.64
401.972	394.58
402.351	392.55
402.729	387.12
403.107	370.63
403.486	394.13
403.864	411.3
404.242	422.15
404.62	415.6
404.999	408.36
405.377	390.96
405.755	409.49
406.133	412.66
406.511	414.01
406.889	418.08
407.267	421.7
407.645	431.42
408.023	438.42
408.401	433.22
408.779	429.83
409.156	426.22
409.534	432.32
409.912	433.45
410.29	434.58
410.667	446.56
411.045	449.27
411.422	464.41
411.8	433.45
412.178	442.94
412.555	454.47
412.933	456.95
413.31	473.67
413.687	459.44
414.065	469.15
414.442	466.89
414.819	476.61
415.197	464.86
415.574	476.16
415.951	476.39
416.328	482.94
416.705	494.46
417.082	500.79
417.46	490.62
417.837	500.57
418.214	496.5
418.591	492.2
418.967	499.44
419.344	512.32
419.721	523.62
420.098	503.73
420.475	510.06
420.852	510.51
421.228	516.38
421.605	500.11
421.982	525.42
422.358	519.55
422.735	524.07
423.111	526.78
423.488	551.86
423.864	533.33
424.241	541.92
424.617	552.09
424.994	551.86
425.37	557.97
425.746	544.41
426.123	581.24
426.499	561.81
426.875	573.11
427.251	576.27
427.627	575.14
428.003	581.69
428.379	587.12
428.756	585.54
429.132	593.22
429.507	595.03
429.883	612.2
430.259	610.85
430.635	610.85
431.011	631.64
431.387	606.33
431.763	617.4
432.138	639.09
432.514	631.41
432.89	644.52
433.265	630.73
433.641	647.23
434.016	647.45
434.392	665.53
434.767	654.01
435.143	658.08
435.518	675.02
435.894	663.5
436.269	664.63
436.644	692.2
437.02	699.43
437.395	696.49
437.77	711.41
438.145	686.78
438.52	700.79
438.895	706.21
439.271	718.41
439.646	718.87
440.021	751.18
440.395	744.4
440.77	729.94
441.145	734.23
441.52	756.15
441.895	749.15
442.27	772.42
442.645	748.7
443.019	762.71
443.394	743.95
443.769	746.44
444.143	741.01
444.518	786.43
444.892	764.06
445.267	777.85
445.641	769.26
446.016	795.93
446.39	795.7
446.764	813.1
447.139	769.71
447.513	789.37
447.887	790.73
448.262	816.26
448.636	792.76
449.01	817.17
449.384	826.21
449.758	834.57
450.132	818.07
450.506	841.12
450.88	843.83
451.254	811.07
451.628	856.71
452.002	855.81
452.376	862.59
452.75	863.95
453.123	839.54
453.497	904.85
453.871	891.97
454.244	879.99
454.618	892.65
454.992	897.39
455.365	916.83
455.739	910.05
456.112	912.53
456.486	935.36
456.859	923.83
457.232	965.86
457.606	958.86
457.979	971.29
458.352	980.1
458.725	995.02
459.099	1007.9
459.472	1003.83
459.845	1002.47
460.218	1022.36
460.591	1038.4
460.964	1028.91
461.337	1040.21
461.71	1072.98
462.083	1082.25
462.456	1072.53
462.829	1070.95
463.201	1069.14
463.574	1102.36
463.947	1137.16
464.32	1129.02
464.692	1123.83
465.065	1135.8
465.438	1151.4
465.81	1174.9
466.183	1179.42
466.555	1187.33
466.928	1215.12
467.3	1188.01
467.672	1223.48
468.045	1247.89
468.417	1263.03
468.789	1287.21
469.161	1286.31
469.534	1308
469.906	1330.6
470.278	1347.1
470.65	1351.39
471.022	1373.09
471.394	1398.62
471.766	1420.32
472.138	1393.42
472.51	1484.72
472.882	1482.46
473.253	1457.83
473.625	1500.99
473.997	1560.43
474.369	1575.11
474.74	1592.74
475.112	1595.23
475.484	1629.12
475.855	1664.83
476.227	1653.76
476.598	1706.41
476.97	1710.93
477.341	1739.86
477.713	1797.93
478.084	1805.39
478.455	1853.52
478.827	1846.97
479.198	1913.86
479.569	1935.56
479.94	2006.74
480.311	1997.48
480.682	2038.38
481.053	2098.94
481.424	2139.62
481.795	2159.28
482.166	2162.67
482.537	2202.89
482.908	2265.04
483.279	2297.58
483.65	2317.69
484.021	2378.71
484.391	2406.28
484.762	2459.84
485.133	2455.32
485.503	2524.24
485.874	2581.64
486.244	2571.47
486.615	2611.47
486.985	2660.28
487.356	2698.93
487.726	2735.31
488.097	2818.02
488.467	2846.72
488.837	2893.05
489.207	2950.67
489.578	2949.99
489.948	3002.42
490.318	3024.79
490.688	3070.44
491.058	3101.63
491.428	3151.12
491.798	3142.3
492.168	3222.53
492.538	3250.55
492.908	3300.27
493.278	3325.12
493.648	3343.88
494.017	3378.46
494.387	3447.38
494.757	3452.8
495.126	3531.45
495.496	3473.6
495.866	3553.59
496.235	3587.04
496.605	3615.51
496.974	3643.53
497.344	3678.56
497.713	3690.31
498.082	3705.45
498.452	3751.55
498.821	3774.38
499.19	3745.9
499.559	3814.15
499.928	3841.04
500.298	3903.19
500.667	3911.55
501.036	3912.68
501.405	3931.89
501.774	3984.09
502.143	3980.25
502.512	4012.56
502.88	4058.89
503.249	4025.22
503.618	4036.74
503.987	4055.73
504.356	4091.88
504.724	4122.17
505.093	4157.87
505.462	4202.84
505.83	4208.27
506.199	4179.11
506.567	4237.19
506.936	4215.27
507.304	4293.23
507.672	4255.27
508.041	4295.49
508.409	4307.02
508.777	4382.72
509.145	4357.87
509.514	4417.07
509.882	4436.06
510.25	4468.6
510.618	4476.28
510.986	4445.09
511.354	4489.39
511.722	4539.56
512.09	4526.67
512.458	4558.54
512.826	4578.2
513.193	4592.66
513.561	4615.03
513.929	4607.35
514.297	4647.8
514.664	4637.86
515.032	4649.38
515.4	4711.3
515.767	4727.35
516.135	4693.68
516.502	4682.83
516.869	4795.59
517.237	4790.17
517.604	4822.94
517.972	4778.42
518.339	4796.95
518.706	4845.76
519.073	4850.73
519.44	4876.95
519.808	4876.04
520.175	4836.5
520.542	5008.02
520.909	4938.19
521.276	4926.66
521.643	4977.28
522.009	5005.98
522.376	5021.58
522.743	5016.83
523.11	5091.63
523.477	5129.37
523.843	5129.6
524.21	5196.04
524.577	5212.31
524.943	5184.28
525.31	5168.24
525.676	5247.11
526.043	5329.37
526.409	5295.02
526.776	5286.2
527.142	5363.26
527.508	5337.05
527.874	5404.84
528.241	5410.49
528.607	5399.87
528.973	5471.06
529.339	5511.73
529.705	5547.66
530.071	5596.03
530.437	5563.94
530.803	5630.15
531.169	5665.85
531.535	5641
531.901	5675.35
532.267	5666.53
532.632	5778.39
532.998	5747.43
533.364	5808.22
533.73	5825.62
534.095	5791.27
534.461	5828.11
534.826	5909.92
535.192	5899.75
535.557	5946.75
535.923	5989.01
536.288	5984.04
536.653	6014.55
537.019	5940.2
537.384	5995.11
537.749	6063.81
538.114	6106.52
538.479	6065.84
538.845	6164.82
539.21	6146.75
539.575	6139.51
539.94	6151.94
540.305	6237.14
540.67	6249.57
541.034	6270.13
541.399	6289.57
541.764	6223.58
542.129	6321.88
542.494	6343.12
542.858	6403.91
543.223	6404.14
543.587	6401.65
543.952	6461.09
544.316	6454.99
544.681	6483.23
545.045	6576.79
545.41	6566.62
545.774	6601.65
546.138	6623.34
546.503	6661.08
546.867	6663.79
547.231	6669.44
547.595	6757.58
547.959	6723.91
548.324	6767.52
548.688	6824.24
549.052	6760.51
549.416	6834.41
549.779	6815.2
550.143	6913.28
550.507	6897.91
550.871	6887.29
551.235	6931.58
551.599	6975.65
551.962	7032.6
552.326	6944.46
552.689	7015.42
553.053	6998.93
553.417	7049.55
553.78	7183.33
554.143	7058.13
554.507	7161.18
554.87	7172.71
555.234	7229.88
555.597	7167.28
555.96	7286.83
556.323	7247.06
556.686	7232.37
557.05	7294.96
557.413	7337.9
557.776	7384
558.139	7387.62
558.502	7340.39
558.865	7386.03
559.228	7458.8
559.59	7442.76
559.953	7454.28
560.316	7572.7
560.679	7584.67
561.041	7577.22
561.404	7612.92
561.767	7650.43
562.129	7652.02
562.492	7755.06
562.854	7662.64
563.217	7727.04
563.579	7774.27
563.941	7819.47
564.304	7870.77
564.666	7829.64
565.028	7853.59
565.39	7912.35
565.753	7955.96
566.115	7853.59
566.477	7988.96
566.839	8008.84
567.201	8066.24
567.563	8018.79
567.925	8114.83
568.287	8171.32
568.648	8160.48
569.01	8183.98
569.372	8256.29
569.734	8219.91
570.095	8311.21
570.457	8342.39
570.819	8367.03
571.18	8357.08
571.542	8412.9
571.903	8517.53
572.265	8587.58
572.626	8544.42
572.987	8661.03
573.349	8635.04
573.71	8683.18
574.071	8753.46
574.432	8809.27
574.794	8877.75
575.155	8868.93
575.516	8923.85
575.877	9023.05
576.238	9074.13
576.599	9185.76
576.96	9264.63
577.32	9275.93
577.681	9344.85
578.042	9465.53
578.403	9536.03
578.763	9598.86
579.124	9745.29
579.485	9862.13
579.845	9874.33
580.206	10015.34
580.566	10150.48
580.927	10274.09
581.287	10456.01
581.648	10498.5
582.008	10717.92
582.368	10776.23
582.728	10927.18
583.089	11128.31
583.449	11249.44
583.809	11353.84
584.169	11645.58
584.529	11775.07
584.889	12038.57
585.249	12160.6
585.609	12323.98
585.969	12650.98
586.329	12771.2
586.688	13017.3
587.048	13191.76
587.408	13466.78
587.768	13694.12
588.127	13972.98
588.487	14123.26
588.846	14481.44
589.206	14647.54
589.565	14867.19
589.925	15236
590.284	15487.06
590.643	15790.33
591.003	15985.36
591.362	16324.78
591.721	16555.29
592.08	16858.78
592.44	17123.86
592.799	17518.88
593.158	17709.38
593.517	18020.33
593.876	18319.31
594.235	18531.28
594.593	18974.2
594.952	19282.67
595.311	19469.11
595.67	19885.59
596.029	20300.5
596.387	20625.46
596.746	20998.56
597.104	21112.68
597.463	21416.17
597.822	21838.54
598.18	22012.99
598.538	22392.19
598.897	22819.53
599.255	22929.13
599.613	23427.19
599.972	23632.84
600.33	24045.26
600.688	24395.53
601.046	24605.69
601.404	25026.25
601.762	25256.98
602.12	25636.4
602.478	25895.38
602.836	26140.34
603.194	26352.09
603.552	26658.3
603.91	26857.39
604.268	27189.36
604.625	27427.54
604.983	27806.51
605.341	27969
605.698	28256.45
606.056	28649.88
606.413	28889.2
606.771	29224.1
607.128	29467.04
607.485	29509.07
607.843	29749.29
608.2	30160.13
608.557	30468.37
608.914	30467.46
609.272	31043.72
609.629	31218.4
609.986	31437.38
610.343	31499.98
610.7	31983.35
611.057	32184.03
611.414	32340.63
611.771	32549.21
612.127	32894.52
612.484	32985.59
612.841	33386.48
613.198	33321.85
613.554	33442.52
613.911	33905.79
614.267	34053.13
614.624	34200.02
614.98	34370.41
615.337	34513.91
615.693	34710.74
616.05	34828.48
616.406	35175.59
616.762	35225.98
617.118	35277.05
617.475	35465.75
617.831	35649.47
618.187	35871.16
618.543	35994.1
618.899	36261.89
619.255	36406.97
619.611	36378.49
619.967	36715.66
620.323	36885.15
620.678	37000.62
621.034	36988.87
621.39	37066.38
621.746	37133.28
622.101	37580.72
622.457	37410.78
622.812	37537.33
623.168	37751.79
623.523	37799.02
623.879	38082.63
624.234	37859.13
624.589	38022.29
624.945	38169.41
625.3	38283.53
625.655	38339.57
626.01	38401.72
626.365	38458.89
626.72	38604.87
627.075	38625.44
627.43	38642.61
627.785	38654.59
628.14	38719.67
628.495	38901.59
628.85	38826.11
629.205	38778.88
629.559	39173.22
629.914	39032.21
630.269	39105.2
630.623	38976.39
630.978	39078.76
631.332	39264.74
631.687	39283.95
632.041	39243.73
632.396	39312.65
632.75	39220
633.104	39286.89
633.459	39205.54
633.813	39229.94
634.167	39383.61
634.521	39367.79
634.875	39460.45
635.229	39401.46
635.583	39232.65
635.937	39260
636.291	39152.21
636.645	39328.25
636.999	39276.95
637.352	39556.71
637.706	39202.37
638.06	39453.67
638.413	39289.83
638.767	39245.31
639.121	39339.77
639.474	39151.08
639.828	39166.67
640.181	39278.76
640.534	39297.96
640.888	39273.11
641.241	39234.91
641.594	39212.32
641.947	39344.29
642.301	39244.41
642.654	39233.56
643.007	39349.49
643.36	39325.76
643.713	39147.46
644.066	39480.56
644.419	39071.98
644.771	38773.23
645.124	38622.5
645.477	38493.92
645.83	38379.8
646.182	38151.33
646.535	38130.31
646.888	38112.68
647.24	37799.47
647.593	38055.74
647.945	38105.9
648.298	37918.34
648.65	37959.69
649.002	37860.94
649.355	37946.14
649.707	37988.17
650.059	38053.93
650.411	38505.89
650.763	38553.58
651.115	38936.62
651.467	38804.87
651.819	38933.45
652.171	38765.1
652.523	38791.54
652.875	38842.38
653.227	38672.22
653.578	38728.49
653.93	38747.92
654.282	38628.15
654.633	38479.23
654.985	38593.8
655.337	38641.48
655.688	38681.71
656.039	38788.82
656.391	38313.58
656.742	38623.86
657.094	38469.06
657.445	38716.06
657.796	38633.35
658.147	38474.03
658.498	38516.29
658.849	38570.53
659.2	38492.56
659.551	38370.98
659.902	38650.75
660.253	38564.42
660.604	38573.46
660.955	38371.89
661.306	38586.57
661.656	38250.08
662.007	38353.36
662.358	38424.77
662.708	38452.11
663.059	38378.21
663.409	38265.45
663.76	38479.91
664.11	38398.1
664.461	38575.95
664.811	38379.57
665.161	38401.26
665.511	38315.62
665.862	38341.83
666.212	38476.97
666.562	38321.94
666.912	38392.9
667.262	38336.63
667.612	38318.1
667.962	38421.83
668.312	38309.74
668.662	38529.85
669.011	38335.96
669.361	38226.35
669.711	38213.02
670.06	38210.31
670.41	38119.92
670.76	38118.11
671.109	38136.41
671.459	38267.03
671.808	38312
672.157	38312.45
672.507	37987.04
672.856	38047.6
673.205	38063.87
673.554	38181.16
673.904	38099.8
674.253	38280.82
674.602	38064.78
674.951	37479.71
675.3	37351.35
675.649	38114.94
675.998	38079.46
676.346	38049.18
676.695	37921.95
677.044	37848.96
677.393	37915.18
677.741	37917.44
678.09	37809.19
678.438	37645.8
678.787	37731
679.135	37842.63
679.484	37573.94
679.832	37786.59
680.181	37464.34
680.529	37694.16
680.877	37477.67
681.225	37519.03
681.573	37708.4
681.922	37412.59
682.27	37320.61
682.618	37366.94
682.966	37212.59
683.314	37366.04
683.661	37118.81
684.009	37072.71
684.357	37093.5
684.705	36935.31
685.053	37053.96
685.4	36901.87
685.748	36745.49
686.095	36750.46
686.443	36738.94
686.79	36505.95
687.138	36676.79
687.485	36730.12
687.832	36470.69
688.18	36389.34
688.527	36459.62
688.874	36285.84
689.221	36285.61
689.568	36129.46
689.915	36087.43
690.262	36051.95
690.609	35901.44
690.956	35787.55
691.303	35780.99
691.65	35718.4
691.997	35673.43
692.344	35404.05
692.69	35509.14
693.037	35446.09
693.383	35128.81
693.73	35308.46
694.077	35116.83
694.423	35079.54
694.769	34966.55
695.116	34939.21
695.462	34754.58
695.808	34708.93
696.155	34905.31
696.501	34465.77
696.847	34480.01
697.193	34344.42
697.539	34529.05
697.885	34079.8
698.231	34135.61
698.577	34090.42
698.923	34028.95
699.269	33812.23
699.614	33699.02
699.96	33691.11
700.306	33653.59
700.651	33607.49
700.997	33377.44
701.342	33446.14
701.688	33384.9
702.033	33297.44
702.379	33317.56
702.724	33245.92
703.069	33145.13
703.415	32836.44
703.76	32828.76
704.105	32829.66
704.45	32845.7
704.795	32600.51
705.14	32424.7
705.485	32430.8
705.83	32337.92
706.175	32452.95
706.52	32332.72
706.865	32132.95
707.209	32025.16
707.554	32043.92
707.899	32116.46
708.243	31901.1
708.588	31853.87
708.932	31666.3
709.277	31612.29
709.621	31804.15
709.966	31496.14
710.31	31615.45
710.654	31279.87
710.998	31271.06
711.342	31293.43
711.687	31270.38
712.031	31224.5
712.375	30960.33
712.719	30983.83
713.063	31076.49
713.407	31095.92
713.75	30871.07
714.094	30860.9
714.438	30799.66
714.782	30692.09
715.125	30718.53
715.469	30713.78
715.812	30456.61
716.156	30364.87
716.499	30295.49
716.843	30434.69
717.186	30216.39
717.53	30413.23
717.873	30271.08
718.216	30235.83
718.559	30069.96
718.902	30031.31
719.246	30034.25
719.589	29950.64
719.932	29848.95
720.275	29782.06
720.617	29733.02
720.96	29634.72
721.303	29642.17
721.646	29599.01
721.989	29378.68
722.331	29517.66
722.674	29515.85
723.016	29409.18
723.359	29379.81
723.701	29413.93
724.044	29238.12
724.386	29107.05
724.729	29288.28
725.071	29084
725.413	29046.71
725.755	29054.84
726.097	28965.58
726.439	28875.19
726.782	28907.95
727.124	28887.62
727.465	28802.42
727.807	28754.29
728.149	28763.55
728.491	28630.45
728.833	28648.3
729.175	28589.09
729.516	28484.24
729.858	28386.61
730.199	28500.28
730.541	28500.51
730.882	28400.4
731.224	28378.93
731.565	28308.87
731.906	28280.4
732.248	28172.61
732.589	28034.76
732.93	28011.93
733.271	28021.42
733.612	28050.12
733.953	28011.48
734.294	27871.15
734.635	27849.68
734.976	27962.89
735.317	27783.92
735.658	27822.56
735.999	27797.25
736.339	27677.93
736.68	27862.11
737.021	27687.87
737.361	27609.01
737.702	27844.25
738.042	27635.22
738.383	27556.35
738.723	27601.55
739.063	27532.17
739.404	27433.42
739.744	27352.06
740.084	27337.15
740.424	27289.01
740.764	27235.91
741.104	27442.23
741.444	27161.11
741.784	27135.12
742.124	27147.32
742.464	27131.05
742.804	27031.39
743.143	27075.23
743.483	26990.94
743.823	26777.62
744.162	26877.5
744.502	26877.73
744.841	26802.47
745.181	26870.72
745.52	26756.37
745.86	26773.55
746.199	26699.65
746.538	26597.51
746.877	26655.81
747.216	26639.99
747.556	26567
747.895	26577.39
748.234	26422.6
748.573	26354.58
748.911	26315.48
749.25	26339.89
749.589	26248.82
749.928	26223.05
750.267	26196.39
750.605	26172.89
750.944	26201.59
751.283	26105.99
751.621	26233
751.96	25868.26
752.298	25950.29
752.636	25915.49
752.975	25796.85
753.313	25727.47
753.651	25850.18
753.989	25719.56
754.327	25690.64
754.666	25408.39
755.004	25529.74
755.342	25671.66
755.679	25526.8
756.017	25284.1
756.355	25404.54
756.693	25250.65
757.031	25399.8
757.368	25107.6
757.706	25207.03
758.044	25073.03
758.381	25135.17
758.719	25036.42
759.056	24982.18
759.394	24920.94
759.731	24727.95
760.068	24662.87
760.405	24682.98
760.743	24521.63
