Data from hue_210_FLMS001491_00019.txt Node
Date: Tue Feb 07 16:40:50 GMT 2017
User: dcchb
Spectrometer: FLMS00149
Trigger mode: 0
Integration Time (sec): 2.000000E-2
Scans to average: 10
Electric dark correction enabled: true
Nonlinearity correction enabled: false
Boxcar width: 0
XAxis mode: Wavelengths
Number of Pixels in Spectrum: 2048
>>>>>Begin Spectral Data<<<<<
341.393	-7.82
341.776	-7.82
342.16	-7.82
342.543	-67.48
342.927	-65.9
343.31	-81.04
343.693	-83.75
344.077	-63.19
344.46	-50.31
344.843	-54.38
345.226	-34.26
345.61	-20.93
345.993	-24.55
346.376	-15.73
346.759	10.03
347.142	39.86
347.525	35.11
347.908	58.16
348.291	82.57
348.674	86.18
349.057	116.24
349.44	100.42
349.823	130.02
350.206	168.22
350.588	185.84
350.971	203.02
351.354	228.33
351.737	227.65
352.119	259.96
352.502	246.86
352.884	246.86
353.267	275.33
353.65	282.56
354.032	293.86
354.414	295.67
354.797	287.53
355.179	300.42
355.562	328.89
355.944	346.06
356.326	316.69
356.709	331.6
357.091	332.28
357.473	325.27
357.855	308.1
358.238	330.47
358.62	321.43
359.002	339.06
359.384	349.23
359.766	337.25
360.148	331.15
360.53	330.02
360.912	331.38
361.294	339.74
361.676	344.03
362.057	339.06
362.439	319.62
362.821	312.39
363.203	312.84
363.584	332.51
363.966	308.1
364.348	336.12
364.729	307.87
365.111	306.52
365.493	330.25
365.874	314.65
366.256	298.38
366.637	326.4
367.019	300.42
367.4	297.25
367.781	313.97
368.163	300.19
368.544	281.89
368.925	290.47
369.306	305.61
369.688	295.22
370.069	336.8
370.45	306.52
370.831	304.94
371.212	302.45
371.593	306.97
371.974	294.09
372.355	308.55
372.736	332.51
373.117	307.65
373.498	324.37
373.879	316.46
374.26	331.38
374.641	301.09
375.021	319.85
375.402	314.43
375.783	310.81
376.163	310.81
376.544	328.44
376.925	316.46
377.305	331.38
377.686	320.53
378.066	308.1
378.447	328.89
378.827	329.12
379.208	335.22
379.588	319.17
379.968	338.15
380.349	319.17
380.729	308.55
381.109	320.75
381.489	335.44
381.87	322.34
382.25	312.17
382.63	331.6
383.01	339.28
383.39	309
383.77	335.67
384.15	337.48
384.53	314.2
384.91	346.29
385.29	334.77
385.67	337.93
386.049	359.62
386.429	353.3
386.809	361.43
387.189	345.39
387.568	363.47
387.948	363.69
388.328	350.36
388.707	366.4
389.087	375.44
389.466	346.06
389.846	377.02
390.225	353.3
390.605	376.57
390.984	362.79
391.363	366.85
391.743	358.95
392.122	350.36
392.501	359.4
392.881	379.51
393.26	356.91
393.639	376.57
394.018	382.22
394.397	384.93
394.776	403.69
395.155	380.19
395.534	374.09
395.913	398.94
396.292	413.63
396.671	372.96
397.05	405.72
397.429	402.33
397.808	391.71
398.186	376.35
398.565	393.29
398.944	412.5
399.323	415.67
399.701	390.13
400.08	399.62
400.458	424.25
400.837	405.72
401.215	433.75
401.594	419.73
401.972	423.58
402.351	426.74
402.729	430.81
403.107	446.17
403.486	419.73
403.864	432.62
404.242	439.62
404.62	445.27
404.999	435.55
405.377	455.67
405.755	446.17
406.133	459.51
406.511	466.06
406.889	460.64
407.267	466.06
407.645	504.03
408.023	504.48
408.401	492.95
408.779	509.45
409.156	511.48
409.534	516.46
409.912	517.59
410.29	542.22
410.667	556.23
411.045	549.45
411.422	542.44
411.8	570.24
412.178	544.7
412.555	591.03
412.933	587.87
413.31	600.07
413.687	610.01
414.065	625.15
414.442	609.33
414.819	632.38
415.197	631.48
415.574	655.66
415.951	645.04
416.328	655.43
416.705	644.81
417.082	668.99
417.46	665.6
417.837	698.37
418.214	688.43
418.591	710.57
418.967	704.25
419.344	725.72
419.721	730.24
420.098	743.12
420.475	754.64
420.852	794.41
421.228	777.47
421.605	796.67
421.982	792.83
422.358	809.33
422.735	865.82
423.111	850.91
423.488	855.66
423.864	880.74
424.241	883.23
424.617	907.63
424.994	901.76
425.37	913.96
425.746	951.7
426.123	972.49
426.499	981.3
426.875	963.45
427.251	998.48
427.627	1010.45
428.003	1014.97
428.379	1017.91
428.756	1044.13
429.132	1069.44
429.507	1089.77
429.883	1068.08
430.259	1090
430.635	1125.7
431.011	1111.92
431.387	1149.66
431.763	1152.82
432.138	1172.94
432.514	1199.83
432.89	1191.01
433.265	1226.95
433.641	1253.84
434.016	1270.33
434.392	1288.86
434.767	1344.23
435.143	1343.33
435.518	1378.35
435.894	1352.59
436.269	1402.53
436.644	1432.82
437.02	1442.98
437.395	1488.63
437.77	1519.59
438.145	1536.32
438.52	1511.23
438.895	1571.34
439.271	1594.17
439.646	1664.22
440.021	1662.87
440.395	1670.1
440.77	1666.03
441.145	1654.96
441.52	1745.35
441.895	1734.95
442.27	1752.58
442.645	1762.75
443.019	1799.81
443.394	1827.16
443.769	1832.8
444.143	1851.11
444.518	1896.98
444.892	1864.67
445.267	1913.25
445.641	1927.49
446.016	1936.31
446.39	1952.8
446.764	1963.87
447.139	1946.47
447.513	1982.41
447.887	2009.3
448.262	2015.62
448.636	2023.53
449.01	2061.05
449.384	2073.02
449.758	2086.58
450.132	2097.88
450.506	2156.86
450.88	2137.66
451.254	2118.67
451.628	2174.94
452.002	2192.57
452.376	2203.19
452.75	2263.3
453.123	2236.18
453.497	2291.78
453.871	2291.32
454.244	2334.71
454.618	2369.51
454.992	2384.43
455.365	2426.01
455.739	2446.8
456.112	2459.46
456.486	2489.51
456.859	2527.48
457.232	2540.36
457.606	2575.84
457.979	2569.73
458.352	2651.54
458.725	2657.42
459.099	2687.02
459.472	2715.04
459.845	2727.24
460.218	2747.36
460.591	2799.11
460.964	2789.84
461.337	2905.55
461.71	2916.62
462.083	2951.87
462.456	2929.73
462.829	2978.99
463.201	3019.21
463.574	3007.46
463.947	3084.75
464.32	3168.36
464.692	3184.41
465.065	3158.65
465.438	3195.03
465.81	3275.48
466.183	3258.08
466.555	3361.8
466.928	3420.79
467.3	3353.89
467.672	3394.57
468.045	3495.81
468.417	3512.08
468.789	3564.74
469.161	3567.67
469.534	3644.28
469.906	3735.13
470.278	3732.64
470.65	3792.3
471.022	3828.23
471.394	3897.38
471.766	3911.85
472.138	3974.22
472.51	4020.32
472.882	4077.49
473.253	4106.42
473.625	4193.87
473.997	4260.99
474.369	4300.54
474.74	4311.84
475.112	4425.51
475.484	4411.72
475.855	4529.46
476.227	4594.77
476.598	4661.21
476.97	4712.96
477.341	4772.84
477.713	4861.2
478.084	4845.16
478.455	5001.99
478.827	5064.58
479.198	5164.69
479.569	5150.91
479.94	5276.1
480.311	5311.58
480.682	5396.55
481.053	5485.36
481.424	5594.74
481.795	5642.87
482.166	5715.64
482.537	5771.01
482.908	5887.84
483.279	5933.04
483.65	6028.85
484.021	6122.64
484.391	6125.35
484.762	6241.28
485.133	6299.58
485.503	6380.03
485.874	6454.83
486.244	6533.47
486.615	6622.74
486.985	6657.08
487.356	6733.92
487.726	6841.71
488.097	6949.05
488.467	6971.65
488.837	7103.85
489.207	7162.83
489.578	7252.1
489.948	7365.77
490.318	7452.77
490.688	7428.59
491.058	7515.37
491.428	7592.2
491.798	7690.5
492.168	7739.77
492.538	7836.49
492.908	7923.94
493.278	7953.1
493.648	7966.2
494.017	8049.36
494.387	8120.78
494.757	8161.23
495.126	8283.03
495.496	8262.24
495.866	8290.71
496.235	8388.56
496.605	8389.02
496.974	8442.35
497.344	8471.73
497.713	8526.64
498.082	8594.89
498.452	8665.39
498.821	8626.98
499.19	8631.27
499.559	8715.56
499.928	8795.56
500.298	8877.82
500.667	8902.68
501.036	8785.16
501.405	8948.1
501.774	8894.77
502.143	8988.55
502.512	8997.36
502.88	9047.76
503.249	9080.98
503.618	9038.94
503.987	9088.43
504.356	9100.18
504.724	9194.65
505.093	9116.46
505.462	9147.87
505.83	9222.67
506.199	9277.81
506.567	9360.97
506.936	9369.33
507.304	9445.94
507.672	9478.71
508.041	9480.51
508.409	9530.91
508.777	9527.97
509.145	9597.12
509.514	9501.53
509.882	9555.77
510.25	9612.04
510.618	9577.23
510.986	9579.27
511.354	9644.35
511.722	9762.54
512.09	9708.76
512.458	9689.55
512.826	9759.15
513.193	9760.73
513.561	9788.98
513.929	9838.47
514.297	9870.56
514.664	9881.18
515.032	9892.48
515.4	9935.64
515.767	9927.28
516.135	9957.34
516.502	9840.28
516.869	9919.37
517.237	9957.79
517.604	9903.55
517.972	9920.05
518.339	10017
518.706	10017.67
519.073	9988.97
519.44	10055.19
519.808	10038.69
520.175	10028.07
520.542	10113.27
520.909	10133.83
521.276	10047.28
521.643	10039.14
522.009	10080.95
522.376	10157.11
522.743	10158.91
523.11	10216.99
523.477	10280.04
523.843	10229.42
524.21	10324.11
524.577	10296.76
524.943	10287.5
525.31	10298.57
525.676	10318.01
526.043	10302.86
526.409	10242.08
526.776	10336.76
527.142	10284.79
527.508	10294.73
527.874	10325.01
528.241	10356.2
528.607	10371.11
528.973	10380.6
529.339	10358.91
529.705	10363.2
530.071	10383.09
530.437	10357.78
530.803	10344.22
531.169	10346.93
531.535	10253.83
531.901	10307.61
532.267	10238.01
532.632	10327.04
532.998	10202.98
533.364	10291.57
533.73	10247.95
534.095	10261.51
534.461	10245.69
534.826	10196.2
535.192	10219.48
535.557	10204.79
535.923	10153.49
536.288	10125.92
536.653	10144.45
537.019	10111.91
537.384	10101.97
537.749	10043.44
538.114	10000.5
538.479	10034.4
538.845	10061.29
539.21	9929.77
539.575	9920.73
539.94	9907.17
540.305	9921.18
540.67	9880.95
541.034	9855.42
541.399	9786.72
541.764	9767.06
542.129	9725.25
542.494	9729.77
542.858	9690.9
543.223	9579.49
543.587	9705.82
543.952	9622.2
544.316	9585.82
544.681	9507.41
545.045	9562.32
545.41	9527.52
545.774	9519.61
546.138	9498.82
546.503	9463.11
546.867	9438.71
547.231	9487.97
547.595	9385.83
547.959	9333.17
548.324	9236
548.688	9287.07
549.052	9305.38
549.416	9256.56
549.779	9154.19
550.143	9194.42
550.507	9153.74
550.871	9180.63
551.235	9128.21
551.599	9108.55
551.962	9100.86
552.326	9039.4
552.689	9062.45
553.053	9002.56
553.417	9011.37
553.78	9018.15
554.143	8951.94
554.507	9021.54
554.87	8899.29
555.234	8964.37
555.597	8843.24
555.96	8851.15
556.323	8850.25
556.686	8898.61
557.05	8848.44
557.413	8866.97
557.776	8782.23
558.139	8835.78
558.502	8824.94
558.865	8772.06
559.228	8839.85
559.59	8793.98
559.953	8702
560.316	8816.35
560.679	8754.2
561.041	8801.44
561.404	8786.29
561.767	8872.62
562.129	8747.43
562.492	8853.86
562.854	8787.2
563.217	8732.74
563.579	8780.64
563.941	8819.97
564.304	8822.23
564.666	8819.06
565.028	8763.24
565.39	8800.76
565.753	8871.94
566.115	8844.6
566.477	8840.08
566.839	8882.34
567.201	8863.13
567.563	8906.74
567.925	8878.5
568.287	8881.66
568.648	8898.83
569.01	8878.04
569.372	8914.43
569.734	8934.09
570.095	8918.49
570.457	8946.97
570.819	8983.8
571.18	8918.95
571.542	9010.92
571.903	8937.93
572.265	9019.96
572.626	8926.4
572.987	9001.66
573.349	8984.48
573.71	9036.23
574.071	9060.64
574.432	9043.01
574.794	9101.31
575.155	9104.93
575.516	9029.68
575.877	9096.12
576.238	9112.16
576.599	9064.03
576.96	9070.58
577.32	9056.8
577.681	9134.76
578.042	9153.97
578.403	9132.95
578.763	9143.35
579.124	9151.93
579.485	9183.8
579.845	9182.44
580.206	9130.92
580.566	9123.01
580.927	9231.48
581.287	9250.69
581.648	9220.18
582.008	9300.86
582.368	9188.32
582.728	9273.51
583.089	9254.98
583.449	9288.65
583.809	9279.16
584.169	9270.35
584.529	9259.05
584.889	9321.2
585.249	9344.7
585.609	9213.18
585.969	9353.74
586.329	9273.74
586.688	9306.96
587.048	9307.18
587.408	9271.48
587.768	9294.98
588.127	9257.47
588.487	9278.26
588.846	9378.14
589.206	9281.65
589.565	9334.98
589.925	9328.43
590.284	9323.23
590.643	9359.84
591.003	9381.31
591.362	9358.93
591.721	9363.23
592.08	9368.43
592.44	9337.47
592.799	9395.09
593.158	9365.94
593.517	9384.92
593.876	9402.32
594.235	9363
594.593	9356
594.952	9312.38
595.311	9373.85
595.67	9362.32
596.029	9440.29
596.387	9472.38
596.746	9494.07
597.104	9393.06
597.463	9376.34
597.822	9348.99
598.18	9368.43
598.538	9355.77
598.897	9427.18
599.255	9363.91
599.613	9543.56
599.972	9406.17
600.33	9418.82
600.688	9412.49
601.046	9405.71
601.404	9419.95
601.762	9418.59
602.12	9491.13
602.478	9407.75
602.836	9482.32
603.194	9405.49
603.552	9458.82
603.91	9377.01
604.268	9369.33
604.625	9393.96
604.983	9452.27
605.341	9403.91
605.698	9480.51
606.056	9473.06
606.413	9506.5
606.771	9493.62
607.128	9503.56
607.485	9467.18
607.843	9476.22
608.2	9484.81
608.557	9548.76
608.914	9520.74
609.272	9509.21
609.629	9571.13
609.986	9592.6
610.343	9524.81
610.7	9550.57
611.057	9521.42
611.414	9548.76
611.771	9571.81
612.127	9616.1
612.484	9594.63
612.841	9591.02
613.198	9543.56
613.554	9582.43
613.911	9590.34
614.267	9549.21
614.624	9555.54
614.98	9683.67
615.337	9616.1
615.693	9678.7
616.05	9641.64
616.406	9663.79
616.762	9665.14
617.118	9715.54
617.475	9689.55
617.831	9677.12
618.187	9666.05
618.543	9685.03
618.899	9725.7
619.255	9687.51
619.611	9761.64
619.967	9713.05
620.323	9783.1
620.678	9755.99
621.034	9704.01
621.39	9704.24
621.746	9617.23
622.101	9816.1
622.457	9779.04
622.812	9764.57
623.168	9733.61
623.523	9751.92
623.879	9799.6
624.234	9661.98
624.589	9766.61
624.945	9758.25
625.3	9725.03
625.655	9717.57
626.01	9788.98
626.365	9756.21
626.72	9765.03
627.075	9794.4
627.43	9709.89
627.785	9707.4
628.14	9617.68
628.495	9759.15
628.85	9713.73
629.205	9694.97
629.559	9735.87
629.914	9714.18
630.269	9732.94
630.623	9697
630.978	9571.13
631.332	9685.71
631.687	9696.78
632.041	9645.25
632.396	9690.9
632.75	9612.71
633.104	9614.97
633.459	9525.48
633.813	9572.71
634.167	9545.14
634.521	9548.76
634.875	9581.3
635.229	9569.78
635.583	9506.95
635.937	9499.5
636.291	9513.51
636.645	9471.93
636.999	9499.04
637.352	9446.84
637.706	9429.44
638.06	9483.23
638.413	9421.76
638.767	9430.12
639.121	9437.8
639.474	9388.09
639.828	9359.39
640.181	9384.02
640.534	9420.85
640.888	9337.24
641.241	9318.26
641.594	9331.59
641.947	9317.58
642.301	9345.6
642.654	9305.15
643.007	9320.74
643.36	9318.48
643.713	9287.98
644.066	9355.09
644.419	9287.3
644.771	9193.97
645.124	9176.11
645.477	9141.54
645.83	9032.62
646.182	8986.74
646.535	8995.78
646.888	9047.3
647.24	9053.18
647.593	9018.83
647.945	9005.5
648.298	8902.22
648.65	8932.28
649.002	8887.31
649.355	9023.35
649.707	8965.5
650.059	8994.88
650.411	9114.2
650.763	9135.21
651.115	9242.33
651.467	9228.32
651.819	9186.74
652.171	9181.31
652.523	9129.79
652.875	9123.01
653.227	9092.5
653.578	9195.78
653.93	9204.81
654.282	9107.87
654.633	9127.75
654.985	9181.76
655.337	9236
655.688	9170.24
656.039	9201.2
656.391	9147.64
656.742	9196.45
657.094	9246.85
657.445	9223.57
657.796	9150.58
658.147	9156
658.498	9231.71
658.849	9214.08
659.2	9129.56
659.551	9175.44
659.902	9223.35
660.253	9184.93
660.604	9208.88
660.955	9153.97
661.306	9181.31
661.656	9209.33
662.007	9195.78
662.358	9238.94
662.708	9186.28
663.059	9216.34
663.409	9175.44
663.76	9205.72
664.11	9246.62
664.461	9133.86
664.811	9203.01
665.161	9207.53
665.511	9147.19
665.862	9195.78
666.212	9185.38
666.562	9271.48
666.912	9189.67
667.262	9182.44
667.612	9220.41
667.962	9209.56
668.312	9181.76
668.662	9242.1
669.011	9234.19
669.361	9234.19
669.711	9143.12
670.06	9198.26
670.41	9153.29
670.76	9139.96
671.109	9171.6
671.459	9118.49
671.808	9176.34
672.157	9249.56
672.507	9122.1
672.856	9100.64
673.205	9106.51
673.554	9179.96
673.904	9105.83
674.253	9158.26
674.602	9105.16
674.951	9010.24
675.3	8918.72
675.649	9121.65
675.998	9073.52
676.346	9121.2
676.695	9155.78
677.044	9012.28
677.393	9017.25
677.741	9024.71
678.09	9054.76
678.438	9003.24
678.787	8935.89
679.135	8982.9
679.484	8961.88
679.832	9018.38
680.181	8938.15
680.529	8957.82
680.877	8933.41
681.225	8882.56
681.573	8918.04
681.922	8899.51
682.27	8838.04
682.618	8845.28
682.966	8717.14
683.314	8821.77
683.661	8825.16
684.009	8745.62
684.357	8679.4
684.705	8722.34
685.053	8685.05
685.4	8708.1
685.748	8647.99
686.095	8598.73
686.443	8579.97
686.79	8619.97
687.138	8586.3
687.485	8581.33
687.832	8554.89
688.18	8541.78
688.527	8452.74
688.874	8455.91
689.221	8506.53
689.568	8455
689.915	8427.21
690.262	8445.96
690.609	8391.5
690.956	8384.5
691.303	8375.23
691.65	8272.86
691.997	8361.45
692.344	8218.4
692.69	8314.89
693.037	8224.73
693.383	8128.91
693.73	8156.25
694.077	8121.23
694.423	8097.95
694.769	8078.29
695.116	8069.48
695.462	8031.06
695.808	8004.62
696.155	7998.29
696.501	7928.01
696.847	7925.75
697.193	7867.45
697.539	7897.96
697.885	7788.35
698.231	7814.79
698.577	7773.21
698.923	7778.64
699.269	7716.27
699.614	7713.78
699.96	7675.36
700.306	7610.28
700.651	7640.34
700.997	7594.46
701.342	7575.48
701.688	7584.07
702.033	7455.93
702.379	7465.88
702.724	7490.74
703.069	7457.52
703.415	7406.9
703.76	7398.99
704.105	7372.09
704.45	7374.13
704.795	7343.85
705.14	7350.63
705.485	7328.25
705.83	7238.54
706.175	7240.12
706.52	7209.16
706.865	7151.54
707.209	7188.37
707.554	7173.91
707.899	7215.49
708.243	7082.61
708.588	7086.9
708.932	7050.29
709.277	7074.48
709.621	7050.52
709.966	6988.6
710.31	6978.21
710.654	6981.37
710.998	6999
711.342	6958.09
711.687	6880.81
712.031	6900.47
712.375	6854.59
712.719	6886.01
713.063	6805.56
713.407	6862.28
713.75	6836.29
714.094	6836.74
714.438	6851.66
714.782	6796.06
715.125	6756.97
715.469	6771.66
715.812	6765.56
716.156	6725.56
716.499	6711.09
716.843	6729.85
717.186	6657.76
717.53	6693.02
717.873	6737.08
718.216	6729.85
718.559	6714.94
718.902	6580.93
719.246	6612.11
719.589	6644.88
719.932	6578.89
720.275	6608.95
720.617	6608.27
720.96	6563.98
721.303	6560.82
721.646	6577.09
721.989	6566.92
722.331	6572.57
722.674	6566.01
723.016	6569.86
723.359	6532.57
723.701	6542.51
724.044	6535.96
724.386	6500.25
724.729	6529.63
725.071	6502.51
725.413	6522.4
725.755	6580.02
726.097	6481.5
726.439	6458.45
726.782	6432.68
727.124	6446.02
727.465	6462.06
727.807	6469.07
728.149	6460.93
728.491	6405.79
728.833	6390.65
729.175	6440.14
729.516	6499.57
729.858	6438.79
730.199	6500.48
730.541	6438.56
730.882	6431.78
731.224	6469.97
731.565	6414.38
731.906	6446.69
732.248	6457.54
732.589	6413.93
732.93	6434.27
733.271	6371.67
733.612	6389.3
733.953	6404.21
734.294	6408.05
734.635	6406.92
734.976	6407.15
735.317	6417.77
735.658	6443.31
735.999	6423.19
736.339	6393.36
736.68	6415.28
737.021	6462.06
737.361	6392.01
737.702	6467.49
738.042	6444.66
738.383	6440.82
738.723	6499.12
739.063	6475.62
739.404	6370.54
739.744	6496.41
740.084	6476.75
740.424	6486.92
740.764	6505.22
741.104	6526.24
741.444	6499.57
741.784	6500.48
742.124	6518.33
742.464	6569.18
742.804	6545.22
743.143	6568.27
743.483	6629.74
743.823	6646.69
744.162	6630.42
744.502	6710.87
744.841	6682.85
745.181	6780.7
745.52	6753.13
745.86	6810.3
746.199	6800.36
746.538	6748.61
746.877	6930.3
747.216	6963.52
747.556	6951.54
747.895	7000.8
748.234	7071.76
748.573	7024.31
748.911	7151.08
749.25	7129.61
749.589	7253
749.928	7334.13
750.267	7330.06
750.605	7388.59
750.944	7515.37
751.283	7558.53
751.621	7687.79
751.96	7727.57
752.298	7848.92
752.636	7878.52
752.975	8025.41
753.313	7983.6
753.651	8193.99
753.989	8250.26
754.327	8342.69
754.666	8406.19
755.004	8593.76
755.342	8657.94
755.679	8756.24
756.017	8911.94
756.355	9038.27
756.693	9069.22
757.031	9338.6
757.368	9410.91
757.706	9572.04
758.044	9653.16
758.381	9840.28
758.719	10010.44
759.056	10129.99
759.394	10365.24
759.731	10431.67
760.068	10588.73
760.405	10720.71
760.743	10905.11
761.08	11051.55
761.417	11220.35
761.754	11466.22
762.091	11561.14
762.428	11704.64
762.765	11861.69
763.102	12131.07
763.438	12298.52
763.775	12442.02
764.112	12584.84
764.449	12757.72
764.785	12918.39
765.122	13108.67
765.458	13169
765.795	13383.24
766.131	13540.07
766.467	13644.47
766.804	13790.23
767.14	14000.17
767.476	14181.41
767.812	14265.25
