Data from hue_60_FLMS001491_28.txt Node
Date: Mon Feb 06 15:17:09 GMT 2017
User: dcchb
Spectrometer: FLMS00149
Trigger mode: 0
Integration Time (sec): 2.000000E-2
Scans to average: 10
Electric dark correction enabled: true
Nonlinearity correction enabled: false
Boxcar width: 0
XAxis mode: Wavelengths
Number of Pixels in Spectrum: 2048
>>>>>Begin Spectral Data<<<<<
341.393	-13.29
341.776	-13.29
342.16	-13.29
342.543	-72.05
342.927	-73.4
343.31	-53.06
343.693	-61.88
344.077	-64.81
344.46	-70.69
344.843	-57.81
345.226	-58.71
345.61	-31.37
345.993	-20.75
346.376	0.04
346.759	16.54
347.142	26.03
347.525	36.43
347.908	59.93
348.291	80.27
348.674	97.44
349.057	102.41
349.44	120.27
349.823	145.12
350.206	145.8
350.588	195.74
350.971	214.27
351.354	244.56
351.737	238.68
352.119	266.93
352.502	246.82
352.884	278.45
353.267	289.75
353.65	306.25
354.032	294.27
354.414	325.91
354.797	328.17
355.179	315.97
355.562	341.95
355.944	326.59
356.326	322.29
356.709	344.89
357.091	338.56
357.473	339.02
357.855	334.72
358.238	338.34
358.62	329.98
359.002	346.7
359.384	343.08
359.766	335.63
360.148	339.47
360.53	315.29
360.912	328.62
361.294	305.12
361.676	347.83
362.057	336.98
362.439	319.13
362.821	347.6
363.203	312.58
363.584	336.76
363.966	347.38
364.348	334.72
364.729	334.95
365.111	337.89
365.493	312.58
365.874	294.27
366.256	325.23
366.637	320.71
367.019	307.38
367.4	327.49
367.781	325.68
368.163	301.28
368.544	307.83
368.925	316.64
369.306	342.41
369.688	334.04
370.069	308.73
370.45	312.12
370.831	309.64
371.212	327.04
371.593	334.04
371.974	317.32
372.355	307.6
372.736	326.81
373.117	339.92
373.498	315.51
373.879	321.84
374.26	302.86
374.641	324.1
375.021	305.12
375.402	321.39
375.783	314.61
376.163	316.42
376.544	320.26
376.925	330.2
377.305	320.03
377.686	305.57
378.066	302.86
378.447	320.26
378.827	334.04
379.208	311.9
379.588	332.01
379.968	308.51
380.349	343.99
380.729	320.03
381.109	326.81
381.489	351.22
381.87	342.86
382.25	345.34
382.63	334.04
383.01	324.1
383.39	319.58
383.77	336.76
384.15	343.99
384.53	336.76
384.91	350.99
385.29	349.64
385.67	362.52
386.049	347.38
386.429	343.76
386.809	341.95
387.189	352.12
387.568	356.19
387.948	349.86
388.328	367.26
388.707	358.9
389.087	348.28
389.466	343.76
389.846	363.87
390.225	370.88
390.605	350.32
390.984	343.99
391.363	339.24
391.743	365.23
392.122	354.38
392.501	337.66
392.881	334.95
393.26	374.5
393.639	367.72
394.018	354.84
394.397	375.17
394.776	368.39
395.155	344.21
395.534	361.84
395.913	362.29
396.292	375.85
396.671	375.4
397.05	383.76
397.429	365.46
397.808	382.41
398.186	376.08
398.565	387.83
398.944	380.37
399.323	380.6
399.701	380.15
400.08	381.05
400.458	374.72
400.837	372.24
401.215	375.63
401.594	380.37
401.972	370.43
402.351	375.17
402.729	379.47
403.107	390.77
403.486	406.59
403.864	393.48
404.242	391.22
404.62	391.9
404.999	403.65
405.377	384.89
405.755	421.27
406.133	405.68
406.511	411.33
406.889	412.01
407.267	412.46
407.645	406.81
408.023	424.89
408.401	391.67
408.779	407.26
409.156	430.09
409.534	428.96
409.912	432.8
410.29	438.45
410.667	442.97
411.045	420.82
411.422	422.18
411.8	412.91
412.178	462.86
412.555	446.58
412.933	440.93
413.31	445.45
413.687	465.57
414.065	455.17
414.442	446.81
414.819	451.78
415.197	474.38
415.574	444.32
415.951	458.34
416.328	468.96
416.705	444.32
417.082	450.2
417.46	482.06
417.837	471.22
418.214	475.28
418.591	486.13
418.967	496.3
419.344	487.49
419.721	492.68
420.098	499.69
420.475	514.38
420.852	507.6
421.228	487.71
421.605	507.83
421.982	496.75
422.358	506.92
422.735	503.98
423.111	520.03
423.488	502.85
423.864	513.7
424.241	507.37
424.617	510.76
424.994	529.75
425.37	540.59
425.746	551.89
426.123	543.53
426.499	518.22
426.875	528.84
427.251	559.35
427.627	539.24
428.003	520.48
428.379	554.38
428.756	553.02
429.132	577.2
429.507	554.38
429.883	563.42
430.259	578.11
430.635	567.49
431.011	580.59
431.387	576.52
431.763	583.98
432.138	592.8
432.514	583.53
432.89	600.93
433.265	625.79
433.641	639.35
434.016	620.59
434.392	613.59
434.767	621.27
435.143	620.59
435.518	630.08
435.894	641.16
436.269	652
436.644	649.97
437.02	661.04
437.395	632.12
437.77	642.29
438.145	666.69
438.52	661.27
438.895	660.82
439.271	682.51
439.646	674.6
440.021	684.09
440.395	682.96
440.77	676.86
441.145	683.19
441.52	715.96
441.895	705.79
442.27	684.09
442.645	698.33
443.019	692.45
443.394	716.86
443.769	723.41
444.143	703.75
444.518	732.9
444.892	748.95
445.267	725.45
445.641	743.07
446.016	736.75
446.39	717.54
446.764	724.32
447.139	743.53
447.513	771.55
447.887	733.81
448.262	748.27
448.636	727.25
449.01	780.13
449.384	762.51
449.758	800.93
450.132	802.73
450.506	768.38
450.88	787.37
451.254	789.4
451.628	814.71
452.002	797.54
452.376	834.37
452.75	813.35
453.123	832.79
453.497	803.64
453.871	822.85
454.244	826.24
454.618	844.09
454.992	855.39
455.365	869.62
455.739	872.11
456.112	889.51
456.486	895.16
456.859	872.34
457.232	912.79
457.606	922.28
457.979	924.76
458.352	921.6
458.725	948.27
459.099	946.46
459.472	981.49
459.845	983.29
460.218	1000.47
460.591	984.65
460.964	991.65
461.337	1028.72
461.71	1042.73
462.083	1082.05
462.456	1020.35
462.829	1042.95
463.201	1076.62
463.574	1070.3
463.947	1091.09
464.32	1106.23
464.692	1133.35
465.065	1155.94
465.438	1141.03
465.81	1177.86
466.183	1174.7
466.555	1208.37
466.928	1222.84
467.3	1253.34
467.672	1237.75
468.045	1277.97
468.417	1310.06
468.789	1303.96
469.161	1306.9
469.534	1342.15
469.906	1371.53
470.278	1376.28
470.65	1422.15
471.022	1469.16
471.394	1480.68
471.766	1499.89
472.138	1531.08
472.51	1582.6
472.882	1596.16
473.253	1658.08
473.625	1665.99
473.997	1708.7
474.369	1734.46
474.74	1793.44
475.112	1848.81
475.484	1858.98
475.855	1895.59
476.227	1930.84
476.598	2029.14
476.97	2064.39
477.341	2116.14
477.713	2181.68
478.084	2234.79
478.455	2297.61
478.827	2350.26
479.198	2462.8
479.569	2483.14
479.94	2565.4
480.311	2651.27
480.682	2701.67
481.053	2780.53
481.424	2901.66
481.795	2949.8
482.166	3047.65
482.537	3122.22
482.908	3237.47
483.279	3309.33
483.65	3407.18
484.021	3575.09
484.391	3661.19
484.762	3714.97
485.133	3834.74
485.503	3953.38
485.874	4079.71
486.244	4172.59
486.615	4324.67
486.985	4425.24
487.356	4578.23
487.726	4658.68
488.097	4872.68
488.467	4900.25
488.837	5148.16
489.207	5194.48
489.578	5375.27
489.948	5527.58
490.318	5643.74
490.688	5759.89
491.058	5914.69
491.428	6075.36
491.798	6249.14
492.168	6443.71
492.538	6540.66
492.908	6662.47
493.278	6853.42
493.648	7014.32
494.017	7126.63
494.387	7287.76
494.757	7466.29
495.126	7661.54
495.496	7760.06
495.866	7921.64
496.235	8030.11
496.605	8167.74
496.974	8353.72
497.344	8571.12
497.713	8690.44
498.082	8795.07
498.452	9032.12
498.821	9125.23
499.19	9320.25
499.559	9499
499.928	9629.39
500.298	9735.61
500.667	9919.56
501.036	9947.58
501.405	10192.99
501.774	10343.27
502.143	10492.87
502.512	10588.69
502.88	10726.99
503.249	10841.11
503.618	10984.61
503.987	11148.9
504.356	11250.59
504.724	11437.48
505.093	11603.35
505.462	11689.68
505.83	11856.68
506.199	12088.99
506.567	12213.51
506.936	12252.83
507.304	12593.16
507.672	12599.94
508.041	12780.05
508.409	12847.61
508.777	13111.34
509.145	13165.35
509.514	13266.59
509.882	13393.36
510.25	13539.35
510.618	13664.54
510.986	13792.22
511.354	13929.39
511.722	14141.14
512.09	14346.11
512.458	14287.12
512.826	14535.25
513.193	14562.6
513.561	14758.75
513.929	14929.14
514.297	15089.59
514.664	15131.85
515.032	15285.74
515.4	15447.55
515.767	15605.51
516.135	15671.72
516.502	15740.65
516.869	16012.5
517.237	16165.72
517.604	16059.28
517.972	16255.43
518.339	16435.09
518.706	16591.92
519.073	16671.02
519.44	16849.77
519.808	16962.08
520.175	16964.79
520.542	17292.47
520.909	17491.56
521.276	17489.3
521.643	17652.69
522.009	17728.62
522.376	17988.72
522.743	18116.4
523.11	18273.46
523.477	18501.25
523.843	18562.72
524.21	18815.82
524.577	18934.01
524.943	19148.69
525.31	19152.99
525.676	19418.74
526.043	19490.83
526.409	19572.86
526.776	19946.86
527.142	19790.93
527.508	20041.78
527.874	20174.43
528.241	20323.58
528.607	20445.38
528.973	20586.85
529.339	20592.72
529.705	20839.72
530.071	20972.37
530.437	21098.7
530.803	21252.36
531.169	21407.16
531.535	21496.43
531.901	21454.62
532.267	21610.32
532.632	21806.7
532.998	21890.31
533.364	21933.93
533.73	21994.27
534.095	22327.59
534.461	22265.67
534.826	22494.14
535.192	22534.59
535.557	22745.88
535.923	22672.67
536.288	22808.71
536.653	22978.42
537.019	22976.84
537.384	23054.58
537.749	23137.29
538.114	23184.97
538.479	23252.09
538.845	23454.79
539.21	23320.11
539.575	23493.21
539.94	23614.11
540.305	23762.81
540.67	23676.03
541.034	23786.54
541.399	23998.06
541.764	24019.75
542.129	24060.65
542.494	24207.32
542.858	24254.77
543.223	24307.65
543.587	24502.22
543.952	24337.93
544.316	24439.4
544.681	24565.05
545.045	24738.37
545.41	24871.7
545.774	24863.8
546.138	24915.32
546.503	25008.2
546.867	25042.77
547.231	25266.27
547.595	25304.91
547.959	25408.87
548.324	25399.37
548.688	25495.19
549.052	25539.48
549.416	25550.78
549.779	25740.61
550.143	25832.36
550.507	26018.79
550.871	25877.78
551.235	26041.62
551.599	26268.05
551.962	26200.48
552.326	26359.8
552.689	26398.9
553.053	26483.41
553.417	26402.74
553.78	26782.16
554.143	26722.28
554.507	26877.08
554.87	26950.75
555.234	27204.07
555.597	27097.86
555.96	27338.08
556.323	27352.32
556.686	27496.72
557.05	27592.54
557.413	27555.48
557.776	27828.46
558.139	28017.84
558.502	27976.48
558.865	28088.12
559.228	28350.48
559.59	28413.53
559.953	28363.59
560.316	28696.24
560.679	28794.99
561.041	28898.27
561.404	29001.77
561.767	29129.22
562.129	29185.94
562.492	29491.47
562.854	29397.24
563.217	29469.1
563.579	29580.96
563.941	29838.81
564.304	29932.81
564.666	30085.35
565.028	30229.3
565.39	30251.22
565.753	30475.63
566.115	30501.84
566.477	30684.66
566.839	30787.71
567.201	31034.25
567.563	31100.69
567.925	31263.18
568.287	31312.21
568.648	31422.04
569.01	31491.19
569.372	31723.95
569.734	31587.23
570.095	31817.74
570.457	31971.86
570.819	32092.31
571.18	31954.23
571.542	32215.24
571.903	32227.44
572.265	32485.06
572.626	32624.72
572.987	32655.45
573.349	32752.85
573.71	32829.69
574.071	32929.8
574.432	33061.77
574.794	33300.18
575.155	33200.07
575.516	33144.71
575.877	33316.68
576.238	33392.16
576.599	33481.65
576.96	33443.91
577.32	33612.72
577.681	33763.9
578.042	33800.06
578.403	33737.23
578.763	33750.34
579.124	33915.99
579.485	34055.42
579.845	34166.83
580.206	34055.87
580.566	34027.17
580.927	34113.04
581.287	34329.31
581.648	34150.78
582.008	34354.85
582.368	34355.52
582.728	34391.91
583.089	34321.85
583.449	34325.24
583.809	34516.87
584.169	34537.44
584.529	34515.97
584.889	34661.96
585.249	34431.68
585.609	34390.78
585.969	34529.3
586.329	34445.46
586.688	34659.47
587.048	34641.62
587.408	34482.3
587.768	34642.97
588.127	34608.62
588.487	34530.43
588.846	34899.46
589.206	34661.28
589.565	34694.95
589.925	34792.35
590.284	34611.56
590.643	34892.91
591.003	34941.5
591.362	34970.87
591.721	34897.88
592.08	34962.74
592.44	34990.31
592.799	35056.75
593.158	34963.19
593.517	35067.14
593.876	35077.76
594.235	35033.47
594.593	35075.5
594.952	35138.33
595.311	35033.02
595.67	35127.93
596.029	35443.18
596.387	35397.3
596.746	35364.76
597.104	35161.83
597.463	35149.85
597.822	35557.53
598.18	35348.72
598.538	35295.84
598.897	35532.67
599.255	35324.76
599.613	35777.63
599.972	35506.91
600.33	35670.97
600.688	35508.04
601.046	35697.18
601.404	35739.67
601.762	35747.58
602.12	35873.22
602.478	35894.01
602.836	35973.79
603.194	35873.45
603.552	35849.95
603.91	35841.59
604.268	36057.85
604.625	35908.7
604.983	36093.78
605.341	35972.2
605.698	36231.18
606.056	36243.38
606.413	36330.39
606.771	36479.54
607.128	36571.74
607.485	36228.69
607.843	36343.04
608.2	36632.3
608.557	36721.11
608.914	36624.62
609.272	36715.91
609.629	36808.11
609.986	36966.08
610.343	36747.78
610.7	37096.69
611.057	37100.31
611.414	37007.2
611.771	37126.52
612.127	37317.93
612.484	37264.15
612.841	37477.02
613.198	37263.47
613.554	37314.09
613.911	37514.54
614.267	37603.8
614.624	37570.35
614.98	37645.83
615.337	37854.41
615.693	37723.34
616.05	37716.56
616.406	38006.95
616.762	37887.41
617.118	37849.89
617.475	37763.34
617.831	38156.55
618.187	38064.35
618.543	38221.18
618.899	38354.29
619.255	38352.48
619.611	38371.91
619.967	38556.09
620.323	38530.78
620.678	38448.52
621.034	38413.27
621.39	38332.37
621.746	38304.12
622.101	38836.99
622.457	38487.62
622.812	38680.83
623.168	38670.89
623.523	38838.12
623.879	38808.29
624.234	38637.44
624.589	38739.36
624.945	38850.55
625.3	38873.6
625.655	38898.23
626.01	38846.25
626.365	38924.22
626.72	38882.41
627.075	38790.21
627.43	38834.5
627.785	38729.65
628.14	38784.79
628.495	38918.12
628.85	38962.63
629.205	38773.26
629.559	39024.78
629.914	38796.54
630.269	38957.89
630.623	38851.68
630.978	38767.61
631.332	38951.56
631.687	38946.81
632.041	38879.92
632.396	38971
632.75	38759.93
633.104	38871.56
633.459	38766.71
633.813	38718.8
634.167	38721.74
634.521	38706.82
634.875	38691.91
635.229	38692.13
635.583	38532.81
635.937	38661.62
636.291	38658.01
636.645	38595.41
636.999	38583.21
637.352	38636.77
637.706	38387.96
638.06	38655.07
638.413	38380.05
638.767	38378.69
639.121	38425.25
639.474	38190
639.828	38318.36
640.181	38286.49
640.534	38331.92
640.888	38275.42
641.241	38055.99
641.594	38230.45
641.947	38288.08
642.301	38286.72
642.654	38213.05
643.007	38179.15
643.36	38109.32
643.713	38206.04
644.066	38223.9
644.419	37917.92
644.771	37675.21
645.124	37278.61
645.477	37375.33
645.83	37183.25
646.182	36993.42
646.535	36980.99
646.888	36900.99
647.24	36794.78
647.593	37048.79
647.945	36836.59
648.298	36803.14
648.65	36678.85
649.002	36584.39
649.355	36745.52
649.707	36670.26
650.059	36730.15
650.411	37237.71
650.763	37198.16
651.115	37532.84
651.467	37574.42
651.819	37519.51
652.171	37440.64
652.523	37480.41
652.875	37432.5
653.227	37346.63
653.578	37357.03
653.93	37427.31
654.282	37314.54
654.633	37205.17
654.985	37310.93
655.337	37206.3
655.688	37302.34
656.039	37289.23
656.391	36997.71
656.742	37070.71
657.094	37158.61
657.445	37217.59
657.796	37069.12
658.147	37094.66
658.498	37034.55
658.849	37083.36
659.2	37029.13
659.551	36930.6
659.902	37129.01
660.253	36914.78
660.604	37103.47
660.955	36830.26
661.306	36988.9
661.656	36829.58
662.007	36997.49
662.358	36763.82
662.708	36819.19
663.059	36856.7
663.409	36682.92
663.76	36983.93
664.11	36883.37
664.461	36747.32
664.811	36865.97
665.161	36791.62
665.511	36824.61
665.862	36858.51
666.212	36916.59
666.562	36795.69
666.912	36804.05
667.262	36707.78
667.612	36800.88
667.962	36900.32
668.312	36757.27
668.662	36949.58
669.011	36800.88
669.361	36653.54
669.711	36736.7
670.06	36478.18
670.41	36754.78
670.76	36556.6
671.109	36771.96
671.459	36606.76
671.808	36618.29
672.157	36621.68
672.507	36383.27
672.856	36516.6
673.205	36561.79
673.554	36687.67
673.904	36511.85
674.253	36548.69
674.602	36566.99
674.951	35935.37
675.3	35865.99
675.649	36503.04
675.998	36293.55
676.346	36324.51
676.695	36443.38
677.044	36171.52
677.393	36219.2
677.741	36229.6
678.09	36284.74
678.438	36176.49
678.787	36153.22
679.135	36211.75
679.484	35978.98
679.832	36043.61
680.181	35931.53
680.529	36103.05
680.877	35916.16
681.225	35799.55
681.573	36060.34
681.922	35810.17
682.27	35712.1
682.618	35714.58
682.966	35687.47
683.314	35766.11
683.661	35437.98
684.009	35409.96
684.357	35436.85
684.705	35393.01
685.053	35447.25
685.4	35347.36
685.748	35127.03
686.095	35090.87
686.443	34991.21
686.79	34915.51
687.138	35148.04
687.485	35108.5
687.832	34917.09
688.18	34948.05
688.527	34820.37
688.874	34685.68
689.221	34727.49
689.568	34637.55
689.915	34412.92
690.262	34503.09
690.609	34493.37
690.956	34210.44
691.303	34197.56
691.65	34011.8
691.997	34034.18
692.344	33908.53
692.69	33848.87
693.037	33940.84
693.383	33621.08
693.73	33541.99
694.077	33440.07
694.423	33562.1
694.769	33457.47
695.116	33372.95
695.462	33373.4
695.808	33219.28
696.155	33190.36
696.501	32976.8
696.847	33111.94
697.193	32835.56
697.539	32806.19
697.885	32729.35
698.231	32466.08
698.577	32556.02
698.923	32484.61
699.269	32348.8
699.614	32325.52
699.96	32174.34
700.306	32147.22
700.651	32074
700.997	31850.05
701.342	31934.12
701.688	31757.85
702.033	31725.54
702.379	31793.1
702.724	31566.9
703.069	31630.62
703.415	31305.43
703.76	31495.26
704.105	31318.77
704.45	31213.91
704.795	31136.85
705.14	31066.12
705.485	31110.41
705.83	30908.83
706.175	30846.91
706.52	30749.29
706.865	30631.78
707.209	30653.7
707.554	30552.69
707.899	30629.75
708.243	30353.82
708.588	30426.59
708.932	30159.02
709.277	30122.87
709.621	30179.81
709.966	29940.05
710.31	30039.25
710.654	29839.26
710.998	29865.47
711.342	29894.62
711.687	29742.09
712.031	29721.97
712.375	29527.4
712.719	29610.11
713.063	29554.97
713.407	29728.75
713.75	29352.49
714.094	29467.29
714.438	29252.15
714.782	29364.92
715.125	29176.22
715.469	29215.32
715.812	29148.88
716.156	28957.47
716.499	28890.36
716.843	28919.06
717.186	28774.88
717.53	28871.83
717.873	28720.19
718.216	28704.15
718.559	28664.6
718.902	28435.45
719.246	28544.38
719.589	28462.8
719.932	28420.76
720.275	28322.91
720.617	28272.07
720.96	28219.64
721.303	28294.44
721.646	28224.84
721.989	28061
722.331	28220.09
722.674	28092.86
723.016	28160.88
723.359	27995.69
723.701	28047.67
724.044	27776.94
724.386	27629.37
724.729	27828.01
725.071	27630.95
725.413	27726.77
725.755	27585.08
726.097	27508.25
726.439	27275.26
726.782	27411.07
727.124	27556.15
727.465	27360.45
727.807	27279.33
728.149	27286.56
728.491	27214.24
728.833	27266.22
729.175	27171.53
729.516	27020.8
729.858	27164.75
730.199	27063.74
730.541	27052.89
730.882	26942.38
731.224	27061.93
731.565	26838.43
731.906	26881.82
732.248	26822.84
732.589	26690.41
732.93	26591.21
733.271	26531.1
733.612	26698.78
733.953	26653.8
734.294	26470.76
734.635	26470.31
734.976	26558.21
735.317	26391.89
735.658	26336.3
735.999	26364.77
736.339	26276.41
736.68	26351.21
737.021	26356.86
737.361	26219.24
737.702	26317.77
738.042	26393.02
738.383	26087.49
738.723	26132.24
739.063	26020.38
739.404	26114.16
739.744	26076.64
740.084	25914.16
740.424	25974.5
740.764	25967.04
741.104	25930.43
741.444	25690.89
741.784	25729.31
742.124	25706.71
742.464	25680.95
742.804	25680.5
743.143	25675.07
743.483	25677.56
743.823	25564.34
744.162	25410
744.502	25529.99
744.841	25337
745.181	25426.72
745.52	25330.45
745.86	25413.84
746.199	25220.4
746.538	25170.68
746.877	25228.31
747.216	25217.01
747.556	25101.76
747.895	25023.11
748.234	24941.08
748.573	25058.82
748.911	24984.92
749.25	25009.55
749.589	24841.88
749.928	24826.51
750.267	24846.85
750.605	24799.84
750.944	24725.04
751.283	24635.78
751.621	24647.76
751.96	24552.39
752.298	24449.57
752.636	24428.78
752.975	24388.33
753.313	24306.75
753.651	24426.74
753.989	24171.38
754.327	24360.76
754.666	24177.71
755.004	24176.81
755.342	24113.76
755.679	23970.71
756.017	23931.62
756.355	24028.11
