Data from hue_90_FLMS001491_99.txt Node
Date: Mon Feb 06 15:25:57 GMT 2017
User: dcchb
Spectrometer: FLMS00149
Trigger mode: 0
Integration Time (sec): 2.000000E-2
Scans to average: 10
Electric dark correction enabled: true
Nonlinearity correction enabled: false
Boxcar width: 0
XAxis mode: Wavelengths
Number of Pixels in Spectrum: 2048
>>>>>Begin Spectral Data<<<<<
341.393	-7.03
341.776	-7.03
342.16	-7.03
342.543	-41.38
342.927	-73.47
343.31	-84.32
343.693	-77.31
344.077	-60.82
344.46	-56.75
344.843	-50.65
345.226	-62.85
345.61	-41.16
345.993	-17.65
346.376	2.01
346.759	22.57
347.142	57.6
347.525	33.42
347.908	44.94
348.291	85.17
348.674	97.6
349.057	108.22
349.44	110.93
349.823	146.41
350.206	171.27
350.588	180.53
350.971	213.3
351.354	205.16
351.737	215.33
352.119	266.86
352.502	265.28
352.884	279.29
353.267	292.39
353.65	262.34
354.032	283.58
354.414	300.98
354.797	313.86
355.179	328.1
355.562	315.67
355.944	325.16
356.326	354.54
356.709	342.11
357.091	324.03
357.473	349.34
357.855	349.34
358.238	356.57
358.62	331.49
359.002	314.99
359.384	329
359.766	331.26
360.148	333.97
360.53	327.87
360.912	326.74
361.294	327.42
361.676	326.06
362.057	336.46
362.439	336.46
362.821	310.47
363.203	313.18
363.584	323.81
363.966	314.31
364.348	320.42
364.729	309.79
365.111	325.16
365.493	324.71
365.874	313.86
366.256	304.6
366.637	310.47
367.019	336.91
367.4	326.29
367.781	325.84
368.163	320.64
368.544	334.43
368.925	312.05
369.306	314.09
369.688	311.6
370.069	306.86
370.45	311.6
370.831	295.56
371.212	325.16
371.593	322.9
371.974	313.18
372.355	326.06
372.736	318.16
373.117	324.03
373.498	325.39
373.879	315.22
374.26	316.35
374.641	323.35
375.021	322.9
375.402	319.06
375.783	330.36
376.163	327.19
376.544	322.68
376.925	331.26
377.305	309.79
377.686	340.98
378.066	321.09
378.447	307.08
378.827	334.65
379.208	352.73
379.588	339.62
379.968	332.62
380.349	311.83
380.729	348.89
381.109	331.94
381.489	336.23
381.87	336.01
382.25	341.88
382.63	332.17
383.01	354.99
383.39	339.85
383.77	326.29
384.15	348.21
384.53	357.25
384.91	345.27
385.29	370.13
385.67	347.31
386.049	350.92
386.429	345.95
386.809	345.27
387.189	367.42
387.568	362.45
387.948	350.7
388.328	370.81
388.707	346.4
389.087	354.99
389.466	352.73
389.846	362.9
390.225	369.45
390.605	359.28
390.984	368.32
391.363	369.68
391.743	366.29
392.122	380.98
392.501	386.85
392.881	363.13
393.26	373.75
393.639	366.29
394.018	385.95
394.397	367.19
394.776	393.86
395.155	372.17
395.534	383.46
395.913	367.65
396.292	390.47
396.671	376.69
397.05	373.97
397.429	400.64
397.808	386.4
398.186	378.49
398.565	401.77
398.944	382.56
399.323	385.95
399.701	373.97
400.08	404.25
400.458	401.32
400.837	400.87
401.215	381.88
401.594	394.99
401.972	394.76
402.351	407.42
402.729	402
403.107	406.74
403.486	392.5
403.864	406.29
404.242	415.33
404.62	421.88
404.999	408.1
405.377	396.8
405.755	421.88
406.133	416.46
406.511	438.83
406.889	421.43
407.267	431.82
407.645	425.05
408.023	426.4
408.401	443.35
408.779	437.93
409.156	454.42
409.534	454.88
409.912	462.33
410.29	442.22
410.667	464.82
411.045	462.56
411.422	465.72
411.8	469.56
412.178	462.11
412.555	461.88
412.933	454.65
413.31	466.85
413.687	473.18
414.065	479.51
414.442	489.68
414.819	483.57
415.197	493.52
415.574	488.09
415.951	486.06
416.328	507.08
416.705	512.73
417.082	500.07
417.46	509.34
417.837	507.3
418.214	482.22
418.591	503.01
418.967	512.5
419.344	513.18
419.721	502.56
420.098	531.71
420.475	530.13
420.852	538.04
421.228	556.79
421.605	524.03
421.982	546.4
422.358	553.63
422.735	534.42
423.111	522.44
423.488	540.07
423.864	544.82
424.241	554.31
424.617	557.7
424.994	569.22
425.37	583.91
425.746	549.56
426.123	582.56
426.499	590.92
426.875	603.8
427.251	595.89
427.627	607.19
428.003	606.06
428.379	611.71
428.756	619.84
429.132	612.16
429.507	620.29
429.883	602.67
430.259	640.63
430.635	634.53
431.011	637.7
431.387	640.86
431.763	662.55
432.138	646.73
432.514	664.14
432.89	659.84
433.265	661.2
433.641	678.6
434.016	665.72
434.392	687.64
434.767	708.88
435.143	690.58
435.518	688.54
435.894	685.15
436.269	716.79
436.644	708.65
437.02	720.86
437.395	711.14
437.77	725.83
438.145	724.92
438.52	741.2
438.895	754.98
439.271	735.55
439.646	768.09
440.021	780.97
440.395	776.9
440.77	772.15
441.145	761.08
441.52	793.17
441.895	777.8
442.27	804.02
442.645	806.5
443.019	805.83
443.394	795.88
443.769	807.63
444.143	819.61
444.518	809.89
444.892	859.38
445.267	823
445.641	841.76
446.016	818.03
446.39	833.4
446.764	849.44
447.139	827.29
447.513	846.73
447.887	839.05
448.262	874.75
448.636	881.08
449.01	901.19
449.384	899.38
449.758	892.6
450.132	895.54
450.506	893.51
450.88	894.19
451.254	901.19
451.628	917.01
452.002	947.07
452.376	942.55
452.75	941.42
453.123	943.45
453.497	971.47
453.871	950.23
454.244	995.88
454.618	983.45
454.992	1029.1
455.365	1025.71
455.739	1030.23
456.112	1043.11
456.486	1044.46
456.859	1054.41
457.232	1082.66
457.606	1093.05
457.979	1080.85
458.352	1116.55
458.725	1117.23
459.099	1137.34
459.472	1130.11
459.845	1161.98
460.218	1147.51
460.591	1184.8
460.964	1194.97
461.337	1185.03
461.71	1228.87
462.083	1220.05
462.456	1249.66
462.829	1233.16
463.201	1242.65
463.574	1275.42
463.947	1295.08
464.32	1320.61
464.692	1312.71
465.065	1339.37
465.438	1381.86
465.81	1397.22
466.183	1417.56
466.555	1427.73
466.928	1438.8
467.3	1474.74
467.672	1487.84
468.045	1524.9
468.417	1533.26
468.789	1506.37
469.161	1572.36
469.534	1599.93
469.906	1629.08
470.278	1651.68
470.65	1670.44
471.022	1719.02
471.394	1748.63
471.766	1759.47
472.138	1785.69
472.51	1822.52
472.882	1845.12
473.253	1876.98
473.625	1921.96
473.997	1993.59
474.369	2019.35
474.74	2058.45
475.112	2099.35
475.484	2152.46
475.855	2168.95
476.227	2213.47
476.598	2299.35
476.97	2361.49
477.341	2416.63
477.713	2454.82
478.084	2500.92
478.455	2590.41
478.827	2646.23
479.198	2723.52
479.569	2782.05
479.94	2843.74
480.311	2918.54
480.682	3045.54
481.053	3111.53
481.424	3200.79
481.795	3243.73
482.166	3317.62
482.537	3432.65
482.908	3526.66
483.279	3589.48
483.65	3723.04
484.021	3795.8
484.391	3893.88
484.762	3957.83
485.133	4021.11
485.503	4108.56
485.874	4303.14
486.244	4374.32
486.615	4480.98
486.985	4620.19
487.356	4694.31
487.726	4821.54
488.097	4927.75
488.467	5061.31
488.837	5218.82
489.207	5289.55
489.578	5454.52
489.948	5542.2
490.318	5602.99
490.688	5739.93
491.058	5892.7
491.428	6014.5
491.798	6113.94
492.168	6295.17
492.538	6358.9
492.908	6508.5
493.278	6649.06
493.648	6708.04
494.017	6924.08
494.387	6999.79
494.757	7060.58
495.126	7260.12
495.496	7330.4
495.866	7425.09
496.235	7527.68
496.605	7643.16
496.974	7797.28
497.344	7907.79
497.713	7997.05
498.082	8109.36
498.452	8205.63
498.821	8310.04
499.19	8406.76
499.559	8473.2
499.928	8538.73
500.298	8698.27
500.667	8842.23
501.036	8879.74
501.405	8975.55
501.774	9082.9
502.143	9091.03
502.512	9280.63
502.88	9346.17
503.249	9407.86
503.618	9523.11
503.987	9553.39
504.356	9670.23
504.724	9719.04
505.093	9809.21
505.462	9838.81
505.83	9872.71
506.199	10024.79
506.567	10100.05
506.936	10058.69
507.304	10216.65
507.672	10316.08
508.041	10386.14
508.409	10411.45
508.777	10470.43
509.145	10614.16
509.514	10564.89
509.882	10625
510.25	10744.77
510.618	10802.4
510.986	10853.7
511.354	10942.51
511.722	10945.9
512.09	11064.31
512.458	11019.57
512.826	11167.36
513.193	11157.64
513.561	11223.63
513.929	11304.53
514.297	11401.71
514.664	11408.03
515.032	11489.61
515.4	11539.33
515.767	11540.46
516.135	11599.44
516.502	11526.45
516.869	11689.38
517.237	11746.78
517.604	11720.57
517.972	11798.98
518.339	11835.14
518.706	11817.29
519.073	11830.62
519.44	11946.1
519.808	12075.81
520.175	11882.15
520.542	12096.15
520.909	12121.23
521.276	12050.95
521.643	12233.55
522.009	12222.25
522.376	12255.02
522.743	12369.36
523.11	12318.97
523.477	12489.36
523.843	12455.24
524.21	12525.29
524.577	12543.14
524.943	12606.87
525.31	12612.97
525.676	12666.53
526.043	12754.21
526.409	12727.55
526.776	12786.98
527.142	12827.66
527.508	12798.05
527.874	12837.6
528.241	12868.79
528.607	12860.2
528.973	12942.68
529.339	13008.67
529.705	13004.83
530.071	13020.87
530.437	12901.55
530.803	13011.38
531.169	13018.39
531.535	12951.72
531.901	12953.3
532.267	13015
532.632	13068.55
532.998	12957.15
533.364	12979.52
533.73	13021.55
534.095	13033.75
534.461	13031.72
534.826	13027.2
535.192	12988.33
535.557	13061.32
535.923	12959.18
536.288	12997.14
536.653	12977.03
537.019	12867.66
537.384	12921.89
537.749	12986.75
538.114	13004.83
538.479	12873.76
538.845	12913.3
539.21	12803.02
539.575	12834.89
539.94	12821.1
540.305	12907.88
540.67	12805.74
541.034	12881.21
541.399	12734.78
541.764	12764.83
542.129	12802.12
542.494	12723.93
542.858	12737.94
543.223	12646.64
543.587	12724.83
543.952	12615.01
544.316	12675.57
544.681	12622.24
545.045	12682.35
545.41	12564.39
545.774	12511.51
546.138	12484.84
546.503	12521.9
546.867	12516.03
547.231	12477.16
547.595	12493.65
547.959	12408.69
548.324	12378.4
548.688	12388.57
549.052	12328.69
549.416	12329.14
549.779	12316.26
550.143	12347.22
550.507	12344.51
550.871	12267.45
551.235	12297.95
551.599	12247.79
551.962	12250.5
552.326	12281.68
552.689	12205.75
553.053	12137.05
553.417	12165.08
553.78	12248.69
554.143	12140.67
554.507	12100.44
554.87	12035.36
555.234	12187.67
555.597	12111.97
555.96	12069.94
556.323	12139.99
556.686	12016.15
557.05	12048.02
557.413	12104.51
557.776	12054.34
558.139	12151.06
558.502	12085.08
558.865	11985.65
559.228	12108.58
559.59	12081.01
559.953	12059.54
560.316	12119.88
560.679	12091.41
561.041	12135.7
561.404	12131.18
561.767	12123.49
562.129	12038.98
562.492	12249.14
562.854	12121.69
563.217	12106.77
563.579	12138.64
563.941	12203.27
564.304	12212.31
564.666	12270.38
565.028	12296.82
565.39	12232.64
565.753	12232.64
566.115	12167.34
566.477	12319.2
566.839	12297.5
567.201	12315.58
567.563	12431.74
567.925	12397.16
568.287	12281.68
568.648	12343.6
569.01	12416.14
569.372	12461.11
569.734	12376.14
570.095	12452.53
570.457	12530.26
570.819	12545.18
571.18	12442.58
571.542	12618.62
571.903	12530.49
572.265	12584.27
572.626	12501.56
572.987	12577.72
573.349	12599.41
573.71	12631.28
574.071	12611.84
574.432	12595.57
574.794	12715.8
575.155	12706.08
575.516	12647.32
575.877	12620.43
576.238	12641.45
576.599	12748.56
576.96	12640.54
577.32	12635.12
577.681	12758.96
578.042	12767.77
578.403	12760.77
578.763	12716.02
579.124	12772.52
579.485	12732.97
579.845	12779.52
580.206	12785.4
580.566	12749.02
580.927	12726.19
581.287	12783.14
581.648	12716.02
582.008	12822.46
582.368	12783.14
582.728	12782.46
583.089	12699.98
583.449	12672.86
583.809	12734.1
584.169	12785.17
584.529	12689.36
584.889	12794.44
585.249	12690.26
585.609	12665.4
585.969	12731.61
586.329	12685.29
586.688	12732.29
587.048	12725.74
587.408	12624.05
587.768	12658.4
588.127	12624.05
588.487	12663.82
588.846	12624.27
589.206	12584.5
589.565	12660.88
589.925	12619.3
590.284	12603.93
590.643	12648.68
591.003	12663.59
591.362	12697.49
591.721	12551.51
592.08	12568.45
592.44	12592.86
592.799	12536.37
593.158	12524.84
593.517	12583.14
593.876	12575.01
594.235	12513.09
594.593	12546.99
594.952	12583.14
595.311	12519.64
595.67	12579.75
596.029	12600.32
596.387	12664.05
596.746	12637.61
597.104	12587.89
597.463	12520.55
597.822	12511.28
598.18	12502.24
598.538	12517.16
598.897	12610.71
599.255	12495.46
599.613	12620.66
599.972	12539.53
600.33	12593.31
600.688	12542.24
601.046	12566.2
601.404	12563.48
601.762	12536.82
602.12	12550.15
602.478	12554.67
602.836	12528.91
603.194	12504.73
603.552	12467.21
603.91	12461.11
604.268	12472.64
604.625	12480.55
604.983	12518.29
605.341	12470.83
605.698	12534.11
606.056	12591.51
606.413	12487.1
606.771	12563.71
607.128	12531.62
607.485	12466.99
607.843	12511.06
608.2	12625.85
608.557	12615.46
608.914	12551.05
609.272	12574.1
609.629	12641.9
609.986	12586.99
610.343	12624.95
610.7	12758.73
611.057	12670.6
611.414	12665.63
611.771	12721.9
612.127	12699.3
612.484	12686.87
612.841	12734.33
613.198	12636.93
613.554	12727.55
613.911	12782.91
614.267	12802.35
614.624	12736.59
614.98	12759.18
615.337	12814.32
615.693	12786.75
616.05	12772.74
616.406	12831.5
616.762	12847.77
617.118	12778.17
617.475	12823.82
617.831	12863.59
618.187	12859.97
618.543	12861.78
618.899	12946.98
619.255	12914.43
619.611	12869.46
619.967	12910.14
620.323	12968.67
620.678	12904.27
621.034	12842.57
621.39	12886.86
621.746	12836.92
622.101	13030.59
622.457	12903.14
622.812	12962.57
623.168	12967.99
623.523	12996.24
623.879	13011.16
624.234	12981.78
624.589	12885.96
624.945	12913.98
625.3	12984.94
625.655	12871.05
626.01	13007.09
626.365	12947.43
626.72	12942.23
627.075	12871.72
627.43	12977.26
627.785	12876.24
628.14	12842.12
628.495	12855.23
628.85	12891.16
629.205	12838.5
629.559	12884.6
629.914	12843.02
630.269	12862.01
630.623	12865.17
630.978	12739.75
631.332	12840.76
631.687	12814.32
632.041	12737.94
632.396	12784.27
632.75	12705.63
633.104	12744.95
633.459	12683.03
633.813	12721.45
634.167	12750.37
634.521	12740.2
634.875	12714.89
635.229	12715.57
635.583	12589.02
635.937	12630.37
636.291	12616.59
636.645	12606.19
636.999	12629.7
637.352	12662.69
637.706	12571.62
638.06	12612.07
638.413	12488.23
638.767	12528.23
639.121	12529.81
639.474	12463.6
639.828	12435.8
640.181	12546.08
640.534	12490.72
640.888	12456.82
641.241	12316.03
641.594	12409.14
641.947	12388.8
642.301	12409.36
642.654	12457.27
643.007	12406.43
643.36	12424.28
643.713	12398.29
644.066	12434.9
644.419	12245.53
644.771	12300.89
645.124	12224.74
645.477	12157.17
645.83	12099.54
646.182	12007.79
646.535	11920.56
646.888	12024.51
647.24	11964.18
647.593	11965.08
647.945	11974.8
648.298	11958.53
648.65	11884.63
649.002	11860
649.355	11988.13
649.707	11932.09
650.059	11938.41
650.411	12074.46
650.763	12090.05
651.115	12299.76
651.467	12183.83
651.819	12288.01
652.171	12166.21
652.523	12192.87
652.875	12226.99
653.227	12118.75
653.578	12244.85
653.93	12187.67
654.282	12116.94
654.633	12129.82
654.985	12146.77
655.337	12183.83
655.688	12141.57
656.039	12197.84
656.391	12116.72
656.742	12187.22
657.094	12136.38
657.445	12175.02
657.796	12177.05
658.147	12211.18
658.498	12111.97
658.849	12264.73
659.2	12181.8
659.551	12163.72
659.902	12215.02
660.253	12178.18
660.604	12228.8
660.955	12058.41
661.306	12208.01
661.656	12233.32
662.007	12104.51
662.358	12167.56
662.708	12119.65
663.059	12155.13
663.409	12139.77
663.76	12247.79
664.11	12210.5
664.461	12178.18
664.811	12245.53
665.161	12246.88
665.511	12166.66
665.862	12177.96
666.212	12264.73
666.562	12250.95
666.912	12220.67
667.262	12223.61
667.612	12248.69
667.962	12199.42
668.312	12226.09
668.662	12206.88
669.011	12212.08
669.361	12174.57
669.711	12197.17
670.06	12131.86
670.41	12157.62
670.76	12094.12
671.109	12162.14
671.459	12211.85
671.808	12084.4
672.157	12160.1
672.507	12103.16
672.856	12088.92
673.205	12107.45
673.554	12145.87
673.904	12080.33
674.253	12138.64
674.602	12025.64
674.951	11898.87
675.3	11887.57
675.649	12027.23
675.998	12004.85
676.346	11980
676.695	11987
677.044	11831.07
677.393	11927.57
677.741	12023.84
678.09	11956.49
678.438	11977.96
678.787	11888.02
679.135	11939.54
679.484	11825.42
679.832	11885.99
680.181	11843.95
680.529	11865.87
680.877	11801.92
681.225	11840.34
681.573	11827.91
681.922	11784.97
682.27	11716.27
682.618	11748.59
682.966	11718.31
683.314	11732.32
683.661	11741.36
684.009	11629.72
684.357	11584.75
684.705	11581.36
685.053	11628.59
685.4	11594.47
685.748	11477.86
686.095	11493.23
686.443	11408.26
686.79	11391.54
687.138	11471.99
687.485	11474.25
687.832	11407.36
688.18	11339.11
688.527	11293.69
688.874	11330.3
689.221	11356.51
689.568	11209.85
689.915	11257.75
690.262	11187.7
690.609	11125.78
690.956	11120.81
691.303	11057.76
691.65	11022.05
691.997	11020.02
692.344	10872
692.69	10959.46
693.037	10963.98
693.383	10808.28
693.73	10902.51
694.077	10837.65
694.423	10797.88
694.769	10802.85
695.116	10737.32
695.462	10692.12
695.808	10714.72
696.155	10709.97
696.501	10571.67
696.847	10586.13
697.193	10487.61
697.539	10483.54
697.885	10450.54
698.231	10364.9
698.577	10388.85
698.923	10308.18
699.269	10323.54
699.614	10298.01
699.96	10274.5
700.306	10180.72
700.651	10188.18
700.997	10110.89
701.342	10089.65
701.688	10077.22
702.033	10051.68
702.379	10083.1
702.724	10003.32
703.069	9972.59
703.415	9895.76
703.76	9890.11
704.105	9822.31
704.45	9863.44
704.795	9774.63
705.14	9748.87
705.485	9670.23
705.83	9622.09
706.175	9729.66
706.52	9670.23
706.865	9657.34
707.209	9611.47
707.554	9569.66
707.899	9549.55
708.243	9515.2
708.588	9500.29
708.932	9400.63
709.277	9389.33
709.621	9453.28
709.966	9368.09
710.31	9337.81
710.654	9350.69
710.998	9344.13
711.342	9304.36
711.687	9305.72
712.031	9207.64
712.375	9266.39
712.719	9223.91
713.063	9162.89
713.407	9235.66
713.75	9138.94
714.094	9154.99
714.438	9061.43
714.782	9114.53
715.125	8998.83
715.469	9043.12
715.812	8965.61
716.156	8969
716.499	9015.1
716.843	8998.83
717.186	8925.84
717.53	8947.08
717.873	8999.96
718.216	8937.59
718.559	8946.63
718.902	8795.22
719.246	8846.07
719.589	8877.03
719.932	8802.45
720.275	8790.7
720.617	8795.67
720.96	8851.72
721.303	8793.86
721.646	8822.11
721.989	8699.63
722.331	8774.43
722.674	8728.1
723.016	8743.47
723.359	8732.17
723.701	8755
724.044	8604.94
724.386	8660.31
724.729	8715.9
725.071	8685.17
725.413	8661.21
725.755	8632.06
726.097	8618.95
726.439	8594.1
726.782	8635.9
727.124	8639.29
727.465	8600.42
727.807	8542.35
728.149	8568.79
728.491	8527.66
728.833	8538.5
729.175	8573.53
729.516	8545.06
729.858	8521.78
730.199	8533.98
730.541	8558.39
730.882	8535.11
731.224	8570.82
731.565	8484.49
731.906	8489.69
732.248	8524.72
732.589	8447.43
732.93	8486.08
733.271	8512.52
733.612	8487.66
733.953	8495.34
734.294	8479.07
734.635	8500.54
734.976	8531.72
735.317	8461.22
735.658	8504.61
735.999	8508.22
736.339	8477.26
736.68	8522.91
737.021	8536.47
737.361	8474.78
737.702	8499.41
738.042	8519.3
738.383	8592.97
738.723	8555
739.063	8549.58
739.404	8495.79
739.744	8535.34
740.084	8500.99
740.424	8598.16
740.764	8555.23
741.104	8570.14
741.444	8555.9
741.784	8547.09
742.124	8602.01
742.464	8625.51
742.804	8629.12
743.143	8643.81
743.483	8605.4
743.823	8672.06
744.162	8692.85
744.502	8711.38
744.841	8687.43
745.181	8770.81
745.52	8782.11
745.86	8812.62
746.199	8769.91
746.538	8847.2
746.877	8879.74
747.216	8949.11
747.556	8880.42
747.895	8968.55
748.234	8994.99
748.573	9092.61
748.911	9154.76
749.25	9176.68
749.589	9203.57
749.928	9282.44
750.267	9306.62
750.605	9385.26
750.944	9431.36
751.283	9417.13
751.621	9507.29
751.96	9552.04
752.298	9591.13
752.636	9748.19
752.975	9870.22
753.313	9873.16
753.651	10032.25
753.989	10072.93
754.327	10136.88
754.666	10164.9
755.004	10380.94
755.342	10455.97
755.679	10601.05
756.017	10620.03
756.355	10812.79
756.693	10875.62
757.031	11005.56
757.368	11104.09
757.706	11187.25
758.044	11329.39
758.381	11460.69
758.719	11573.68
759.056	11714.92
759.394	11806.21
759.731	11895.7
