Data from hue_220_FLMS001491_00035.txt Node
Date: Tue Feb 07 16:39:22 GMT 2017
User: dcchb
Spectrometer: FLMS00149
Trigger mode: 0
Integration Time (sec): 2.000000E-2
Scans to average: 10
Electric dark correction enabled: true
Nonlinearity correction enabled: false
Boxcar width: 0
XAxis mode: Wavelengths
Number of Pixels in Spectrum: 2048
>>>>>Begin Spectral Data<<<<<
341.393	-4.17
341.776	-4.17
342.16	-4.17
342.543	-61.34
342.927	-63.37
343.31	-65.18
343.693	-57.5
344.077	-66.09
344.46	-72.87
344.843	-59.76
345.226	-38.06
345.61	-13.88
345.993	-29.93
346.376	1.26
346.759	5.32
347.142	35.15
347.525	55.04
347.908	39
348.291	72.67
348.674	93.68
349.057	101.14
349.44	131.88
349.823	140.46
350.206	151.31
350.588	180.69
350.971	208.03
351.354	199.9
351.737	211.2
352.119	248.26
352.502	253.45
352.884	247.13
353.267	278.76
353.65	292.32
354.032	270.85
354.414	283.74
354.797	303.62
355.179	302.04
355.562	329.84
355.944	339.33
356.326	314.24
356.709	327.12
357.091	319.67
357.473	328.71
357.855	323.96
358.238	329.16
358.62	331.19
359.002	340.68
359.384	337.75
359.766	319.67
360.148	322.38
360.53	324.41
360.912	324.19
361.294	321.02
361.676	318.31
362.057	311.76
362.439	337.75
362.821	331.64
363.203	327.12
363.584	316.28
363.966	310.4
364.348	294.58
364.729	308.59
365.111	318.08
365.493	321.93
365.874	311.31
366.256	309.5
366.637	295.03
367.019	313.79
367.4	324.86
367.781	304.98
368.163	315.6
368.544	300.23
368.925	295.71
369.306	336.62
369.688	284.64
370.069	325.09
370.45	311.08
370.831	311.31
371.212	319.67
371.593	290.97
371.974	284.87
372.355	300.46
372.736	318.54
373.117	298.2
373.498	307.69
373.879	302.04
374.26	308.59
374.641	330.74
375.021	299.33
375.402	302.04
375.783	311.31
376.163	309.05
376.544	312.21
376.925	312.89
377.305	317.86
377.686	338.2
378.066	338.2
378.447	318.99
378.827	309.27
379.208	318.99
379.588	321.7
379.968	312.44
380.349	313.79
380.729	324.64
381.109	315.37
381.489	324.64
381.87	330.74
382.25	328.25
382.63	332.55
383.01	318.08
383.39	333.9
383.77	325.09
384.15	361.02
384.53	340.01
384.91	324.64
385.29	344.52
385.67	354.02
386.049	344.07
386.429	331.64
386.809	346.78
387.189	335.26
387.568	345.88
387.948	331.19
388.328	326.22
388.707	341.36
389.087	342.27
389.466	324.64
389.846	347.46
390.225	349.04
390.605	351.76
390.984	344.07
391.363	334.36
391.743	360.8
392.122	353.11
392.501	357.41
392.881	360.34
393.26	341.14
393.639	367.12
394.018	373.22
394.397	363.28
394.776	377.97
395.155	358.31
395.534	340.46
395.913	363.51
396.292	375.71
396.671	389.04
397.05	396.27
397.429	380.23
397.808	377.97
398.186	370.29
398.565	360.12
398.944	380.46
399.323	386.11
399.701	396.95
400.08	372.77
400.458	396.27
400.837	394.47
401.215	408.48
401.594	395.14
401.972	403.73
402.351	390.63
402.729	419.33
403.107	425.2
403.486	415.26
403.864	421.36
404.242	417.52
404.62	418.2
404.999	429.95
405.377	420.46
405.755	440.57
406.133	423.17
406.511	448.02
406.889	439.89
407.267	444.86
407.645	446.9
408.023	458.87
408.401	465.88
408.779	454.35
409.156	476.05
409.534	470.85
409.912	497.74
410.29	488.25
410.667	486.44
411.045	511.3
411.422	497.74
411.8	516.72
412.178	514.46
412.555	528.7
412.933	523.96
413.31	569.83
413.687	545.65
414.065	561.02
414.442	567.12
414.819	584.74
415.197	589.49
415.574	596.04
415.951	594.01
416.328	599.21
416.705	613.9
417.082	599.43
417.46	612.31
417.837	649.83
418.214	646.66
418.591	652.09
418.967	662.26
419.344	646.66
419.721	660.22
420.098	663.39
420.475	690.96
420.852	708.81
421.228	693.67
421.605	720.11
421.982	753.55
422.358	753.78
422.735	761.01
423.111	747.23
423.488	774.57
423.864	789.48
424.241	801.46
424.617	830.39
424.994	851.63
425.37	835.13
425.746	843.27
426.123	895.02
426.499	878.3
426.875	893.89
427.251	891.86
427.627	930.5
428.003	921.91
428.379	944.28
428.756	972.53
429.132	946.54
429.507	971.63
429.883	965.07
430.259	1024.05
430.635	990.61
431.011	1018.86
431.387	1010.5
431.763	1018.18
432.138	1046.2
432.514	1064.73
432.89	1059.08
433.265	1103.83
433.641	1127.78
434.016	1136.37
434.392	1151.51
434.767	1185.63
435.143	1217.04
435.518	1192.64
435.894	1243.94
436.269	1250.49
436.644	1303.82
437.02	1311.51
437.395	1317.15
437.77	1327.1
438.145	1379.98
438.52	1354.22
438.895	1399.19
439.271	1406.87
439.646	1412.29
440.021	1451.16
440.395	1501.1
440.77	1463.82
441.145	1486.19
441.52	1523.25
441.895	1491.16
442.27	1541.56
442.645	1582.46
443.019	1571.84
443.394	1603.25
443.769	1606.19
444.143	1615.68
444.518	1652.74
444.892	1632.4
445.267	1644.38
445.641	1651.61
446.016	1681.89
446.39	1693.19
446.764	1710.59
447.139	1703.13
447.513	1747.43
447.887	1708.1
448.262	1744.94
448.636	1767.76
449.01	1804.15
449.384	1820.19
449.758	1796.01
450.132	1850.93
450.506	1850.93
450.88	1848.89
451.254	1845.5
451.628	1866.74
452.002	1873.98
452.376	1935.22
452.75	1906.07
453.123	1957.36
453.497	1985.61
453.871	1998.72
454.244	2061.99
454.618	2050.47
454.992	2058.38
455.365	2048.21
455.739	2108.77
456.112	2129.79
456.486	2128.88
456.859	2167.08
457.232	2193.06
457.606	2199.84
457.979	2202.1
458.352	2253.18
458.725	2297.69
459.099	2303.57
459.472	2312.61
459.845	2351.03
460.218	2382.89
460.591	2391.48
460.964	2403.91
461.337	2450.68
461.71	2511.7
462.083	2531.81
462.456	2484.13
462.829	2545.14
463.201	2545.82
463.574	2561.42
463.947	2622.66
464.32	2628.53
464.692	2683.9
465.065	2722.54
465.438	2730.68
465.81	2761.41
466.183	2785.14
466.555	2838.7
466.928	2852.48
467.3	2863.33
467.672	2880.5
468.045	2921.86
468.417	2964.12
468.789	2991.23
469.161	3038.01
469.534	3052.93
469.906	3102.64
470.278	3151.46
470.65	3154.62
471.022	3196.65
471.394	3256.31
471.766	3276.2
472.138	3346.03
472.51	3424.9
472.882	3453.82
473.253	3444.78
473.625	3484.56
473.997	3609.07
474.369	3596.42
474.74	3599.81
475.112	3685.45
475.484	3725.9
475.855	3794.83
476.227	3792.12
476.598	3902.62
476.97	3928.39
477.341	3988.95
477.713	4078.66
478.084	4046.12
478.455	4119.57
478.827	4197.76
479.198	4274.14
479.569	4305.78
479.94	4383.97
480.311	4377.87
480.682	4475.26
481.053	4589.16
481.424	4667.12
481.795	4651.53
482.166	4741.7
482.537	4809.94
482.908	4840.9
483.279	4920
483.65	5000.22
484.021	5072.08
484.391	5134.68
484.762	5149.6
485.133	5223.94
485.503	5249.25
485.874	5296.26
486.244	5362.25
486.615	5437.05
486.985	5451.74
487.356	5585.07
487.726	5633.65
488.097	5713.2
488.467	5747.77
488.837	5828.9
489.207	5854.21
489.578	5931.04
489.948	5950.48
490.318	6069.12
490.688	6063.47
491.058	6142.11
491.428	6248.55
491.798	6285.39
492.168	6361.54
492.538	6392.05
492.908	6507.53
493.278	6523.12
493.648	6522.89
494.017	6576.68
494.387	6632.95
494.757	6642.66
495.126	6727.41
495.496	6692.15
495.866	6760.85
496.235	6862.32
496.605	6829.1
496.974	6955.65
497.344	6949.77
497.713	6962.66
498.082	6982.77
498.452	7051.69
498.821	7090.34
499.19	7080.39
499.559	7103.44
499.928	7173.05
500.298	7176.44
500.667	7212.59
501.036	7223.44
501.405	7266.38
501.774	7301.63
502.143	7313.61
502.512	7428.41
502.88	7315.87
503.249	7394.28
503.618	7390.89
503.987	7465.24
504.356	7458.46
504.724	7470.44
505.093	7476.31
505.462	7499.59
505.83	7574.17
506.199	7634.5
506.567	7613.03
506.936	7653.26
507.304	7644.45
507.672	7692.58
508.041	7670.21
508.409	7740.49
508.777	7729.19
509.145	7794.72
509.514	7799.47
509.882	7804.44
510.25	7813.71
510.618	7793.82
510.986	7874.27
511.354	7926.7
511.722	7861.84
512.09	7910.43
512.458	7942.29
512.826	7982.97
513.193	7951.1
513.561	7939.58
513.929	8032.46
514.297	8033.59
514.664	8021.84
515.032	8000.14
515.4	8108.61
515.767	8117.65
516.135	8094.38
516.502	8050.54
516.869	8134.83
517.237	8113.36
517.604	8087.6
517.972	8173.02
518.339	8080.14
518.706	8107.48
519.073	8148.16
519.44	8123.08
519.808	8200.14
520.175	8160.59
520.542	8281.04
520.909	8199.46
521.276	8158.78
521.643	8282.62
522.009	8234.49
522.376	8290.53
522.743	8288.95
523.11	8272.45
523.477	8311.1
523.843	8346.35
524.21	8319.46
524.577	8362.85
524.943	8365.78
525.31	8340.47
525.676	8370.75
526.043	8401.26
526.409	8327.59
526.776	8418.66
527.142	8414.6
527.508	8384.31
527.874	8425.44
528.241	8425.22
528.607	8376.86
528.973	8411.21
529.339	8415.95
529.705	8457.76
530.071	8469.51
530.437	8500.69
530.803	8423.18
531.169	8462.05
531.535	8406.23
531.901	8371.21
532.267	8347.25
532.632	8434.26
532.998	8353.13
533.364	8415.27
533.73	8376.86
534.095	8423.86
534.461	8394.93
534.826	8425.44
535.192	8389.06
535.557	8364.65
535.923	8279.46
536.288	8359.23
536.653	8359.68
537.019	8258.44
537.384	8260.7
537.749	8262.28
538.114	8211.21
538.479	8260.7
538.845	8266.12
539.21	8205.56
539.575	8185.9
539.94	8145.22
540.305	8155.62
540.67	8151.55
541.034	8125.79
541.399	8065.45
541.764	8061.61
542.129	8056.41
542.494	8072.91
542.858	8073.14
543.223	8048.5
543.587	7993.82
543.952	7968.51
544.316	8002.4
544.681	7908.85
545.045	7928.05
545.41	7962.63
545.774	7937.09
546.138	7887.38
546.503	7881.73
546.867	7845.34
547.231	7792.01
547.595	7819.58
547.959	7782.97
548.324	7727.38
548.688	7726.25
549.052	7781.39
549.416	7730.55
549.779	7679.25
550.143	7694.84
550.507	7610.32
550.871	7663.65
551.235	7607.61
551.599	7687.38
551.962	7624.33
552.326	7612.81
552.689	7546.82
553.053	7472.47
553.417	7487.61
553.78	7547.05
554.143	7441.51
554.507	7499.82
554.87	7488.07
555.234	7500.27
555.597	7420.05
555.96	7463.66
556.323	7430.67
556.686	7383.89
557.05	7463.43
557.413	7392.25
557.776	7402.64
558.139	7399.25
558.502	7357.9
558.865	7328.3
559.228	7384.11
559.59	7352.25
559.953	7405.36
560.316	7378.92
560.679	7368.75
561.041	7443.32
561.404	7373.27
561.767	7400.61
562.129	7358.58
562.492	7471.8
562.854	7394.73
563.217	7420.72
563.579	7386.6
563.941	7459.59
564.304	7446.03
564.666	7423.89
565.028	7463.43
565.39	7395.41
565.753	7459.82
566.115	7412.14
566.477	7444.23
566.839	7449.87
567.201	7439.48
567.563	7439.93
567.925	7522.19
568.287	7437.22
568.648	7451.68
569.01	7530.55
569.372	7550.21
569.734	7491
570.095	7591.34
570.457	7545.01
570.819	7564.9
571.18	7632.92
571.542	7595.41
571.903	7586.82
572.265	7536.88
572.626	7603.99
572.987	7636.99
573.349	7646.25
573.71	7659.13
574.071	7660.49
574.432	7676.54
574.794	7696.42
575.155	7616.2
575.516	7662.75
575.877	7700.94
576.238	7720.83
576.599	7769.19
576.96	7771.22
577.32	7817.1
577.681	7845.12
578.042	7875.17
578.403	7849.41
578.763	7904.1
579.124	7840.6
579.485	7907.26
579.845	7897.77
580.206	7855.29
580.566	7887.6
580.927	7930.99
581.287	7948.17
581.648	7945.91
582.008	7927.83
582.368	7933.25
582.728	8022.06
583.089	8012.8
583.449	8012.57
583.809	8055.28
584.169	8113.81
584.529	8063.19
584.889	8104.32
585.249	8039.46
585.609	8109.52
585.969	8114.94
586.329	8148.61
586.688	8113.36
587.048	8107.03
587.408	8092.8
587.768	8142.51
588.127	8172.57
588.487	8154.49
588.846	8233.13
589.206	8149.52
589.565	8212.57
589.925	8330.98
590.284	8227.48
590.643	8259.34
591.003	8302.51
591.362	8313.58
591.721	8235.39
592.08	8333.92
592.44	8232.9
592.799	8343.41
593.158	8328.95
593.517	8391.77
593.876	8360.59
594.235	8346.12
594.593	8385.44
594.952	8359.23
595.311	8359.68
595.67	8474.93
596.029	8519
596.387	8471.32
596.746	8490.3
597.104	8401.49
597.463	8451.43
597.822	8490.75
598.18	8524.2
598.538	8472.22
598.897	8534.37
599.255	8442.39
599.613	8537.98
599.972	8535.5
600.33	8562.16
600.688	8531.65
601.046	8597.19
601.404	8568.94
601.762	8503.18
602.12	8584.53
602.478	8580.01
602.836	8639.22
603.194	8591.31
603.552	8554.25
603.91	8572.11
604.268	8550.18
604.625	8586.34
604.983	8626.57
605.341	8505.89
605.698	8638.32
606.056	8593.35
606.413	8651.43
606.771	8653.46
607.128	8723.29
607.485	8576.62
607.843	8635.83
608.2	8687.13
608.557	8653.23
608.914	8705.43
609.272	8672.67
609.629	8678.54
609.986	8708.37
610.343	8690.52
610.7	8719.67
611.057	8792.44
611.414	8768.03
611.771	8761.03
612.127	8804.19
612.484	8749.05
612.841	8797.64
613.198	8755.83
613.554	8743.17
613.911	8820.23
614.267	8788.37
614.624	8720.35
614.98	8852.32
615.337	8829.73
615.693	8922.6
616.05	8858.43
616.406	8900.68
616.762	8853
617.118	8853.45
617.475	8871.08
617.831	8877.63
618.187	8935.03
618.543	8858.88
618.899	8957.41
619.255	8937.75
619.611	8940.01
619.967	8854.81
620.323	9013
620.678	8955.6
621.034	8922.15
621.39	8903.62
621.746	8923.51
622.101	8977.29
622.457	8903.4
622.812	8961.02
623.168	8994.69
623.523	8946.33
623.879	8946.78
624.234	8932.1
624.589	8954.69
624.945	8980
625.3	8967.57
625.655	8997.86
626.01	8984.3
626.365	8983.17
626.72	8927.8
627.075	8852.55
627.43	8931.42
627.785	8969.16
628.14	8855.49
628.495	8930.97
628.85	8926.67
629.205	8909.5
629.559	8965.99
629.914	8951.98
630.269	8937.75
630.623	8875.15
630.978	8888.48
631.332	8898.65
631.687	8895.26
632.041	8882.61
632.396	8889.38
632.75	8856.39
633.104	8844.64
633.459	8810.74
633.813	8821.59
634.167	8734.81
634.521	8808.26
634.875	8777.3
635.229	8747.47
635.583	8782.72
635.937	8749.28
636.291	8700.69
636.645	8677.64
636.999	8723.97
637.352	8741.14
637.706	8677.19
638.06	8770.97
638.413	8671.31
638.767	8713.12
639.121	8677.87
639.474	8630.86
639.828	8656.4
640.181	8639.9
640.534	8616.17
640.888	8533.01
641.241	8549.73
641.594	8605.32
641.947	8664.08
642.301	8536.85
642.654	8604.42
643.007	8574.59
643.36	8586.12
643.713	8604.87
644.066	8565.33
644.419	8524.65
644.771	8537.98
645.124	8478.55
645.477	8454.37
645.83	8375.73
646.182	8328.95
646.535	8345.67
646.888	8313.81
647.24	8284.66
647.593	8337.08
647.945	8300.7
648.298	8263.41
648.65	8169.63
649.002	8276.52
649.355	8227.03
649.707	8239.23
650.059	8330.76
650.411	8421.83
650.763	8395.16
651.115	8483.29
651.467	8472.9
651.819	8401.71
652.171	8461.6
652.523	8446.23
652.875	8485.1
653.227	8459.11
653.578	8542.05
653.93	8540.24
654.282	8434.71
654.633	8415.05
654.985	8501.37
655.337	8466.12
655.688	8517.64
656.039	8454.82
656.391	8444.65
656.742	8443.29
657.094	8428.38
657.445	8497.3
657.796	8513.12
658.147	8496.4
658.498	8473.35
658.849	8534.14
659.2	8493.24
659.551	8476.29
659.902	8528.49
660.253	8525.78
660.604	8502.5
660.955	8466.8
661.306	8609.84
661.656	8534.82
662.007	8542.95
662.358	8573.24
662.708	8566.46
663.059	8562.16
663.409	8440.81
663.76	8596.29
664.11	8549.51
664.461	8548.15
664.811	8521.03
665.161	8474.48
665.511	8533.69
665.862	8634.93
666.212	8608.94
666.562	8562.16
666.912	8599.45
667.262	8530.52
667.612	8568.04
667.962	8561.03
668.312	8537.53
668.662	8540.47
669.011	8527.13
669.361	8479.9
669.711	8531.43
670.06	8555.61
670.41	8501.37
670.76	8491.2
671.109	8472.45
671.459	8500.02
671.808	8489.17
672.157	8479.45
672.507	8514.25
672.856	8436.29
673.205	8476.51
673.554	8504.99
673.904	8499.79
674.253	8577.75
674.602	8448.27
674.951	8372.34
675.3	8323.75
675.649	8436.29
675.998	8442.84
676.346	8460.24
676.695	8475.61
677.044	8401.26
677.393	8394.71
677.741	8421.37
678.09	8366.01
678.438	8388.83
678.787	8295.28
679.135	8329.17
679.484	8312.68
679.832	8337.99
680.181	8306.35
680.529	8319.23
680.877	8256.63
681.225	8253.02
681.573	8314.03
681.922	8232.45
682.27	8280.14
682.618	8245.11
682.966	8208.5
683.314	8189.74
683.661	8205.34
684.009	8105
684.357	8083.3
684.705	8050.76
685.053	8151.55
685.4	8064.77
685.748	8086.47
686.095	7993.36
686.443	8002.85
686.79	8003.53
687.138	7971.89
687.485	7986.81
687.832	7996.3
688.18	7933.48
688.527	7964.89
688.874	7885.34
689.221	7869.3
689.568	7890.54
689.915	7816.64
690.262	7846.7
690.609	7797.21
690.956	7784.1
691.303	7704.56
691.65	7754.27
691.997	7702.98
692.344	7618.23
692.69	7642.64
693.037	7671.11
693.383	7548.18
693.73	7620.04
694.077	7540.49
694.423	7484.22
694.769	7466.6
695.116	7473.83
695.462	7438.8
695.808	7424.34
696.155	7359.93
696.501	7313.38
696.847	7371.91
697.193	7280.84
697.539	7324.45
697.885	7243.55
698.231	7249.2
698.577	7214.63
698.923	7196.32
699.269	7140.5
699.614	7138.47
699.96	7051.47
700.306	7068.19
700.651	7017.34
700.997	7030.68
701.342	7010.79
701.688	6945.71
702.033	6975.76
702.379	6958.14
702.724	6953.16
703.069	6880.85
703.415	6832.04
703.76	6856.67
704.105	6791.81
704.45	6800.63
704.795	6735.54
705.14	6792.72
705.485	6733.74
705.83	6696.22
706.175	6713.85
706.52	6676.56
706.865	6670.23
707.209	6635.43
707.554	6559.5
707.899	6662.78
708.243	6556.11
708.588	6535.77
708.932	6509.11
709.277	6533.29
709.621	6472.73
709.966	6522.44
710.31	6474.08
710.654	6408.77
710.998	6384.82
711.342	6377.36
711.687	6405.16
712.031	6317.25
712.375	6287.65
712.719	6331.03
713.063	6352.28
713.407	6367.64
713.75	6244.48
714.094	6277.02
714.438	6292.39
714.782	6310.92
715.125	6205.39
715.469	6271.15
715.812	6182.56
716.156	6209.23
716.499	6222.56
716.843	6199.74
717.186	6177.59
717.53	6215.56
717.873	6197.25
718.216	6120.19
718.559	6148.21
718.902	6116.35
719.246	6130.36
719.589	6119.74
719.932	6077.26
720.275	6101.44
720.617	6135.11
720.96	6098.72
721.303	6077.26
721.646	6079.06
721.989	6042
722.331	6029.12
722.674	6075
723.016	6035.9
723.359	5991.16
723.701	6041.55
724.044	5996.81
724.386	5993.87
724.729	6040.42
725.071	6009.46
725.413	6079.52
725.755	6027.31
726.097	5968.11
726.439	5983.47
726.782	5942.12
727.124	5953.64
727.465	6014.88
727.807	6037.26
728.149	5986.18
728.491	5993.64
728.833	6031.15
729.175	5978.5
729.516	5964.72
729.858	6024.83
730.199	5939.63
730.541	5979.18
730.882	5979.86
731.224	6008.33
731.565	5963.81
731.906	5930.59
732.248	5997.71
732.589	5959.52
732.93	5946.19
733.271	5916.13
733.612	5915
733.953	5936.69
734.294	5937.6
734.635	5944.15
734.976	5972.85
735.317	5962.91
735.658	5955.9
735.999	5950.48
736.339	5957.94
736.68	5945.96
737.021	5966.3
737.361	6028.67
737.702	5973.53
738.042	6000.2
738.383	6003.13
738.723	5970.82
739.063	5981.66
739.404	6057.14
739.744	5993.64
740.084	6026.18
740.424	6100.76
740.764	6061.44
741.104	6091.72
741.444	6051.72
741.784	6108.89
742.124	6104.37
742.464	6150.7
742.804	6154.77
743.143	6182.79
743.483	6195.22
743.823	6190.92
744.162	6202.68
744.502	6260.98
744.841	6228.66
745.181	6272.73
745.52	6329.68
745.86	6327.64
746.199	6378.49
746.538	6410.58
746.877	6463.23
747.216	6502.1
747.556	6539.62
747.895	6564.02
748.234	6582.33
748.573	6663.23
748.911	6703.23
749.25	6755.88
749.589	6860.29
749.928	6895.99
750.267	7022.77
750.605	6997.01
750.944	7095.99
751.283	7131.92
751.621	7262.54
751.96	7276.77
752.298	7409.65
752.636	7518.35
752.975	7548.63
753.313	7592.47
753.651	7775.97
753.989	7854.61
754.327	7911.11
754.666	8050.99
755.004	8163.98
755.342	8316.52
755.679	8383.18
756.017	8537.3
756.355	8706.11
756.693	8812.78
757.031	8979.55
757.368	9076.5
757.706	9167.8
758.044	9277.17
758.381	9522.14
758.719	9584.96
759.056	9876.03
759.394	9882.58
759.731	9971.84
760.068	10132.97
760.405	10286.41
760.743	10440.08
761.08	10620.64
761.417	10807.75
761.754	10948.77
762.091	11142.43
762.428	11305.14
762.765	11415.19
763.102	11635.3
763.438	11810.21
763.775	11931.34
764.112	12253.82
764.449	12308.05
764.785	12475.28
765.122	12565.22
765.458	12741.49
765.795	12950.07
766.131	13064.42
766.467	13098.31
766.804	13325.43
767.14	13411.07
767.476	13581.24
767.812	13784.17
768.148	13950.72
768.485	13965.18
768.821	14086.08
769.157	14194.56
