Data from hue_60_FLMS001491_49.txt Node
Date: Mon Feb 06 15:17:27 GMT 2017
User: dcchb
Spectrometer: FLMS00149
Trigger mode: 0
Integration Time (sec): 2.000000E-2
Scans to average: 10
Electric dark correction enabled: true
Nonlinearity correction enabled: false
Boxcar width: 0
XAxis mode: Wavelengths
Number of Pixels in Spectrum: 2048
>>>>>Begin Spectral Data<<<<<
341.393	-17.08
341.776	-17.08
342.16	-17.08
342.543	-55.49
342.927	-67.24
343.31	-46.91
343.693	-83.74
344.077	-76.74
344.46	-60.92
344.843	-53.69
345.226	-37.87
345.61	-27.7
345.993	-29.73
346.376	-22.05
346.759	18.63
347.142	41.23
347.525	40.32
347.908	61.11
348.291	67.67
348.674	93.2
349.057	117.16
349.44	120.1
349.823	142.24
350.206	151.06
350.588	197.83
350.971	210.71
351.354	211.39
351.737	249.81
352.119	256.14
352.502	261.33
352.884	269.47
353.267	284.16
353.65	283.03
354.032	300.88
354.414	310.15
354.797	310.15
355.179	345.63
355.562	307.89
355.944	327.32
356.326	339.52
356.709	334.33
357.091	310.15
357.473	348.56
357.855	337.72
358.238	330.26
358.62	323.71
359.002	355.8
359.384	349.24
359.766	323.93
360.148	333.2
360.53	333.42
360.912	327.55
361.294	323.48
361.676	321.9
362.057	331.39
362.439	347.89
362.821	347.89
363.203	343.14
363.584	349.02
363.966	317.38
364.348	307.44
364.729	323.93
365.111	317.15
365.493	309.7
365.874	321.9
366.256	297.27
366.637	324.38
367.019	303.82
367.4	306.53
367.781	323.71
368.163	316.7
368.544	316.47
368.925	315.12
369.306	305.63
369.688	305.85
370.069	304.95
370.45	327.55
370.831	312.86
371.212	322.58
371.593	306.98
371.974	297.27
372.355	298.17
372.736	317.38
373.117	320.77
373.498	318.96
373.879	320.99
374.26	313.54
374.641	317.83
375.021	303.59
375.402	327.77
375.783	301.79
376.163	322.12
376.544	337.04
376.925	317.38
377.305	318.28
377.686	351.05
378.066	324.38
378.447	356.93
378.827	323.48
379.208	335.68
379.588	329.13
379.968	331.16
380.349	341.11
380.729	341.33
381.109	342.24
381.489	333.65
381.87	320.09
382.25	326.42
382.63	338.62
383.01	342.91
383.39	325.74
383.77	346.98
384.15	337.94
384.53	353.99
384.91	351.05
385.29	351.95
385.67	325.74
386.049	340.88
386.429	337.49
386.809	357.38
387.189	367.55
387.568	340.88
387.948	340.65
388.328	339.52
388.707	343.59
389.087	369.35
389.466	344.27
389.846	353.76
390.225	346.3
390.605	373.87
390.984	368.45
391.363	366.42
391.743	356.02
392.122	349.24
392.501	358.96
392.881	386.76
393.26	359.41
393.639	367.55
394.018	371.84
394.397	367.77
394.776	381.56
395.155	361.22
395.534	353.99
395.913	370.94
396.292	349.47
396.671	364.38
397.05	369.81
397.429	372.74
397.808	363.71
398.186	365.96
398.565	374.33
398.944	371.39
399.323	373.2
399.701	360.99
400.08	379.98
400.458	374.55
400.837	385.4
401.215	388.34
401.594	398.05
401.972	405.96
402.351	399.64
402.729	391.73
403.107	391.05
403.486	387.66
403.864	397.15
404.242	400.77
404.62	399.18
404.999	391.5
405.377	389.92
405.755	380.43
406.133	400.77
406.511	401.67
406.889	401.22
407.267	410.94
407.645	406.42
408.023	398.51
408.401	415
408.779	406.42
409.156	406.87
409.534	408.45
409.912	420.88
410.29	424.27
410.667	412.29
411.045	424.04
411.422	452.06
411.8	426.98
412.178	441.67
412.555	442.8
412.933	448.22
413.31	430.14
413.687	452.06
414.065	456.81
414.442	455
414.819	462.01
415.197	464.27
415.574	461.78
415.951	444.61
416.328	482.35
416.705	445.74
417.082	468.34
417.46	464.49
417.837	488.9
418.214	471.05
418.591	472.18
418.967	491.16
419.344	481.44
419.721	490.71
420.098	492.97
420.475	484.61
420.852	485.28
421.228	484.61
421.605	492.52
421.982	502.91
422.358	490.93
422.735	508.56
423.111	495
423.488	516.92
423.864	514.89
424.241	511.95
424.617	512.18
424.994	541.33
425.37	506.53
425.746	515.57
426.123	511.05
426.499	511.27
426.875	541.55
427.251	556.47
427.627	541.1
428.003	548.79
428.379	562.34
428.756	543.36
429.132	550.59
429.507	553.53
429.883	560.31
430.259	543.81
430.635	567.77
431.011	579.74
431.387	593.3
431.763	586.52
432.138	562.8
432.514	583.81
432.89	599.63
433.265	581.1
433.641	610.7
434.016	614.55
434.392	597.15
434.767	618.61
435.143	619.97
435.518	600.08
435.894	635.11
436.269	625.62
436.644	640.99
437.02	630.14
437.395	665.39
437.77	628.56
438.145	650.25
438.52	664.94
438.895	658.39
439.271	635.11
439.646	662.91
440.021	666.52
440.395	677.37
440.77	695.22
441.145	684.37
441.52	693.19
441.895	673.3
442.27	674.43
442.645	675.56
443.019	700.87
443.394	693.41
443.769	690.48
444.143	698.61
444.518	697.26
444.892	718.95
445.267	709.23
445.641	713.3
446.016	692.74
446.39	732.96
446.764	727.31
447.139	712.4
447.513	734.77
447.887	746.07
448.262	758.05
448.636	742
449.01	740.64
449.384	763.24
449.758	747.65
450.132	753.75
450.506	774.77
450.88	782
451.254	783.81
451.628	757.59
452.002	767.99
452.376	786.97
452.75	791.72
453.123	810.93
453.497	829.23
453.871	831.04
454.244	833.07
454.618	843.24
454.992	838.49
455.365	827.42
455.739	849.79
456.112	876.23
456.486	864.26
456.859	899.96
457.232	871.49
457.606	862.68
457.979	920.07
458.352	934.31
458.725	929.57
459.099	924.37
459.472	958.94
459.845	952.84
460.218	966.85
460.591	949.68
460.964	991.03
461.337	974.54
461.71	1018.6
462.083	1022.9
462.456	1029.22
462.829	1049.56
463.201	1029.45
463.574	1045.72
463.947	1078.71
464.32	1092.73
464.692	1122.1
465.065	1113.29
465.438	1144.7
465.81	1167.3
466.183	1137.92
466.555	1173.85
466.928	1191.93
467.3	1179.95
467.672	1199.39
468.045	1253.17
468.417	1267.41
468.789	1273.06
469.161	1293.4
469.534	1327.97
469.906	1317.35
470.278	1374.75
470.65	1378.14
471.022	1433.96
471.394	1434.41
471.766	1473.73
472.138	1494.97
472.51	1491.59
472.882	1566.61
473.253	1597.57
473.625	1605.03
473.997	1660.62
474.369	1690.68
474.74	1721.86
475.112	1734.97
475.484	1789.43
475.855	1836.21
476.227	1894.96
476.598	1930.67
476.97	2001.4
477.341	2002.76
477.713	2092.7
478.084	2136.54
478.455	2228.74
478.827	2230.55
479.198	2353.03
479.569	2394.61
479.94	2445.91
480.311	2542.86
480.682	2591.44
481.053	2685.45
481.424	2783.3
481.795	2871.89
482.166	2902.62
482.537	3002.05
482.908	3073.24
483.279	3130.64
483.65	3297.87
484.021	3341.48
484.391	3452.21
484.762	3521.59
485.133	3607.46
485.503	3762.03
485.874	3845.65
486.244	3949.37
486.615	4135.58
486.985	4208.35
487.356	4347.56
487.726	4476.37
488.097	4593.65
488.467	4666.64
488.837	4856.69
489.207	4936.01
489.578	5119.06
489.948	5227.76
490.318	5376.45
490.688	5467.07
491.058	5611.93
491.428	5791.36
491.798	5889.44
492.168	6120.39
492.538	6228.41
492.908	6337.11
493.278	6484.22
493.648	6576.42
494.017	6708.62
494.387	6908.62
494.757	7063.64
495.126	7193.36
495.496	7309.74
495.866	7482.84
496.235	7631.76
496.605	7810.06
496.974	7912.89
497.344	8086.44
497.713	8190.62
498.082	8371.4
498.452	8550.61
498.821	8698.18
499.19	8794.9
499.559	8933.2
499.928	9040.99
500.298	9199.86
500.667	9376.58
501.036	9504.71
501.405	9625.61
501.774	9729.56
502.143	9897.69
502.512	10061.76
502.88	10200.06
503.249	10283.44
503.618	10392.37
503.987	10573.61
504.356	10676.43
504.724	10845.46
505.093	10922.52
505.462	11030.77
505.83	11215.17
506.199	11347.82
506.567	11586.69
506.936	11621.04
507.304	11831.65
507.672	11861.71
508.041	12075.04
508.409	12248.82
508.777	12309.38
509.145	12460.34
509.514	12564.29
509.882	12738.75
510.25	12812.19
510.618	12974.22
510.986	13046.08
511.354	13125.86
511.722	13369.46
512.09	13520.87
512.458	13552.06
512.826	13813.29
513.193	13827.08
513.561	13989.34
513.929	14098.71
514.297	14335.54
514.664	14414.64
515.032	14489.66
515.4	14708.64
515.767	14754.29
516.135	14862.31
516.502	14859.37
516.869	15198.57
517.237	15262.75
517.604	15291.9
517.972	15461.84
518.339	15572.8
518.706	15695.51
519.073	15780.02
519.44	15991.99
519.808	16116.06
520.175	16103.86
520.542	16384.3
520.909	16454.36
521.276	16573.45
521.643	16756.95
522.009	16865.87
522.376	17001.23
522.743	17119.65
523.11	17369.13
523.477	17511.28
523.843	17708.79
524.21	17808.67
524.577	17930.7
524.943	18017.25
525.31	18198.04
525.676	18365.72
526.043	18576.56
526.409	18638.7
526.776	18855.65
527.142	18957.79
527.508	18952.59
527.874	19160.05
528.241	19202.98
528.607	19454.95
528.973	19531.56
529.339	19475.74
529.705	19833.93
530.071	19847.94
530.437	20054.49
530.803	20208.61
531.169	20350.07
531.535	20238.89
531.901	20488.83
532.267	20467.13
532.632	20601.59
532.998	20783.96
533.364	20864.86
533.73	20981.02
534.095	21135.14
534.461	21176.04
534.826	21365.41
535.192	21292.42
535.557	21607.89
535.923	21558.18
536.288	21744.39
536.653	21783.71
537.019	21682.69
537.384	21889.47
537.749	22025.06
538.114	22051.95
538.479	22091.04
538.845	22262.11
539.21	22202
539.575	22289.23
539.94	22380.98
540.305	22520.64
540.67	22481.99
541.034	22662.1
541.399	22719.5
541.764	22786.17
542.129	22850.12
542.494	22826.39
542.858	23044.69
543.223	23090.11
543.587	23287.85
543.952	23236.32
544.316	23335.08
544.681	23339.15
545.045	23485.36
545.41	23571.46
545.774	23679.93
546.138	23617.56
546.503	23699.36
546.867	23742.07
547.231	23954.72
547.595	23963.54
547.959	24121.95
548.324	24157.66
548.688	24090.99
549.052	24290.08
549.416	24314.49
549.779	24396.29
550.143	24365.56
550.507	24603.07
550.871	24661.15
551.235	24661.15
551.599	24841.48
551.962	24851.42
552.326	24921.48
552.689	25068.59
553.053	25036.28
553.417	25209.83
553.78	25526.66
554.143	25462.71
554.507	25581.35
554.87	25669.25
555.234	25899.08
555.597	25783.15
555.96	25788.57
556.323	25971.39
556.686	26056.81
557.05	26166.19
557.413	26251.16
557.776	26377.03
558.139	26471.27
558.502	26592.62
558.865	26713.52
559.228	26858.15
559.59	26896.79
559.953	27010.91
560.316	27321.41
560.679	27219.04
561.041	27418.14
561.404	27485.48
561.767	27670.11
562.129	27644.8
562.492	27948.29
562.854	28071
563.217	27958.46
563.579	28160.04
563.941	28290.43
564.304	28455.4
564.666	28677.08
565.028	28558.22
565.39	28846.35
565.753	28876.85
566.115	29012.67
566.477	29099.22
566.839	29195.49
567.201	29505.76
567.563	29342.6
567.925	29609.72
568.287	29578.08
568.648	29754.34
569.01	29969.03
569.372	30085.18
569.734	29994.34
570.095	30256.25
570.457	30329.7
570.819	30386.64
571.18	30386.64
571.542	30508.45
571.903	30666.19
572.265	30781.89
572.626	30844.03
572.987	30999.28
573.349	31111.6
573.71	31247.64
574.071	31172.39
574.432	31365.38
574.794	31634.07
575.155	31492.6
575.516	31557.01
575.877	31718.36
576.238	31879.03
576.599	31862.31
576.96	31825.25
577.32	31794.52
577.681	32056.66
578.042	32152.25
578.403	32213.94
578.763	32165.13
579.124	32297.33
579.485	32390.89
579.845	32488.96
580.206	32485.35
580.566	32504.78
580.927	32523.54
581.287	32694.61
581.648	32537.1
582.008	32681.27
582.368	32505.23
582.728	32767.6
583.089	32632.69
583.449	32635.62
583.809	32794.04
584.169	32832.68
584.529	32680.6
584.889	32934.15
585.249	32737.32
585.609	32651.9
585.969	32954.03
586.329	32929.85
586.688	32953.81
587.048	32888.27
587.408	32799.01
587.768	32932.34
588.127	32910.87
588.487	32919.01
588.846	33050.76
589.206	32888.27
589.565	33007.37
589.925	33074.48
590.284	32959.68
590.643	33157.65
591.003	33169.62
591.362	33203.07
591.721	33251.88
592.08	33216.63
592.44	33261.82
592.799	33348.83
593.158	33299.56
593.517	33376.62
593.876	33444.19
594.235	33209.17
594.593	33350.18
594.952	33412.78
595.311	33215.72
595.67	33428.15
596.029	33590.18
596.387	33561.48
596.746	33706.33
597.104	33479.9
597.463	33482.38
597.822	33712.43
598.18	33459.11
598.538	33548.37
598.897	33770.74
599.255	33469.73
599.613	34080.78
599.972	33833.79
600.33	34028.58
600.688	33745.43
601.046	33946.55
601.404	34152.87
601.762	34049.83
602.12	34222.93
602.478	34090.73
602.836	34180.67
603.194	34008.92
603.552	34144.96
603.91	34066.32
604.268	34287.56
604.625	34196.49
604.983	34418.63
605.341	34233.32
605.698	34483.03
606.056	34451.17
606.413	34501.79
606.771	34525.74
607.128	34584.27
607.485	34499.08
607.843	34590.15
608.2	34779.98
608.557	34776.59
608.914	34745.17
609.272	34874.66
609.629	35109.91
609.986	35116.69
610.343	34953.98
610.7	35275.78
611.057	35313.29
611.414	35290.47
611.771	35360.53
612.127	35474.19
612.484	35552.61
612.841	35580.86
613.198	35417.92
613.554	35500.63
613.911	35809.78
614.267	35701.31
614.624	35669.9
614.98	35875.54
615.337	35992.37
615.693	35918.02
616.05	35875.77
616.406	36122.09
616.762	35951.7
617.118	35733.62
617.475	35936.56
617.831	36046.16
618.187	36167.06
618.543	36220.62
618.899	36340.84
619.255	36332.93
619.611	36280.95
619.967	36528.86
620.323	36606.59
620.678	36347.39
621.034	36455.41
621.39	36571.79
621.746	36464.45
622.101	36841.16
622.457	36705.35
622.812	36773.6
623.168	36853.82
623.523	36713.71
623.879	36879.81
624.234	36688.85
624.589	36795.29
624.945	36865.8
625.3	36854.05
625.655	36948.73
626.01	36913.48
626.365	36944.44
626.72	36893.59
627.075	36870.09
627.43	36873.93
627.785	36802.3
628.14	36991.89
628.495	36909.86
628.85	36980.14
629.205	36770.66
629.559	37009.3
629.914	36854.05
630.269	36889.75
630.623	36786.02
630.978	36824.44
631.332	36973.36
631.687	37031.44
632.041	36892.24
632.396	36994.15
632.75	36768.4
633.104	36933.59
633.459	36723.43
633.813	36796.65
634.167	36580.38
634.521	36655.86
634.875	36775.18
635.229	36833.03
635.583	36607.5
635.937	36570.66
636.291	36585.58
636.645	36524.11
636.999	36524.11
637.352	36610.66
637.706	36445.69
638.06	36549.42
638.413	36432.14
638.767	36364.11
639.121	36527.5
639.474	36188.53
639.828	36245.47
640.181	36363.89
640.534	36377.45
640.888	36206.38
641.241	36100.39
641.594	36116.44
641.947	36279.14
642.301	36133.16
642.654	36177.9
643.007	36197.57
643.36	36089.55
643.713	36119.6
644.066	36219.49
644.419	36015.65
644.771	35757.35
645.124	35380.19
645.477	35282.56
645.83	35214.99
646.182	35044.6
646.535	34831.95
646.888	35013.64
647.24	34834.44
647.593	35178.61
647.945	35041.89
648.298	34772.52
648.65	34742.01
649.002	34709.24
649.355	34829.24
649.707	34796.47
650.059	34908.33
650.411	35301.77
650.763	35334.09
651.115	35583.12
651.467	35573.85
651.819	35519.39
652.171	35549.67
652.523	35442.56
652.875	35398.04
653.227	35234.43
653.578	35478.04
653.93	35290.7
654.282	35212.73
654.633	35291.15
654.985	35278.72
655.337	35306.29
655.688	35247.76
656.039	35309.9
656.391	34967.77
656.742	35160.3
657.094	35039.86
657.445	35236.46
657.796	35220.19
658.147	35114.43
658.498	35097.26
658.849	35117.82
659.2	35050.93
659.551	34950.14
659.902	35060.87
660.253	35047.99
660.604	35132.51
660.955	34853.65
661.306	35014.09
661.656	34964.38
662.007	35043.25
662.358	35085.5
662.708	34980.2
663.059	34999.86
663.409	34782.91
663.76	35098.84
664.11	34817.71
664.461	35013.64
664.811	34907.43
665.161	34959.86
665.511	34939.52
665.862	35085.73
666.212	34880.54
666.562	34984.72
666.912	34869.92
667.262	34855.45
667.612	34795.57
667.962	34859.07
668.312	34906.53
668.662	34944.94
669.011	34858.84
669.361	34775.23
669.711	34765.96
670.06	34695.23
670.41	34569.59
670.76	34622.92
671.109	34858.62
671.459	34748.34
671.808	34622.47
672.157	34747.43
672.507	34511.51
672.856	34530.49
673.205	34550.15
673.554	34641.22
673.904	34474.45
674.253	34634.67
674.602	34617.27
674.951	34063.16
675.3	33830.4
675.649	34322.81
675.998	34421.34
676.346	34464.5
676.695	34614.56
677.044	34235.36
677.393	34471.51
677.741	34412.75
678.09	34301.57
678.438	34350.61
678.787	34325.3
679.135	34406.65
679.484	34177.73
679.832	34157.84
680.181	33945.87
680.529	34177.05
680.877	33932.09
681.225	33941.81
681.573	34114.91
681.922	34031.75
682.27	33863.16
682.618	33806.67
682.966	33701.13
683.314	33731.87
683.661	33705.65
684.009	33535.49
684.357	33500.01
684.705	33436.28
685.053	33371.2
685.4	33434.47
685.748	33241.94
686.095	33336.4
686.443	33156.52
686.79	33206.23
687.138	33189.51
687.485	33143.86
687.832	33021.83
688.18	32949.51
688.527	32864.09
688.874	33038.33
689.221	32751.1
689.568	32714.04
689.915	32575.97
690.262	32637.43
690.609	32492.58
690.956	32577.55
691.303	32428.85
691.65	32332.58
691.997	32169.2
692.344	32125.36
692.69	32073.15
693.037	32195.86
693.383	31841.07
693.73	31979.82
694.077	31821.64
694.423	31769.21
694.769	31732.6
695.116	31684.69
695.462	31632.26
695.808	31452.83
696.155	31500.74
696.501	31280.41
696.847	31181.2
697.193	31071.37
697.539	31084.03
697.885	30910.25
698.231	30870.25
698.577	30822.57
698.923	30743.47
699.269	30558.39
699.614	30423.93
699.96	30356.59
700.306	30487.43
700.651	30354.1
700.997	30143.04
701.342	30063.72
701.688	30056.26
702.033	30004.28
702.379	30026.43
702.724	29891.29
703.069	29863.72
703.415	29579.89
703.76	29654.01
704.105	29656.95
704.45	29588.93
704.795	29337.63
705.14	29286.33
705.485	29292.21
705.83	29222.38
706.175	29239.33
706.52	29128.82
706.865	29095.38
707.209	28874.37
707.554	28840.92
707.899	28994.14
708.243	28813.13
708.588	28789.17
708.932	28585.79
709.277	28549.4
709.621	28678.67
709.966	28388.73
710.31	28416.98
710.654	28241.16
710.998	28237.1
711.342	28299.92
711.687	28242.75
712.031	28000.27
712.375	27943.77
712.719	28099.25
713.063	27958.01
713.407	27998.01
713.75	27815.41
714.094	27820.61
714.438	27753.04
714.782	27649.32
715.125	27697
715.469	27681.18
715.812	27388.08
716.156	27446.38
716.499	27356.44
716.843	27517.34
717.186	27172.49
717.53	27258.59
717.873	27378.36
718.216	27254.98
718.559	27133.17
718.902	26964.81
719.246	27037.81
719.589	26891.6
719.932	26863.12
720.275	26884.59
720.617	26867.42
720.96	26723.01
721.303	26740.19
721.646	26738.83
721.989	26567.54
722.331	26650.02
722.674	26588.55
723.016	26603.24
723.359	26475.33
723.701	26511.27
724.044	26239.18
724.386	26259.75
724.729	26365.51
725.071	26187.21
725.413	26265.85
725.755	26334.1
726.097	26050.71
726.439	25953.31
726.782	25986.99
727.124	26153.31
727.465	25878.29
727.807	26069.92
728.149	25854.56
728.491	25782.47
728.833	25702.7
729.175	25619.54
729.516	25656.37
729.858	25699.08
730.199	25648.01
730.541	25598.52
730.882	25557.17
731.224	25523.95
731.565	25414.35
731.906	25412.31
732.248	25381.8
732.589	25306.1
732.93	25112.43
733.271	25203.28
733.612	25292.99
733.953	25350.17
734.294	25071.98
734.635	24993.79
734.976	25174.13
735.317	25061.36
735.658	25100.91
735.999	24955.83
736.339	24931.19
736.68	24955.37
737.021	24858.65
737.361	24862.27
737.702	24897.98
738.042	24788.6
738.383	24698.21
738.723	24810.97
739.063	24638.32
739.404	24615.72
739.744	24705.21
740.084	24439.46
740.424	24559.68
740.764	24501.15
741.104	24632.22
741.444	24308.16
741.784	24325.11
742.124	24359.68
742.464	24287.6
742.804	24376.18
743.143	24268.39
743.483	24277.43
743.823	24118.33
744.162	24179.35
744.502	24196.98
744.841	23986.13
745.181	24111.56
745.52	23914.5
745.86	24013.03
746.199	23915.63
746.538	23922.86
746.877	23839.25
747.216	23948.85
747.556	23851.68
747.895	23861.17
748.234	23684.22
748.573	23739.36
748.911	23670.21
749.25	23752.92
749.589	23533.04
749.928	23446.04
750.267	23631.57
750.605	23511.35
750.944	23484.91
751.283	23412.14
751.621	23331.01
751.96	23261.41
752.298	23271.58
752.636	23348.64
752.975	23116.33
753.313	23030.23
753.651	23145.93
753.989	23144.58
754.327	23018.93
754.666	22910.46
755.004	22929.44
755.342	22880.18
755.679	22856.67
756.017	22709.33
756.355	22728.77
