Data from hue_110_FLMS001491_00019.txt Node
Date: Tue Feb 07 17:00:58 GMT 2017
User: dcchb
Spectrometer: FLMS00149
Trigger mode: 0
Integration Time (sec): 2.000000E-2
Scans to average: 10
Electric dark correction enabled: true
Nonlinearity correction enabled: false
Boxcar width: 0
XAxis mode: Wavelengths
Number of Pixels in Spectrum: 2048
>>>>>Begin Spectral Data<<<<<
341.393	-21.07
341.776	-21.07
342.16	-21.07
342.543	-68.98
342.927	-87.74
343.31	-66.27
343.693	-61.3
344.077	-59.94
344.46	-72.82
344.843	-52.26
345.226	-41.41
345.61	-26.04
345.993	-9.32
346.376	-26.04
346.759	7.63
347.142	22.99
347.525	43.78
347.908	50.79
348.291	65.03
348.674	100.28
349.057	124.91
349.44	121.3
349.823	127.17
350.206	159.26
350.588	183.44
350.971	232.03
351.354	236.1
351.737	245.81
352.119	246.04
352.502	223.21
352.884	271.12
353.267	279.03
353.65	296.21
354.032	287.85
354.414	286.72
354.797	300.73
355.179	296.88
355.562	307.28
355.944	313.16
356.326	334.85
356.709	337.34
357.091	336.43
357.473	346.83
357.855	324.91
358.238	337.56
358.62	351.8
359.002	326.71
359.384	320.61
359.766	330.56
360.148	334.62
360.53	337.34
360.912	334.85
361.294	319.26
361.676	347.73
362.057	338.47
362.439	330.56
362.821	324.68
363.203	313.38
363.584	314.74
363.966	325.36
364.348	324.45
364.729	319.71
365.111	313.16
365.493	301.86
365.874	291.46
366.256	306.38
366.637	313.16
367.019	310.67
367.4	327.39
367.781	296.88
368.163	291.24
368.544	327.62
368.925	313.38
369.306	287.85
369.688	286.26
370.069	303.89
370.45	310.22
370.831	298.47
371.212	298.01
371.593	321.74
371.974	331.46
372.355	307.73
372.736	314.51
373.117	329.2
373.498	318.81
373.879	310.22
374.26	315.42
374.641	319.26
375.021	313.38
375.402	324
375.783	309.99
376.163	307.05
376.544	317.45
376.925	324.45
377.305	317.22
377.686	313.16
378.066	333.04
378.447	319.26
378.827	319.94
379.208	318.81
379.588	316.55
379.968	318.13
380.349	328.75
380.729	329.88
381.109	336.43
381.489	329.65
381.87	343.44
382.25	326.71
382.63	329.43
383.01	337.79
383.39	348.63
383.77	340.5
384.15	341.63
384.53	321.07
384.91	341.63
385.29	330.1
385.67	328.97
386.049	357
386.429	344.57
386.809	353.38
387.189	343.66
387.568	348.86
387.948	358.58
388.328	353.61
388.707	362.65
389.087	345.7
389.466	370.56
389.846	370.78
390.225	378.01
390.605	347.96
390.984	357.9
391.363	358.8
391.743	369.65
392.122	383.66
392.501	369.65
392.881	366.71
393.26	379.59
393.639	366.04
394.018	361.97
394.397	377.56
394.776	387.96
395.155	380.72
395.534	366.04
395.913	397.22
396.292	380.5
396.671	388.86
397.05	399.48
397.429	362.87
397.808	366.94
398.186	382.98
398.565	378.69
398.944	364.45
399.323	373.27
399.701	410.78
400.08	390.67
400.458	392.48
400.837	393.38
401.215	417.11
401.594	391.12
401.972	408.75
402.351	399.93
402.729	394.96
403.107	399.48
403.486	414.85
403.864	411.23
404.242	390.44
404.62	400.84
404.999	416.2
405.377	419.59
405.755	433.15
406.133	401.74
406.511	412.14
406.889	437.22
407.267	419.37
407.645	423.44
408.023	428.18
408.401	435.41
408.779	450.55
409.156	466.82
409.534	455.07
409.912	437.22
410.29	453.94
410.667	459.82
411.045	465.02
411.422	450.55
411.8	474.73
412.178	434.06
412.555	462.98
412.933	478.8
413.31	459.82
413.687	472.25
414.065	478.12
414.442	486.94
414.819	479.48
415.197	488.29
415.574	469.76
415.951	504.11
416.328	501.4
416.705	508.86
417.082	491.91
417.46	538.23
417.837	501.63
418.214	509.76
418.591	515.64
418.967	516.99
419.344	535.97
419.721	533.71
420.098	538.01
420.475	528.74
420.852	518.35
421.228	516.31
421.605	541.17
421.982	534.17
422.358	508.4
422.735	536.2
423.111	561.06
423.488	533.71
423.864	538.91
424.241	561.74
424.617	546.14
424.994	548.18
425.37	568.29
425.746	575.75
426.123	559.7
426.499	572.13
426.875	582.3
427.251	598.57
427.627	598.57
428.003	594.96
428.379	606.93
428.756	595.86
429.132	598.57
429.507	620.27
429.883	623.2
430.259	617.1
430.635	637.67
431.011	634.73
431.387	643.09
431.763	660.94
432.138	659.14
432.514	658.91
432.89	660.27
433.265	652.13
433.641	679.25
434.016	665.24
434.392	691.9
434.767	691.45
435.143	689.19
435.518	715.18
435.894	702.75
436.269	712.92
436.644	727.16
437.02	729.19
437.395	746.36
437.77	735.29
438.145	747.95
438.52	728.29
438.895	769.19
439.271	715.86
439.646	742.52
440.021	774.61
440.395	791.11
440.77	775.74
441.145	803.54
441.52	815.29
441.895	779.36
442.27	783.43
442.645	805.57
443.019	804.22
443.394	820.49
443.769	827.94
444.143	808.28
444.518	827.94
444.892	830.2
445.267	845.57
445.641	832.24
446.016	848.96
446.39	856.42
446.764	845.35
447.139	860.71
447.513	864.78
447.887	873.59
448.262	886.47
448.636	874.5
449.01	879.47
449.384	902.29
449.758	881.28
450.132	909.07
450.506	906.59
450.88	902.07
451.254	913.59
451.628	919.92
452.002	974.38
452.376	949.3
452.75	968.96
453.123	943.87
453.497	978.45
453.871	974.38
454.244	990.2
454.618	1000.37
454.992	1007.15
455.365	1004.89
455.739	1043.98
456.112	1068.39
456.486	1041.05
456.859	1075.62
457.232	1088.05
457.606	1057.32
457.979	1081.27
458.352	1123.53
458.725	1122.17
459.099	1142.29
459.472	1140.93
459.845	1150.2
460.218	1202.4
460.591	1208.27
460.964	1189.06
461.337	1208.05
461.71	1221.61
462.083	1231.32
462.456	1259.57
462.829	1274.49
463.201	1274.49
463.574	1312
463.947	1318.33
464.32	1332.79
464.692	1363.3
465.065	1389.06
465.438	1385.22
465.81	1417.99
466.183	1430.87
466.555	1477.87
466.928	1437.19
467.3	1463.63
467.672	1499.57
468.045	1545.89
468.417	1584.76
468.789	1577.53
469.161	1597.42
469.534	1613.46
469.906	1665.44
470.278	1683.97
470.65	1724.87
471.022	1758.77
471.394	1792.89
471.766	1821.59
472.138	1850.52
472.51	1882.15
472.882	1950.63
473.253	1957.86
473.625	2016.84
473.997	2030.4
474.369	2083.96
474.74	2076.05
475.112	2178.87
475.484	2215.93
475.855	2281.69
476.227	2300.9
476.598	2387.9
476.97	2408.02
477.341	2465.64
477.713	2538.18
478.084	2587.9
478.455	2696.37
478.827	2750.15
479.198	2802.58
479.569	2854.33
479.94	3003.48
480.311	3030.6
480.682	3130.26
481.053	3244.15
481.424	3292.96
481.795	3407.54
482.166	3470.59
482.537	3549
482.908	3689.56
483.279	3727.76
483.65	3828.32
484.021	3979.73
484.391	4061.08
484.762	4182.88
485.133	4282.32
485.503	4394.4
485.874	4520.5
486.244	4627.39
486.615	4736.09
486.985	4826.26
487.356	5001.17
487.726	5068.28
488.097	5212.46
488.467	5326.81
488.837	5502.17
489.207	5601.6
489.578	5727.25
489.948	5814.93
490.318	6042.04
490.688	6108.71
491.058	6338.53
491.428	6338.53
491.798	6545.08
492.168	6704.63
492.538	6790.27
492.908	6929.93
493.278	7115.69
493.648	7155.91
494.017	7305.29
494.387	7542.34
494.757	7599.97
495.126	7787.76
495.496	7828.21
495.866	7965.16
496.235	8139.39
496.605	8233.85
496.974	8407.18
497.344	8499.38
497.713	8625.03
498.082	8748.87
498.452	8920.84
498.821	8974.4
499.19	8960.16
499.559	9135.75
499.928	9323.99
500.298	9304.78
500.667	9502.52
501.036	9521.05
501.405	9695.06
501.774	9739.12
502.143	9794.94
502.512	9944.31
502.88	10024.99
503.249	10101.37
503.618	10195.83
503.987	10333.01
504.356	10366.45
504.724	10445.32
505.093	10562.6
505.462	10529.84
505.83	10677.18
506.199	10775.93
506.567	10949.71
506.936	10969.37
507.304	11121.01
507.672	11133.66
508.041	11216.82
508.409	11308.12
508.777	11382.24
509.145	11497.72
509.514	11495.23
509.882	11478.96
510.25	11656.81
510.618	11713.99
510.986	11726.64
511.354	11795.11
511.722	11949.01
512.09	12030.36
512.458	11941.78
512.826	12147.65
513.193	12052.73
513.561	12091.38
513.929	12161.66
514.297	12353.74
514.664	12335.21
515.032	12438.03
515.4	12431.26
515.767	12552.61
516.135	12586.73
516.502	12442.78
516.869	12632.61
517.237	12676.67
517.604	12664.24
517.972	12699.95
518.339	12780.4
518.706	12774.52
519.073	12898.81
519.44	12982.88
519.808	13051.58
520.175	12993.27
520.542	13095.64
520.909	13155.76
521.276	13112.82
521.643	13184
522.009	13189.43
522.376	13222.42
522.743	13282.31
523.11	13436.43
523.477	13487.05
523.843	13416.31
524.21	13515.75
524.577	13548.06
524.943	13589.42
525.31	13652.69
525.676	13718.68
526.043	13765.23
526.409	13740.6
526.776	13808.17
527.142	13824.89
527.508	13847.49
527.874	13864.21
528.241	13931.1
528.607	13943.08
528.973	14041.16
529.339	13943.08
529.705	13969.75
530.071	13977.88
530.437	14038.44
530.803	14073.7
531.169	14082.74
531.535	14032.12
531.901	13981.95
532.267	14045.22
532.632	13978.56
532.998	14078.9
533.364	14160.7
533.73	13989.63
534.095	14108.27
534.461	14111.66
534.826	14108.27
535.192	13985.79
535.557	13993.7
535.923	14024.66
536.288	13910.31
536.653	14021.27
537.019	14030.31
537.384	14010.42
537.749	14003.42
538.114	13970.88
538.479	13831.67
538.845	13897.21
539.21	13822.18
539.575	13838.45
539.94	13758.45
540.305	13870.99
540.67	13702.63
541.034	13761.39
541.399	13789.41
541.764	13725.68
542.129	13687.04
542.494	13692.24
542.858	13658.79
543.223	13583.54
543.587	13651.34
543.952	13552.81
544.316	13547.38
544.681	13554.16
545.045	13477.1
545.41	13531.79
545.774	13506.48
546.138	13399.82
546.503	13373.6
546.867	13356.2
547.231	13463.77
547.595	13294.74
547.959	13339.03
548.324	13284.79
548.688	13205.47
549.052	13241.18
549.416	13200.95
549.779	13239.14
550.143	13168.41
550.507	13225.13
550.871	13138.36
551.235	13148.3
551.599	13123.67
551.962	13112.37
552.326	13089.99
552.689	13100.84
553.053	12965.03
553.417	12965.03
553.78	13123.67
554.143	12985.59
554.507	13070.56
554.87	13051.35
555.234	13039.15
555.597	12857.01
555.96	12881.64
556.323	12962.54
556.686	12871.02
557.05	12892.71
557.413	12879.15
557.776	12859.27
558.139	12931.35
558.502	12880.51
558.865	12876.22
559.228	12918.47
559.59	12965.48
559.953	12823.11
560.316	12972.94
560.679	12896.78
561.041	12991.92
561.404	13022.43
561.767	12960.51
562.129	12891.81
562.492	13030.56
562.854	12947.17
563.217	12969.55
563.579	12841.64
563.941	13043.22
564.304	13013.84
564.666	12997.34
565.028	13034.18
565.39	13065.36
565.753	13044.35
566.115	13120.5
566.477	13122.99
566.839	13123.21
567.201	13178.35
567.563	13189.43
567.925	13199.6
568.287	13224.45
568.648	13153.27
569.01	13163.44
569.372	13264.68
569.734	13185.36
570.095	13271.46
570.457	13244.57
570.819	13313.94
571.18	13237.34
571.542	13356.65
571.903	13303.55
572.265	13263.55
572.626	13382.64
572.987	13333.15
573.349	13315.98
573.71	13330.89
574.071	13415.86
574.432	13408.4
574.794	13515.07
575.155	13414.51
575.516	13328.63
575.877	13433.49
576.238	13475.07
576.599	13491.34
576.96	13437.56
577.32	13478.23
577.681	13435.3
578.042	13515.29
578.403	13420.61
578.763	13476.65
579.124	13476.65
579.485	13557.78
579.845	13537.44
580.206	13498.12
580.566	13535.86
580.927	13519.59
581.287	13573.6
581.648	13535.86
582.008	13570.43
582.368	13452.25
582.728	13535.41
583.089	13528.85
583.449	13443.21
583.809	13529.08
584.169	13465.58
584.529	13487.72
584.889	13517.1
585.249	13345.36
585.609	13308.75
585.969	13447.95
586.329	13417.44
586.688	13390.33
587.048	13361.4
587.408	13367.73
587.768	13320.27
588.127	13424.68
588.487	13410.66
588.846	13377.67
589.206	13372.93
589.565	13321.85
589.925	13407.95
590.284	13349.65
590.643	13353.04
591.003	13335.86
591.362	13361.63
591.721	13325.02
592.08	13298.8
592.44	13325.24
592.799	13360.5
593.158	13243.21
593.517	13237.79
593.876	13284.79
594.235	13228.07
594.593	13309.42
594.952	13302.19
595.311	13240.05
595.67	13214.29
596.029	13352.59
596.387	13328.18
596.746	13315.98
597.104	13150.78
597.463	13191.01
597.822	13344.9
598.18	13215.87
598.538	13155.53
598.897	13201.86
599.255	13127.73
599.613	13362.08
599.972	13222.87
600.33	13252.48
600.688	13232.14
601.046	13216.09
601.404	13219.03
601.762	13288.63
602.12	13330.21
602.478	13313.04
602.836	13248.41
603.194	13168.86
603.552	13204.57
603.91	13171.12
604.268	13219.71
604.625	13190.78
604.983	13219.93
605.341	13128.19
605.698	13279.37
606.056	13226.49
606.413	13262.42
606.771	13382.64
607.128	13275.3
607.485	13198.92
607.843	13130.45
608.2	13273.04
608.557	13336.09
608.914	13279.37
609.272	13278.92
609.629	13350.78
609.986	13459.48
610.343	13331.34
610.7	13441.17
611.057	13360.27
611.414	13322.76
611.771	13356.2
612.127	13455.41
612.484	13475.3
612.841	13417.67
613.198	13408.4
613.554	13399.14
613.911	13459.93
614.267	13476.88
614.624	13457.22
614.98	13522.53
615.337	13568.4
615.693	13552.81
616.05	13518.46
616.406	13622.18
616.762	13467.61
617.118	13540.6
617.475	13501.06
617.831	13538.57
618.187	13607.04
618.543	13589.42
618.899	13663.31
619.255	13664.44
619.611	13573.15
619.967	13648.4
620.323	13614.5
620.678	13609.3
621.034	13614.27
621.39	13576.08
621.746	13539.93
622.101	13834.16
622.457	13586.48
622.812	13696.76
623.168	13721.16
623.523	13654.27
623.879	13684.78
624.234	13578.57
624.589	13599.13
624.945	13686.14
625.3	13599.36
625.655	13666.7
626.01	13601.17
626.365	13612.69
626.72	13718.68
627.075	13595.29
627.43	13534.28
627.785	13583.54
628.14	13601.85
628.495	13594.39
628.85	13649.3
629.205	13562.3
629.559	13554.39
629.914	13545.35
630.269	13593.94
630.623	13526.14
630.978	13478.69
631.332	13491.79
631.687	13558.01
632.041	13457.67
632.396	13579.93
632.75	13462.87
633.104	13531.11
633.459	13398.01
633.813	13446.6
634.167	13480.72
634.521	13423.09
634.875	13433.04
635.229	13451.79
635.583	13340.38
635.937	13422.42
636.291	13311.91
636.645	13309.88
636.999	13339.71
637.352	13263.32
637.706	13187.62
638.06	13280.72
638.413	13294.06
638.767	13280.95
639.121	13268.52
639.474	13229.43
639.828	13226.26
640.181	13285.7
640.534	13198.24
640.888	13064.91
641.241	13154.4
641.594	13115.76
641.947	13145.36
642.301	13090.67
642.654	13119.37
643.007	13083.67
643.36	13103.1
643.713	13145.81
644.066	13120.95
644.419	13062.2
644.771	12979.26
645.124	12887.74
645.477	12869.66
645.83	12740.85
646.182	12685.49
646.535	12647.75
646.888	12683.68
647.24	12597.35
647.593	12753.28
647.945	12671.47
648.298	12586.96
648.65	12578.37
649.002	12602.55
649.355	12664.02
649.707	12577.92
650.059	12722.09
650.411	12793.05
650.763	12763
651.115	12984.91
651.467	12948.76
651.819	12890.45
652.171	12893.62
652.523	12883.67
652.875	12917.8
653.227	12824.24
653.578	12936.1
653.93	12919.38
654.282	12892.94
654.633	12844.8
654.985	12893.84
655.337	12937.46
655.688	12906.04
656.039	12917.8
656.391	12857.68
656.742	12937.46
657.094	12884.58
657.445	12899.72
657.796	12923.45
658.147	12866.05
658.498	12866.95
658.849	12922.54
659.2	12899.49
659.551	12772.26
659.902	12940.85
660.253	12904.24
660.604	12918.02
660.955	12840.28
661.306	12868.53
661.656	12894.52
662.007	12880.28
662.358	12942.2
662.708	12932.03
663.059	12967.29
663.409	12846.61
663.76	12979.26
664.11	12984.01
664.461	13022.88
664.811	12969.09
665.161	12965.7
665.511	12923.22
665.862	12911.92
666.212	13036.89
666.562	12962.99
666.912	12909.21
667.262	12920.73
667.612	12976.33
667.962	12960.51
668.312	12947.85
668.662	13076.66
669.011	12944.01
669.361	12941.3
669.711	12927.97
670.06	12901.53
670.41	12962.09
670.76	12871.02
671.109	12882.32
671.459	12894.07
671.808	12877.12
672.157	12862.66
672.507	12794.64
672.856	12833.05
673.205	12907.63
673.554	12820.85
673.904	12801.87
674.253	12877.12
674.602	12775.88
674.951	12633.96
675.3	12590.35
675.649	12761.19
675.998	12803.9
676.346	12736.56
676.695	12800.96
677.044	12700.17
677.393	12685.03
677.741	12680.06
678.09	12663.79
678.438	12618.59
678.787	12677.12
679.135	12611.14
679.484	12578.6
679.832	12655.43
680.181	12588.31
680.529	12580.4
680.877	12531.14
681.225	12560.74
681.573	12618.59
681.922	12499.95
682.27	12387.87
682.618	12390.13
682.966	12413.18
683.314	12460.18
683.661	12380.86
684.009	12248.66
684.357	12296.8
684.705	12342.22
685.053	12283.24
685.4	12234.65
685.748	12176.35
686.095	12192.39
686.443	12139.29
686.79	12110.81
687.138	12118.04
687.485	12179.74
687.832	12059.74
688.18	12132.73
688.527	12061.77
688.874	12051.83
689.221	11968.44
689.568	11919.4
689.915	11904.72
690.262	11936.35
690.609	11893.19
690.956	11723.25
691.303	11765.51
691.65	11690.71
691.997	11732.97
692.344	11659.3
692.69	11592.41
693.037	11650.26
693.383	11426.76
693.73	11514.44
694.077	11445.74
694.423	11413.65
694.769	11398.97
695.116	11379.08
695.462	11394.22
695.808	11335.24
696.155	11280.78
696.501	11241.68
696.847	11216.37
697.193	11165.53
697.539	11196.94
697.885	11025.42
698.231	11020.9
698.577	10974.12
698.923	10975.7
699.269	10944.06
699.614	10860.22
699.96	10867.23
700.306	10882.37
700.651	10816.16
700.997	10752.66
701.342	10651.41
701.688	10639.21
702.033	10652.09
702.379	10559.67
702.724	10551.53
703.069	10566.67
703.415	10455.49
703.76	10433.57
704.105	10443.96
704.45	10377.75
704.795	10377.3
705.14	10291.42
705.485	10252.78
705.83	10255.27
706.175	10228.15
706.52	10171.2
706.865	10154.48
707.209	10141.82
707.554	10073.12
707.899	10162.39
708.243	10034.93
708.588	10004.2
708.932	9942.05
709.277	9941.83
709.621	9988.38
709.966	9846.24
710.31	9885.11
710.654	9834.04
710.998	9806.24
711.342	9796.52
711.687	9794.94
712.031	9655.96
712.375	9634.04
712.719	9776.41
713.063	9747.94
713.407	9709.29
713.75	9658.22
714.094	9642.18
714.438	9606.7
714.782	9556.08
715.125	9552.46
715.469	9566.25
715.812	9564.89
716.156	9495.74
716.499	9562.63
716.843	9434.95
717.186	9399.24
717.53	9497.32
717.873	9503.42
718.216	9475.85
718.559	9430.66
718.902	9353.14
719.246	9399.92
719.589	9352.01
719.932	9333.03
720.275	9311.56
720.617	9343.88
720.96	9322.64
721.303	9352.01
721.646	9291.22
721.989	9280.38
722.331	9301.62
722.674	9239.93
723.016	9229.53
723.359	9202.41
723.701	9259.36
724.044	9210.32
724.386	9187.05
724.729	9262.52
725.071	9228.18
725.413	9256.2
725.755	9179.82
726.097	9119.7
726.439	9121.06
726.782	9106.37
727.124	9148.4
727.465	9099.37
727.807	9107.05
728.149	9098.24
728.491	9020.5
728.833	9043.32
729.175	9085.81
729.516	9117.9
729.858	9070.44
730.199	9079.03
730.541	8956.54
730.882	9014.4
731.224	9021.4
731.565	9061.85
731.906	9092.36
732.248	8996.09
732.589	8991.8
732.93	8956.32
733.271	8967.62
733.612	9060.72
733.953	9098.69
734.294	9046.03
734.635	8948.86
734.976	9011.46
735.317	9092.59
735.658	9018.24
735.999	9009.42
736.339	9038.58
736.68	9103.88
737.021	9089.87
737.361	8950.89
737.702	9029.08
738.042	8978.46
738.383	9053.04
738.723	9093.04
739.063	9035.41
739.404	9040.61
739.744	9091
740.084	9119.93
740.424	9138.01
740.764	9113.15
741.104	9158.12
741.444	9138.46
741.784	9039.71
742.124	9184.33
742.464	9141.62
742.804	9178.69
743.143	9240.38
743.483	9191.57
743.823	9238.12
744.162	9247.61
744.502	9293.03
744.841	9237.89
745.181	9295.07
745.52	9280.15
745.86	9363.54
746.199	9432.46
746.538	9443.54
746.877	9523.76
747.216	9568.51
747.556	9588.17
747.895	9592.91
748.234	9664.55
748.573	9741.16
748.911	9679.91
749.25	9815.73
749.589	9825.45
749.928	9984.99
750.267	10087.81
750.605	10079.45
750.944	10059.34
751.283	10210.3
751.621	10265.21
751.96	10351.31
752.298	10402.83
752.636	10587.46
752.975	10627.01
753.313	10727.57
753.651	10865.87
753.989	10952.42
754.327	10979.99
754.666	11071.97
755.004	11218.41
755.342	11394.67
755.679	11426.54
756.017	11557.61
756.355	11726.19
756.693	11812.97
757.031	12012.28
757.368	12134.54
757.706	12214.09
758.044	12366.4
758.381	12569.1
758.719	12610.01
