Data from hue_200_FLMS001491_00063.txt Node
Date: Tue Feb 07 16:43:46 GMT 2017
User: dcchb
Spectrometer: FLMS00149
Trigger mode: 0
Integration Time (sec): 2.000000E-2
Scans to average: 10
Electric dark correction enabled: true
Nonlinearity correction enabled: false
Boxcar width: 0
XAxis mode: Wavelengths
Number of Pixels in Spectrum: 2048
>>>>>Begin Spectral Data<<<<<
341.393	-36.91
341.776	-36.91
342.16	-36.91
342.543	-70.13
342.927	-79.62
343.31	-62.22
343.693	-77.36
344.077	-65.61
344.46	-55.21
344.843	-47.98
345.226	-54.31
345.61	-34.65
345.993	-30.8
346.376	1.96
346.759	21.62
347.142	35.18
347.525	29.08
347.908	54.17
348.291	98.68
348.674	93.94
349.057	93.49
349.44	132.36
349.823	147.95
350.206	136.2
350.588	196.99
350.971	190.21
351.354	224.56
351.737	215.74
352.119	257.78
352.502	260.94
352.884	262.07
353.267	292.13
353.65	288.96
354.032	292.8
354.414	285.8
354.797	320.82
355.179	319.47
355.562	321.5
355.944	311.56
356.326	320.15
356.709	342.07
357.091	311.79
357.473	327.83
357.855	346.59
358.238	348.85
358.62	314.05
359.002	324.67
359.384	336.19
359.766	344.78
360.148	335.29
360.53	361.05
360.912	331.67
361.294	337.1
361.676	341.39
362.057	336.87
362.439	345.46
362.821	321.95
363.203	333.93
363.584	330.54
363.966	332.35
364.348	333.48
364.729	294.16
365.111	314.5
365.493	328.06
365.874	324.21
366.256	307.94
366.637	294.38
367.019	313.59
367.4	320.82
367.781	325.12
368.163	316.98
368.544	308.62
368.925	312.46
369.306	322.86
369.688	309.3
370.069	320.37
370.45	318.11
370.831	328.06
371.212	319.69
371.593	308.62
371.974	297.55
372.355	318.79
372.736	311.11
373.117	315.4
373.498	308.62
373.879	312.92
374.26	312.69
374.641	313.59
375.021	302.75
375.402	317.66
375.783	348.39
376.163	312.46
376.544	338
376.925	319.69
377.305	326.93
377.686	341.39
378.066	329.41
378.447	341.16
378.827	344.78
379.208	344.78
379.588	329.41
379.968	341.84
380.349	333.48
380.729	356.76
381.109	342.52
381.489	358.79
381.87	328.96
382.25	345.91
382.63	335.51
383.01	345.91
383.39	342.52
383.77	335.51
384.15	323.76
384.53	349.3
384.91	338.23
385.29	344.33
385.67	361.28
386.049	376.87
386.429	361.95
386.809	368.28
387.189	360.15
387.568	350.88
387.948	345.91
388.328	360.6
388.707	376.19
389.087	365.12
389.466	370.99
389.846	363.08
390.225	401.73
390.605	361.95
390.984	379.13
391.363	385.46
391.743	391.78
392.122	387.49
392.501	382.97
392.881	402.86
393.26	405.57
393.639	400.82
394.018	402.18
394.397	393.59
394.776	395.63
395.155	399.47
395.534	399.69
395.913	409.41
396.292	413.93
396.671	427.26
397.05	413.7
397.429	431.56
397.808	411.9
398.186	412.8
398.565	432.69
398.944	428.62
399.323	449.64
399.701	433.59
400.08	437.21
400.458	433.82
400.837	426.13
401.215	450.99
401.594	452.12
401.972	457.32
402.351	456.87
402.729	475.4
403.107	451.89
403.486	463.42
403.864	467.26
404.242	488.96
404.62	476.98
404.999	472.01
405.377	467.26
405.755	500.03
406.133	500.48
406.511	495.51
406.889	509.75
407.267	524.89
407.645	516.53
408.023	524.44
408.401	536.64
408.779	524.44
409.156	566.69
409.534	551.78
409.912	550.42
410.29	588.61
410.667	585.45
411.045	583.87
411.422	597.2
411.8	606.92
412.178	611.66
412.555	617.09
412.933	666.8
413.31	655.73
413.687	670.42
414.065	677.65
414.442	669.52
414.819	691.89
415.197	690.98
415.574	729.18
415.951	735.73
416.328	727.59
416.705	741.38
417.082	739.34
417.46	754.26
417.837	747.93
418.214	785.9
418.591	785.9
418.967	784.09
419.344	833.58
419.721	817.76
420.098	819.79
420.475	854.14
420.852	862.51
421.228	858.21
421.605	883.52
421.982	874.71
422.358	914.93
422.735	940.02
423.111	950.41
423.488	969.4
423.864	962.39
424.241	986.8
424.617	1032.9
424.994	1031.99
425.37	1027.92
425.746	1055.49
426.123	1098.66
426.499	1081.71
426.875	1087.13
427.251	1129.17
427.627	1143.4
428.003	1149.73
428.379	1197.41
428.756	1179.56
429.132	1172.1
429.507	1216.39
429.883	1248.94
430.259	1253.46
430.635	1277.18
431.011	1275.6
431.387	1307.47
431.763	1332.32
432.138	1336.84
432.514	1358.54
432.89	1377.07
433.265	1384.53
433.641	1452.77
434.016	1471.76
434.392	1472.43
434.767	1511.08
435.143	1535.93
435.518	1530.74
435.894	1571.87
436.269	1643.28
436.644	1637.63
437.02	1650.28
437.395	1692.99
437.77	1755.59
438.145	1755.82
438.52	1749.26
438.895	1783.39
439.271	1829.26
439.646	1911.29
440.021	1922.82
440.395	1915.36
440.77	1956.26
441.145	1960.78
441.52	1976.83
441.895	2014.34
442.27	2068.12
442.645	2042.81
443.019	2079.2
443.394	2081.46
443.769	2158.74
444.143	2139.99
444.518	2170.72
444.892	2179.76
445.267	2214.56
445.641	2202.58
446.016	2236.48
446.39	2270.6
446.764	2266.54
447.139	2287.33
447.513	2293.2
447.887	2317.61
448.262	2370.04
448.636	2361.45
449.01	2420.2
449.384	2400.54
449.758	2466.98
450.132	2460.43
450.506	2476.7
450.88	2517.15
451.254	2496.59
451.628	2554.44
452.002	2602.35
452.376	2571.16
452.75	2596.92
453.123	2647.09
453.497	2706.07
453.871	2702.68
454.244	2780.87
454.618	2765.73
454.992	2804.83
455.365	2846.86
455.739	2918.04
456.112	2899.51
456.486	2943.81
456.859	2935.67
457.232	3060.87
457.606	3037.14
457.979	3090.92
458.352	3156.23
458.725	3104.48
459.099	3188.32
459.472	3209.11
459.845	3330.24
460.218	3294.76
460.591	3289.11
460.964	3364.13
461.337	3404.81
461.71	3512.15
462.083	3492.04
462.456	3503.79
462.829	3582.43
463.201	3648.42
463.574	3657.01
463.947	3700.4
464.32	3758.93
464.692	3762.09
465.065	3853.61
465.438	3894.74
465.81	3943.78
466.183	3992.14
466.555	4088.18
466.928	4050.22
467.3	4082.08
467.672	4169.54
468.045	4248.86
468.417	4269.2
468.789	4282.08
469.161	4333.6
469.534	4428.29
469.906	4499.25
470.278	4532.47
470.65	4561.84
471.022	4694.5
471.394	4739.92
471.766	4753.02
472.138	4831.21
472.51	4927.71
472.882	4993.24
473.253	5029.63
473.625	5079.57
473.997	5224.88
474.369	5258.1
474.74	5305.78
475.112	5439.79
475.484	5494.7
475.855	5602.72
476.227	5613.34
476.598	5808.36
476.97	5764.07
477.341	5955.03
477.713	5970.62
478.084	6038.64
478.455	6175.81
478.827	6221.23
479.198	6461
479.569	6392.76
479.94	6552.3
480.311	6610.38
480.682	6745.06
481.053	6873.87
481.424	7004.72
481.795	7085.62
482.166	7179.85
482.537	7214.2
482.908	7383.24
483.279	7467.3
483.65	7630.46
484.021	7692.61
484.391	7805.15
484.762	7830.91
485.133	7951.13
485.503	7972.83
485.874	8162.65
486.244	8251.01
486.615	8361.29
486.985	8444.91
487.356	8573.26
487.726	8677.44
488.097	8803.31
488.467	8863.88
488.837	8986.36
489.207	9084.44
489.578	9175.28
489.948	9277.43
490.318	9363.52
490.688	9401.72
491.058	9511.54
491.428	9696.17
491.798	9785.66
492.168	9915.6
492.538	9887.13
492.908	10072.88
493.278	10108.82
493.648	10165.76
494.017	10264.74
494.387	10394.68
494.757	10371.18
495.126	10512.2
495.496	10448.69
495.866	10582.25
496.235	10662.02
496.605	10709.93
496.974	10741.79
497.344	10839.19
497.713	10857.27
498.082	10913.31
498.452	11025.18
498.821	11111.28
499.19	11036.7
499.559	11204.83
499.928	11270.14
500.298	11259.97
500.667	11380.42
501.036	11299.97
501.405	11391.72
501.774	11441.89
502.143	11496.58
502.512	11473.07
502.88	11545.84
503.249	11611.38
503.618	11706.29
503.987	11658.61
504.356	11721.66
504.724	11799.17
505.093	11754.42
505.462	11815.89
505.83	11871.48
506.199	11958.94
506.567	12099.5
506.936	12006.17
507.304	12112.83
507.672	12137.01
508.041	12165.49
508.409	12276.44
508.777	12197.57
509.145	12324.35
509.514	12338.59
509.882	12384.91
510.25	12368.64
510.618	12403.45
510.986	12471.24
511.354	12497.45
511.722	12553.5
512.09	12665.36
512.458	12611.8
512.826	12650.44
513.193	12662.87
513.561	12730.89
513.929	12770.89
514.297	12810.89
514.664	12817.22
515.032	12836.88
515.4	12902.64
515.767	12805.69
516.135	12872.36
516.502	12766.37
516.869	12966.59
517.237	12974.05
517.604	12892.7
517.972	12956.42
518.339	13044.33
518.706	12986.71
519.073	12986.48
519.44	13089.98
519.808	13138.79
520.175	13111
520.542	13170.88
520.909	13271.44
521.276	13142.18
521.643	13276.87
522.009	13281.39
522.376	13275.51
522.743	13340.37
523.11	13366.13
523.477	13447.49
523.843	13380.37
524.21	13460.82
524.577	13578.33
524.943	13452.46
525.31	13567.71
525.676	13605.45
526.043	13582.85
526.409	13599.12
526.776	13619.23
527.142	13600.93
527.508	13693.35
527.874	13630.76
528.241	13694.48
528.607	13635.05
528.973	13708.5
529.339	13572.68
529.705	13625.33
530.071	13732.68
530.437	13610.19
530.803	13790.3
531.169	13703.98
531.535	13627.59
531.901	13623.98
532.267	13604.09
532.632	13614.94
532.998	13585.11
533.364	13642.06
533.73	13574.49
534.095	13629.85
534.461	13672.79
534.826	13655.16
535.192	13535.62
535.557	13620.36
535.923	13475.73
536.288	13492.68
536.653	13511.21
537.019	13384.21
537.384	13337.43
537.749	13404.32
538.114	13355.06
538.479	13296.98
538.845	13247.26
539.21	13166.14
539.575	13172.92
539.94	13139.24
540.305	13214.27
540.67	13102.18
541.034	13076.87
541.399	12975.18
541.764	12944.67
542.129	12907.39
542.494	12920.04
542.858	13009.76
543.223	12800.95
543.587	12887.5
543.952	12786.26
544.316	12764.11
544.681	12684.34
545.045	12634.17
545.41	12755.3
545.774	12602.99
546.138	12534.29
546.503	12627.39
546.867	12490.9
547.231	12536.32
547.595	12443.9
547.959	12443.67
548.324	12325.48
548.688	12270.34
549.052	12324.35
549.416	12276.89
549.779	12221.08
550.143	12239.83
550.507	12222.21
550.871	12139.5
551.235	12085.94
551.599	12039.16
551.962	12048.88
552.326	11980.63
552.689	12098.14
553.053	11851.37
553.417	11903.35
553.78	11994.87
554.143	11849.34
554.507	11863.35
554.87	11795.1
555.234	11881.65
555.597	11813.18
555.96	11806.17
556.323	11798.49
556.686	11705.61
557.05	11730.47
557.413	11643.92
557.776	11669
558.139	11696.57
558.502	11716.91
558.865	11641.21
559.228	11632.62
559.59	11647.31
559.953	11606.4
560.316	11727.76
560.679	11691.83
561.041	11663.13
561.404	11720.98
561.767	11693.63
562.129	11587.42
562.492	11735.67
562.854	11570.02
563.217	11535.9
563.579	11665.39
563.941	11680.07
564.304	11702.45
564.666	11659.06
565.028	11637.14
565.39	11631.49
565.753	11725.04
566.115	11645.95
566.477	11682.79
566.839	11672.39
567.201	11764.14
567.563	11748.1
567.925	11770.24
568.287	11743.35
568.648	11791.26
569.01	11724.37
569.372	11918.03
569.734	11744.03
570.095	11790.35
570.457	11841.43
570.819	11789
571.18	11781.09
571.542	11850.01
571.903	11779.05
572.265	11801.2
572.626	11779.73
572.987	11909.9
573.349	11857.02
573.71	11919.39
574.071	11857.7
574.432	11914.19
574.794	11968.88
575.155	11946.73
575.516	11939.05
575.877	11935.43
576.238	11903.57
576.599	11984.25
576.96	11921.88
577.32	11860.86
577.681	11972.5
578.042	12021.99
578.403	11957.13
578.763	11981.08
579.124	11954.42
579.485	12018.37
579.845	11988.54
580.206	12052.04
580.566	11977.92
580.927	11954.87
581.287	12036.22
581.648	11943.8
582.008	11976.11
582.368	11953.06
582.728	12016.79
583.089	11948.32
583.449	12021.08
583.809	12045.49
584.169	12056.56
584.529	11925.72
584.889	12050.91
585.249	11954.42
585.609	11889.56
585.969	12022.21
586.329	11898.15
586.688	11943.34
587.048	11853.63
587.408	11883.46
587.768	11931.82
588.127	11882.78
588.487	11895.66
588.846	12031.25
589.206	11875.55
589.565	11827.42
589.925	11939.28
590.284	11876.91
590.643	11819.28
591.003	11938.15
591.362	11881.65
591.721	11901.09
592.08	11935.89
592.44	11855.66
592.799	11853.85
593.158	11911.25
593.517	11777.92
593.876	11857.24
594.235	11910.58
594.593	11792.84
594.952	11809.56
595.311	11743.8
595.67	11746.97
596.029	11878.49
596.387	11850.24
596.746	11874.65
597.104	11742.67
597.463	11770.69
597.822	11822.9
598.18	11775.21
598.538	11730.02
598.897	11791.26
599.255	11722.56
599.613	11888.66
599.972	11751.26
600.33	11796.68
600.688	11724.37
601.046	11789.45
601.404	11810.92
601.762	11782.22
602.12	11909.22
602.478	11790.58
602.836	11774.99
603.194	11776.57
603.552	11798.94
603.91	11769.56
604.268	11746.06
604.625	11681.43
604.983	11774.54
605.341	11738.15
605.698	11776.79
606.056	11814.99
606.413	11763.46
606.771	11752.16
607.128	11793.97
607.485	11755.33
607.843	11757.81
608.2	11753.97
608.557	11893.85
608.914	11821.54
609.272	11801.65
609.629	11831.71
609.986	11946.51
610.343	11805.49
610.7	11941.08
611.057	11921.42
611.414	11841.88
611.771	11880.07
612.127	11921.88
612.484	11953.74
612.841	12026.05
613.198	11965.26
613.554	11950.58
613.911	11942.67
614.267	11910.35
614.624	11940.86
614.98	11969.33
615.337	12014.75
615.693	11988.31
616.05	11949.45
616.406	12059.27
616.762	11929.33
617.118	11988.31
617.475	11989.67
617.831	12038.03
618.187	12008.2
618.543	12080.29
618.899	12104.47
619.255	11996.9
619.611	12038.26
619.967	12071.25
620.323	12181.76
620.678	12030.12
621.034	11991.25
621.39	12095.66
621.746	12000.07
622.101	12143.34
622.457	12008.2
622.812	12015.21
623.168	12084.81
623.523	12051.82
623.879	12066.28
624.234	12057.47
624.589	12043.45
624.945	12024.7
625.3	12078.48
625.655	12094.98
626.01	12053.17
626.365	12064.7
626.72	12059.05
627.075	11950.12
627.43	12102.44
627.785	12066.5
628.14	12066.73
628.495	12038.71
628.85	11971.82
629.205	11993.29
629.559	11968.88
629.914	11991.93
630.269	11916
630.623	11929.56
630.978	11898.37
631.332	11943.12
631.687	11968.2
632.041	11849.56
632.396	11924.59
632.75	11882.78
633.104	11937.69
633.459	11774.31
633.813	11791.94
634.167	11739.28
634.521	11710.81
634.875	11727.3
635.229	11771.82
635.583	11725.27
635.937	11659.06
636.291	11716.01
636.645	11703.12
636.999	11607.76
637.352	11640.75
637.706	11628.55
638.06	11665.39
638.413	11541.09
638.767	11587.65
639.121	11577.25
639.474	11546.29
639.828	11602.11
640.181	11574.99
640.534	11542.9
640.888	11499.06
641.241	11491.15
641.594	11509.01
641.947	11504.94
642.301	11496.12
642.654	11473.3
643.007	11488.21
643.36	11508.1
643.713	11408.67
644.066	11519.63
644.419	11333.64
644.771	11309.46
645.124	11243.48
645.477	11187.21
645.83	11147.21
646.182	11111.95
646.535	11120.99
646.888	11076.47
647.24	11088.45
647.593	11026.76
647.945	11047.1
648.298	10916.25
648.65	10988.79
649.002	11013.43
649.355	11075.12
649.707	10969.36
650.059	11106.3
650.411	11155.12
650.763	11179.97
651.115	11379.52
651.467	11264.49
651.819	11210.03
652.171	11212.97
652.523	11191.95
652.875	11234.21
653.227	11227.43
653.578	11253.64
653.93	11241.89
654.282	11190.14
654.633	11214.55
654.985	11254.55
655.337	11207.32
655.688	11335.9
656.039	11309.69
656.391	11272.18
656.742	11218.17
657.094	11252.97
657.445	11287.54
657.796	11275.11
658.147	11240.99
658.498	11214.78
658.849	11264.72
659.2	11277.6
659.551	11262.01
659.902	11282.8
660.253	11323.02
660.604	11285.06
660.955	11275.79
661.306	11272.85
661.656	11272.63
662.007	11236.24
662.358	11247.09
662.708	11250.93
663.059	11208.9
663.409	11155.34
663.76	11358.5
664.11	11273.31
664.461	11343.81
664.811	11307.65
665.161	11285.28
665.511	11293.42
665.862	11312.63
666.212	11299.29
666.562	11340.87
666.912	11394.21
667.262	11327.09
667.612	11289.35
667.962	11271.5
668.312	11304.26
668.662	11280.99
669.011	11245.96
669.361	11241.22
669.711	11205.51
670.06	11236.02
670.41	11235.11
670.76	11265.62
671.109	11167.32
671.459	11195.34
671.808	11197.38
672.157	11213.42
672.507	11125.51
672.856	11203.25
673.205	11207.32
673.554	11195.34
673.904	11188.11
674.253	11183.14
674.602	11122.8
674.951	10998.06
675.3	10900.21
675.649	11117.83
675.998	11082.12
676.346	11069.02
676.695	11134.1
677.044	11094.78
677.393	11030.37
677.741	11123.03
678.09	11026.53
678.438	10997.38
678.787	10952.18
679.135	10984.27
679.484	10982.01
679.832	11006.87
680.181	10894.11
680.529	10953.09
680.877	10970.94
681.225	10876.93
681.573	10951.05
681.922	10863.82
682.27	10855.24
682.618	10814.56
682.966	10767.33
683.314	10765.97
683.661	10834.67
684.009	10733.66
684.357	10726.2
684.705	10704.05
685.053	10721
685.4	10619.76
685.748	10537.73
686.095	10539.99
686.443	10526.88
686.79	10460.67
687.138	10479.43
687.485	10536.38
687.832	10482.82
688.18	10452.76
688.527	10443.04
688.874	10356.49
689.221	10324.63
689.568	10349.26
689.915	10337.96
690.262	10355.59
690.609	10281.69
690.956	10176.84
691.303	10246.89
691.65	10124.86
691.997	10141.81
692.344	10123.28
692.69	10051.87
693.037	10037.18
693.383	9942.94
693.73	9957.63
694.077	9867.69
694.423	9899.78
694.769	9877.41
695.116	9832.21
695.462	9843.06
695.808	9693.91
696.155	9771.42
696.501	9678.32
696.847	9630.41
697.193	9639
697.539	9641.03
697.885	9554.48
698.231	9575.72
698.577	9540.47
698.923	9476.74
699.269	9467.93
699.614	9374.15
699.96	9350.64
700.306	9317.65
700.651	9243.53
700.997	9180.03
701.342	9289.63
701.688	9198.11
702.033	9113.36
702.379	9180.25
702.724	9169.86
703.069	9105.23
703.415	9057.09
703.76	9017.09
704.105	8993.59
704.45	8956.08
704.795	8879.02
705.14	8875.18
705.485	8829.3
705.83	8816.65
706.175	8864.78
706.52	8830.21
706.865	8754.05
707.209	8764.22
707.554	8697.78
707.899	8694.84
708.243	8701.85
708.588	8669.53
708.932	8573.49
709.277	8585.47
709.621	8561.51
709.966	8517.45
710.31	8573.26
710.654	8504.79
710.998	8468.41
711.342	8474.96
711.687	8425.24
712.031	8388.41
712.375	8448.97
712.719	8425.24
713.063	8324.23
713.407	8439.71
713.75	8340.28
714.094	8305.02
714.438	8247.85
714.782	8268.19
715.125	8220.96
715.469	8241.75
715.812	8224.12
716.156	8186.83
716.499	8191.35
716.843	8139.38
717.186	8139.15
717.53	8174.86
717.873	8117.46
718.216	8137.57
718.559	8156.55
718.902	8089.66
719.246	8028.42
719.589	8038.81
719.932	8039.04
720.275	8037.91
720.617	8105.25
720.96	7982.09
721.303	8008.53
721.646	8005.59
721.989	7931.92
722.331	8038.14
722.674	7972.83
723.016	7992.49
723.359	7987.06
723.701	7973.96
724.044	7884.47
724.386	7915.65
724.729	7926.05
725.071	7928.76
725.413	7904.35
725.755	7926.5
726.097	7913.39
726.439	7839.72
726.782	7866.39
727.124	7922.88
727.465	7873.39
727.807	7882.43
728.149	7801.08
728.491	7836.79
728.833	7867.97
729.175	7813.51
729.516	7775.77
729.858	7855.09
730.199	7842.44
730.541	7750.01
730.882	7831.36
731.224	7828.42
731.565	7757.24
731.906	7750.91
732.248	7859.84
732.589	7759.05
732.93	7740.06
733.271	7791.14
733.612	7777.58
733.953	7845.37
734.294	7797.46
734.635	7779.84
734.976	7827.52
735.317	7851.93
735.658	7699.61
735.999	7817.8
736.339	7762.66
736.68	7812.15
737.021	7786.17
737.361	7798.14
737.702	7810.57
738.042	7758.6
738.383	7739.39
738.723	7837.24
739.063	7830.91
739.404	7851.25
739.744	7844.24
740.084	7788.43
740.424	7831.36
740.764	7846.73
741.104	7847.18
741.444	7870.68
741.784	7924.92
742.124	7922.21
742.464	7967.63
742.804	7895.77
743.143	7973.51
743.483	7982.09
743.823	7990.68
744.162	8004.46
744.502	8044.24
744.841	8101.41
745.181	8051.24
745.52	8073.62
745.86	8175.31
746.199	8107.96
746.538	8211.92
746.877	8276.77
747.216	8329.65
747.556	8332.59
747.895	8409.43
748.234	8431.8
748.573	8485.81
748.911	8531
749.25	8635.41
749.589	8661.17
749.928	8773.48
750.267	8767.16
750.605	8845.8
750.944	8928.73
751.283	8995.63
751.621	9079.92
751.96	9081.27
752.298	9284.88
752.636	9419.79
752.975	9420.92
753.313	9568.04
753.651	9705.44
753.989	9739.11
754.327	9837.41
754.666	9922.38
755.004	10075.37
755.342	10287.57
755.679	10416.15
756.017	10445.53
756.355	10629.48
756.693	10676.26
757.031	10937.27
757.368	11041.45
757.706	11136.81
