Data from hue_170_FLMS001491_00078.txt Node
Date: Tue Feb 07 16:49:11 GMT 2017
User: dcchb
Spectrometer: FLMS00149
Trigger mode: 0
Integration Time (sec): 2.000000E-2
Scans to average: 10
Electric dark correction enabled: true
Nonlinearity correction enabled: false
Boxcar width: 0
XAxis mode: Wavelengths
Number of Pixels in Spectrum: 2048
>>>>>Begin Spectral Data<<<<<
341.393	-14.65
341.776	-14.65
342.16	-14.65
342.543	-68.66
342.927	-73.63
343.31	-63.91
343.693	-68.2
344.077	-51.71
344.46	-61.2
344.843	-38.15
345.226	-44.02
345.61	-38.6
345.993	-18.26
346.376	-4.25
346.759	-2.9
347.142	35.3
347.525	21.06
347.908	60.38
348.291	82.75
348.674	93.37
349.057	98.34
349.44	134.73
349.823	156.65
350.206	156.87
350.588	203.65
350.971	213.6
351.354	210.43
351.737	268.74
352.119	244.56
352.502	268.28
352.884	277.1
353.267	277.78
353.65	285.23
354.032	314.61
354.414	299.24
354.797	306.93
355.179	302.41
355.562	330.2
355.944	328.62
356.326	347.6
356.709	332.69
357.091	347.15
357.473	347.6
357.855	339.47
358.238	353.93
358.62	318
359.002	348.28
359.384	348.51
359.766	341.05
360.148	316.87
360.53	342.41
360.912	331.33
361.294	329.3
361.676	321.62
362.057	327.49
362.439	345.8
362.821	344.21
363.203	315.51
363.584	317.32
363.966	308.51
364.348	345.34
364.729	313.25
365.111	310.32
365.493	334.04
365.874	336.76
366.256	321.39
366.637	309.64
367.019	313.48
367.4	311.22
367.781	310.54
368.163	303.76
368.544	302.63
368.925	296.76
369.306	288.62
369.688	282.75
370.069	297.89
370.45	318
370.831	319.81
371.212	331.79
371.593	312.58
371.974	311.9
372.355	306.47
372.736	300.15
373.117	316.42
373.498	325.46
373.879	300.6
374.26	303.76
374.641	297.21
375.021	313.71
375.402	305.35
375.783	303.09
376.163	318.68
376.544	327.94
376.925	321.39
377.305	321.16
377.686	319.81
378.066	331.79
378.447	322.97
378.827	334.95
379.208	331.33
379.588	325.91
379.968	328.62
380.349	319.36
380.729	312.35
381.109	306.7
381.489	328.62
381.87	313.25
382.25	304.67
382.63	333.14
383.01	349.64
383.39	349.41
383.77	351.9
384.15	340.37
384.53	350.77
384.91	326.81
385.29	344.21
385.67	342.86
386.049	364.78
386.429	347.15
386.809	339.02
387.189	351.9
387.568	345.34
387.948	347.83
388.328	352.58
388.707	333.82
389.087	337.21
389.466	359.13
389.846	339.69
390.225	343.08
390.605	350.09
390.984	362.97
391.363	337.43
391.743	358.45
392.122	347.38
392.501	383.08
392.881	360.26
393.26	359.58
393.639	375.85
394.018	361.84
394.397	363.42
394.776	370.88
395.155	374.5
395.534	374.04
395.913	362.52
396.292	389.41
396.671	385.34
397.05	370.88
397.429	398
397.808	381.73
398.186	392.35
398.565	367.04
398.944	388.28
399.323	382.18
399.701	395.29
400.08	383.99
400.458	389.86
400.837	402.74
401.215	396.42
401.594	408.62
401.972	404.1
402.351	385.79
402.729	391.67
403.107	404.55
403.486	407.26
403.864	411.11
404.242	426.92
404.62	383.76
404.999	415.85
405.377	415.62
405.755	442.97
406.133	419.92
406.511	419.69
406.889	437.77
407.267	437.77
407.645	428.28
408.023	444.1
408.401	445.45
408.779	432.12
409.156	453.14
409.534	463.98
409.912	444.55
410.29	455.17
410.667	458.11
411.045	461.27
411.422	475.96
411.8	478
412.178	485
412.555	491.55
412.933	475.51
413.31	480.26
413.687	501.72
414.065	495.4
414.442	492.68
414.819	506.24
415.197	510.99
415.574	518.67
415.951	513.93
416.328	522.97
416.705	534.72
417.082	527.26
417.46	542.4
417.837	546.02
418.214	562.06
418.591	565.68
418.967	556.41
419.344	554.6
419.721	550.08
420.098	573.13
420.475	557.09
420.852	588.73
421.228	589.63
421.605	578.33
421.982	605.9
422.358	610.2
422.735	627.14
423.111	612.46
423.488	623.53
423.864	633.92
424.241	664.88
424.617	649.74
424.994	630.31
425.37	644.77
425.746	637.31
426.123	662.17
426.499	668.05
426.875	703.98
427.251	710.08
427.627	679.12
428.003	691.32
428.379	697.88
428.756	718.44
429.132	701.72
429.507	714.37
429.883	717.31
430.259	738.55
430.635	742.85
431.011	760.7
431.387	756.41
431.763	778.1
432.138	782.39
432.514	760.7
432.89	786.46
433.265	819.91
433.641	842.73
434.016	820.13
434.392	814.26
434.767	850.42
435.143	873.01
435.518	819.91
435.894	851.32
436.269	888.15
436.644	885.89
437.02	921.6
437.395	915.27
437.77	906.91
438.145	946.68
438.52	950.3
438.895	957.76
439.271	953.69
439.646	994.59
440.021	993.46
440.395	983.97
440.77	981.49
441.145	994.59
441.52	1035.5
441.895	1034.82
442.27	1037.98
442.645	1047.92
443.019	1046.79
443.394	1094.7
443.769	1067.36
444.143	1063.52
444.518	1092.67
444.892	1091.09
445.267	1125.21
445.641	1114.59
446.016	1102.16
446.39	1134.25
446.764	1098.09
447.139	1144.19
447.513	1139.67
447.887	1139
448.262	1165.21
448.636	1146.68
449.01	1206.34
449.384	1181.25
449.758	1217.19
450.132	1226.22
450.506	1204.53
450.88	1248.15
451.254	1231.42
451.628	1240.91
452.002	1256.51
452.376	1283.17
452.75	1269.39
453.123	1296.51
453.497	1353
453.871	1310.97
454.244	1346.22
454.618	1351.87
454.992	1353.45
455.365	1388.48
455.739	1418.76
456.112	1412.21
456.486	1429.38
456.859	1449.27
457.232	1482.94
457.606	1489.95
457.979	1500.57
458.352	1533.56
458.725	1527.01
459.099	1553.67
459.472	1592.54
459.845	1592.54
460.218	1610.62
460.591	1607.91
460.964	1660.56
461.337	1702.37
461.71	1695.59
462.083	1761.35
462.456	1737.85
462.829	1732.65
463.201	1770.84
463.574	1776.49
463.947	1831.41
464.32	1878.41
464.692	1865.98
465.065	1927
465.438	1928.81
465.81	1940.33
466.183	1967.22
466.555	2041.12
466.928	2073.66
467.3	2060.33
467.672	2078.86
468.045	2136.03
468.417	2168.57
468.789	2187.1
469.161	2209.02
469.534	2258.97
469.906	2330.38
470.278	2347.55
470.65	2351.39
471.022	2418.06
471.394	2481.33
471.766	2505.06
472.138	2545.29
472.51	2626.87
472.882	2642.68
473.253	2706.64
473.625	2755.9
473.997	2794.77
474.369	2861.44
474.74	2885.62
475.112	2962.68
475.484	3044.93
475.855	3091.71
476.227	3132.62
476.598	3225.49
476.97	3344.36
477.341	3412.61
477.713	3427.75
478.084	3490.57
478.455	3618.7
478.827	3625.48
479.198	3775.76
479.569	3835.42
479.94	3924.91
480.311	3985.25
480.682	4144.57
481.053	4251
481.424	4358.35
481.795	4420.04
482.166	4493.26
482.537	4614.38
482.908	4724.89
483.279	4762.18
483.65	4911.1
484.021	5020.02
484.391	5175.5
484.762	5181.6
485.133	5288.49
485.503	5399
485.874	5549.5
486.244	5641.7
486.615	5799.66
486.985	5909.72
487.356	6065.87
487.726	6153.33
488.097	6267.67
488.467	6381.57
488.837	6520.55
489.207	6639.64
489.578	6805.06
489.948	6859.75
490.318	6987.88
490.688	7040.54
491.058	7244.37
491.428	7334.99
491.798	7466.74
492.168	7664.02
492.538	7705.83
492.908	7838.71
493.278	7942.88
493.648	8001.87
494.017	8184.69
494.387	8174.06
494.757	8397.79
495.126	8516.43
495.496	8505.36
495.866	8640.95
496.235	8734.73
496.605	8833.93
496.974	8975.4
497.344	9119.35
497.713	9155.06
498.082	9240.7
498.452	9258.33
498.821	9319.12
499.19	9414.94
499.559	9544.2
499.928	9650.86
500.298	9749.62
500.667	9774.02
501.036	9754.36
501.405	9941.02
501.774	9940.12
502.143	10015.37
502.512	10110.29
502.88	10241.58
503.249	10265.08
503.618	10255.14
503.987	10338.3
504.356	10346.44
504.724	10426.89
505.093	10504.17
505.462	10483.38
505.83	10590.72
506.199	10643.38
506.567	10769.25
506.936	10734.22
507.304	10842.02
507.672	10869.14
508.041	10946.2
508.409	11022.35
508.777	11087.43
509.145	11145.96
509.514	11134.89
509.882	11190.03
510.25	11211.27
510.618	11260.54
510.986	11302.34
511.354	11351.38
511.722	11392.51
512.09	11485.39
512.458	11456.46
512.826	11511.6
513.193	11590.25
513.561	11539.63
513.929	11584.6
514.297	11692.84
514.664	11676.8
515.032	11689.9
515.4	11807.87
515.767	11799.05
516.135	11863.69
516.502	11703.69
516.869	11851.48
517.237	11879.05
517.604	11862.33
517.972	11983
518.339	11940.75
518.706	11972.16
519.073	11939.84
519.44	12025.04
519.808	12041.76
520.175	11934.64
520.542	12147.75
520.909	12150.91
521.276	12059.84
521.643	12122.21
522.009	12226.84
522.376	12251.02
522.743	12256.22
523.11	12225.26
523.477	12326.27
523.843	12387.29
524.21	12352.94
524.577	12457.34
524.943	12365.37
525.31	12387.97
525.676	12468.87
526.043	12492.82
526.409	12474.06
526.776	12556.55
527.142	12475.42
527.508	12529.66
527.874	12602.65
528.241	12606.94
528.607	12532.37
528.973	12578.92
529.339	12439.04
529.705	12672.48
530.071	12547.06
530.437	12585.47
530.803	12535.08
531.169	12589.32
531.535	12541.41
531.901	12566.04
532.267	12474.97
532.632	12467.06
532.998	12509.77
533.364	12543.22
533.73	12503.44
534.095	12502.31
534.461	12503.44
534.826	12442.65
535.192	12370.11
535.557	12418.25
535.923	12319.27
536.288	12411.02
536.653	12345.48
537.019	12243.56
537.384	12178.93
537.749	12219.38
538.114	12193.39
538.479	12151.14
538.845	12171.93
539.21	12066.39
539.575	12065.49
539.94	12023
540.305	12046.73
540.67	11898.71
541.034	11987.3
541.399	11863.69
541.764	11791.14
542.129	11851.71
542.494	11762.9
542.858	11773.97
543.223	11663.69
543.587	11721.99
543.952	11627.31
544.316	11623.01
544.681	11548.67
545.045	11587.76
545.41	11559.29
545.774	11471.38
546.138	11428.44
546.503	11368.56
546.867	11336.24
547.231	11274.32
547.595	11282.23
547.959	11241.55
548.324	11243.81
548.688	11159.97
549.052	11159.07
549.416	11161.33
549.779	11071.39
550.143	11015.35
550.507	10994.1
550.871	11099.41
551.235	10910.04
551.599	10905.74
551.962	10908
552.326	10872.98
552.689	10896.71
553.053	10711.4
553.417	10746.88
553.78	10812.87
554.143	10696.48
554.507	10711.17
554.87	10694
555.234	10698.97
555.597	10641.12
555.96	10634.57
556.323	10662.13
556.686	10526.09
557.05	10614.68
557.413	10543.72
557.776	10508.69
558.139	10613.1
558.502	10531.74
558.865	10457.17
559.228	10531.29
559.59	10514.34
559.953	10434.34
560.316	10474.34
560.679	10421.92
561.041	10515.02
561.404	10453.1
561.767	10432.99
562.129	10391.63
562.492	10398.41
562.854	10414.68
563.217	10327.23
563.579	10378.53
563.941	10418.98
564.304	10424.4
564.666	10425.76
565.028	10438.19
565.39	10435.93
565.753	10481.35
566.115	10476.83
566.477	10428.02
566.839	10481.57
567.201	10476.6
567.563	10467.34
567.925	10529.26
568.287	10389.37
568.648	10396.38
569.01	10440.22
569.372	10513.21
569.734	10460.11
570.095	10462.14
570.457	10566.09
570.819	10519.77
571.18	10498.52
571.542	10523.61
571.903	10474.57
572.265	10519.09
572.626	10566.32
572.987	10525.19
573.349	10506.21
573.71	10520.44
574.071	10523.83
574.432	10572.65
574.794	10614.23
575.155	10542.82
575.516	10487.9
575.877	10568.13
576.238	10576.04
576.599	10571.06
576.96	10585.98
577.32	10512.31
577.681	10534.45
578.042	10547.79
578.403	10660.1
578.763	10478.86
579.124	10565.41
579.485	10567.9
579.845	10647.45
580.206	10581.23
580.566	10605.64
580.927	10659.2
581.287	10601.57
581.648	10587.11
582.008	10548.47
582.368	10570.16
582.728	10542.82
583.089	10504.17
583.449	10553.66
583.809	10523.16
584.169	10612.42
584.529	10438.19
584.889	10577.62
585.249	10494.68
585.609	10365.87
585.969	10430.28
586.329	10388.02
586.688	10503.72
587.048	10417.85
587.408	10397.96
587.768	10469.82
588.127	10476.6
588.487	10347.57
588.846	10439.99
589.206	10342.82
589.565	10360.9
589.925	10388.02
590.284	10348.02
590.643	10351.86
591.003	10400.67
591.362	10352.99
591.721	10333.1
592.08	10301.01
592.44	10333.56
592.799	10362.03
593.158	10392.31
593.517	10333.78
593.876	10298.53
594.235	10259.21
594.593	10295.82
594.952	10323.61
595.311	10240.23
595.67	10269.6
596.029	10328.81
596.387	10311.86
596.746	10307.12
597.104	10219.89
597.463	10212.43
597.822	10279.55
598.18	10306.44
598.538	10294.91
598.897	10263.73
599.255	10176.95
599.613	10292.43
599.972	10225.99
600.33	10213.11
600.688	10179.21
601.046	10215.37
601.404	10253.11
601.762	10287
602.12	10194.35
602.478	10229.83
602.836	10322.71
603.194	10197.74
603.552	10229.83
603.91	10191.19
604.268	10197.97
604.625	10188.25
604.983	10251.52
605.341	10121.36
605.698	10231.19
606.056	10202.03
606.413	10190.73
606.771	10256.04
607.128	10200.23
607.485	10207.01
607.843	10207.01
608.2	10224.41
608.557	10291.07
608.914	10249.04
609.272	10250.85
609.629	10259.89
609.986	10261.24
610.343	10278.87
610.7	10358.19
611.057	10244.97
611.414	10288.59
611.771	10359.54
612.127	10293.33
612.484	10314.8
612.841	10362.93
613.198	10248.59
613.554	10336.04
613.911	10305.99
614.267	10294.23
614.624	10327
614.98	10341.92
615.337	10408.36
615.693	10374.23
616.05	10336.27
616.406	10447.68
616.762	10347.79
617.118	10412.2
617.475	10345.99
617.831	10403.84
618.187	10444.97
618.543	10496.72
618.899	10454.46
619.255	10427.11
619.611	10380.33
619.967	10473.44
620.323	10507.34
620.678	10453.78
621.034	10451.29
621.39	10393.89
621.746	10415.59
622.101	10522.7
622.457	10488.81
622.812	10457.39
623.168	10474.57
623.523	10434.8
623.879	10504.85
624.234	10475.7
624.589	10511.63
624.945	10495.13
625.3	10515.47
625.655	10444.06
626.01	10479.99
626.365	10418.53
626.72	10501.01
627.075	10456.94
627.43	10355.7
627.785	10367.23
628.14	10416.27
628.495	10406.77
628.85	10459.88
629.205	10343.73
629.559	10423.05
629.914	10364.06
630.269	10371.3
630.623	10309.6
630.978	10370.62
631.332	10312.31
631.687	10380.33
632.041	10321.8
632.396	10350.05
632.75	10270.73
633.104	10373.1
633.459	10307.34
633.813	10323.61
634.167	10303.27
634.521	10294.46
634.875	10308.92
635.229	10378.98
635.583	10181.92
635.937	10228.02
636.291	10257.4
636.645	10218.08
636.999	10211.53
637.352	10203.16
637.706	10177.85
638.06	10216.27
638.413	10120
638.767	10113.9
639.121	10200.68
639.474	10092.66
639.828	10063.51
640.181	10115.71
640.534	10079.55
640.888	10112.09
641.241	10044.3
641.594	10057.63
641.947	10065.09
642.301	10049.27
642.654	10036.61
643.007	10019.44
643.36	10028.25
643.713	10039.55
644.066	10074.81
644.419	10034.13
644.771	10001.36
645.124	9868.26
645.477	9795.94
645.83	9716.17
646.182	9712.78
646.535	9681.37
646.888	9724.31
647.24	9639.34
647.593	9736.51
647.945	9729.5
648.298	9700.58
648.65	9619
649.002	9617.87
649.355	9684.53
649.707	9732.22
650.059	9708.26
650.411	9900.57
650.763	9886.79
651.115	9931.31
651.467	9925.43
651.819	9907.8
652.171	9948.26
652.523	9934.92
652.875	9860.12
653.227	9875.49
653.578	9886.34
653.93	9900.8
654.282	9885.21
654.633	9876.84
654.985	9904.19
655.337	9921.59
655.688	9934.02
656.039	9909.61
656.391	9904.87
656.742	9926.11
657.094	9983.73
657.445	9976.5
657.796	9849.73
658.147	9934.7
658.498	9866.9
658.849	9921.82
659.2	9930.63
659.551	9858.09
659.902	9970.18
660.253	9921.59
660.604	9898.31
660.955	9941.93
661.306	9935.83
661.656	9958.2
662.007	9937.63
662.358	9958.2
662.708	9953
663.059	9954.81
663.409	9911.87
663.76	9987.58
664.11	10024.64
664.461	10023.51
664.811	10036.39
665.161	9988.25
665.511	10003.85
665.862	9982.38
666.212	10070.96
666.562	10065.99
666.912	9980.8
667.262	9955.26
667.612	9940.57
667.962	10068.48
668.312	10014.24
668.662	10015.82
669.011	9981.02
669.361	9933.11
669.711	9984.19
670.06	9985.99
670.41	9967.01
670.76	9929.27
671.109	9983.28
671.459	9946.22
671.808	9967.01
672.157	9923.85
672.507	9842.95
672.856	9895.15
673.205	9891.99
673.554	9910.97
673.904	9944.19
674.253	9963.85
674.602	9944.41
674.951	9845.21
675.3	9693.12
675.649	9883.62
675.998	9818.77
676.346	9797.52
676.695	9807.02
677.044	9775.38
677.393	9834.81
677.741	9866.45
678.09	9800.91
678.438	9758.2
678.787	9743.06
679.135	9800.01
679.484	9726.11
679.832	9778.99
680.181	9663.29
680.529	9706
680.877	9744.19
681.225	9608.6
681.573	9694.02
681.922	9659.9
682.27	9573.58
682.618	9604.31
682.966	9571.32
683.314	9632.11
683.661	9556.63
684.009	9526.57
684.357	9531.77
684.705	9437.08
685.053	9485.67
685.4	9470.3
685.748	9365.9
686.095	9396.18
686.443	9352.56
686.79	9372.9
687.138	9348.95
687.485	9345.56
687.832	9355.95
688.18	9374.94
688.527	9293.81
688.874	9272.11
689.221	9198.22
689.568	9227.6
689.915	9130.88
690.262	9181.5
690.609	9164.55
690.956	9085.23
691.303	9082.52
691.65	9052.91
691.997	9051.56
692.344	9008.39
692.69	8994.38
693.037	9005.46
693.383	8877.32
693.73	8886.14
694.077	8847.49
694.423	8807.27
694.769	8839.81
695.116	8735.86
695.462	8734.5
695.808	8683.88
696.155	8733.6
696.501	8648.18
696.847	8603.21
697.193	8590.32
697.539	8604.34
697.885	8559.82
698.231	8499.48
698.577	8492.93
698.923	8468.52
699.269	8478.92
699.614	8325.02
699.96	8321.63
700.306	8365.7
700.651	8263.78
700.997	8252.48
701.342	8267.62
701.688	8191.69
702.033	8144.01
702.379	8184.91
702.724	8103.33
703.069	8080.28
703.415	8072.15
703.76	7962.32
704.105	7989.44
704.45	8013.62
704.795	7959.16
705.14	7950.12
705.485	7885.94
705.83	7904.02
706.175	7779.05
706.52	7829.44
706.865	7805.26
707.209	7767.75
707.554	7773.4
707.899	7825.6
708.243	7743.34
708.588	7661.31
708.932	7644.14
709.277	7674.19
709.621	7643.68
709.966	7567.75
710.31	7569.33
710.654	7579.05
710.998	7491.6
711.342	7579.96
711.687	7535.66
712.031	7467.19
712.375	7455.21
712.719	7478.72
713.063	7446.4
713.407	7450.24
713.75	7419.28
714.094	7405.5
714.438	7370.47
714.782	7340.87
715.125	7314.65
715.469	7349.91
715.812	7278.04
716.156	7236.01
716.499	7290.47
716.843	7290.25
717.186	7163.7
717.53	7239.17
717.873	7248.21
718.216	7197.14
718.559	7183.81
718.902	7162.11
719.246	7174.54
719.589	7156.92
719.932	7112.62
720.275	7125.73
720.617	7073.3
720.96	7152.85
721.303	7121.89
721.646	7139.06
721.989	7106.52
722.331	7144.94
722.674	7164.6
723.016	7071.27
723.359	7139.74
723.701	7103.13
724.044	7101.1
724.386	7002.8
724.729	7029.46
725.071	7046.41
725.413	7050.7
725.755	7120.31
726.097	6962.35
726.439	6994.43
726.782	6940.88
727.124	7068.56
727.465	6981.78
727.807	7010.48
728.149	7000.08
728.491	6986.07
728.833	6961.89
729.175	6962.35
729.516	6991.72
729.858	6958.96
730.199	6981.78
730.541	6974.77
730.882	6905.85
731.224	6978.84
731.565	6955.79
731.906	6935.91
732.248	6940.42
732.589	6920.09
732.93	6981.1
733.271	6959.41
733.612	6961.67
733.953	6928
734.294	6938.17
734.635	6960.31
734.976	6996.92
735.317	6911.95
735.658	6995.79
735.999	6909.47
736.339	7040.08
736.68	7020.2
737.021	7001.67
737.361	6965.96
737.702	7032.17
738.042	7021.55
738.383	7057.26
738.723	7064.49
739.063	7027.65
739.404	7067.2
739.744	7011.84
740.084	7052.96
740.424	7072.85
740.764	7116.69
741.104	7145.17
741.444	7125.96
741.784	7085.96
742.124	7128.44
742.464	7153.98
742.804	7160.98
743.143	7193.75
743.483	7247.54
743.823	7195.11
744.162	7251.38
744.502	7245.05
744.841	7337.25
745.181	7317.14
745.52	7301.09
745.86	7370.7
746.199	7448.21
746.538	7467.64
746.877	7513.97
747.216	7567.53
747.556	7626.51
747.895	7636.23
748.234	7696.56
748.573	7724.59
748.911	7760.52
749.25	7804.58
749.589	7872.38
749.928	7922.55
750.267	8007.52
750.605	8099.49
750.944	8172.03
751.283	8190.34
751.621	8343.1
751.96	8428.52
752.298	8492.7
752.636	8649.53
752.975	8634.84
753.313	8746.93
753.651	8945.34
753.989	8906.7
754.327	8990.54
754.666	9188.95
755.004	9363.64
755.342	9469.85
755.679	9548.94
756.017	9651.31
756.355	9847.92
756.693	9946.45
757.031	10101.47
757.368	10183.96
757.706	10308.47
758.044	10492.65
758.381	10596.37
758.719	10758.86
759.056	10857.61
759.394	11085.17
759.731	11129.69
760.068	11364.26
760.405	11569.23
760.743	11698.04
761.08	11869.79
761.417	11963.34
761.754	12234.3
762.091	12330.57
762.428	12486.95
