Data from hue_190_FLMS001491_00060.txt Node
Date: Tue Feb 07 16:45:29 GMT 2017
User: dcchb
Spectrometer: FLMS00149
Trigger mode: 0
Integration Time (sec): 2.000000E-2
Scans to average: 10
Electric dark correction enabled: true
Nonlinearity correction enabled: false
Boxcar width: 0
XAxis mode: Wavelengths
Number of Pixels in Spectrum: 2048
>>>>>Begin Spectral Data<<<<<
341.393	7.73
341.776	7.73
342.16	7.73
342.543	-59.62
342.927	-63.68
343.31	-31.82
343.693	-58.49
344.077	-81.09
344.46	-51.26
344.843	-65.94
345.226	-50.35
345.61	-30.69
345.993	-21.2
346.376	12.25
346.759	-8.77
347.142	34.17
347.525	62.64
347.908	46.82
348.291	63.32
348.674	82.3
349.057	98.12
349.44	113.03
349.823	129.98
350.206	168.4
350.588	206.14
350.971	208.85
351.354	200.26
351.737	228.96
352.119	257.44
352.502	256.53
352.884	255.4
353.267	273.71
353.65	297.44
354.032	299.02
354.414	310.09
354.797	303.99
355.179	303.09
355.562	322.07
355.944	330.66
356.326	340.37
356.709	328.4
357.091	328.4
357.473	320.71
357.855	342.18
358.238	318.45
358.62	356.42
359.002	333.14
359.384	326.14
359.766	334.72
360.148	332.91
360.53	323.88
360.912	323.88
361.294	334.27
361.676	328.17
362.057	326.14
362.439	334.27
362.821	313.48
363.203	318
363.584	334.04
363.966	318
364.348	313.71
364.729	296.76
365.111	306.47
365.493	306.47
365.874	305.35
366.256	318
366.637	325.91
367.019	306.02
367.4	308.28
367.781	311.45
368.163	309.64
368.544	300.37
368.925	305.57
369.306	316.87
369.688	322.29
370.069	317.1
370.45	294.27
370.831	296.53
371.212	299.02
371.593	314.61
371.974	301.28
372.355	310.54
372.736	302.63
373.117	311.22
373.498	332.46
373.879	311.9
374.26	316.87
374.641	295.4
375.021	327.27
375.402	320.71
375.783	320.71
376.163	326.81
376.544	306.47
376.925	321.16
377.305	328.62
377.686	337.66
378.066	312.12
378.447	310.77
378.827	322.29
379.208	326.81
379.588	316.42
379.968	313.25
380.349	340.6
380.729	301.28
381.109	330.66
381.489	325.46
381.87	328.4
382.25	340.6
382.63	330.2
383.01	318.68
383.39	318.68
383.77	328.85
384.15	331.79
384.53	376.08
384.91	350.54
385.29	335.85
385.67	339.02
386.049	358.45
386.429	333.14
386.809	342.41
387.189	357.55
387.568	363.2
387.948	357.32
388.328	368.39
388.707	350.99
389.087	353.25
389.466	364.1
389.846	354.61
390.225	357.1
390.605	367.94
390.984	348.73
391.363	369.07
391.743	365.46
392.122	379.24
392.501	350.77
392.881	365.23
393.26	395.96
393.639	353.48
394.018	358
394.397	398.9
394.776	380.15
395.155	385.34
395.534	381.5
395.913	381.28
396.292	361.16
396.671	394.16
397.05	408.17
397.429	362.52
397.808	384.44
398.186	401.84
398.565	399.81
398.944	382.18
399.323	387.38
399.701	399.35
400.08	393.48
400.458	417.43
400.837	407.94
401.215	402.52
401.594	408.17
401.972	414.95
402.351	420.37
402.729	412.01
403.107	409.52
403.486	423.31
403.864	452.23
404.242	434.61
404.62	435.06
404.999	446.13
405.377	437.32
405.755	453.36
406.133	456.75
406.511	456.53
406.889	448.62
407.267	472.8
407.645	454.72
408.023	475.96
408.401	499.46
408.779	477.54
409.156	493.14
409.534	484.1
409.912	486.58
410.29	493.81
410.667	512.8
411.045	528.16
411.422	532.91
411.8	548.5
412.178	556.41
412.555	547.6
412.933	575.39
413.31	573.81
413.687	582.17
414.065	553.47
414.442	590.08
414.819	593.7
415.197	597.77
415.574	619.01
415.951	620.59
416.328	623.53
416.705	636.86
417.082	652
417.46	630.53
417.837	649.52
418.214	683.87
418.591	656.07
418.967	697.2
419.344	705.56
419.721	707.59
420.098	677.09
420.475	707.59
420.852	718.44
421.228	745.11
421.605	751.44
421.982	771.77
422.358	780.36
422.735	775.62
423.111	775.39
423.488	811.77
423.864	829.4
424.241	841.83
424.617	841.6
424.994	863.97
425.37	886.12
425.746	868.04
426.123	875.05
426.499	895.16
426.875	937.19
427.251	934.48
427.627	949.17
428.003	961.82
428.379	968.38
428.756	980.13
429.132	981.26
429.507	1023.97
429.883	1010.19
430.259	1022.84
430.635	1040.92
431.011	1020.35
431.387	1092.89
431.763	1081.82
432.138	1084.76
432.514	1102.39
432.89	1112.33
433.265	1162.27
433.641	1164.76
434.016	1172.21
434.392	1238.2
434.767	1228.03
435.143	1260.12
435.518	1280.23
435.894	1295.15
436.269	1315.04
436.644	1310.29
437.02	1374.7
437.395	1400.23
437.77	1427.35
438.145	1414.02
438.52	1467.12
438.895	1457.41
439.271	1469.61
439.646	1543.96
440.021	1529.72
440.395	1551.87
440.77	1569.72
441.145	1585.31
441.52	1582.6
441.895	1604.52
442.27	1651.75
442.645	1623.5
443.019	1654.69
443.394	1691.98
443.769	1708.47
444.143	1738.98
444.518	1740.34
444.892	1721.81
445.267	1763.16
445.641	1808.58
446.016	1787.11
446.39	1823.72
446.764	1834.57
447.139	1864.63
447.513	1835.93
447.887	1849.49
448.262	1887
448.636	1896.04
449.01	1943.49
449.384	1944.85
449.758	1954.34
450.132	1978.75
450.506	2010.84
450.88	2018.29
451.254	2028.92
451.628	2028.46
452.002	2091.29
452.376	2102.36
452.75	2085.86
453.123	2136.71
453.497	2153.88
453.871	2203.37
454.244	2221.68
454.618	2247.21
454.992	2265.97
455.365	2293.99
455.739	2334.9
456.112	2362.47
456.486	2364.95
456.859	2385.97
457.232	2432.97
457.606	2422.58
457.979	2485.85
458.352	2554.1
458.725	2548.22
459.099	2560.2
459.472	2599.75
459.845	2650.82
460.218	2640.65
460.591	2668.22
460.964	2685.62
461.337	2761.78
461.71	2773.3
462.083	2876.35
462.456	2902.56
462.829	2844.04
463.201	2940.3
463.574	2947.31
463.947	3017.36
464.32	3099.85
464.692	3065.27
465.065	3087.42
465.438	3147.98
465.81	3233.63
466.183	3215.78
466.555	3291.26
466.928	3330.58
467.3	3323.57
467.672	3397.47
468.045	3501.42
468.417	3492.83
468.789	3507.97
469.161	3569.67
469.534	3651.47
469.906	3721.3
470.278	3756.33
470.65	3771.47
471.022	3839.72
471.394	3943.22
471.766	3952.48
472.138	3994.29
472.51	4100.73
472.882	4146.83
473.253	4228.18
473.625	4230.21
473.997	4355.86
474.369	4383.2
474.74	4428.85
475.112	4531.22
475.484	4624.78
475.855	4700.48
476.227	4733.03
476.598	4838.56
476.97	4903.64
477.341	5010.98
477.713	5102.73
478.084	5119.91
478.455	5249.62
478.827	5325.78
479.198	5513.12
479.569	5512.89
479.94	5662.94
480.311	5708.37
480.682	5834.69
481.053	5935.71
481.424	6066.55
481.795	6085.98
482.166	6277.17
482.537	6313.1
482.908	6416.37
483.279	6557.16
483.65	6639.19
484.021	6718.06
484.391	6818.62
484.762	6860.88
485.133	6989.46
485.503	7095
485.874	7228.1
486.244	7304.94
486.615	7453.41
486.985	7499.73
487.356	7730.46
487.726	7741.99
488.097	7837.58
488.467	7899.5
488.837	8062.2
489.207	8138.81
489.578	8310.11
489.948	8400.27
490.318	8464.68
490.688	8479.59
491.058	8535.41
491.428	8655.86
491.798	8805.91
492.168	9020.14
492.538	9010.2
492.908	9087.94
493.278	9176.52
493.648	9212.68
494.017	9356.86
494.387	9404.54
494.757	9483.18
495.126	9598.43
495.496	9612.22
495.866	9590.07
496.235	9729.28
496.605	9863.74
496.974	9891.53
497.344	9938.99
497.713	10011.3
498.082	10077.07
498.452	10099.21
498.821	10147.12
499.19	10149.38
499.559	10206.33
499.928	10305.31
500.298	10338.53
500.667	10469.37
501.036	10425.53
501.405	10510.5
501.774	10448.13
502.143	10568.8
502.512	10534.23
502.88	10625.07
503.249	10623.27
503.618	10646.77
503.987	10815.35
504.356	10796.82
504.724	10815.8
505.093	10816.48
505.462	10864.84
505.83	10878.63
506.199	10894.9
506.567	11069.81
506.936	10936.03
507.304	11197.94
507.672	11118.39
508.041	11151.39
508.409	11222.12
508.777	11243.59
509.145	11326.3
509.514	11242.46
509.882	11347.09
510.25	11317.26
510.618	11305.28
510.986	11293.53
511.354	11483.36
511.722	11454.2
512.09	11476.8
512.458	11435.22
512.826	11592.51
513.193	11503.69
513.561	11582.79
513.929	11592.51
514.297	11598.61
514.664	11653.3
515.032	11709.11
515.4	11695.78
515.767	11688.1
516.135	11723.8
516.502	11648.32
516.869	11774.2
517.237	11734.42
517.604	11656.23
517.972	11745.27
518.339	11767.87
518.706	11758.38
519.073	11765.83
519.44	11849
519.808	11852.16
520.175	11770.35
520.542	11920.86
520.909	11934.64
521.276	11834.53
521.643	11815.55
522.009	11947.3
522.376	11921.08
522.743	11955.89
523.11	11990.24
523.477	12071.59
523.843	12063.45
524.21	12057.35
524.577	12098.71
524.943	12080.4
525.31	12109.33
525.676	12178.48
526.043	12128.99
526.409	12136.67
526.776	12147.97
527.142	12061.87
527.508	12160.85
527.874	12092.15
528.241	12058.03
528.607	12067.97
528.973	12103
529.339	12005.6
529.705	12020.52
530.071	12091.48
530.437	12064.13
530.803	11972.83
531.169	12101.42
531.535	11911.59
531.901	11964.02
532.267	11990.91
532.632	11971.25
532.998	11897.36
533.364	11931.48
533.73	11790.69
534.095	11887.41
534.461	11845.38
534.826	11825.49
535.192	11789.79
535.557	11768.55
535.923	11693.52
536.288	11623.01
536.653	11613.97
537.019	11515.67
537.384	11479.06
537.749	11499.4
538.114	11425.5
538.479	11431.83
538.845	11337.82
539.21	11263.02
539.575	11295.34
539.94	11213.98
540.305	11242.91
540.67	11106.19
541.034	11099.19
541.399	11044.5
541.764	11071.16
542.129	10950.26
542.494	10911.17
542.858	10900.55
543.223	10784.84
543.587	10861.23
543.952	10705.75
544.316	10718.86
544.681	10714.79
545.045	10574.45
545.41	10604.28
545.774	10593.89
546.138	10497.17
546.503	10484.96
546.867	10380.11
547.231	10400.9
547.595	10347.34
547.959	10354.57
548.324	10277.96
548.688	10208.81
549.052	10153.45
549.416	10052.21
549.779	10089.04
550.143	9983.28
550.507	10021.47
550.871	9981.02
551.235	9836.62
551.599	9850.4
551.962	9801.37
552.326	9799.11
552.689	9808.15
553.053	9656.06
553.417	9644.76
553.78	9723.85
554.143	9595.72
554.507	9519.79
554.87	9548.72
555.234	9603.41
555.597	9466.69
555.96	9381.26
556.323	9477.76
556.686	9382.62
557.05	9353.92
557.413	9288.16
557.776	9255.39
558.139	9292.23
558.502	9238.22
558.865	9189.41
559.228	9254.71
559.59	9162.51
559.953	9173.36
560.316	9245.45
560.679	9149.41
561.041	9202.74
561.404	9205.9
561.767	9088.39
562.129	9097.88
562.492	9111.89
562.854	9096.07
563.217	9047.94
563.579	9047.26
563.941	9041.84
564.304	9104.89
564.666	9070.54
565.028	9076.64
565.39	9016.08
565.753	9041.39
566.115	9079.35
566.477	9056.3
566.839	9029.86
567.201	9073.25
567.563	8968.62
567.925	9049.52
568.287	9075.28
568.648	9080.48
569.01	9034.38
569.372	9090.2
569.734	8991.44
570.095	9036.19
570.457	9049.75
570.819	9020.37
571.18	9013.82
571.542	9033.48
571.903	9000.48
572.265	9042.97
572.626	9066.24
572.987	9007.26
573.349	9010.2
573.71	9055.4
574.071	8984.66
574.432	9026.25
574.794	9044.55
575.155	8944.67
575.516	9005
575.877	9072.12
576.238	8960.48
576.599	9029.18
576.96	8961.84
577.32	8980.6
577.681	9005.46
578.042	9039.8
578.403	9006.13
578.763	9009.07
579.124	8969.98
579.485	8963.87
579.845	9005.91
580.206	8956.42
580.566	8972.24
580.927	8964.78
581.287	8958.22
581.648	8912.8
582.008	8955.74
582.368	8929.75
582.728	8958.45
583.089	8945.57
583.449	8955.29
583.809	8897.89
584.169	8934.5
584.529	8913.93
584.889	8944.89
585.249	8778.34
585.609	8845.69
585.969	8853.82
586.329	8872.35
586.688	8847.27
587.048	8809.08
587.408	8814.5
587.768	8794.39
588.127	8838.68
588.487	8751.68
588.846	8819.25
589.206	8714.84
589.565	8768.85
589.925	8761.39
590.284	8710.77
590.643	8788.06
591.003	8753.03
591.362	8766.59
591.721	8709.42
592.08	8778.79
592.44	8714.62
592.799	8718.91
593.158	8685.69
593.517	8647.5
593.876	8659.93
594.235	8692.24
594.593	8624.67
594.952	8662.87
595.311	8637.1
595.67	8594.62
596.029	8682.07
596.387	8651.11
596.746	8665.58
597.104	8623.09
597.463	8599.14
597.822	8644.33
598.18	8588.29
598.538	8559.59
598.897	8616.99
599.255	8540.61
599.613	8621.28
599.972	8609.99
600.33	8635.3
600.688	8564.34
601.046	8623.09
601.404	8602.98
601.762	8611.57
602.12	8578.12
602.478	8625.58
602.836	8615.18
603.194	8611.79
603.552	8540.61
603.91	8533.38
604.268	8614.96
604.625	8533.6
604.983	8582.64
605.341	8548.07
605.698	8548.07
606.056	8600.04
606.413	8566.82
606.771	8598.01
607.128	8584
607.485	8578.12
607.843	8549.2
608.2	8594.39
608.557	8656.54
608.914	8559.82
609.272	8607.05
609.629	8617.89
609.986	8607.95
610.343	8606.82
610.7	8680.04
611.057	8643.66
611.414	8641.62
611.771	8674.16
612.127	8645.69
612.484	8631.45
612.841	8638.91
613.198	8645.69
613.554	8609.08
613.911	8637.33
614.267	8631
614.624	8625.58
614.98	8668.06
615.337	8705.35
615.693	8673.26
616.05	8620.83
616.406	8713.26
616.762	8601.17
617.118	8693.6
617.475	8715.07
617.831	8702.41
618.187	8724.11
618.543	8726.37
618.899	8691.79
619.255	8682.3
619.611	8694.5
619.967	8748.06
620.323	8809.98
620.678	8722.07
621.034	8708.06
621.39	8675.75
621.746	8683.43
622.101	8788.74
622.457	8700.15
622.812	8699.47
623.168	8748.06
623.523	8754.84
623.879	8691.11
624.234	8706.93
624.589	8811.34
624.945	8748.74
625.3	8727.95
625.655	8724.33
626.01	8712.81
626.365	8777.66
626.72	8695.63
627.075	8721.85
627.43	8691.57
627.785	8679.36
628.14	8669.87
628.495	8654.28
628.85	8672.58
629.205	8648.85
629.559	8640.49
629.914	8658.57
630.269	8710.32
630.623	8596.65
630.978	8652.47
631.332	8628.97
631.687	8636.43
632.041	8611.79
632.396	8631.68
632.75	8616.54
633.104	8586.26
633.459	8564.11
633.813	8480.95
634.167	8523.66
634.521	8511.23
634.875	8564.79
635.229	8470.55
635.583	8501.06
635.937	8487.5
636.291	8470.55
636.645	8492.47
636.999	8480.5
637.352	8456.54
637.706	8409.76
638.06	8399.82
638.413	8405.25
638.767	8364.34
639.121	8433.27
639.474	8326.6
639.828	8349.65
640.181	8385.81
640.534	8371.8
640.888	8349.43
641.241	8383.32
641.594	8327.96
641.947	8343.55
642.301	8263.33
642.654	8355.75
643.007	8344.91
643.36	8335.42
643.713	8285.47
644.066	8305.81
644.419	8335.19
644.771	8221.97
645.124	8225.36
645.477	8157.12
645.83	8129.77
646.182	8076.44
646.535	8095.87
646.888	8058.14
647.24	8026.5
647.593	8042.09
647.945	8000.28
648.298	8023.79
648.65	7946.73
649.002	7960.29
649.355	8001.19
649.707	7993.05
650.059	8066.95
650.411	8096.33
650.763	8130.9
651.115	8271.69
651.467	8167.74
651.819	8203.89
652.171	8225.14
652.523	8163.67
652.875	8193.73
653.227	8103.33
653.578	8217.68
653.93	8200.73
654.282	8155.08
654.633	8151.47
654.985	8188.53
655.337	8225.36
655.688	8167.51
656.039	8220.39
656.391	8162.99
656.742	8163.22
657.094	8152.14
657.445	8195.31
657.796	8179.26
658.147	8155.99
658.498	8188.75
658.849	8139.49
659.2	8212.26
659.551	8201.18
659.902	8251.12
660.253	8189.21
660.604	8271.69
660.955	8207.06
661.306	8263.1
661.656	8200.28
662.007	8244.12
662.358	8272.59
662.708	8262.88
663.059	8277.11
663.409	8258.13
663.76	8218.36
664.11	8242.09
664.461	8266.27
664.811	8232.59
665.161	8286.6
665.511	8215.19
665.862	8225.59
666.212	8363.89
666.562	8300.39
666.912	8267.62
667.262	8251.8
667.612	8239.83
667.962	8264.23
668.312	8216.78
668.662	8277.56
669.011	8314.17
669.361	8279.15
669.711	8298.13
670.06	8191.92
670.41	8250.45
670.76	8265.59
671.109	8274.63
671.459	8263.55
671.808	8153.73
672.157	8274.18
672.507	8165.48
672.856	8176.32
673.205	8181.52
673.554	8240.5
673.904	8144.01
674.253	8203.44
674.602	8200.96
674.951	8087.06
675.3	7962.77
675.649	8136.1
675.998	8104.91
676.346	8151.01
676.695	8169.09
677.044	8105.14
677.393	8102.65
677.741	8114.86
678.09	8113.5
678.438	8114.18
678.787	8083.45
679.135	8051.81
679.484	7995.54
679.832	7964.58
680.181	7998.02
680.529	7965.93
680.877	7956.44
681.225	7999.83
681.573	8001.87
681.922	7961.64
682.27	7902.89
682.618	7937.91
682.966	7940.4
683.314	7934.97
683.661	7910.57
684.009	7857.69
684.357	7809.1
684.705	7811.59
685.053	7775.66
685.4	7781.08
685.748	7713.06
686.095	7760.97
686.443	7737.01
686.79	7629.45
687.138	7707.18
687.485	7654.53
687.832	7709.22
688.18	7676
688.527	7666.28
688.874	7588.09
689.221	7610.01
689.568	7544.93
689.915	7556.68
690.262	7539.05
690.609	7534.76
690.956	7507.19
691.303	7500.64
691.65	7406.4
691.997	7424.71
692.344	7402.79
692.69	7360.98
693.037	7378.38
693.383	7240.98
693.73	7293.64
694.077	7247.54
694.423	7236.01
694.769	7165.5
695.116	7170.25
695.462	7158.05
695.808	7144.26
696.155	7097.71
696.501	7076.01
696.847	7025.85
697.193	6975
697.539	7014.77
697.885	6962.57
698.231	6913.53
698.577	6938.39
698.923	6931.39
699.269	6839.64
699.614	6818.62
699.96	6839.86
700.306	6852.97
700.651	6718.74
700.997	6757.38
701.342	6728.9
701.688	6732.29
702.033	6721.22
702.379	6698.85
702.724	6682.35
703.069	6651.84
703.415	6562.58
703.76	6558.29
704.105	6556.03
704.45	6555.35
704.795	6508.57
705.14	6511.28
705.485	6456.82
705.83	6404.39
706.175	6399.42
706.52	6335.24
706.865	6383.83
707.209	6396.71
707.554	6347.67
707.899	6354.9
708.243	6322.59
708.588	6299.31
708.932	6201.24
709.277	6240.33
709.621	6244.85
709.966	6212.99
710.31	6202.14
710.654	6241.01
710.998	6162.82
711.342	6201.24
711.687	6097.06
712.031	6107
712.375	6125.98
712.719	6085.31
713.063	6103.84
713.407	6114.46
713.75	6054.8
714.094	6023.39
714.438	5999.66
714.782	6068.58
715.125	6026.78
715.469	6028.81
715.812	6028.36
716.156	5998.53
716.499	5955.59
716.843	6003.5
717.186	5940.9
717.53	5965.54
717.873	5958.08
718.216	5916.95
718.559	5913.56
718.902	5882.37
719.246	5874.46
719.589	5889.83
719.932	5864.07
720.275	5910.4
720.617	5903.62
720.96	5925.54
721.303	5822.94
721.646	5883.28
721.989	5847.12
722.331	5917.85
722.674	5849.61
723.016	5907.46
723.359	5863.84
723.701	5839.66
724.044	5845.31
724.386	5782.49
724.729	5858.65
725.071	5838.53
725.413	5776.84
725.755	5802.38
726.097	5791.53
726.439	5706.33
726.782	5763.51
727.124	5783.17
727.465	5721.25
727.807	5785.88
728.149	5782.26
728.491	5796.05
728.833	5756.95
729.175	5751.3
729.516	5773.22
729.858	5773
730.199	5808.03
730.541	5725.32
730.882	5777.29
731.224	5754.92
731.565	5737.97
731.906	5738.65
732.248	5764.86
732.589	5766.67
732.93	5733
733.271	5759.66
733.612	5746.33
733.953	5772.09
734.294	5757.18
734.635	5818.42
734.976	5793.79
735.317	5739.33
735.658	5772.09
735.999	5765.09
736.339	5771.64
736.68	5756.95
737.021	5801.25
737.361	5795.82
737.702	5850.51
738.042	5811.41
738.383	5808.03
738.723	5850.06
739.063	5820
739.404	5852.32
739.744	5859.78
740.084	5840.57
740.424	5885.31
740.764	5864.52
741.104	5913.11
741.444	5917.4
741.784	5869.94
742.124	5915.59
742.464	5953.78
742.804	5900.23
743.143	5972.09
743.483	5989.72
743.823	5971.18
744.162	6024.52
744.502	6050.96
744.841	6067.91
745.181	6108.81
745.52	6154.23
745.86	6138.19
746.199	6190.61
746.538	6217.28
746.877	6336.6
747.216	6300.22
747.556	6308.35
747.895	6433.32
748.234	6452.53
748.573	6486.43
748.911	6535.92
749.25	6663.82
749.589	6639.64
749.928	6665.86
750.267	6830.15
750.605	6823.37
750.944	6877.83
751.283	6993.3
751.621	7076.92
751.96	7172.06
752.298	7226.07
752.636	7363.69
752.975	7349.68
753.313	7497.02
753.651	7617.47
753.989	7733.85
754.327	7755.77
754.666	7965.71
755.004	8094.07
755.342	8165.7
755.679	8308.52
756.017	8406.6
756.355	8576.54
756.693	8654.5
757.031	8801.62
757.368	8954.61
757.706	9080.03
758.044	9285.45
758.381	9496.29
758.719	9561.82
759.056	9722.72
759.394	9912.1
759.731	10023.28
760.068	10201.13
760.405	10363.61
760.743	10414.46
761.08	10750.72
761.417	10823.26
761.754	11003.82
762.091	11199.97
762.428	11402.23
762.765	11467.76
763.102	11737.36
763.438	11879.73
763.775	12020.97
764.112	12210.12
764.449	12384.8
764.785	12506.15
765.122	12639.94
765.458	12803.55
765.795	13003.77
766.131	13233.14
766.467	13288.05
766.804	13462.74
