Data from hue_160_FLMS001491_00061.txt Node
Date: Tue Feb 07 16:51:30 GMT 2017
User: dcchb
Spectrometer: FLMS00149
Trigger mode: 0
Integration Time (sec): 2.000000E-2
Scans to average: 10
Electric dark correction enabled: true
Nonlinearity correction enabled: false
Boxcar width: 0
XAxis mode: Wavelengths
Number of Pixels in Spectrum: 2048
>>>>>Begin Spectral Data<<<<<
341.393	-2.61
341.776	-2.61
342.16	-2.61
342.543	-47.36
342.927	-61.82
343.31	-58.2
343.693	-67.02
344.077	-53.46
344.46	-40.13
344.843	-47.81
345.226	-52.78
345.61	-20.01
345.993	-12.56
346.376	-12.56
346.759	8.23
347.142	1.68
347.525	43.26
347.908	56.37
348.291	76.71
348.674	75.13
349.057	103.15
349.44	98.18
349.823	149.25
350.206	175.69
350.588	207.1
350.971	202.81
351.354	213.88
351.737	234.44
352.119	258.17
352.502	262.24
352.884	253.88
353.267	271.73
353.65	311.96
354.032	303.37
354.414	300.43
354.797	311.28
355.179	318.73
355.562	321.45
355.944	330.03
356.326	328.68
356.709	358.28
357.091	326.87
357.473	339.52
357.855	342.24
358.238	332.07
358.62	335.91
359.002	339.75
359.384	344.04
359.766	345.4
360.148	356.7
360.53	335.91
360.912	350.6
361.294	324.84
361.676	331.16
362.057	328.9
362.439	340.43
362.821	320.99
363.203	329.58
363.584	317.6
363.966	318.73
364.348	321.9
364.729	296.36
365.111	320.99
365.493	326.64
365.874	326.19
366.256	316.02
366.637	307.89
367.019	334.78
367.4	318.73
367.781	320.09
368.163	302.69
368.544	301.56
368.925	313.54
369.306	308.79
369.688	308.34
370.069	311.5
370.45	315.34
370.831	326.87
371.212	316.02
371.593	305.18
371.974	312.41
372.355	317.6
372.736	336.14
373.117	327.55
373.498	331.62
373.879	317.38
374.26	318.96
374.641	303.59
375.021	321.45
375.402	315.34
375.783	319.41
376.163	309.02
376.544	326.64
376.925	334.78
377.305	317.83
377.686	342.24
378.066	322.58
378.447	332.75
378.827	362.58
379.208	322.58
379.588	334.78
379.968	350.82
380.349	341.11
380.729	333.2
381.109	351.28
381.489	343.14
381.87	344.27
382.25	343.59
382.63	345.63
383.01	366.42
383.39	327.1
383.77	354.21
384.15	353.31
384.53	355.8
384.91	362.35
385.29	357.83
385.67	340.88
386.049	352.18
386.429	355.12
386.809	362.35
387.189	354.67
387.568	356.47
387.948	379.75
388.328	361.45
388.707	385.85
389.087	374.33
389.466	358.73
389.846	375.68
390.225	368
390.605	364.61
390.984	368.45
391.363	373.65
391.743	358.06
392.122	367.32
392.501	373.2
392.881	393.31
393.26	398.05
393.639	393.99
394.018	389.92
394.397	379.3
394.776	393.08
395.155	382.01
395.534	372.52
395.913	399.41
396.292	406.87
396.671	382.24
397.05	390.37
397.429	394.44
397.808	391.28
398.186	380.2
398.565	366.87
398.944	396.7
399.323	407.09
399.701	401.44
400.08	391.5
400.458	403.25
400.837	423.82
401.215	430.14
401.594	400.31
401.972	414.33
402.351	410.48
402.729	422.23
403.107	412.07
403.486	428.56
403.864	419.3
404.242	430.6
404.62	416.59
404.999	415.46
405.377	412.07
405.755	424.04
406.133	433.76
406.511	414.1
406.889	455
407.267	469.92
407.645	445.28
408.023	436.25
408.401	455.68
408.779	460.2
409.156	469.69
409.534	459.75
409.912	460.65
410.29	504.27
410.667	458.84
411.045	466.08
411.422	467.66
411.8	483.02
412.178	459.3
412.555	481.67
412.933	478.73
413.31	498.62
413.687	483.48
414.065	501.78
414.442	493.65
414.819	490.03
415.197	485.51
415.574	524.15
415.951	520.54
416.328	508.11
416.705	509.01
417.082	522.8
417.46	538.16
417.837	541.33
418.214	542.23
418.591	532.06
418.967	529.12
419.344	535.9
419.721	549.46
420.098	539.75
420.475	535.9
420.852	560.76
421.228	563.7
421.605	571.61
421.982	570.25
422.358	581.55
422.735	567.54
423.111	589.01
423.488	585.17
423.864	587.2
424.241	592.63
424.617	588.33
424.994	591.27
425.37	583.81
425.746	609.35
426.123	620.2
426.499	618.61
426.875	607.99
427.251	632.17
427.627	643.02
428.003	646.86
428.379	619.29
428.756	635.34
429.132	659.29
429.507	658.84
429.883	678.27
430.259	672.85
430.635	675.34
431.011	676.92
431.387	696.13
431.763	686.86
432.138	671.27
432.514	711.27
432.89	722.11
433.265	709.46
433.641	735.45
434.016	739.06
434.392	738.38
434.767	763.24
435.143	752.4
435.518	785.16
435.894	746.07
436.269	761.43
436.644	791.49
437.02	793.52
437.395	780.64
437.77	809.12
438.145	794.88
438.52	812.96
438.895	841.21
439.271	824.71
439.646	847.99
440.021	871.49
440.395	849.79
440.77	856.57
441.145	860.42
441.52	866.97
441.895	852.96
442.27	892.28
442.645	906.52
443.019	893.18
443.394	876.46
443.769	899.51
444.143	901.54
444.518	909.23
444.892	936.35
445.267	933.63
445.641	931.15
446.016	929.57
446.39	927.31
446.764	967.31
447.139	944.93
447.513	963.46
447.887	967.31
448.262	959.85
448.636	974.08
449.01	973.86
449.384	1007.08
449.758	1015.44
450.132	1000.07
450.506	1054.08
450.88	1031.48
451.254	1044.37
451.628	1038.94
452.002	1026.96
452.376	1074.42
452.75	1045.04
453.123	1097.92
453.497	1078.71
453.871	1086.62
454.244	1133.4
454.618	1127.53
454.992	1144.7
455.365	1163.23
455.739	1192.61
456.112	1160.07
456.486	1186.28
456.859	1196.45
457.232	1240.74
457.606	1245.72
457.979	1252.5
458.352	1277.58
458.725	1290.23
459.099	1298.14
459.472	1327.3
459.845	1324.36
460.218	1319.16
460.591	1372.72
460.964	1376.33
461.337	1412.72
461.71	1399.84
462.083	1439.84
462.456	1425.15
462.829	1438.93
463.201	1465.37
463.574	1480.51
463.947	1514.41
464.32	1551.47
464.692	1555.99
465.065	1581.07
465.438	1587.85
465.81	1622.2
466.183	1650
466.555	1681.86
466.928	1699.94
467.3	1683.44
467.672	1742.2
468.045	1788.07
468.417	1794.85
468.789	1833.27
469.161	1828.98
469.534	1880.95
469.906	1941.97
470.278	1959.82
470.65	1952.59
471.022	2011.8
471.394	2060.16
471.766	2098.12
472.138	2157.1
472.51	2173.15
472.882	2228.06
473.253	2253.6
473.625	2312.81
473.997	2362.52
474.369	2408.17
474.74	2419.24
475.112	2550.31
475.484	2578.34
475.855	2631.89
476.227	2653.81
476.598	2746.69
476.97	2737.2
477.341	2880.48
477.713	2933.81
478.084	2952.79
478.455	3112.33
478.827	3126.34
479.198	3251.99
479.569	3306
479.94	3379.22
480.311	3483.85
480.682	3606.11
481.053	3673.22
481.424	3753.22
481.795	3875.03
482.166	3962.48
482.537	4053.1
482.908	4126.09
483.279	4229.14
483.65	4365.63
484.021	4468.68
484.391	4569.24
484.762	4669.35
485.133	4757.71
485.503	4915.22
485.874	5015.33
486.244	5117.48
486.615	5230.02
486.985	5383.69
487.356	5506.62
487.726	5594.08
488.097	5766.27
488.467	5851.02
488.837	6027.74
489.207	6175.3
489.578	6293.94
489.948	6396.54
490.318	6528.51
490.688	6611.9
491.058	6808.51
491.428	6907.71
491.798	7064.77
492.168	7220.02
492.538	7349.96
492.908	7452.78
493.278	7574.14
493.648	7699.33
494.017	7846.67
494.387	7945.43
494.757	8116.5
495.126	8233.78
495.496	8232.42
495.866	8385.87
496.235	8539.54
496.605	8660.44
496.974	8754.22
497.344	8882.8
497.713	8957.83
498.082	9035.12
498.452	9141.55
498.821	9261.78
499.19	9336.8
499.559	9460.87
499.928	9586.51
500.298	9713.74
500.667	9755.77
501.036	9830.8
501.405	9921.65
501.774	9942.21
502.143	10124.13
502.512	10169.32
502.88	10261.3
503.249	10348.3
503.618	10382.42
503.987	10450.22
504.356	10562.53
504.724	10617.9
505.093	10710.55
505.462	10725.69
505.83	10822.19
506.199	10882.98
506.567	11079.13
506.936	11075.51
507.304	11160.03
507.672	11162.74
508.041	11217.88
508.409	11355.96
508.777	11417.65
509.145	11479.57
509.514	11495.62
509.882	11518.89
510.25	11542.17
510.618	11655.61
510.986	11686.8
511.354	11804.31
511.722	11767.47
512.09	11910.97
512.458	11835.04
512.826	12009.5
513.193	12005.88
513.561	12023.96
513.929	12073.68
514.297	12172.43
514.664	12268.93
515.032	12271.87
515.4	12371.52
515.767	12381.02
516.135	12420.34
516.502	12316.61
516.869	12442.03
517.237	12476.38
517.604	12418.08
517.972	12538.3
518.339	12575.14
518.706	12539.66
519.073	12611.29
519.44	12649.94
519.808	12691.29
520.175	12653.55
520.542	12797.28
520.909	12793.43
521.276	12761.57
521.643	12855.58
522.009	12861.46
522.376	12903.26
522.743	12973.09
523.11	13098.51
523.477	13046.54
523.843	13131.28
524.21	13171.28
524.577	13155.46
524.943	13252.86
525.31	13151.17
525.676	13301.44
526.043	13325.17
526.409	13330.82
526.776	13333.76
527.142	13360.65
527.508	13436.13
527.874	13413.08
528.241	13456.92
528.607	13385.74
528.973	13530.82
529.339	13475.22
529.705	13514.09
530.071	13583.92
530.437	13563.58
530.803	13550.7
531.169	13537.37
531.535	13448.56
531.901	13428.22
532.267	13537.14
532.632	13459.86
532.998	13464.38
533.364	13487.65
533.73	13494.66
534.095	13500.53
534.461	13484.04
534.826	13425.28
535.192	13426.19
535.557	13532.62
535.923	13418.5
536.288	13364.49
536.653	13417.6
537.019	13246.76
537.384	13333.99
537.749	13361.78
538.114	13289.69
538.479	13251.28
538.845	13192.29
539.21	13138.51
539.575	13198.4
539.94	13104.16
540.305	13217.38
540.67	13092.86
541.034	13109.58
541.399	13101.22
541.764	13067.1
542.129	13068.46
542.494	13045.41
542.858	13012.19
543.223	12938.97
543.587	12924.05
543.952	12833.43
544.316	12851.29
544.681	12798.41
545.045	12797.73
545.41	12807.9
545.774	12689.03
546.138	12706.43
546.503	12691.97
546.867	12642.7
547.231	12695.36
547.595	12606.55
547.959	12597.51
548.324	12510.05
548.688	12519.09
549.052	12493.56
549.416	12435.25
549.779	12433.44
550.143	12391.41
550.507	12449.04
550.871	12378.08
551.235	12358.64
551.599	12326.55
551.962	12257.4
552.326	12250.4
552.689	12354.35
553.053	12195.26
553.417	12162.26
553.78	12218.31
554.143	12167.24
554.507	12162.04
554.87	12143.96
555.234	12172.43
555.597	12084.07
555.96	12059.67
556.323	12120.23
556.686	12131.76
557.05	12070.06
557.413	12039.1
557.776	11963.63
558.139	12009.5
558.502	12050.86
558.865	12023.74
559.228	12008.82
559.59	11981.03
559.953	11980.57
560.316	12110.06
560.679	12057.18
561.041	12097.41
561.404	12053.79
561.767	12187.58
562.129	12037.52
562.492	12124.98
562.854	12013.34
563.217	12071.65
563.579	12175.15
563.941	12162.49
564.304	12128.59
564.666	12220.34
565.028	12128.82
565.39	12115.49
565.753	12216.95
566.115	12270.74
566.477	12225.54
566.839	12249.95
567.201	12323.39
567.563	12287.69
567.925	12436.83
568.287	12318.65
568.648	12350.96
569.01	12402.03
569.372	12289.49
569.734	12288.14
570.095	12408.81
570.457	12439.09
570.819	12371.3
571.18	12391.64
571.542	12404.97
571.903	12451.07
572.265	12426.66
572.626	12396.84
572.987	12454.01
573.349	12441.58
573.71	12524.52
574.071	12538.75
574.432	12482.48
574.794	12662.59
575.155	12537.17
575.516	12489.71
575.877	12549.83
576.238	12519.54
576.599	12554.57
576.96	12582.14
577.32	12519.09
577.681	12565.42
578.042	12552.76
578.403	12599.77
578.763	12605.64
579.124	12602.03
579.485	12583.72
579.845	12625.3
580.206	12599.99
580.566	12574.01
580.927	12630.28
581.287	12690.16
581.648	12510.05
582.008	12636.15
582.368	12665.53
582.728	12620.33
583.089	12514.57
583.449	12576.27
583.809	12590.5
584.169	12621.91
584.529	12560.22
584.889	12617.62
585.249	12574.46
585.609	12461.92
585.969	12588.47
586.329	12484.74
586.688	12522.93
587.048	12512.54
587.408	12409.26
587.768	12496.49
588.127	12429.15
588.487	12408.81
588.846	12568.58
589.206	12378.98
589.565	12530.39
589.925	12522.03
590.284	12440.9
590.643	12421.24
591.003	12508.92
591.362	12478.41
591.721	12475.48
592.08	12403.39
592.44	12454.91
592.799	12478.19
593.158	12463.73
593.517	12491.52
593.876	12434.57
594.235	12407
594.593	12441.13
594.952	12414.01
595.311	12360.68
595.67	12390.73
596.029	12377.63
596.387	12430.28
596.746	12437.74
597.104	12447.46
597.463	12380.56
597.822	12371.07
598.18	12291.08
598.538	12224.86
598.897	12357.97
599.255	12282.04
599.613	12379.66
599.972	12320.68
600.33	12329.94
600.688	12315.93
601.046	12298.53
601.404	12428.47
601.762	12440
602.12	12416.95
602.478	12384.86
602.836	12449.04
603.194	12374.01
603.552	12290.85
603.91	12421.47
604.268	12378.3
604.625	12341.7
604.983	12404.74
605.341	12319.1
605.698	12396.16
606.056	12458.75
606.413	12384.41
606.771	12403.61
607.128	12329.94
607.485	12380.79
607.843	12405.65
608.2	12506.66
608.557	12550.5
608.914	12488.58
609.272	12513.44
609.629	12492.88
609.986	12568.58
610.343	12456.72
610.7	12559.99
611.057	12533.78
611.414	12523.39
611.771	12549.15
612.127	12542.14
612.484	12561.58
612.841	12592.08
613.198	12516.15
613.554	12516.38
613.911	12630.28
614.267	12584.63
614.624	12566.55
614.98	12608.35
615.337	12677.51
615.693	12602.25
616.05	12631.86
616.406	12632.99
616.762	12671.4
617.118	12681.57
617.475	12685.42
617.831	12730.39
618.187	12678.64
618.543	12717.5
618.899	12784.62
619.255	12749.14
619.611	12714.57
619.967	12737.84
620.323	12791.17
620.678	12751.63
621.034	12703.95
621.39	12693.32
621.746	12726.54
622.101	12747.79
622.457	12709.14
622.812	12711.18
623.168	12811.97
623.523	12844.28
623.879	12790.05
624.234	12753.66
624.589	12806.32
624.945	12766.09
625.3	12761.57
625.655	12846.31
626.01	12737.84
626.365	12704.62
626.72	12763.83
627.075	12752.53
627.43	12743.72
627.785	12737.39
628.14	12824.85
628.495	12789.59
628.85	12805.41
629.205	12684.51
629.559	12848.12
629.914	12666.66
630.269	12697.84
630.623	12677.51
630.978	12632.76
631.332	12703.72
631.687	12674.57
632.041	12599.77
632.396	12708.69
632.75	12610.61
633.104	12642.48
633.459	12505.98
633.813	12589.15
634.167	12529.26
634.521	12567
634.875	12568.81
635.229	12608.13
635.583	12449.49
635.937	12471.41
636.291	12504.18
636.645	12515.93
636.999	12402.48
637.352	12539.88
637.706	12354.8
638.06	12444.07
638.413	12462.14
638.767	12343.96
639.121	12368.81
639.474	12258.76
639.828	12323.62
640.181	12297.4
640.534	12327.01
640.888	12263.28
641.241	12237.52
641.594	12247.01
641.947	12276.84
642.301	12249.04
642.654	12349.83
643.007	12233.9
643.36	12175.82
643.713	12228.93
644.066	12275.26
644.419	12218.76
644.771	12100.12
645.124	12097.63
645.477	12021.93
645.83	11820.13
646.182	11880.69
646.535	11882.5
646.888	11847.47
647.24	11755.5
647.593	11824.19
647.945	11769.96
648.298	11723.41
648.65	11734.48
649.002	11668.94
649.355	11798.88
649.707	11742.39
650.059	11813.57
650.411	11975.38
650.763	11986.45
651.115	12041.14
651.467	12012.89
651.819	12054.47
652.171	11920.01
652.523	12027.13
652.875	12013.12
653.227	11991.65
653.578	12061.25
653.93	11955.26
654.282	11989.39
654.633	12001.59
654.985	12047.01
655.337	11963.85
655.688	11986.22
656.039	12078.65
656.391	11941.03
656.742	12062.61
657.094	11993.23
657.445	11976.28
657.796	12027.58
658.147	11946.45
658.498	11990.07
658.849	11995.72
659.2	12013.57
659.551	12009.27
659.902	12023.06
660.253	12070.29
660.604	12074.36
660.955	11970.41
661.306	12064.87
661.656	11971.54
662.007	12046.11
662.358	12004.08
662.708	12114.81
663.059	12023.74
663.409	12015.83
663.76	12086.33
664.11	12093.34
664.461	12069.61
664.811	12023.51
665.161	12056.05
665.511	12010.18
665.862	12018.31
666.212	12092.89
666.562	12030.97
666.912	12035.04
667.262	11999.78
667.612	12009.27
667.962	12036.39
668.312	12021.7
668.662	12016.05
669.011	12046.11
669.361	12027.35
669.711	11987.13
670.06	11975.38
670.41	11949.39
670.76	11956.85
671.109	11997.3
671.459	11936.28
671.808	11947.13
672.157	12005.43
672.507	11840.47
672.856	11917.07
673.205	12017.41
673.554	11944.64
673.904	11917.07
674.253	11956.62
674.602	11850.41
674.951	11758.21
675.3	11715.27
675.649	11932.21
675.998	11859.67
676.346	11847.7
676.695	11908.49
677.044	11748.49
677.393	11806.57
677.741	11835.27
678.09	11824.42
678.438	11746
678.787	11769.73
679.135	11724.76
679.484	11724.08
679.832	11719.79
680.181	11599.12
680.529	11723.63
680.877	11657.65
681.225	11678.89
681.573	11743.29
681.922	11614.26
682.27	11625.1
682.618	11569.96
682.966	11622.62
683.314	11640.24
683.661	11530.19
684.009	11489.74
684.357	11401.83
684.705	11416.97
685.053	11449.52
685.4	11410.19
685.748	11363.19
686.095	11315.28
686.443	11328.39
686.79	11363.42
687.138	11320.48
687.485	11321.38
687.832	11236.64
688.18	11331.1
688.527	11226.02
688.874	11161.84
689.221	11216.53
689.568	11137.66
689.915	11087.04
690.262	11004.1
690.609	11054.72
690.956	10984.67
691.303	10960.94
691.65	10837.1
691.997	10840.94
692.344	10866.25
692.69	10858.34
693.037	10863.99
693.383	10695.18
693.73	10695.18
694.077	10677.11
694.423	10632.14
694.769	10641.18
695.116	10587.39
695.462	10566.15
695.808	10557.11
696.155	10528.41
696.501	10433.72
696.847	10425.59
697.193	10320.73
697.539	10381.75
697.885	10272.15
698.231	10254.74
698.577	10317.12
698.923	10266.5
699.269	10095.65
699.614	10044.81
699.96	10045.94
700.306	10084.13
700.651	10015.43
700.997	10051.81
701.342	9952.61
701.688	9906.28
702.033	9919.84
702.379	9901.76
702.724	9766.62
703.069	9878.48
703.415	9704.02
703.76	9826.73
704.105	9726.62
704.45	9709.9
704.795	9666.29
705.14	9631.71
705.485	9597.59
705.83	9589.68
706.175	9619.05
706.52	9452.96
706.865	9460.87
707.209	9447.08
707.554	9487.08
707.899	9471.04
708.243	9384.03
708.588	9371.38
708.932	9374.09
709.277	9362.56
709.621	9279.63
709.966	9205.73
710.31	9289.12
710.654	9172.29
710.998	9211.61
711.342	9144.49
711.687	9133.64
712.031	9144.04
712.375	9070.82
712.719	9063.14
713.063	9052.52
713.407	9070.59
713.75	8982.69
714.094	9059.07
714.438	8951.5
714.782	8973.42
715.125	8926.42
715.469	8949.92
715.812	8868.57
716.156	8929.36
716.499	8878.06
716.843	8912.86
717.186	8874.22
717.53	8888.9
717.873	8876.7
718.216	8841
718.559	8779.76
718.902	8684.39
719.246	8756.48
719.589	8733.43
719.932	8728.23
720.275	8718.74
720.617	8699.08
720.96	8695.92
721.303	8683.03
721.646	8760.55
721.989	8644.39
722.331	8674.67
722.674	8656.59
723.016	8687.33
723.359	8608.91
723.701	8600.55
724.044	8613.43
724.386	8579.08
724.729	8599.87
725.071	8593.09
725.413	8586.77
725.755	8569.37
726.097	8467.22
726.439	8561.23
726.782	8546.09
727.124	8573.88
727.465	8522.59
727.807	8537.28
728.149	8514.9
728.491	8531.85
728.833	8495.92
729.175	8557.39
729.516	8516.71
729.858	8488.46
730.199	8452.08
730.541	8464.74
730.882	8497.95
731.224	8552.42
731.565	8439.2
731.906	8483.72
732.248	8506.99
732.589	8429.48
732.93	8403.27
733.271	8455.02
733.612	8476.26
733.953	8462.25
734.294	8427.9
734.635	8407.79
734.976	8395.36
735.317	8416.15
735.658	8474.45
735.999	8427.9
736.339	8430.16
736.68	8452.08
737.021	8412.99
737.361	8361.01
737.702	8423.61
738.042	8404.17
738.383	8379.31
738.723	8446.66
739.063	8452.31
739.404	8524.17
739.744	8443.27
740.084	8409.37
740.424	8505.41
740.764	8490.95
741.104	8526.43
741.444	8491.18
741.784	8505.86
742.124	8502.02
742.464	8566.43
742.804	8580.44
743.143	8561.68
743.483	8623.83
743.823	8582.25
744.162	8654.79
744.502	8680.77
744.841	8630.15
745.181	8734.56
745.52	8758.74
745.86	8746.08
746.199	8735.91
746.538	8793.99
746.877	8911.05
747.216	8844.16
747.556	8939.75
747.895	8906.53
748.234	8986.53
748.573	9055
748.911	9105.85
749.25	9212.74
749.589	9224.04
749.928	9274.43
750.267	9379.51
750.605	9433.75
750.944	9395.33
751.283	9471.71
751.621	9621.31
751.96	9673.74
752.298	9756.45
752.636	9817.69
752.975	9875.09
753.313	9985.83
753.651	10198.02
753.989	10163.22
754.327	10312.82
754.666	10361.86
755.004	10543.55
755.342	10626.94
755.679	10744
756.017	10868.74
756.355	11024.22
756.693	11112.12
757.031	11259.24
757.368	11311.67
757.706	11462.17
758.044	11599.12
758.381	11792.33
758.719	11897.41
759.056	12108.48
