Data from hue_280_FLMS001491_00094.txt Node
Date: Tue Feb 07 15:56:08 GMT 2017
User: dcchb
Spectrometer: FLMS00149
Trigger mode: 0
Integration Time (sec): 2.000000E-2
Scans to average: 10
Electric dark correction enabled: true
Nonlinearity correction enabled: false
Boxcar width: 0
XAxis mode: Wavelengths
Number of Pixels in Spectrum: 2048
>>>>>Begin Spectral Data<<<<<
341.393	-19.25
341.776	-19.25
342.16	-19.25
342.543	-43.66
342.927	-61.28
343.31	-62.64
343.693	-56.31
344.077	-75.97
344.46	-58.12
344.843	-46.14
345.226	-32.81
345.61	-29.65
345.993	-26.03
346.376	-16.54
346.759	7.87
347.142	18.49
347.525	49.22
347.908	53.97
348.291	74.31
348.674	84.48
349.057	115.89
349.44	120.63
349.823	146.39
350.206	161.08
350.588	200.4
350.971	203.12
351.354	229.56
351.737	252.83
352.119	225.26
352.502	256.22
352.884	276.79
353.267	281.53
353.65	281.53
354.032	307.52
354.414	310.01
354.797	300.29
355.179	318.82
355.562	318.14
355.944	324.92
356.326	329.67
356.709	320.4
357.091	335.54
357.473	342.32
357.855	331.7
358.238	320.63
358.62	324.69
359.002	326.73
359.384	338.93
359.766	318.59
360.148	325.6
360.53	343.23
360.912	334.19
361.294	313.4
361.676	335.77
362.057	345.49
362.439	312.94
362.821	319.27
363.203	333.51
363.584	322.44
363.966	310.23
364.348	310.01
364.729	316.11
365.111	340.06
365.493	338.93
365.874	339.16
366.256	306.16
366.637	311.59
367.019	310.68
367.4	303.45
367.781	315.88
368.163	307.29
368.544	332.15
368.925	305.49
369.306	320.85
369.688	307.52
370.069	324.02
370.45	316.11
370.831	297.12
371.212	301.87
371.593	301.87
371.974	289.44
372.355	292.61
372.736	309.78
373.117	314.3
373.498	317.46
373.879	330.12
374.26	309.33
374.641	286.73
375.021	308.65
375.402	330.12
375.783	335.99
376.163	310.01
376.544	311.81
376.925	316.79
377.305	328.76
377.686	338.25
378.066	323.56
378.447	318.82
378.827	328.99
379.208	323.34
379.588	328.31
379.968	334.86
380.349	326.5
380.729	332.15
381.109	327.63
381.489	342.32
381.87	331.02
382.25	344.58
382.63	359.5
383.01	330.12
383.39	334.86
383.77	340.06
384.15	353.17
384.53	326.95
384.91	347.07
385.29	361.53
385.67	358.37
386.049	350.23
386.429	349.55
386.809	341.87
387.189	340.29
387.568	354.75
387.948	361.76
388.328	353.17
388.707	356.78
389.087	352.49
389.466	345.94
389.846	350.91
390.225	364.69
390.605	371.47
390.984	356.78
391.363	357.24
391.743	375.09
392.122	364.92
392.501	347.29
392.881	357.01
393.26	375.09
393.639	366.95
394.018	385.03
394.397	386.61
394.776	370.57
395.155	378.25
395.534	373.96
395.913	377.35
396.292	375.77
396.671	382.77
397.05	380.06
397.429	385.03
397.808	405.14
398.186	401.53
398.565	395.65
398.944	385.94
399.323	383
399.701	424.35
400.08	398.37
400.458	412.38
400.837	402.43
401.215	414.64
401.594	421.64
401.972	418.93
402.351	425.48
402.729	430.68
403.107	414.64
403.486	432.26
403.864	418.25
404.242	434.07
404.62	421.64
404.999	443.79
405.377	444.01
405.755	451.02
406.133	426.16
406.511	438.82
406.889	458.25
407.267	479.49
407.645	475.65
408.023	473.17
408.401	467.74
408.779	476.1
409.156	456.89
409.534	474.75
409.912	481.75
410.29	509.77
410.667	492.83
411.045	480.17
411.422	511.13
411.8	515.42
412.178	519.27
412.555	526.27
412.933	543.67
413.31	557.23
413.687	539.38
414.065	552.03
414.442	567.85
414.819	582.09
415.197	572.82
415.574	573.73
415.951	593.84
416.328	591.35
416.705	589.09
417.082	604.01
417.46	608.98
417.837	608.76
418.214	631.35
418.591	638.36
418.967	647.85
419.344	624.57
419.721	647.85
420.098	686.72
420.475	653.05
420.852	655.76
421.228	672.48
421.605	691.24
421.982	700.73
422.358	696.89
422.735	731.24
423.111	718.58
423.488	716.1
423.864	730.11
424.241	740.96
424.617	782.08
424.994	755.42
425.37	753.38
425.746	795.64
426.123	795.42
426.499	813.04
426.875	820.5
427.251	827.05
427.627	857.11
428.003	843.55
428.379	852.14
428.756	850.78
429.132	886.71
429.507	867.28
429.883	902.08
430.259	910.22
430.635	895.53
431.011	880.84
431.387	949.54
431.763	972.59
432.138	960.38
432.514	938.69
432.89	976.43
433.265	1033.38
433.641	1038.57
434.016	1027.95
434.392	1070.21
434.767	1062.3
435.143	1051.46
435.518	1085.8
435.894	1103.66
436.269	1091.68
436.644	1109.08
437.02	1109.76
437.395	1166.03
437.77	1158.8
438.145	1154.28
438.52	1180.72
438.895	1184.11
439.271	1219.59
439.646	1218.23
440.021	1256.87
440.395	1241.28
440.77	1272.01
441.145	1238.8
441.52	1262.75
441.895	1278.79
442.27	1261.17
442.645	1293.48
443.019	1297.55
443.394	1305.01
443.769	1316.53
444.143	1307.04
444.518	1336.19
444.892	1335.06
445.267	1351.79
445.641	1326.93
446.016	1353.82
446.39	1362.18
446.764	1391.56
447.139	1385.46
447.513	1377.1
447.887	1407.6
448.262	1377.77
448.636	1425.68
449.01	1440.6
449.384	1438.79
449.758	1454.38
450.132	1467.72
450.506	1471.11
450.88	1470.43
451.254	1458.9
451.628	1446.02
452.002	1507.94
452.376	1513.82
452.75	1524.21
453.123	1525.57
453.497	1556.75
453.871	1526.25
454.244	1564.21
454.618	1551.78
454.992	1587.94
455.365	1595.17
455.739	1608.28
456.112	1664.55
456.486	1638.11
456.859	1637.88
457.232	1692.79
457.606	1691.89
457.979	1702.51
458.352	1684.21
458.725	1745
459.099	1719.69
459.472	1742.28
459.845	1802.4
460.218	1788.16
460.591	1781.15
460.964	1825.22
461.337	1865.45
461.71	1913.81
462.083	1847.59
462.456	1893.69
462.829	1860.47
463.201	1941.6
463.574	1927.59
463.947	1963.52
464.32	1956.06
464.692	1970.3
465.065	2011.66
465.438	1996.29
465.81	2035.38
466.183	2061.15
466.555	2092.78
466.928	2086.68
467.3	2080.13
467.672	2130.98
468.045	2187.24
468.417	2184.31
468.789	2185.44
469.161	2202.84
469.534	2238.32
469.906	2245.32
470.278	2263.4
470.65	2283.74
471.022	2338.65
471.394	2339.56
471.766	2367.13
472.138	2384.3
472.51	2413.68
472.882	2436.5
473.253	2460.91
473.625	2462.04
473.997	2534.35
474.369	2492.1
474.74	2599.21
475.112	2594.69
475.484	2603.5
475.855	2661.13
476.227	2670.17
476.598	2748.36
476.97	2734.35
477.341	2795.36
477.713	2836.95
478.084	2835.14
478.455	2895.47
478.827	2905.64
479.198	3006.88
479.569	2981.57
479.94	3023.15
480.311	3103.38
480.682	3122.81
481.053	3170.5
481.424	3190.83
481.795	3213.66
482.166	3254.11
482.537	3291.85
482.908	3323.71
483.279	3362.58
483.65	3380.66
484.021	3456.82
484.391	3429.25
484.762	3512.18
485.133	3528.68
485.503	3544.95
485.874	3590.15
486.244	3629.47
486.615	3720.09
486.985	3751.95
487.356	3841.89
487.726	3796.92
488.097	3842.34
488.467	3874.66
488.837	3927.99
489.207	3975.67
489.578	3995.33
489.948	4036.24
490.318	4053.41
490.688	4081.66
491.058	4092.96
491.428	4144.26
491.798	4189.68
492.168	4249.79
492.538	4234.42
492.908	4282.1
493.278	4353.97
493.648	4341.76
494.017	4408.88
494.387	4416.79
494.757	4444.59
495.126	4448.43
495.496	4462.89
495.866	4496.34
496.235	4523.91
496.605	4583.34
496.974	4557.8
497.344	4606.62
497.713	4636.45
498.082	4644.36
498.452	4674.86
498.821	4704.69
499.19	4723.45
499.559	4748.08
499.928	4735.88
500.298	4786.5
500.667	4840.51
501.036	4822.43
501.405	4824.24
501.774	4824.24
502.143	4876.21
502.512	4837.12
502.88	4939.49
503.249	4939.49
503.618	4890
503.987	4948.98
504.356	4970.45
504.724	4997.34
505.093	5018.81
505.462	4962.31
505.83	5034.85
506.199	5094.06
506.567	5085.25
506.936	5057.23
507.304	5163.89
507.672	5208.63
508.041	5167.51
508.409	5226.03
508.777	5252.7
509.145	5218.8
509.514	5214.74
509.882	5262.87
510.25	5272.81
510.618	5267.62
510.986	5308.52
511.354	5324.34
511.722	5394.84
512.09	5426.93
512.458	5358.46
512.826	5385.13
513.193	5416.31
513.561	5414.73
513.929	5451.79
514.297	5474.62
514.664	5454.05
515.032	5488.63
515.4	5508.51
515.767	5538.57
516.135	5483.43
516.502	5486.37
516.869	5508.51
517.237	5547.38
517.604	5551.68
517.972	5550.09
518.339	5583.54
518.706	5568.4
519.073	5587.38
519.44	5653.82
519.808	5739.02
520.175	5680.03
520.542	5704.67
520.909	5717.32
521.276	5705.57
521.643	5702.86
522.009	5768.39
522.376	5751.9
522.743	5803.87
523.11	5808.62
523.477	5871.22
523.843	5874.83
524.21	5908.5
524.577	5896.53
524.943	5907.15
525.31	5897.2
525.676	5969.07
526.043	5992.34
526.409	6026.69
526.776	6031.21
527.142	6038.22
527.508	6121.83
527.874	6143.52
528.241	6153.24
528.607	6170.64
528.973	6153.69
529.339	6156.18
529.705	6231.43
530.071	6205.22
530.437	6259.68
530.803	6330.19
531.169	6319.57
531.535	6239.57
531.901	6292.45
532.267	6339
532.632	6366.12
532.998	6340.58
533.364	6393.24
533.73	6389.85
534.095	6415.16
534.461	6401.6
534.826	6461.71
535.192	6415.61
535.557	6507.81
535.923	6419.68
536.288	6466.68
536.653	6473.23
537.019	6489.73
537.384	6483.4
537.749	6542.61
538.114	6619.67
538.479	6564.08
538.845	6584.64
539.21	6556.85
539.575	6589.61
539.94	6625.77
540.305	6633.68
540.67	6597.52
541.034	6615.83
541.399	6650.4
541.764	6684.53
542.129	6708.71
542.494	6687.69
542.858	6725.43
543.223	6687.47
543.587	6771.98
543.952	6738.54
544.316	6777.86
544.681	6779.89
545.045	6772.43
545.41	6766.11
545.774	6832.32
546.138	6803.39
546.503	6822.83
546.867	6847.91
547.231	6891.3
547.595	6821.93
547.959	6895.82
548.324	6893.56
548.688	6848.59
549.052	6903.5
549.416	6896.27
549.779	6956.61
550.143	6951.64
550.507	6934.01
550.871	6933.11
551.235	6917.06
551.599	7018.98
551.962	6976.72
552.326	6991.19
552.689	7021.69
553.053	6986.67
553.417	7021.92
553.78	7068.47
554.143	7019.89
554.507	7068.25
554.87	7066.44
555.234	7109.38
555.597	7101.92
555.96	7138.53
556.323	7124.06
556.686	7096.49
557.05	7212.65
557.413	7228.47
557.776	7209.94
558.139	7191.63
558.502	7211.97
558.865	7187.34
559.228	7269.82
559.59	7312.08
559.953	7324.96
560.316	7325.64
560.679	7394.79
561.041	7406.09
561.404	7368.58
561.767	7457.39
562.129	7407.22
562.492	7470.95
562.854	7451.97
563.217	7453.09
563.579	7484.51
563.941	7471.85
564.304	7570.83
564.666	7560.21
565.028	7589.14
565.39	7611.73
565.753	7643.82
566.115	7640.89
566.477	7729.02
566.839	7762.69
567.201	7799.3
567.563	7787.32
567.925	7811.73
568.287	7895.34
568.648	7839.07
569.01	7924.27
569.372	7909.58
569.734	7880.88
570.095	7929.69
570.457	8043.14
570.819	8009.92
571.18	8036.36
571.542	8092.17
571.903	8111.16
572.265	8123.59
572.626	8140.76
572.987	8167.43
573.349	8194.09
573.71	8198.84
574.071	8192.28
574.432	8256.92
574.794	8337.14
575.155	8351.38
575.516	8351.6
575.877	8434.99
576.238	8440.87
576.599	8495.55
576.96	8464.14
577.32	8492.39
577.681	8542.56
578.042	8536
578.403	8620.75
578.763	8684.02
579.124	8729.45
579.485	8783
579.845	8846.5
580.206	8845.6
580.566	8821.42
580.927	8887.86
581.287	8972.15
581.648	9003.11
582.008	9077.46
582.368	9110
582.728	9149.77
583.089	9169.66
583.449	9213.27
583.809	9261.64
584.169	9394.29
584.529	9399.03
584.889	9502.08
585.249	9502.76
585.609	9518.13
585.969	9676.77
586.329	9608.52
586.688	9742.3
587.048	9742.3
587.408	9796.08
587.768	9906.14
588.127	9986.81
588.487	10030.2
588.846	10103.65
589.206	10116.98
589.565	10136.41
589.925	10302.06
590.284	10335.73
590.643	10461.6
591.003	10527.36
591.362	10539.79
591.721	10653.24
592.08	10699.11
592.44	10742.95
592.799	10851.42
593.158	10905.21
593.517	10921.25
593.876	11007.13
594.235	11011.42
594.593	11104.07
594.952	11146.56
595.311	11178.19
595.67	11303.16
596.029	11392.43
596.387	11425.87
596.746	11523.95
597.104	11510.84
597.463	11547.9
597.822	11692.98
598.18	11674
598.538	11693.21
598.897	11811.17
599.255	11756.48
599.613	12018.4
599.972	11923.94
600.33	12050.71
600.688	12115.35
601.046	12176.13
601.404	12238.28
601.762	12264.95
602.12	12310.37
602.478	12393.76
602.836	12476.47
603.194	12399.86
603.552	12564.6
603.91	12488.44
604.268	12578.84
604.625	12558.72
604.983	12625.84
605.341	12651.15
605.698	12648.89
606.056	12748.77
606.413	12754.42
606.771	12889.11
607.128	12881.43
607.485	12884.14
607.843	12901.31
608.2	12996
608.557	13077.13
608.914	12992.84
609.272	13156.45
609.629	13243.68
609.986	13176.79
610.343	13206.16
610.7	13342.21
611.057	13297.91
611.414	13302.88
611.771	13374.07
612.127	13487.29
612.484	13559.15
612.841	13462.43
613.198	13446.16
613.554	13525.93
613.911	13613.38
614.267	13596.89
614.624	13632.14
614.98	13633.95
615.337	13714.63
615.693	13746.71
616.05	13766.83
616.406	13801.4
616.762	13742.42
617.118	13702.42
617.475	13885.24
617.831	13748.07
618.187	13883.21
618.543	13814.96
618.899	13932.92
619.255	13934.73
619.611	13970.21
619.967	14053.15
620.323	14045.01
620.678	14015.86
621.034	14033.71
621.39	13987.39
621.746	13965.47
622.101	14152.81
622.457	14085.69
622.812	14046.14
623.168	14136.08
623.523	14145.57
623.879	14162.07
624.234	14037.33
624.589	14194.84
624.945	14213.37
625.3	14250.88
625.655	14182.18
626.01	14264.22
626.365	14207.49
626.72	14174.73
627.075	14225.8
627.43	14251.33
627.785	14196.42
628.14	14272.35
628.495	14193.71
628.85	14238
629.205	14186.7
629.559	14275.74
629.914	14152.81
630.269	14172.24
630.623	14220.6
630.978	14157.55
631.332	14177.21
631.687	14282.52
632.041	14140.6
632.396	14123.65
632.75	14138.79
633.104	14156.87
633.459	14063.99
633.813	14092.24
634.167	14067.16
634.521	14070.1
634.875	14154.39
635.229	14089.76
635.583	14094.73
635.937	14058.57
636.291	14040.72
636.645	14114.16
636.999	13883.89
637.352	14049.31
637.706	13884.79
638.06	14017.44
638.413	13950.1
638.767	13890.67
639.121	13892.7
639.474	13902.64
639.828	13810.67
640.181	13854.96
640.534	13888.63
640.888	13891.8
641.241	13840.27
641.594	13826.26
641.947	13811.12
642.301	13807.5
642.654	13853.6
643.007	13862.87
643.36	13822.87
643.713	13812.25
644.066	13937.22
644.419	13744.91
644.771	13762.31
645.124	13692.48
645.477	13558.02
645.83	13513.27
646.182	13492.48
646.535	13443.9
646.888	13401.87
647.24	13373.84
647.593	13450.23
647.945	13408.42
648.298	13328.19
648.65	13329.32
649.002	13379.94
649.355	13394.63
649.707	13403.9
650.059	13413.39
650.411	13623.1
650.763	13652.93
651.115	13777.45
651.467	13676.89
651.819	13732.48
652.171	13821.52
652.523	13640.28
652.875	13697.22
653.227	13641.18
653.578	13773.83
653.93	13643.44
654.282	13655.19
654.633	13653.84
654.985	13766.83
655.337	13663.55
655.688	13724.79
656.039	13729.09
656.391	13671.46
656.742	13693.38
657.094	13680.28
657.445	13760.27
657.796	13767.51
658.147	13646.15
658.498	13730.44
658.849	13708.98
659.2	13666.72
659.551	13683.89
659.902	13713.95
660.253	13686.6
660.604	13758.92
660.955	13727.28
661.306	13760.5
661.656	13707.85
662.007	13699.26
662.358	13739.71
662.708	13774.28
663.059	13807.96
663.409	13745.36
663.76	13781.29
664.11	13765.47
664.461	13785.81
664.811	13807.28
665.161	13807.05
665.511	13745.36
665.862	13840.05
666.212	13838.92
666.562	13819.26
666.912	13781.74
667.262	13796.43
667.612	13808.63
667.962	13934.28
668.312	13747.62
668.662	13923.21
669.011	13868.97
669.361	13830.78
669.711	13768.41
670.06	13815.87
670.41	13715.08
670.76	13739.71
671.109	13824.68
671.459	13743.33
671.808	13801.4
672.157	13675.08
672.507	13713.95
672.856	13676.66
673.205	13761.4
673.554	13755.08
673.904	13680.5
674.253	13736.55
674.602	13756.66
674.951	13496.33
675.3	13369.55
675.649	13633.5
675.998	13711.46
676.346	13663.78
676.695	13642.54
677.044	13476.44
677.393	13665.14
677.741	13661.97
678.09	13537.91
678.438	13468.53
678.787	13535.87
679.135	13550.79
679.484	13396.67
679.832	13527.06
680.181	13419.04
680.529	13403.22
680.877	13494.97
681.225	13320.96
681.573	13398.93
681.922	13398.7
682.27	13280.96
682.618	13351.47
682.966	13376.1
683.314	13299.04
683.661	13283.45
684.009	13246.84
684.357	13188.09
684.705	13165.49
685.053	13152.83
685.4	13161.87
685.748	13110.8
686.095	13081.87
686.443	13011.82
686.79	12928.88
687.138	13069.22
687.485	12964.14
687.832	12891.82
688.18	12980.41
688.527	12864.48
688.874	12809.34
689.221	12793.29
689.568	12747.87
689.915	12706.52
690.262	12677.36
690.609	12672.84
690.956	12609.57
691.303	12584.49
691.65	12578.38
691.997	12509.46
692.344	12412.06
692.69	12438.27
693.037	12356.92
693.383	12303.59
693.73	12342.91
694.077	12267.88
694.423	12286.19
694.769	12230.37
695.116	12132.97
695.462	12118.74
695.808	12099.07
696.155	12101.33
696.501	12028.12
696.847	12082.13
697.193	11907.67
697.539	11871.74
697.885	11847.78
698.231	11805.97
698.577	11788.57
698.923	11768.24
699.269	11689.37
699.614	11597.39
699.96	11536.83
700.306	11654.11
700.651	11460
700.997	11533.89
701.342	11460.67
701.688	11525.3
702.033	11314.46
702.379	11325.54
702.724	11251.19
703.069	11331.64
703.415	11134.58
703.76	11230.62
704.105	11197.4
704.45	11154.47
704.795	11041.48
705.14	11022.27
705.485	11047.35
705.83	10921.48
706.175	10859.56
706.52	10865.43
706.865	10850.07
707.209	10914.7
707.554	10821.14
707.899	10837.86
708.243	10733.91
708.588	10797.41
708.932	10640.81
709.277	10734.14
709.621	10677.64
709.966	10526.91
710.31	10593.58
710.654	10445.11
710.998	10499.57
711.342	10536.18
711.687	10504.31
712.031	10422.06
712.375	10423.64
712.719	10439.01
713.063	10414.37
713.407	10411.89
713.75	10375.96
714.094	10338.22
714.438	10340.7
714.782	10323.08
715.125	10246.24
715.469	10320.82
715.812	10269.29
716.156	10210.31
716.499	10244.89
716.843	10225.68
717.186	10144.55
717.53	10210.99
717.873	10181.16
718.216	10105
718.559	10071.56
718.902	10060.03
719.246	10088.51
719.589	10009.19
719.932	10076.3
720.275	10028.62
720.617	9937.55
720.96	9964.22
721.303	9979.36
721.646	10016.42
721.989	9976.64
722.331	9979.13
722.674	9956.31
723.016	9935.29
723.359	9816.42
723.701	9949.53
724.044	9905.91
724.386	9801.73
724.729	9833.37
725.071	9855.74
725.413	9857.78
725.755	9829.76
726.097	9825.24
726.439	9741.85
726.782	9822.98
727.124	9826.82
727.465	9716.09
727.807	9823.43
728.149	9776.88
728.491	9760.38
728.833	9775.29
729.175	9641.29
729.516	9737.1
729.858	9697.78
730.199	9755.86
730.541	9728.06
730.882	9707.5
731.224	9749.53
731.565	9689.87
731.906	9717.67
732.248	9735.97
732.589	9692.58
732.93	9759.93
733.271	9704.79
733.612	9705.47
733.953	9699.59
734.294	9655.52
734.635	9728.97
734.976	9708.85
735.317	9679.93
735.658	9617.78
735.999	9713.83
736.339	9671.12
736.68	9728.29
737.021	9676.54
737.361	9599.71
737.702	9713.6
738.042	9751.34
738.383	9705.47
738.723	9752.7
739.063	9737.55
739.404	9723.09
739.744	9709.31
740.084	9714.28
740.424	9777.33
740.764	9720.61
741.104	9822.07
741.444	9779.59
741.784	9731.91
742.124	9843.54
742.464	9794.95
742.804	9862.98
743.143	9889.19
743.483	9857.1
743.823	9847.83
744.162	9867.27
744.502	9903.88
744.841	9942.07
745.181	10076.08
745.52	9987.04
745.86	10063.2
746.199	10024.55
746.538	10152.01
746.877	10200.14
747.216	10231.78
747.556	10237.88
747.895	10342.96
748.234	10256.64
748.573	10413.7
748.911	10510.19
749.25	10482.17
749.589	10527.14
749.928	10674.25
750.267	10733.91
750.605	10818.43
750.944	10923.51
751.283	10818.2
751.621	11001.25
751.96	11044.64
752.298	11067.24
752.636	11231.07
752.975	11294.35
753.313	11349.49
753.651	11570.5
753.989	11569.14
754.327	11684.4
754.666	11769.14
755.004	11888.68
755.342	12065.86
755.679	12150.82
756.017	12214.1
756.355	12395.34
756.693	12481.66
757.031	12610.93
757.368	12765.05
757.706	12791.71
758.044	12920.75
758.381	13139.5
758.719	13227.18
759.056	13340.62
759.394	13542.43
759.731	13541.97
760.068	13699.48
760.405	13832.36
760.743	13968.4
761.08	14163.88
