Data from hue_120_FLMS001491_00061.txt Node
Date: Tue Feb 07 16:59:48 GMT 2017
User: dcchb
Spectrometer: FLMS00149
Trigger mode: 0
Integration Time (sec): 2.000000E-2
Scans to average: 10
Electric dark correction enabled: true
Nonlinearity correction enabled: false
Boxcar width: 0
XAxis mode: Wavelengths
Number of Pixels in Spectrum: 2048
>>>>>Begin Spectral Data<<<<<
341.393	-5.21
341.776	-5.21
342.16	-5.21
342.543	-69.84
342.927	-73.46
343.31	-84.31
343.693	-68.26
344.077	-59.67
344.46	-58.77
344.843	-89.28
345.226	-50.41
345.61	-32.56
345.993	-36.85
346.376	-7.02
346.759	34.56
347.142	23.71
347.525	66.65
347.908	58.29
348.291	100.1
348.674	105.75
349.057	98.06
349.44	116.14
349.823	143.94
350.206	136.25
350.588	206.08
350.971	219.19
351.354	235.69
351.737	254.22
352.119	275.46
352.502	258.74
352.884	272.75
353.267	262.8
353.65	288.57
354.032	310.49
354.414	308.23
354.797	303.25
355.179	298.96
355.562	329.92
355.944	345.74
356.326	331.05
356.709	338.96
357.091	324.72
357.473	350.71
357.855	346.87
358.238	341.45
358.62	335.57
359.002	333.54
359.384	362.69
359.766	345.29
360.148	357.26
360.53	349.58
360.912	351.16
361.294	336.25
361.676	329.92
362.057	326.3
362.439	337.83
362.821	317.49
363.203	330.15
363.584	329.24
363.966	329.02
364.348	327.21
364.729	310.94
365.111	315.91
365.493	335.12
365.874	308
366.256	310.71
366.637	326.76
367.019	305.74
367.4	317.49
367.781	312.29
368.163	297.15
368.544	303.48
368.925	295.12
369.306	329.02
369.688	329.69
370.069	306.19
370.45	321.33
370.831	330.6
371.212	319.75
371.593	326.53
371.974	308.68
372.355	322.92
372.736	329.69
373.117	340.54
373.498	314.1
373.879	303.03
374.26	318.85
374.641	339.64
375.021	330.15
375.402	323.59
375.783	332.63
376.163	328.56
376.544	332.18
376.925	323.59
377.305	309.58
377.686	336.02
378.066	323.59
378.447	326.53
378.827	332.63
379.208	367.43
379.588	324.05
379.968	332.41
380.349	329.24
380.729	349.36
381.109	352.52
381.489	328.34
381.87	341.9
382.25	355.68
382.63	354.78
383.01	365.85
383.39	347.55
383.77	355
384.15	359.07
384.53	350.94
384.91	357.04
385.29	366.98
385.67	349.81
386.049	373.54
386.429	366.98
386.809	373.08
387.189	371.73
387.568	371.95
387.948	368.11
388.328	379.86
388.707	364.04
389.087	383.7
389.466	391.16
389.846	375.57
390.225	360.88
390.605	376.93
390.984	383.48
391.363	385.06
391.743	381.44
392.122	371.73
392.501	391.84
392.881	391.16
393.26	397.94
393.639	402.46
394.018	381.67
394.397	404.27
394.776	393.65
395.155	410.14
395.534	406.3
395.913	390.48
396.292	410.37
396.671	407.66
397.05	392.97
397.429	403.37
397.808	399.52
398.186	402.46
398.565	420.54
398.944	406.98
399.323	414.66
399.701	438.62
400.08	404.5
400.458	423.93
400.837	430.26
401.215	428.22
401.594	430.26
401.972	421.9
402.351	434.78
402.729	424.38
403.107	456.7
403.486	425.74
403.864	434.55
404.242	421.22
404.62	435.45
404.999	438.39
405.377	450.37
405.755	448.11
406.133	437.94
406.511	473.19
406.889	459.63
407.267	462.12
407.645	461.89
408.023	452.4
408.401	471.16
408.779	465.74
409.156	489.24
409.534	506.87
409.912	483.14
410.29	504.61
410.667	505.06
411.045	495.34
411.422	492.18
411.8	516.58
412.178	493.31
412.555	514.55
412.933	524.04
413.31	529.01
413.687	543.02
414.065	522.01
414.442	531.5
414.819	533.08
415.197	539.41
415.574	545.28
415.951	555.45
416.328	548.22
416.705	542.34
417.082	543.47
417.46	542.57
417.837	557.71
418.214	555.68
418.591	554.55
418.967	570.37
419.344	582.12
419.721	597.26
420.098	584.6
420.475	559.29
420.852	585.51
421.228	590.03
421.605	604.72
421.982	611.5
422.358	613.98
422.735	606.75
423.111	628.22
423.488	599.52
423.864	634.77
424.241	624.38
424.617	623.47
424.994	622.57
425.37	637.03
425.746	614.88
426.123	642.68
426.499	632.29
426.875	663.7
427.251	639.97
427.627	653.75
428.003	673.64
428.379	677.26
428.756	675
429.132	708.67
429.507	673.87
429.883	685.39
430.259	718.84
430.635	730.36
431.011	710.7
431.387	720.87
431.763	714.09
432.138	740.31
432.514	725.62
432.89	765.62
433.265	764.26
433.641	783.69
434.016	804.48
434.392	789.8
434.767	799.74
435.143	792.73
435.518	804.48
435.894	817.82
436.269	811.26
436.644	831.83
437.02	833.41
437.395	820.53
437.77	846.74
438.145	870.92
438.52	872.51
438.895	855.1
439.271	875.44
439.646	877.93
440.021	902.11
440.395	900.53
440.77	888.32
441.145	885.84
441.52	938.27
441.895	903.69
442.27	918.38
442.645	921.32
443.019	940.3
443.394	916.57
443.769	922.67
444.143	935.55
444.518	922.45
444.892	954.76
445.267	947.98
445.641	966.06
446.016	981.65
446.39	985.27
446.764	978.94
447.139	983.69
447.513	1000.19
447.887	1002.9
448.262	1005.16
448.636	1030.24
449.01	1014.2
449.384	1027.76
449.758	1050.13
450.132	1054.42
450.506	1078.38
450.88	1074.53
451.254	1081.99
451.628	1085.16
452.002	1134.87
452.376	1115.66
452.75	1125.38
453.123	1133.97
453.497	1166.73
453.871	1137.36
454.244	1184.36
454.618	1171.25
454.992	1191.59
455.365	1179.84
455.739	1228.88
456.112	1267.75
456.486	1246.73
456.859	1235.43
457.232	1286.28
457.606	1265.04
457.979	1301.19
458.352	1306.62
458.725	1340.97
459.099	1356.79
459.472	1359.5
459.845	1373.06
460.218	1386.84
460.591	1426.16
460.964	1410.12
461.337	1449.89
461.71	1473.39
462.083	1469.55
462.456	1501.64
462.829	1529.44
463.201	1547.06
463.574	1557.01
463.947	1556.78
464.32	1584.8
464.692	1609.89
465.065	1624.12
465.438	1686.27
465.81	1676.55
466.183	1713.16
466.555	1737.79
466.928	1764.46
467.3	1778.92
467.672	1790.22
468.045	1860.28
468.417	1865.47
468.789	1862.76
469.161	1925.36
469.534	1933.27
469.906	2006.49
470.278	2015.98
470.65	2053.49
471.022	2075.41
471.394	2133.49
471.766	2180.04
472.138	2186.37
472.51	2264.11
472.882	2309.53
473.253	2344.78
473.625	2366.7
473.997	2456.64
474.369	2491.22
474.74	2558.11
475.112	2575.51
475.484	2683.08
475.855	2730.76
476.227	2768.27
476.598	2860.25
476.97	2873.36
477.341	2988.83
477.713	3079.68
478.084	3111.32
478.455	3199.68
478.827	3307.02
479.198	3363.74
479.569	3421.82
479.94	3570.51
480.311	3643.05
480.682	3745.42
481.053	3886.21
481.424	3956.72
481.795	4065.42
482.166	4192.19
482.537	4220.89
482.908	4394.22
483.279	4482.13
483.65	4609.81
484.021	4764.15
484.391	4847.99
484.762	4940.87
485.133	5037.37
485.503	5198.95
485.874	5307.64
486.244	5481.2
486.615	5639.84
486.985	5753.96
487.356	5963.9
487.726	6013.61
488.097	6203.66
488.467	6353.27
488.837	6531.79
489.207	6649.08
489.578	6754.16
489.948	6951.67
490.318	7081.38
490.688	7176.97
491.058	7379.9
491.428	7573.35
491.798	7687.69
492.168	7887.01
492.538	7974.69
492.908	8143.27
493.278	8353.44
493.648	8513.89
494.017	8651.28
494.387	8782.13
494.757	8912.52
495.126	9064.83
495.496	9199.74
495.866	9286.07
496.235	9496.69
496.605	9635.21
496.974	9722.44
497.344	9939.39
497.713	10066.16
498.082	10143
498.452	10319.49
498.821	10455.98
499.19	10457.34
499.559	10628.18
499.928	10725.58
500.298	10901.39
500.667	11020.71
501.036	11055.97
501.405	11213.25
501.774	11307.26
502.143	11391.78
502.512	11532.11
502.88	11666.12
503.249	11617.31
503.618	11866.34
503.987	11906.34
504.356	12042.38
504.724	12148.14
505.093	12195.15
505.462	12232.66
505.83	12315.37
506.199	12516.94
506.567	12708.35
506.936	12705.41
507.304	12759.65
507.672	12956.93
508.041	13040.32
508.409	13080.55
508.777	13184.5
509.145	13210.03
509.514	13326.19
509.882	13366.87
510.25	13429.24
510.618	13437.6
510.986	13446.86
511.354	13706.29
511.722	13832.62
512.09	13833.97
512.458	13843.92
512.826	13932.05
513.193	13971.14
513.561	14160.07
513.929	14182.66
514.297	14153.74
514.664	14318.93
515.032	14366.61
515.4	14490
515.767	14555.99
516.135	14542.88
516.502	14395.09
516.869	14619.94
517.237	14647.06
517.604	14598.25
517.972	14775.42
518.339	14795.08
518.706	14778.13
519.073	14863.78
519.44	14960.04
519.808	14973.6
520.175	15022.19
520.542	15156.42
520.909	15172.02
521.276	15066.93
521.643	15260.38
522.009	15376.98
522.376	15353.25
522.743	15516.19
523.11	15551.22
523.477	15574.27
523.843	15535.17
524.21	15708.5
524.577	15738.33
524.943	15790.08
525.31	15815.39
525.676	15918.44
526.043	15993.69
526.409	15979.45
526.776	16088.6
527.142	16054.03
527.508	16023.07
527.874	16153.01
528.241	16159.79
528.607	16152.1
528.973	16211.54
529.339	16221.03
529.705	16271.2
530.071	16378.54
530.437	16350.97
530.803	16365.21
531.169	16432.32
531.535	16374.24
531.901	16338.09
532.267	16377.86
532.632	16335.38
532.998	16364.3
533.364	16442.27
533.73	16408.82
534.095	16438.65
534.461	16434.81
534.826	16437.75
535.192	16403.4
535.557	16371.76
535.923	16358.65
536.288	16376.5
536.653	16313.46
537.019	16264.19
537.384	16402.94
537.749	16298.09
538.114	16310.29
538.479	16214.93
538.845	16273.46
539.21	16233.23
539.575	16238.43
539.94	16182.61
540.305	16214.47
540.67	16160.01
541.034	16087.7
541.399	16196.85
541.764	16107.81
542.129	16148.49
542.494	16054.48
542.858	15997.76
543.223	15990.98
543.587	16040.02
543.952	15986.46
544.316	15926.12
544.681	15784.43
545.045	15861.26
545.41	15908.49
545.774	15895.16
546.138	15782.17
546.503	15774.94
546.867	15707.37
547.231	15782.85
547.595	15744.66
547.959	15747.82
548.324	15622.4
548.688	15613.81
549.052	15581.5
549.416	15582.85
549.779	15545.11
550.143	15519.8
550.507	15531.33
550.871	15446.13
551.235	15508.96
551.599	15530.88
551.962	15472.57
552.326	15372.91
552.689	15437.55
553.053	15399.81
553.417	15345.12
553.78	15472.12
554.143	15365.01
554.507	15309.19
554.87	15393.71
555.234	15333.59
555.597	15250.21
555.96	15276.19
556.323	15309.41
556.686	15237.78
557.05	15176.54
557.413	15304.22
557.776	15238.46
558.139	15328.62
558.502	15231.68
558.865	15185.58
559.228	15367.27
559.59	15216.76
559.953	15315.06
560.316	15381.28
560.679	15281.62
561.041	15339.24
561.404	15327.27
561.767	15412.69
562.129	15266.48
562.492	15494.04
562.854	15334.05
563.217	15295.63
563.579	15426.25
563.941	15364.1
564.304	15463.76
564.666	15451.56
565.028	15446.59
565.39	15477.77
565.753	15532.46
566.115	15495.4
566.477	15605.23
566.839	15510.99
567.201	15657.65
567.563	15624.89
567.925	15670.76
568.287	15638.9
568.648	15606.13
569.01	15763.87
569.372	15743.53
569.734	15686.81
570.095	15761.38
570.457	15737.43
570.819	15776.75
571.18	15701.95
571.542	15749.63
571.903	15797.76
572.265	15794.37
572.626	15758.67
572.987	15924.76
573.349	15920.02
573.71	15948.49
574.071	15849.96
574.432	15940.36
574.794	16014.71
575.155	15981.03
575.516	15842.96
575.877	15896.29
576.238	15984.88
576.599	16084.31
576.96	16010.41
577.32	15912.11
577.681	15985.33
578.042	16125.44
578.403	16044.54
578.763	16072.33
579.124	16016.97
579.485	16055.16
579.845	16120.92
580.206	16111.88
580.566	16092.67
580.927	16129.73
581.287	16131.54
581.648	16003.63
582.008	16135.38
582.368	16190.75
582.728	16069.85
583.089	16027.14
583.449	16087.92
583.809	16025.33
584.169	16015.16
584.529	16003.18
584.889	16065.33
585.249	15948.04
585.609	15972
585.969	16026.01
586.329	15938.55
586.688	15997.53
587.048	15919.12
587.408	15878.66
587.768	15908.04
588.127	15945.78
588.487	15901.49
588.846	16006.57
589.206	15868.27
589.565	15935.84
589.925	15949.17
590.284	15907.36
590.643	15883.18
591.003	15855.61
591.362	15899.45
591.721	15888.61
592.08	15939.68
592.44	15800.47
592.799	15922.96
593.158	15845.22
593.517	15933.58
593.876	15792.56
594.235	15811.55
594.593	15804.09
594.952	15877.76
595.311	15755.73
595.67	15774.49
596.029	15733.81
596.387	15843.86
596.746	15844.99
597.104	15825.33
597.463	15741.49
597.822	15818.78
598.18	15779.68
598.538	15738.56
598.897	15788.05
599.255	15683.42
599.613	15864.43
599.972	15800.25
600.33	15787.14
600.688	15840.02
601.046	15865.78
601.404	15977.64
601.762	15883.18
602.12	15894.94
602.478	15936.52
602.836	15880.92
603.194	15768.84
603.552	15819.46
603.91	15805.45
604.268	15859.46
604.625	15801.15
604.983	15810.42
605.341	15795.5
605.698	15853.13
606.056	15880.25
606.413	15820.36
606.771	15846.8
607.128	15828.27
607.485	15793.69
607.843	15809.29
608.2	15911.21
608.557	15947.14
608.914	15859.46
609.272	16047.25
609.629	16006.57
609.986	16072.56
610.343	15956.18
610.7	16087.25
611.057	16015.38
611.414	15991.88
611.771	16056.51
612.127	16124.08
612.484	16045.89
612.841	16158.66
613.198	16009.73
613.554	16032.56
613.911	16108.26
614.267	16093.57
614.624	16100.35
614.98	16078.66
615.337	16110.75
615.693	16046.12
616.05	16081.14
616.406	16252.44
616.762	16127.92
617.118	16140.13
617.475	16143.97
617.831	16266.45
618.187	16251.99
618.543	16213.57
618.899	16344.64
619.255	16324.53
619.611	16264.42
619.967	16313.91
620.323	16333.79
620.678	16338.54
621.034	16226.9
621.39	16269.61
621.746	16271.42
622.101	16414.24
622.457	16282.04
622.812	16285.43
623.168	16324.53
623.523	16313.23
623.879	16364.08
624.234	16242.95
624.589	16351.65
624.945	16270.07
625.3	16368.82
625.655	16232.55
626.01	16315.72
626.365	16325.88
626.72	16346.22
627.075	16287.24
627.43	16320.69
627.785	16264.87
628.14	16307.58
628.495	16268.48
628.85	16277.3
629.205	16315.04
629.559	16278.65
629.914	16202.27
630.269	16362.72
630.623	16148.26
630.978	16190.97
631.332	16274.36
631.687	16245.89
632.041	16123.63
632.396	16212.89
632.75	16065.55
633.104	16092.9
633.459	16070.75
633.813	16121.14
634.167	16008.6
634.521	16019.68
634.875	15968.83
635.229	15970.41
635.583	15929.96
635.937	15942.62
636.291	15954.59
636.645	15919.79
636.999	15801.38
637.352	15913.01
637.706	15860.81
638.06	15922.05
638.413	15847.03
638.767	15804.77
639.121	15775.16
639.474	15717.54
639.828	15732.91
640.181	15807.03
640.534	15841.83
640.888	15694.94
641.241	15686.58
641.594	15689.97
641.947	15739.91
642.301	15666.01
642.654	15685
643.007	15715.5
643.36	15658.56
643.713	15658.78
644.066	15733.36
644.419	15604.77
644.771	15626.47
645.124	15386.7
645.477	15362.07
645.83	15172.02
646.182	15181.06
646.535	15082.08
646.888	15120.94
647.24	15020.38
647.593	15141.28
647.945	15110.77
648.298	14993.94
648.65	15073.94
649.002	14934.96
649.355	15053.15
649.707	15146.93
650.059	15151
650.411	15317.1
650.763	15262.86
651.115	15361.16
651.467	15454.95
651.819	15350.77
652.171	15452.69
652.523	15263.54
652.875	15448.17
653.227	15284.1
653.578	15425.34
653.93	15398
654.282	15340.37
654.633	15205.91
654.985	15414.04
655.337	15400.26
655.688	15414.5
656.039	15478.22
656.391	15369.07
656.742	15413.82
657.094	15335.18
657.445	15377.43
657.796	15360.49
658.147	15360.94
658.498	15386.47
658.849	15428.28
659.2	15446.81
659.551	15401.84
659.902	15451.56
660.253	15462.4
660.604	15389.19
660.955	15307.61
661.306	15395.74
661.656	15386.25
662.007	15352.58
662.358	15383.76
662.708	15382.86
663.059	15460.14
663.409	15356.19
663.76	15470.77
664.11	15385.8
664.461	15464.21
664.811	15381.95
665.161	15434.83
665.511	15370.88
665.862	15385.34
666.212	15455.4
666.562	15525.45
666.912	15406.13
667.262	15413.37
667.612	15432.12
667.962	15338.11
668.312	15341.5
668.662	15524.78
669.011	15371.11
669.361	15387.38
669.711	15465.12
670.06	15359.81
670.41	15339.92
670.76	15389.86
671.109	15363.65
671.459	15395.51
671.808	15247.27
672.157	15366.81
672.507	15226.48
672.856	15250.88
673.205	15268.51
673.554	15366.14
673.904	15234.16
674.253	15382.18
674.602	15282.3
674.951	15057.67
675.3	14904.68
675.649	15193.03
675.998	15192.35
676.346	15233.48
676.695	15228.06
677.044	15099.93
677.393	15173.37
677.741	15117.33
678.09	15160.72
678.438	15054.73
678.787	15121.62
679.135	15110.55
679.484	14942.19
679.832	14977.67
680.181	14915.3
680.529	14991.68
680.877	14798.47
681.225	14867.39
681.573	14955.98
681.922	14863.55
682.27	14879.37
682.618	14806.15
682.966	14827.39
683.314	14884.34
683.661	14786.49
684.009	14749.65
684.357	14720.28
684.705	14657.45
685.053	14706.94
685.4	14583.11
685.748	14555.76
686.095	14499.27
686.443	14535.87
686.79	14507.18
687.138	14466.5
687.485	14431.92
687.832	14410.45
688.18	14460.85
688.527	14288.65
688.874	14203
689.221	14199.39
689.568	14197.58
689.915	14140.41
690.262	14077.13
690.609	14114.87
690.956	14024.02
691.303	14003.01
691.65	13913.74
691.997	13911.94
692.344	13825.39
692.69	13775.22
693.037	13813.63
693.383	13608.67
693.73	13756.69
694.077	13687.54
694.423	13618.84
694.769	13650.93
695.116	13611.38
695.462	13490.7
695.808	13557.37
696.155	13525.96
696.501	13344.72
696.847	13330.93
697.193	13255.46
697.539	13291.16
697.885	13116.7
698.231	13156.25
698.577	13093.65
698.923	13083.94
699.269	13012.07
699.614	12975.46
699.96	12957.39
700.306	12949.93
700.651	12831.51
700.997	12804.39
701.342	12735.02
701.688	12744.06
702.033	12678.3
702.379	12645.98
702.724	12595.59
703.069	12572.99
703.415	12450.73
703.76	12457.06
704.105	12446.21
704.45	12422.71
704.795	12368.25
705.14	12271.53
705.485	12287.57
705.83	12283.73
706.175	12119.89
706.52	12106.56
706.865	12107.69
707.209	12072.66
707.554	12016.85
707.899	12038.77
708.243	12031.08
708.588	11927.13
708.932	11853.91
709.277	11825.44
709.621	11842.84
709.966	11819.79
710.31	11764.87
710.654	11726.68
710.998	11657.98
711.342	11667.25
711.687	11656.85
712.031	11581.6
712.375	11597.2
712.719	11577.76
713.063	11599.68
713.407	11623.18
713.75	11515.84
714.094	11491.44
714.438	11476.52
714.782	11465.22
715.125	11406.01
715.469	11398.78
715.812	11343.42
716.156	11401.49
716.499	11283.31
716.843	11263.42
717.186	11233.81
717.53	11299.8
717.873	11284.66
718.216	11273.81
718.559	11131.44
718.902	11142.74
719.246	11227.04
719.589	11104.78
719.932	11097.55
720.275	11118.34
720.617	11069.07
720.96	11013.71
721.303	11071.33
721.646	11100.48
721.989	11020.49
722.331	11036.98
722.674	11007.61
723.016	11033.82
723.359	10996.53
723.701	11022.52
724.044	10913.37
724.386	10948.4
724.729	10980.04
725.071	10923.31
725.413	10967.83
725.755	10917.44
726.097	10918.79
726.439	10881.06
726.782	10860.94
727.124	10840.38
727.465	10844.45
727.807	10873.15
728.149	10803.77
728.491	10794.5
728.833	10799.25
729.175	10801.74
729.516	10747.73
729.858	10754.05
730.199	10856.88
730.541	10727.61
730.882	10754.28
731.224	10759.03
731.565	10690.55
731.906	10739.36
732.248	10795.63
732.589	10689.87
732.93	10664.11
733.271	10702.3
733.612	10751.79
733.953	10702.53
734.294	10664.11
734.635	10652.14
734.976	10720.61
735.317	10663.66
735.658	10669.08
735.999	10671.57
736.339	10602.42
736.68	10712.25
737.021	10634.51
737.361	10672.7
737.702	10669.08
738.042	10656.65
738.383	10687.39
738.723	10761.96
739.063	10731.46
739.404	10721.96
739.744	10749.99
740.084	10717.67
740.424	10779.14
740.764	10748.86
741.104	10793.83
741.444	10725.58
741.784	10793.6
742.124	10807.61
742.464	10788.4
742.804	10844.45
743.143	10881.28
743.483	10908.4
743.823	10884.45
744.162	10966.25
744.502	10965.57
744.841	10924.67
745.181	11021.39
745.52	11008.96
745.86	11043.99
746.199	11138
746.538	11146.59
746.877	11223.42
747.216	11195.4
747.556	11316.98
747.895	11274.94
748.234	11350.42
748.573	11450.76
748.911	11487.37
749.25	11548.61
749.589	11596.74
749.928	11728.49
750.267	11730.98
750.605	11803.07
750.944	11869.28
751.283	11919.9
751.621	12071.98
751.96	12098.42
752.298	12181.36
752.636	12361.69
752.975	12361.24
753.313	12399.66
753.651	12608.02
753.989	12681.91
754.327	12873.77
754.666	12940.66
755.004	13101.11
755.342	13243.93
