Data from hue_110_FLMS001491_00003.txt Node
Date: Tue Feb 07 17:00:48 GMT 2017
User: dcchb
Spectrometer: FLMS00149
Trigger mode: 0
Integration Time (sec): 2.000000E-2
Scans to average: 10
Electric dark correction enabled: true
Nonlinearity correction enabled: false
Boxcar width: 0
XAxis mode: Wavelengths
Number of Pixels in Spectrum: 2048
>>>>>Begin Spectral Data<<<<<
341.393	-13.04
341.776	-13.04
342.16	-13.04
342.543	-78.8
342.927	-76.31
343.31	-44.45
343.693	-79.25
344.077	-56.65
344.46	-75.41
344.843	-43.09
345.226	-39.93
345.61	-43.54
345.993	-6.48
346.376	-8.29
346.759	1.88
347.142	20.64
347.525	41.2
347.908	82.33
348.291	54.08
348.674	102.89
349.057	94.08
349.44	121.65
349.823	152.16
350.206	161.2
350.588	171.14
350.971	206.17
351.354	213.85
351.737	245.94
352.119	234.41
352.502	229.67
352.884	273.96
353.267	276
353.65	285.03
354.032	286.62
354.414	295.43
354.797	307.18
355.179	325.03
355.562	322.1
355.944	333.62
356.326	310.34
356.709	324.81
357.091	323.23
357.473	317.58
357.855	317.35
358.238	351.02
358.62	358.03
359.002	327.75
359.384	336.78
359.766	336.78
360.148	340.85
360.53	315.99
360.912	324.36
361.294	317.12
361.676	339.27
362.057	337.69
362.439	341.08
362.821	333.85
363.203	326.16
363.584	313.51
363.966	324.81
364.348	308.76
364.729	321.87
365.111	334.3
365.493	316.22
365.874	318.03
366.256	295.2
366.637	310.12
367.019	288.88
367.4	311.7
367.781	314.19
368.163	293.62
368.544	316.67
368.925	282.78
369.306	308.76
369.688	325.49
370.069	321.42
370.45	301.98
370.831	320.29
371.212	315.77
371.593	322.32
371.974	308.99
372.355	302.66
372.736	328.2
373.117	316.9
373.498	290.46
373.879	325.94
374.26	324.58
374.641	364.35
375.021	320.51
375.402	315.09
375.783	315.54
376.163	318.48
376.544	326.84
376.925	326.62
377.305	318.71
377.686	327.75
378.066	312.38
378.447	340.85
378.827	326.62
379.208	352.15
379.588	314.64
379.968	326.16
380.349	327.52
380.729	335.66
381.109	351.47
381.489	344.92
381.87	335.2
382.25	351.93
382.63	332.94
383.01	345.37
383.39	347.86
383.77	323
384.15	336.11
384.53	343.56
384.91	366.84
385.29	360.29
385.67	357.58
386.049	352.38
386.429	336.33
386.809	344.69
387.189	362.55
387.568	344.24
387.948	354.19
388.328	365.03
388.707	366.16
389.087	356.22
389.466	374.98
389.846	366.16
390.225	359.16
390.605	365.94
390.984	356.67
391.363	387.41
391.743	382.66
392.122	363.68
392.501	371.59
392.881	376.56
393.26	385.82
393.639	364.35
394.018	383.56
394.397	399.83
394.776	377.69
395.155	370.68
395.534	377.01
395.913	392.83
396.292	384.47
396.671	400.51
397.05	391.92
397.429	399.61
397.808	375.88
398.186	381.3
398.565	378.82
398.944	391.7
399.323	411.59
399.701	388.76
400.08	393.05
400.458	414.52
400.837	399.83
401.215	400.06
401.594	419.72
401.972	395.77
402.351	413.62
402.729	415.2
403.107	417.69
403.486	407.74
403.864	428.99
404.242	424.01
404.62	430.34
404.999	425.6
405.377	418.82
405.755	431.25
406.133	430.34
406.511	426.27
406.889	433.73
407.267	444.13
407.645	431.47
408.023	456.33
408.401	414.75
408.779	436.22
409.156	426.73
409.534	444.8
409.912	460.17
410.29	456.33
410.667	467.63
411.045	476.67
411.422	479.61
411.8	463.56
412.178	480.06
412.555	476.67
412.933	476.67
413.31	466.95
413.687	484.13
414.065	486.16
414.442	475.09
414.819	498.59
415.197	494.52
415.574	502.2
415.951	476.44
416.328	506.95
416.705	517.8
417.082	508.08
417.46	516.22
417.837	523.45
418.214	515.99
418.591	521.64
418.967	524.35
419.344	537.46
419.721	537.46
420.098	518.25
420.475	531.13
420.852	546.95
421.228	555.76
421.605	539.04
421.982	565.48
422.358	548.08
422.735	565.25
423.111	569.77
423.488	582.65
423.864	553.95
424.241	556.67
424.617	577.23
424.994	559.15
425.37	567.51
425.746	588.98
426.123	602.99
426.499	594.86
426.875	597.34
427.251	612.26
427.627	616.55
428.003	613.61
428.379	638.25
428.756	614.07
429.132	642.09
429.507	653.84
429.883	616.55
430.259	657.91
430.635	648.87
431.011	639.38
431.387	630.11
431.763	661.3
432.138	675.53
432.514	667.85
432.89	688.19
433.265	699.26
433.641	712.14
434.016	697.68
434.392	691.35
434.767	721.86
435.143	725.02
435.518	747.62
435.894	730.67
436.269	748.75
436.644	760.28
437.02	760.28
437.395	755.98
437.77	742.65
438.145	773.84
438.52	774.51
438.895	778.58
439.271	798.24
439.646	783.33
440.021	810.44
440.395	795.76
440.77	807.28
441.145	816.77
441.52	819.94
441.895	822.42
442.27	845.02
442.645	849.77
443.019	833.5
443.394	841.63
443.769	842.99
444.143	856.55
444.518	878.69
444.892	858.13
445.267	851.57
445.641	878.01
446.016	867.62
446.39	866.71
446.764	883.44
447.139	903.55
447.513	913.72
447.887	919.82
448.262	916.2
448.636	937.9
449.01	945.36
449.384	935.87
449.758	933.38
450.132	939.71
450.506	950.55
450.88	968.41
451.254	945.58
451.628	986.71
452.002	965.24
452.376	975.64
452.75	1000.95
453.123	1007.5
453.497	1014.51
453.871	1018.35
454.244	1038.46
454.618	1035.98
454.992	1088.63
455.365	1065.81
455.739	1091.34
456.112	1074.84
456.486	1092.25
456.859	1109.65
457.232	1135.41
457.606	1144.45
457.979	1162.3
458.352	1176.08
458.725	1191
459.099	1219.93
459.472	1247.27
459.845	1241.39
460.218	1254.95
460.591	1256.99
460.964	1261.51
461.337	1329.75
461.71	1305.57
462.083	1330.21
462.456	1333.37
462.829	1376.31
463.201	1381.28
463.574	1388.51
463.947	1407.94
464.32	1421.95
464.692	1425.12
465.065	1462.63
465.438	1515.74
465.81	1516.41
466.183	1525
466.555	1586.24
466.928	1562.74
467.3	1561.61
467.672	1614.94
468.045	1630.76
468.417	1626.69
468.789	1676.41
469.161	1704.88
469.534	1712.12
469.906	1804.32
470.278	1784.2
470.65	1818.1
471.022	1852.68
471.394	1892.22
471.766	1946.01
472.138	1985.78
472.51	2050.41
472.882	2055.84
473.253	2083.86
473.625	2160.92
473.997	2174.7
474.369	2202.72
474.74	2231.2
475.112	2338.99
475.484	2341.48
475.855	2447.92
476.227	2472.77
476.598	2559.33
476.97	2569.72
477.341	2630.74
477.713	2707.12
478.084	2778.98
478.455	2861.92
478.827	2901.24
479.198	2997.28
479.569	3011.74
479.94	3164.06
480.311	3232.53
480.682	3316.37
481.053	3439.3
481.424	3542.8
481.795	3602.69
482.166	3700.54
482.537	3803.59
482.908	3910.02
483.279	3985.95
483.65	4122.67
484.021	4227.76
484.391	4317.47
484.762	4416
485.133	4467.3
485.503	4594.3
485.874	4697.12
486.244	4885.14
486.615	5007.85
486.985	5105.47
487.356	5225.47
487.726	5321.96
488.097	5531.22
488.467	5600.83
488.837	5745.23
489.207	5849.63
489.578	6064.54
489.948	6159.46
490.318	6253.24
490.688	6398.32
491.058	6553.34
491.428	6695.49
491.798	6792.43
492.168	6983.16
492.538	7096.83
492.908	7234.46
493.278	7387.22
493.648	7443.04
494.017	7605.52
494.387	7730.94
494.757	7868.11
495.126	8107.88
495.496	8192.62
495.866	8204.83
496.235	8387.87
496.605	8547.19
496.974	8591.48
497.344	8768.65
497.713	8852.95
498.082	8989.66
498.452	9118.25
498.821	9273.5
499.19	9274.4
499.559	9493.15
499.928	9590.55
500.298	9651.57
500.667	9806.14
501.036	9801.62
501.405	10075.51
501.774	10086.81
502.143	10207.03
502.512	10280.93
502.88	10353.24
503.249	10426.46
503.618	10546.23
503.987	10643.63
504.356	10658.77
504.724	10833.68
505.093	10873.91
505.462	10947.58
505.83	11038.88
506.199	11165.2
506.567	11342.6
506.936	11283.84
507.304	11483.38
507.672	11546.43
508.041	11555.02
508.409	11755.69
508.777	11838.4
509.145	11849.48
509.514	11845.41
509.882	12035.23
510.25	11995.46
510.618	12088.79
510.986	12156.14
511.354	12281.33
511.722	12372.4
512.09	12435
512.458	12416.69
512.826	12558.16
513.193	12674.99
513.561	12654.43
513.929	12626.41
514.297	12802.45
514.664	12872.27
515.032	12937.81
515.4	12979.39
515.767	12967.19
516.135	13044.47
516.502	13015.77
516.869	13175.54
517.237	13233.17
517.604	13075.88
517.972	13364.69
518.339	13385.71
518.706	13312.26
519.073	13326.27
519.44	13508.42
519.808	13563.56
520.175	13504.57
520.542	13641.29
520.909	13718.81
521.276	13687.62
521.643	13796.54
522.009	13810.1
522.376	13831.8
522.743	13855.75
523.11	13963.77
523.477	14108.63
523.843	14119.7
524.21	14213.26
524.577	14294.38
524.943	14198.34
525.31	14213.93
525.676	14328.51
526.043	14353.59
526.409	14314.72
526.776	14461.84
527.142	14469.07
527.508	14521.72
527.874	14584.32
528.241	14623.87
528.607	14516.53
528.973	14658.22
529.339	14612.79
529.705	14638.33
530.071	14755.61
530.437	14691.44
530.803	14753.81
531.169	14792.68
531.535	14737.76
531.901	14663.87
532.267	14740.25
532.632	14748.84
532.998	14745.22
533.364	14724.66
533.73	14710.64
534.095	14872
534.461	14803.98
534.826	14920.13
535.192	14822.28
535.557	14841.04
535.923	14680.59
536.288	14717.42
536.653	14816.86
537.019	14706.12
537.384	14700.25
537.749	14769.4
538.114	14757.65
538.479	14634.49
538.845	14668.16
539.21	14644.43
539.575	14618.44
539.94	14591.1
540.305	14638.56
540.67	14441.27
541.034	14446.92
541.399	14500.48
541.764	14527.6
542.129	14429.97
542.494	14454.83
542.858	14443.08
543.223	14352.46
543.587	14483.08
543.952	14405.79
544.316	14393.14
544.681	14421.84
545.045	14206.25
545.41	14308.17
545.774	14313.14
546.138	14182.07
546.503	14180.49
546.867	14168.96
547.231	14229.3
547.595	14248.74
547.959	14199.47
548.324	14114.28
548.688	14088.06
549.052	14037.89
549.416	14045.8
549.779	14010.32
550.143	13997.89
550.507	13985.01
550.871	13966.94
551.235	13902.53
551.599	13950.44
551.962	13984.34
552.326	13886.49
552.689	13875.41
553.053	13807.62
553.417	13764.45
553.78	13929.2
554.143	13785.02
554.507	13827.96
554.87	13714.74
555.234	13856.43
555.597	13677.23
555.96	13738.01
556.323	13686.94
556.686	13713.61
557.05	13752.93
557.413	13744.79
557.776	13772.14
558.139	13773.27
558.502	13781.4
558.865	13740.05
559.228	13727.85
559.59	13781.4
559.953	13784.57
560.316	13797.67
560.679	13743.66
561.041	13718.81
561.404	13743.21
561.767	13876.09
562.129	13760.39
562.492	13801.29
562.854	13807.62
563.217	13757.22
563.579	13851.01
563.941	13947.27
564.304	13935.75
564.666	13912.02
565.028	13869.31
565.39	13915.41
565.753	13972.13
566.115	13979.59
566.477	13985.92
566.839	13953.38
567.201	14046.25
567.563	14059.59
567.925	14094.16
568.287	14003.32
568.648	14000.15
569.01	14113.15
569.372	14188.62
569.734	14013.94
570.095	14117.89
570.457	14131.68
570.819	14153.37
571.18	14172.58
571.542	14213.71
571.903	14221.84
572.265	14231.79
572.626	14182.07
572.987	14238.34
573.349	14331.67
573.71	14253.48
574.071	14332.12
574.432	14295.51
574.794	14393.82
575.155	14345.46
575.516	14200.6
575.877	14284.44
576.238	14338
576.599	14391.56
576.96	14348.85
577.32	14422.97
577.681	14399.69
578.042	14465.23
578.403	14389.07
578.763	14352.24
579.124	14369.64
579.485	14460.71
579.845	14466.13
580.206	14375.51
580.566	14420.26
580.927	14324.67
581.287	14491.22
581.648	14459.58
582.008	14486.02
582.368	14418.9
582.728	14468.84
583.089	14310.65
583.449	14358.79
583.809	14441.05
584.169	14379.35
584.529	14345.46
584.889	14527.15
585.249	14375.51
585.609	14305.01
585.969	14378.45
586.329	14371.44
586.688	14367.83
587.048	14316.08
587.408	14328.73
587.768	14269.3
588.127	14318.11
588.487	14300.71
588.846	14439.69
589.206	14173.94
589.565	14171.22
589.925	14275.18
590.284	14224.1
590.643	14307.04
591.003	14280.15
591.362	14271.11
591.721	14205.35
592.08	14220.94
592.44	14156.08
592.799	14242.86
593.158	14175.97
593.517	14112.69
593.876	14104.78
594.235	14154.05
594.593	14126.93
594.952	14099.36
595.311	14150.66
595.67	14129.19
596.029	14245.57
596.387	14220.94
596.746	14132.35
597.104	14144.11
597.463	14156.08
597.822	14198.79
598.18	14109.76
598.538	14054.84
598.897	14157.21
599.255	14041.51
599.613	14242.63
599.972	14128.29
600.33	14220.26
600.688	14191.11
601.046	14189.53
601.404	14240.37
601.762	14227.49
602.12	14180.04
602.478	14238.34
602.836	14254.84
603.194	14138
603.552	14202.86
603.91	14086.93
604.268	14172.81
604.625	14163.09
604.983	14175.97
605.341	14085.58
605.698	14175.29
606.056	14205.12
606.413	14139.13
606.771	14215.52
607.128	14170.77
607.485	14127.16
607.843	14130.55
608.2	14159.25
608.557	14200.15
608.914	14227.95
609.272	14243.31
609.629	14246.02
609.986	14348.39
610.343	14209.41
610.7	14335.06
611.057	14267.94
611.414	14267.27
611.771	14246.93
612.127	14351.11
612.484	14355.63
612.841	14424.78
613.198	14373.25
613.554	14286.93
613.911	14368.05
614.267	14368.05
614.624	14436.98
614.98	14388.17
615.337	14429.97
615.693	14393.14
616.05	14343.2
616.406	14473.36
616.762	14453.02
617.118	14454.61
617.475	14456.64
617.831	14476.53
618.187	14573.92
618.543	14463.19
618.899	14589.29
619.255	14602.85
619.611	14584.32
619.967	14682.85
620.323	14622.06
620.678	14544.32
621.034	14563.08
621.39	14543.64
621.746	14562.85
622.101	14683.98
622.457	14593.81
622.812	14593.59
623.168	14648.95
623.523	14589.74
623.879	14716.97
624.234	14602.85
624.589	14626.58
624.945	14678.1
625.3	14623.19
625.655	14621.83
626.01	14625
626.365	14626.13
626.72	14634.71
627.075	14636.3
627.43	14613.25
627.785	14534.6
628.14	14629.74
628.495	14611.66
628.85	14648.5
629.205	14499.58
629.559	14612.79
629.914	14445.34
630.269	14455.51
630.623	14468.16
630.978	14547.48
631.332	14556.75
631.687	14589.74
632.041	14430.2
632.396	14528.5
632.75	14498.9
633.104	14428.39
633.459	14406.92
633.813	14344.55
634.167	14412.8
634.521	14330.09
634.875	14451.44
635.229	14328.73
635.583	14296.19
635.937	14188.17
636.291	14324.21
636.645	14296.42
636.999	14203.31
637.352	14200.38
637.706	14180.04
638.06	14174.16
638.413	14134.61
638.767	14093.03
639.121	14159.92
639.474	14163.54
639.828	14069.76
640.181	14220.71
640.534	14126.03
640.888	14119.25
641.241	14094.84
641.594	14086.48
641.947	14147.95
642.301	14038.8
642.654	14069.76
643.007	14083.99
643.36	14046.48
643.713	14025.01
644.066	14017.1
644.419	13999.7
644.771	13936.88
645.124	13790.67
645.477	13720.84
645.83	13641.75
646.182	13535.08
646.535	13536.44
646.888	13520.17
647.24	13517.68
647.593	13499.38
647.945	13544.12
648.298	13538.92
648.65	13470
649.002	13402.2
649.355	13506.61
649.707	13444.24
650.059	13518.59
650.411	13775.75
650.763	13774.17
651.115	13883.77
651.467	13772.59
651.819	13808.75
652.171	13778.69
652.523	13715.64
652.875	13797.45
653.227	13735.98
653.578	13763.55
653.93	13780.95
654.282	13765.36
654.633	13690.33
654.985	13804.45
655.337	13821.85
655.688	13840.84
656.039	13918.12
656.391	13744.57
656.742	13718.81
657.094	13818.46
657.445	13770.78
657.796	13804.91
658.147	13756.55
658.498	13731.91
658.849	13802.87
659.2	13790.22
659.551	13736.66
659.902	13933.72
660.253	13793.38
660.604	13861.18
660.955	13758.8
661.306	13834.51
661.656	13824.34
662.007	13875.19
662.358	13780.27
662.708	13866.6
663.059	13832.25
663.409	13731.91
663.76	13816.66
664.11	13895.52
664.461	13851.23
664.811	13921.51
665.161	13865.69
665.511	13832.48
665.862	13809.2
666.212	13812.81
666.562	13878.12
666.912	13880.84
667.262	13914.28
667.612	13841.06
667.962	13893.26
668.312	13860.05
668.662	13877.45
669.011	13822.31
669.361	13884
669.711	13757
670.06	13674.51
670.41	13856.88
670.76	13717.9
671.109	13844
671.459	13746.6
671.808	13834.96
672.157	13814.17
672.507	13759.48
672.856	13747.73
673.205	13771.91
673.554	13780.05
673.904	13673.16
674.253	13813.27
674.602	13757.9
674.951	13497.57
675.3	13436.33
675.649	13638.13
675.998	13604.91
676.346	13648.07
676.695	13660.05
677.044	13560.17
677.393	13707.73
677.741	13657.79
678.09	13603.1
678.438	13588.41
678.787	13528.98
679.135	13649.2
679.484	13476.1
679.832	13443.11
680.181	13390
680.529	13427.74
680.877	13371.92
681.225	13496.21
681.573	13430
681.922	13323.56
682.27	13383.9
682.618	13339.38
682.966	13291.25
683.314	13264.13
683.661	13219.61
684.009	13172.15
684.357	13160.85
684.705	13157.92
685.053	13180.97
685.4	13095.55
685.748	13139.84
686.095	13066.17
686.443	13000.18
686.79	12959.5
687.138	13025.72
687.485	13050.35
687.832	12840.86
688.18	12866.4
688.527	12825.04
688.874	12785.95
689.221	12797.7
689.568	12787.31
689.915	12664.6
690.262	12718.83
690.609	12585.05
690.956	12653.98
691.303	12607.42
691.65	12440.87
691.997	12515
692.344	12435.9
692.69	12357.26
693.037	12374.43
693.383	12281.56
693.73	12306.41
694.077	12337.6
694.423	12230.94
694.769	12193.65
695.116	12139.19
695.462	12027.78
695.808	12100.54
696.155	12033.2
696.501	11916.14
696.847	11998.63
697.193	11924.28
697.539	11932.86
697.885	11771.06
698.231	11740.33
698.577	11772.87
698.923	11724.06
699.269	11652.42
699.614	11605.19
699.96	11531.52
700.306	11540.78
700.651	11423.27
700.997	11433.44
701.342	11441.58
701.688	11444.74
702.033	11333.33
702.379	11314.58
702.724	11297.63
703.069	11281.58
703.415	11171.53
703.76	11195.26
704.105	11139.89
704.45	11155.48
704.795	11039.1
705.14	11038.65
705.485	10965.21
705.83	10922.04
706.175	10895.38
706.52	10917.07
706.865	10846.34
707.209	10818.09
707.554	10731.77
707.899	10771.99
708.243	10715.72
708.588	10699.22
708.932	10634.82
709.277	10656.97
709.621	10646.12
709.966	10571.77
710.31	10571.09
710.654	10469.4
710.998	10527.25
711.342	10504.65
711.687	10430.53
712.031	10420.14
712.375	10357.31
712.719	10389.63
713.063	10380.14
713.407	10373.81
713.75	10301.95
714.094	10279.12
714.438	10241.16
714.782	10201.61
715.125	10264.43
715.469	10333.81
715.812	10231.21
716.156	10085.91
716.499	10109.18
716.843	10154.61
717.186	10024.21
717.53	10132.69
717.873	10101.73
718.216	10089.07
718.559	9962.75
718.902	9915.97
719.246	9929.08
719.589	9993.71
719.932	9940.37
720.275	10000.26
720.617	9888.62
720.96	9913.93
721.303	9911
721.646	9920.71
721.989	9856.99
722.331	9885.23
722.674	9882.75
723.016	9855.86
723.359	9849.3
723.701	9857.66
724.044	9792.13
724.386	9739.93
724.729	9832.58
725.071	9787.16
725.413	9739.7
725.755	9802.3
726.097	9766.37
726.439	9739.7
726.782	9764.56
727.124	9782.41
727.465	9678.69
727.807	9686.6
728.149	9704.67
728.491	9670.78
728.833	9702.87
729.175	9667.84
729.516	9659.25
729.858	9730.21
730.199	9697.67
730.541	9634.17
730.882	9610.21
731.224	9705.13
731.565	9619.93
731.906	9658.8
732.248	9665.35
732.589	9596.88
732.93	9584.45
733.271	9581.51
733.612	9578.8
733.953	9609.08
734.294	9517.11
734.635	9566.37
734.976	9617.67
735.317	9604.34
735.658	9630.78
735.999	9570.89
736.339	9529.09
736.68	9555.98
737.021	9580.38
737.361	9545.13
737.702	9722.53
738.042	9615.19
738.383	9602.08
738.723	9665.35
739.063	9565.92
739.404	9645.47
739.744	9639.37
740.084	9663.77
740.424	9654.96
740.764	9610.67
741.104	9760.04
741.444	9657.22
741.784	9708.74
742.124	9779.25
742.464	9688.18
742.804	9735.18
743.143	9767.5
743.483	9864.22
743.823	9772.02
744.162	9847.95
744.502	9867.61
744.841	9865.12
745.181	9990.32
745.52	9964.33
745.86	9954.39
746.199	10036.87
746.538	10083.65
746.877	10123.87
747.216	10125.91
747.556	10196.86
747.895	10202.97
748.234	10271.89
748.573	10280.7
748.911	10354.37
749.25	10400.02
749.589	10387.14
749.928	10542.17
750.267	10641.6
750.605	10745.32
750.944	10744.65
751.283	10797.53
751.621	10881.37
751.96	10940.8
752.298	11052.21
752.636	11312.09
752.975	11333.33
753.313	11275.71
753.651	11488.36
753.989	11557.96
754.327	11626.21
754.666	11736.03
755.004	11879.98
755.342	12029.36
755.679	12128.34
756.017	12253.76
756.355	12453.3
756.693	12480.19
757.031	12644.26
757.368	12726.06
757.706	12895.55
758.044	12966.96
