Data from hue_160_FLMS001491_00058.txt Node
Date: Tue Feb 07 16:51:23 GMT 2017
User: dcchb
Spectrometer: FLMS00149
Trigger mode: 0
Integration Time (sec): 2.000000E-2
Scans to average: 10
Electric dark correction enabled: true
Nonlinearity correction enabled: false
Boxcar width: 0
XAxis mode: Wavelengths
Number of Pixels in Spectrum: 2048
>>>>>Begin Spectral Data<<<<<
341.393	-10.13
341.776	-10.13
342.16	-10.13
342.543	-70.24
342.927	-62.1
343.31	-74.53
343.693	-73.18
344.077	-70.69
344.46	-57.58
344.843	-56
345.226	-53.06
345.61	-36.57
345.993	-4.48
346.376	-17.81
346.759	2.75
347.142	21.74
347.525	43.43
347.908	58.8
348.291	78.91
348.674	118.68
349.057	119.59
349.44	127.27
349.823	158.68
350.206	153.48
350.588	193.26
350.971	198.68
351.354	230.09
351.737	214.05
352.119	250.88
352.502	262.86
352.884	271.67
353.267	261.5
353.65	296.31
354.032	313.71
354.414	301.28
354.797	303.54
355.179	325.68
355.562	322.07
355.944	330.88
356.326	324.78
356.709	342.18
357.091	332.69
357.473	322.75
357.855	327.94
358.238	310.09
358.62	341.5
359.002	332.01
359.384	326.81
359.766	335.4
360.148	341.95
360.53	327.72
360.912	310.99
361.294	338.56
361.676	334.04
362.057	332.91
362.439	320.71
362.821	321.16
363.203	315.74
363.584	331.79
363.966	320.71
364.348	328.17
364.729	308.51
365.111	320.49
365.493	307.15
365.874	296.98
366.256	308.28
366.637	303.09
367.019	295.63
367.4	308.96
367.781	313.48
368.163	305.12
368.544	296.31
368.925	299.92
369.306	319.36
369.688	300.6
370.069	298.11
370.45	316.42
370.831	292.92
371.212	306.93
371.593	303.09
371.974	294.27
372.355	304.44
372.736	294.72
373.117	300.15
373.498	315.06
373.879	306.47
374.26	301.96
374.641	325.23
375.021	313.03
375.402	316.19
375.783	329.53
376.163	330.2
376.544	327.94
376.925	322.52
377.305	329.75
377.686	310.99
378.066	316.42
378.447	287.72
378.827	347.6
379.208	328.85
379.588	318.68
379.968	322.75
380.349	313.03
380.729	337.66
381.109	333.59
381.489	336.98
381.87	330.43
382.25	330.66
382.63	332.01
383.01	340.37
383.39	333.59
383.77	338.56
384.15	356.19
384.53	327.94
384.91	331.11
385.29	331.33
385.67	363.65
386.049	335.4
386.429	354.38
386.809	319.36
387.189	330.2
387.568	341.73
387.948	347.15
388.328	370.88
388.707	368.17
389.087	332.01
389.466	355.06
389.846	351.45
390.225	349.64
390.605	344.44
390.984	346.93
391.363	357.77
391.743	326.81
392.122	370.65
392.501	346.02
392.881	360.71
393.26	351.22
393.639	369.07
394.018	362.29
394.397	362.07
394.776	355.06
395.155	366.81
395.534	381.05
395.913	381.28
396.292	375.63
396.671	343.31
397.05	389.18
397.429	390.09
397.808	366.36
398.186	374.5
398.565	405.68
398.944	375.63
399.323	381.73
399.701	374.95
400.08	389.86
400.458	387.38
400.837	396.19
401.215	411.56
401.594	395.29
401.972	373.14
402.351	410.43
402.729	411.56
403.107	393.03
403.486	407.04
403.864	391.22
404.242	427.38
404.62	435.29
404.999	411.33
405.377	400.48
405.755	421.5
406.133	421.5
406.511	415.4
406.889	408.62
407.267	426.25
407.645	425.12
408.023	409.75
408.401	443.42
408.779	430.31
409.156	445
409.534	422.86
409.912	422.18
410.29	459.01
410.667	448.84
411.045	440.48
411.422	440.48
411.8	476.41
412.178	460.82
412.555	475.28
412.933	472.35
413.31	480.48
413.687	451.1
414.065	476.87
414.442	484.55
414.819	488.39
415.197	494.04
415.574	484.55
415.951	485.45
416.328	466.92
416.705	473.48
417.082	481.84
417.46	478.45
417.837	511.22
418.214	511.89
418.591	511.44
418.967	512.12
419.344	518.45
419.721	521.38
420.098	513.7
420.475	523.19
420.852	539.92
421.228	518.22
421.605	538.33
421.982	562.29
422.358	556.64
422.735	549.86
423.111	568.16
423.488	547.6
423.864	565.68
424.241	569.07
424.617	579.69
424.994	569.07
425.37	589.18
425.746	593.93
426.123	573.13
426.499	560.03
426.875	598.67
427.251	586.02
427.627	606.13
428.003	571.55
428.379	616.07
428.756	602.51
429.132	646.58
429.507	635.73
429.883	618.33
430.259	619.24
430.635	631.66
431.011	668.5
431.387	647.48
431.763	657.88
432.138	648.84
432.514	661.95
432.89	669.63
433.265	676.18
433.641	693.36
434.016	710.08
434.392	718.89
434.767	711.89
435.143	715.05
435.518	735.84
435.894	737.42
436.269	716.63
436.644	747.14
437.02	733.36
437.395	755.95
437.77	763.41
438.145	761.38
438.52	743.53
438.895	789.85
439.271	775.84
439.646	812.68
440.021	797.54
440.395	782.85
440.77	783.52
441.145	821.49
441.52	842.05
441.895	834.82
442.27	843.86
442.645	817.2
443.019	830.08
443.394	850.87
443.769	845.67
444.143	836.63
444.518	858.32
444.892	854.48
445.267	880.7
445.641	881.6
446.016	873.01
446.39	881.15
446.764	904.88
447.139	883.18
447.513	918.66
447.887	905.56
448.262	906.46
448.636	919.34
449.01	922.96
449.384	930.41
449.758	918.66
450.132	932.45
450.506	941.94
450.88	957.98
451.254	976.29
451.628	948.72
452.002	970.19
452.376	976.74
452.75	1009.28
453.123	1001.6
453.497	1036.4
453.871	1040.47
454.244	1030.3
454.618	1039.79
454.992	1098.32
455.365	1072.1
455.739	1108.49
456.112	1136.28
456.486	1132.67
456.859	1132.67
457.232	1132.67
457.606	1128.37
457.979	1139.9
458.352	1183.51
458.725	1192.33
459.099	1210.63
459.472	1216.51
459.845	1223.74
460.218	1253.12
460.591	1226.9
460.964	1231.87
461.337	1260.57
461.71	1316.84
462.083	1304.19
462.456	1334.24
462.829	1365.43
463.201	1357.07
463.574	1383.06
463.947	1392.32
464.32	1429.38
464.692	1436.61
465.065	1471.19
465.438	1469.61
465.81	1490.62
466.183	1519.78
466.555	1562.49
466.928	1554.8
467.3	1562.04
467.672	1625.08
468.045	1646.1
468.417	1658.53
468.789	1661.24
469.161	1687.46
469.534	1746.44
469.906	1795.02
470.278	1773.33
470.65	1804.97
471.022	1871.18
471.394	1896.72
471.766	1916.15
472.138	1963.38
472.51	2023.72
472.882	2036.6
473.253	2092.19
473.625	2173.77
473.997	2229.14
474.369	2217.39
474.74	2264.39
475.112	2318.85
475.484	2352.97
475.855	2444.72
476.227	2445.85
476.598	2542.35
476.97	2599.52
477.341	2690.59
477.713	2707.77
478.084	2764.49
478.455	2925.84
478.827	2931.04
479.198	3083.35
479.569	3080.41
479.94	3159.96
480.311	3245.83
480.682	3324.47
481.053	3413.29
481.424	3538.71
481.795	3608.31
482.166	3693.28
482.537	3757.91
482.908	3875.19
483.279	3998.58
483.65	4098.69
484.021	4192.25
484.391	4279.48
484.762	4385.24
485.133	4424.33
485.503	4586.14
485.874	4736.87
486.244	4812.35
486.615	4955.84
486.985	5088.04
487.356	5173.24
487.726	5295.5
488.097	5420.01
488.467	5556.96
488.837	5672.44
489.207	5827.23
489.578	5983.39
489.948	6080.11
490.318	6179.77
490.688	6272.65
491.058	6453.21
491.428	6558.51
491.798	6686.65
492.168	6873.99
492.538	6901.56
492.908	7065.39
493.278	7214.32
493.648	7240.98
494.017	7433.29
494.387	7575.44
494.757	7702.21
495.126	7817.46
495.496	7926.61
495.866	8053.16
496.235	8087.06
496.605	8211.13
496.974	8413.61
497.344	8476.43
497.713	8573.83
498.082	8645.01
498.452	8799.13
498.821	8959.58
499.19	8968.85
499.559	9082.06
499.928	9202.74
500.298	9245.22
500.667	9385.33
501.036	9456.74
501.405	9539
501.774	9587.36
502.143	9677.3
502.512	9776.28
502.88	9911.19
503.249	9944.41
503.618	10024.86
503.987	10069.83
504.356	10093.79
504.724	10225.31
505.093	10157.97
505.462	10343.73
505.83	10409.26
506.199	10459.65
506.567	10594.34
506.936	10588.24
507.304	10722.02
507.672	10753.43
508.041	10839.76
508.409	10966.53
508.777	11067.1
509.145	11070.71
509.514	11083.37
509.882	11081.56
510.25	11173.76
510.618	11272.29
510.986	11224.61
511.354	11265.51
511.722	11391.61
512.09	11522.23
512.458	11457.37
512.826	11519.74
513.193	11585.5
513.561	11578.27
513.929	11657.81
514.297	11710.02
514.664	11757.47
515.032	11824.59
515.4	11929.67
515.767	11868.88
516.135	11916.11
516.502	11867.53
516.869	12043.34
517.237	12050.12
517.604	11914.31
517.972	12064.13
518.339	12074.08
518.706	12139.16
519.073	12180.51
519.44	12168.08
519.808	12337.57
520.175	12208.08
520.542	12305.71
520.909	12367.63
521.276	12388.19
521.643	12366.72
522.009	12458.92
522.376	12530.33
522.743	12430.9
523.11	12507.51
523.477	12686.49
523.843	12694.85
524.21	12671.8
524.577	12799.25
524.943	12797.22
525.31	12736.88
525.676	12809.65
526.043	12851
526.409	12813.94
526.776	12903.21
527.142	12925.8
527.508	12890.32
527.874	12917.44
528.241	12948.63
528.607	12932.13
528.973	13065.01
529.339	12979.59
529.705	13009.19
530.071	13058.91
530.437	13027.5
530.803	13088.74
531.169	13009.87
531.535	12982.75
531.901	12992.92
532.267	12953.83
532.632	12996.76
532.998	12990.44
533.364	12982.07
533.73	13017.33
534.095	13027.27
534.461	13013.94
534.826	13010.1
535.192	12973.71
535.557	12898.01
535.923	12883.32
536.288	12952.02
536.653	12844.9
537.019	12761.29
537.384	12801.06
537.749	12811
538.114	12760.84
538.479	12779.14
538.845	12676.09
539.21	12690.78
539.575	12643.55
539.94	12622.31
540.305	12705.02
540.67	12546.83
541.034	12528.07
541.399	12474.29
541.764	12467.96
542.129	12439.04
542.494	12421.41
542.858	12416.67
543.223	12294.41
543.587	12360.85
543.952	12431.35
544.316	12295.54
544.681	12233.84
545.045	12270.68
545.41	12232.26
545.774	12276.56
546.138	12187.07
546.503	12063.91
546.867	12059.39
547.231	12084.47
547.595	12046.51
547.959	11998.14
548.324	11948.2
548.688	11927.64
549.052	11889.9
549.416	11855.55
549.779	11930.58
550.143	11822.33
550.507	11849
550.871	11804.93
551.235	11794.31
551.599	11806.51
551.962	11710.47
552.326	11671.6
552.689	11690.36
553.053	11606.06
553.417	11611.26
553.78	11708.66
554.143	11583.24
554.507	11619.17
554.87	11536.01
555.234	11635.67
555.597	11567.2
555.96	11455.11
556.323	11523.81
556.686	11401.55
557.05	11491.27
557.413	11431.38
557.776	11457.37
558.139	11432.06
558.502	11482.68
558.865	11364.04
559.228	11455.79
559.59	11432.28
559.953	11395.67
560.316	11476.8
560.679	11372.17
561.041	11475.67
561.404	11446.52
561.767	11477.71
562.129	11442.45
562.492	11472.74
562.854	11433.19
563.217	11393.87
563.579	11488.78
563.941	11433.64
564.304	11560.42
564.666	11487.2
565.028	11435.45
565.39	11410.82
565.753	11589.79
566.115	11525.39
566.477	11568.55
566.839	11504.37
567.201	11544.15
567.563	11595.22
567.925	11584.14
568.287	11566.29
568.648	11554.77
569.01	11569.68
569.372	11627.08
569.734	11587.08
570.095	11627.31
570.457	11669.57
570.819	11639.51
571.18	11642.67
571.542	11757.93
571.903	11658.27
572.265	11751.6
572.626	11773.74
572.987	11685.38
573.349	11750.92
573.71	11765.83
574.071	11795.66
574.432	11754.99
574.794	11781.2
575.155	11728.1
575.516	11715.21
575.877	11779.62
576.238	11810.13
576.599	11829.34
576.96	11805.61
577.32	11757.47
577.681	11812.16
578.042	11815.32
578.403	11790.69
578.763	11815.55
579.124	11743.69
579.485	11804.93
579.845	11830.69
580.206	11864.82
580.566	11820.97
580.927	11762.67
581.287	11861.88
581.648	11789.11
582.008	11797.47
582.368	11746.85
582.728	11878.83
583.089	11733.52
583.449	11721.54
583.809	11769.22
584.169	11787.3
584.529	11767.42
584.889	11816.23
585.249	11718.6
585.609	11669.57
585.969	11696.01
586.329	11664.82
586.688	11737.13
587.048	11724.48
587.408	11629.12
587.768	11680.19
588.127	11656.91
588.487	11633.18
588.846	11696.46
589.206	11647.19
589.565	11590.7
589.925	11690.36
590.284	11645.84
590.643	11679.28
591.003	11648.1
591.362	11591.38
591.721	11616.01
592.08	11606.29
592.44	11619.17
592.799	11658.27
593.158	11471.61
593.517	11564.48
593.876	11582.79
594.235	11546.18
594.593	11539.63
594.952	11526.74
595.311	11527.65
595.67	11505.95
596.029	11620.08
596.387	11534.43
596.746	11541.66
597.104	11542.34
597.463	11555.22
597.822	11534.65
598.18	11477.03
598.538	11500.53
598.897	11566.29
599.255	11496.69
599.613	11604.48
599.972	11480.87
600.33	11549.12
600.688	11507.08
601.046	11462.11
601.404	11516.35
601.762	11501.43
602.12	11563.35
602.478	11508.21
602.836	11582.34
603.194	11488.33
603.552	11456.92
603.91	11417.6
604.268	11473.86
604.625	11415.11
604.983	11459.85
605.341	11488.78
605.698	11522
606.056	11464.15
606.413	11506.41
606.771	11487.88
607.128	11574.43
607.485	11562.45
607.843	11557.03
608.2	11536.69
608.557	11597.03
608.914	11517.03
609.272	11670.7
609.629	11531.04
609.986	11667.31
610.343	11571.49
610.7	11675.89
611.057	11649.23
611.414	11651.71
611.771	11682.45
612.127	11649.23
612.484	11680.64
612.841	11688.77
613.198	11595.9
613.554	11679.28
613.911	11759.73
614.267	11744.59
614.624	11651.71
614.98	11648.32
615.337	11767.64
615.693	11677.25
616.05	11681.54
616.406	11721.32
616.762	11779.17
617.118	11766.51
617.475	11679.06
617.831	11784.59
618.187	11809.9
618.543	11831.14
618.899	11871.59
619.255	11863.69
619.611	11716.8
619.967	11836.79
620.323	11849.45
620.678	11792.95
621.034	11780.3
621.39	11803.35
621.746	11759.06
622.101	11930.35
622.457	11839.96
622.812	11868.66
623.168	11849.9
623.523	11961.76
623.879	11950.91
624.234	11906.62
624.589	11855.55
624.945	11900.07
625.3	11848.77
625.655	11900.07
626.01	11832.73
626.365	11923.8
626.72	11855.55
627.075	11815.55
627.43	11798.83
627.785	11783.46
628.14	11875.89
628.495	11856.91
628.85	11829.11
629.205	11802.44
629.559	11791.14
629.914	11745.5
630.269	11785.72
630.623	11690.13
630.978	11760.41
631.332	11803.12
631.687	11771.26
632.041	11729.9
632.396	11738.26
632.75	11721.77
633.104	11750.47
633.459	11637.7
633.813	11741.43
634.167	11651.94
634.521	11692.39
634.875	11599.51
635.229	11589.79
635.583	11559.06
635.937	11543.24
636.291	11552.28
636.645	11576.01
636.999	11523.81
637.352	11576.69
637.706	11511.38
638.06	11561.09
638.413	11479.51
638.767	11463.02
639.121	11498.95
639.474	11432.51
639.828	11471.38
640.181	11421.66
640.534	11435.22
640.888	11362.46
641.241	11438.39
641.594	11374.66
641.947	11433.64
642.301	11381.66
642.654	11401.1
643.007	11404.94
643.36	11464.83
643.713	11307.32
644.066	11367.65
644.419	11332.17
644.771	11191.84
645.124	11152.97
645.477	11121.33
645.83	11112.07
646.182	11015.12
646.535	10980.77
646.888	10964.73
647.24	10967.21
647.593	11027.1
647.945	10990.71
648.298	10916.14
648.65	10870.94
649.002	10947.33
649.355	10972.64
649.707	10931.28
650.059	10974.22
650.411	11199.3
650.763	11188.9
651.115	11266.86
651.467	11207.43
651.819	11220.09
652.171	11216.02
652.523	11184.38
652.875	11155.23
653.227	11161.33
653.578	11212.4
653.93	11158.85
654.282	11156.59
654.633	11166.08
654.985	11227.54
655.337	11131.05
655.688	11199.3
656.039	11259.18
656.391	11085.85
656.742	11146.19
657.094	11105.97
657.445	11257.6
657.796	11168.11
658.147	11206.08
658.498	11175.57
658.849	11234.1
659.2	11180.09
659.551	11188.67
659.902	11197.04
660.253	11256.92
660.604	11175.79
660.955	11107.32
661.306	11208.11
661.656	11213.08
662.007	11228.67
662.358	11254.44
662.708	11279.07
663.059	11239.97
663.409	11153.2
663.76	11225.28
664.11	11211.72
664.461	11259.41
664.811	11261.44
665.161	11245.62
665.511	11253.08
665.862	11220.09
666.212	11253.08
666.562	11260.54
666.912	11205.62
667.262	11175.12
667.612	11213.08
667.962	11253.76
668.312	11292.4
668.662	11331.27
669.011	11252.4
669.361	11254.44
669.711	11229.13
670.06	11232.29
670.41	11215.79
670.76	11234.32
671.109	11199.07
671.459	11301.67
671.808	11221.44
672.157	11243.81
672.507	11198.17
672.856	11169.69
673.205	11192.74
673.554	11258.05
673.904	11163.14
674.253	11240.88
674.602	11116.36
674.951	10971.96
675.3	10947.33
675.649	11098.51
675.998	11073.2
676.346	11108
676.695	11195.45
677.044	11013.76
677.393	11044.95
677.741	11084.5
678.09	11021.67
678.438	11040.2
678.787	11058.73
679.135	11013.76
679.484	10947.55
679.832	11037.27
680.181	10928.79
680.529	10887.89
680.877	10919.76
681.225	10910.04
681.573	11002.69
681.922	10836.37
682.27	10839.53
682.618	10924.27
682.966	10793.43
683.314	10805.18
683.661	10774.22
684.009	10721.12
684.357	10667.33
684.705	10638.86
685.053	10649.71
685.4	10672.3
685.748	10557.05
686.095	10555.7
686.443	10525.19
686.79	10554.34
687.138	10639.99
687.485	10539.43
687.832	10512.08
688.18	10531.97
688.527	10450.62
688.874	10422.37
689.221	10396.83
689.568	10358.19
689.915	10383.72
690.262	10338.3
690.609	10291.07
690.956	10227.34
691.303	10236.84
691.65	10174.92
691.997	10174.01
692.344	10091.08
692.69	10061.92
693.037	10102.15
693.383	10009.5
693.73	9981.93
694.077	9955.94
694.423	9944.41
694.769	9839.78
695.116	9903.51
695.462	9836.62
695.808	9803.4
696.155	9788.26
696.501	9792.78
696.847	9761.82
697.193	9732.67
697.539	9687.92
697.885	9605.21
698.231	9610.64
698.577	9611.77
698.923	9532
699.269	9451.77
699.614	9438.66
699.96	9463.75
700.306	9412.45
700.651	9361.38
700.997	9303.75
701.342	9320.25
701.688	9257.2
702.033	9198.67
702.379	9238.67
702.724	9149.41
703.069	9205.68
703.415	9093.59
703.76	9107.37
704.105	9022.4
704.45	8976.76
704.795	9000.26
705.14	8968.62
705.485	8910.09
705.83	8931.56
706.175	8937.66
706.52	8903.99
706.865	8867.61
707.209	8815.4
707.554	8685.24
707.899	8781.96
708.243	8721.39
708.588	8726.82
708.932	8670.32
709.277	8608.63
709.621	8650.21
709.966	8591.91
710.31	8578.35
710.654	8583.32
710.998	8510.33
711.342	8483.21
711.687	8496.54
712.031	8470.33
712.375	8386.94
712.719	8413.15
713.063	8440.95
713.407	8452.48
713.75	8374.06
714.094	8425.13
714.438	8384.91
714.782	8340.16
715.125	8333.61
715.469	8359.14
715.812	8291.58
716.156	8235.53
716.499	8206.61
716.843	8177.45
717.186	8203.67
717.53	8278.24
717.873	8235.53
718.216	8246.38
718.559	8114.63
718.902	8170.22
719.246	8187.62
719.589	8095.2
719.932	8099.94
720.275	8137.68
720.617	8094.07
720.96	8010.45
721.303	8072.6
721.646	8138.81
721.989	8073.95
722.331	8081.86
722.674	8042.77
723.016	8000.96
723.359	8048.19
723.701	7959.83
724.044	7999.38
724.386	7936.1
724.729	7997.57
725.071	7988.53
725.413	7975.43
725.755	7974.52
726.097	7929.1
726.439	7838.93
726.782	7894.75
727.124	7944.01
727.465	7880.06
727.807	7965.48
728.149	7932.04
728.491	7861.76
728.833	7913.28
729.175	7897.01
729.516	7873.73
729.858	7925.26
730.199	7906.28
730.541	7885.48
730.882	7885.03
731.224	7927.07
731.565	7895.88
731.906	7863.11
732.248	7864.69
732.589	7818.37
732.93	7810.23
733.271	7845.94
733.612	7860.63
733.953	7829.67
734.294	7833.96
734.635	7878.03
734.976	7939.95
735.317	7878.25
735.658	7861.08
735.999	7890.46
736.339	7876.45
736.68	7927.52
737.021	7904.47
737.361	7809.55
737.702	7911.7
738.042	7920.96
738.383	7888.42
738.723	7891.13
739.063	7845.49
739.404	7894.07
739.744	7893.39
740.084	7883.68
740.424	7920.06
740.764	7907.18
741.104	8006.61
741.444	7905.6
741.784	8009.78
742.124	8006.16
742.464	7966.61
742.804	7981.53
743.143	8053.16
743.483	8033.73
743.823	8073.28
744.162	8140.62
744.502	8080.06
744.841	8118.47
745.181	8136.55
745.52	8205.02
745.86	8285.93
746.199	8302.2
746.538	8316.89
746.877	8327.06
747.216	8390.56
747.556	8421.06
747.895	8431.91
748.234	8480.27
748.573	8561.85
748.911	8566.82
749.25	8731.79
749.589	8707.38
749.928	8803.2
750.267	8843.2
750.605	8896.76
750.944	9002.29
751.283	9026.02
751.621	9177.65
751.96	9222.85
752.298	9309.4
752.636	9427.82
752.975	9479.57
753.313	9493.13
753.651	9697.87
753.989	9727.7
754.327	9830.52
754.666	9846.11
755.004	9969.05
755.342	10227.34
755.679	10286.33
756.017	10427.34
756.355	10515.02
756.693	10588.24
757.031	10792.3
757.368	10873.2
757.706	11051.05
758.044	11154.33
758.381	11312.74
758.719	11504.82
759.056	11659.85
759.394	11707.98
759.731	11877.02
