Data from hue_36_FLMS001491_00100.txt Node
Date: Tue Feb 07 17:30:34 GMT 2017
User: dcchb
Spectrometer: FLMS00149
Trigger mode: 0
Integration Time (sec): 2.000000E-2
Scans to average: 10
Electric dark correction enabled: true
Nonlinearity correction enabled: false
Boxcar width: 0
XAxis mode: Wavelengths
Number of Pixels in Spectrum: 2048
>>>>>Begin Spectral Data<<<<<
341.393	-16.65
341.776	-16.65
342.16	-16.65
342.543	-58.46
342.927	-70.66
343.31	-67.95
343.693	-77.44
344.077	-61.17
344.46	-70.44
344.843	-49.42
345.226	-33.15
345.61	-31.34
345.993	-22.3
346.376	4.82
346.759	14.76
347.142	16.57
347.525	54.08
347.908	59.5
348.291	80.29
348.674	73.52
349.057	109.67
349.44	119.62
349.823	149.9
350.206	163.23
350.588	186.51
350.971	221.53
351.354	237.13
351.737	236.45
352.119	257.01
352.502	277.35
352.884	283
353.267	279.16
353.65	301.31
354.032	291.59
354.414	314.86
354.797	313.51
355.179	332.04
355.562	337.01
355.944	324.81
356.326	324.36
356.709	327.07
357.091	338.37
357.473	345.6
357.855	373.62
358.238	334.75
358.62	330.01
359.002	336.56
359.384	342.66
359.766	356.67
360.148	335.88
360.53	339.04
360.912	350.12
361.294	351.02
361.676	341.08
362.057	336.56
362.439	329.33
362.821	316.67
363.203	318.93
363.584	322.32
363.966	354.64
364.348	320.74
364.729	340.17
365.111	315.77
365.493	323
365.874	305.83
366.256	331.14
366.637	312.6
367.019	309.67
367.4	315.32
367.781	324.13
368.163	316.22
368.544	324.13
368.925	299.95
369.306	323.68
369.688	320.97
370.069	302.89
370.45	308.54
370.831	323.45
371.212	325.71
371.593	309.89
371.974	320.06
372.355	304.92
372.736	320.74
373.117	314.64
373.498	321.64
373.879	311.25
374.26	313.51
374.641	307.63
375.021	313.96
375.402	343.11
375.783	340.63
376.163	305.15
376.544	355.77
376.925	336.33
377.305	335.88
377.686	317.35
378.066	320.29
378.447	366.16
378.827	343.56
379.208	315.54
379.588	339.5
379.968	341.08
380.349	332.72
380.729	325.71
381.109	334.3
381.489	353.73
381.87	351.02
382.25	337.91
382.63	344.47
383.01	342.89
383.39	335.2
383.77	349.44
384.15	356.9
384.53	355.32
384.91	334.75
385.29	344.92
385.67	349.67
386.049	355.09
386.429	350.8
386.809	339.72
387.189	376.78
387.568	345.37
387.948	369.55
388.328	346.28
388.707	350.57
389.087	344.02
389.466	340.17
389.846	376.56
390.225	355.09
390.605	389.89
390.984	377.01
391.363	373.62
391.743	376.33
392.122	362.77
392.501	375.43
392.881	367.07
393.26	371.59
393.639	348.54
394.018	370.68
394.397	363.22
394.776	360.51
395.155	373.62
395.534	381.3
395.913	389.89
396.292	381.76
396.671	394.18
397.05	386.5
397.429	381.98
397.808	379.72
398.186	384.69
398.565	378.37
398.944	403
399.323	365.48
399.701	376.78
400.08	393.96
400.458	399.16
400.837	384.47
401.215	398.7
401.594	407.74
401.972	400.06
402.351	387.18
402.729	403.22
403.107	395.09
403.486	412.72
403.864	422.88
404.242	422.43
404.62	428.31
404.999	417.23
405.377	404.58
405.755	401.42
406.133	412.94
406.511	424.24
406.889	434.64
407.267	401.87
407.645	415.88
408.023	437.12
408.401	407.07
408.779	419.95
409.156	430.57
409.534	452.94
409.912	432.83
410.29	447.97
410.667	460.62
411.045	446.84
411.422	445.93
411.8	453.84
412.178	461.53
412.555	476.44
412.933	459.27
413.31	474.63
413.687	466.95
414.065	467.4
414.442	473.28
414.819	479.61
415.197	472.83
415.574	482.32
415.951	500.85
416.328	466.95
416.705	496.33
417.082	459.49
417.46	500.85
417.837	491.36
418.214	490
418.591	503.56
418.967	501.07
419.344	507.4
419.721	537.01
420.098	514.63
420.475	507.63
420.852	503.56
421.228	520.06
421.605	518.25
421.982	537.23
422.358	530
422.735	525.03
423.111	554.41
423.488	556.67
423.864	521.86
424.241	546.72
424.617	542.66
424.994	550.34
425.37	550.11
425.746	540.4
426.123	541.3
426.499	546.95
426.875	566.61
427.251	549.21
427.627	582.2
428.003	582.43
428.379	586.5
428.756	583.11
429.132	592.82
429.507	597.34
429.883	603.9
430.259	600.73
430.635	617.68
431.011	612.26
431.387	595.08
431.763	622.65
432.138	641.64
432.514	618.59
432.89	630.79
433.265	639.83
433.641	664.01
434.016	641.18
434.392	672.37
434.767	661.97
435.143	664.23
435.518	678.47
435.894	662.88
436.269	661.97
436.644	692.03
437.02	700.84
437.395	692.71
437.77	701.3
438.145	687.28
438.52	711.92
438.895	702.65
439.271	730.9
439.646	711.46
440.021	730.67
440.395	716.21
440.77	718.02
441.145	730.67
441.52	754.18
441.895	766.15
442.27	730.22
442.645	766.83
443.019	764.8
443.394	783.1
443.769	784.23
444.143	755.08
444.518	764.12
444.892	790.78
445.267	770.9
445.641	777.23
446.016	762.08
446.39	800.28
446.764	811.35
447.139	829.2
447.513	809.09
447.887	789.88
448.262	800.28
448.636	815.87
449.01	825.81
449.384	832.37
449.758	829.2
450.132	830.78
450.506	827.39
450.88	841.86
451.254	861.74
451.628	862.65
452.002	858.81
452.376	895.41
452.75	884.34
453.123	894.06
453.497	904.23
453.871	906.49
454.244	923.89
454.618	901.52
454.992	930.22
455.365	929.76
455.739	939.25
456.112	969.08
456.486	965.69
456.859	959.37
457.232	965.02
457.606	969.31
457.979	973.15
458.352	996.43
458.725	1014.96
459.099	1033.04
459.472	1029.2
459.845	1029.42
460.218	1077.1
460.591	1066.71
460.964	1062.87
461.337	1098.12
461.71	1098.8
462.083	1144.22
462.456	1134.73
462.829	1108.52
463.201	1139.93
463.574	1146.48
463.947	1174.28
464.32	1185.35
464.692	1212.24
465.065	1220.38
465.438	1231.9
465.81	1241.39
466.183	1241.17
466.555	1266.48
466.928	1314.16
467.3	1308.06
467.672	1332.92
468.045	1336.76
468.417	1349.19
468.789	1366.59
469.161	1397.77
469.534	1421.95
469.906	1461.05
470.278	1456.53
470.65	1500.37
471.022	1530.88
471.394	1524.1
471.766	1541.95
472.138	1585.57
472.51	1588.73
472.882	1617.66
473.253	1684.32
473.625	1688.84
473.997	1733.81
474.369	1761.61
474.74	1813.81
475.112	1832.11
475.484	1883.18
475.855	1909.4
476.227	1933.81
476.598	2003.41
476.97	2018.55
477.341	2122.27
477.713	2153.91
478.084	2157.53
478.455	2240.69
478.827	2277.52
479.198	2341.7
479.569	2327.24
479.94	2463.96
480.311	2483.4
480.682	2546.67
481.053	2619.66
481.424	2696.04
481.795	2766.1
482.166	2814.69
482.537	2888.81
482.908	3011.52
483.279	3017.39
483.65	3081.8
484.021	3224.84
484.391	3258.06
484.762	3342.58
485.133	3362.24
485.503	3473.2
485.874	3602.46
486.244	3649.69
486.615	3739.86
486.985	3875.67
487.356	3929.91
487.726	4032.05
488.097	4108.89
488.467	4178.49
488.837	4309.56
489.207	4391.82
489.578	4462.33
489.948	4560.4
490.318	4653.96
490.688	4733.05
491.058	4828.19
491.428	4945.93
491.798	5041.07
492.168	5193.38
492.538	5192.7
492.908	5341.17
493.278	5436.54
493.648	5471.34
494.017	5617.32
494.387	5690.09
494.757	5787.72
495.126	5880.14
495.496	5933.7
495.866	6010.76
496.235	6155.61
496.605	6229.74
496.974	6317.42
497.344	6434.93
497.713	6503.63
498.082	6551.54
498.452	6676.73
498.821	6748.14
499.19	6807.12
499.559	6897.29
499.928	6958.98
500.298	7075.36
500.667	7097.51
501.036	7183.38
501.405	7294.57
501.774	7330.5
502.143	7396.26
502.512	7441
502.88	7593.77
503.249	7614.33
503.618	7704.05
503.987	7735.46
504.356	7817.27
504.724	7914.21
505.093	7970.48
505.462	8037.6
505.83	8109.91
506.199	8159.18
506.567	8267.65
506.936	8285.73
507.304	8422
507.672	8458.83
508.041	8560.3
508.409	8633.52
508.777	8657.7
509.145	8751.93
509.514	8777.01
509.882	8784.02
510.25	8825.38
510.618	8931.14
510.986	9063.79
511.354	9065.59
511.722	9125.48
512.09	9282.54
512.458	9261.97
512.826	9391.24
513.193	9415.19
513.561	9482.31
513.929	9524.57
514.297	9604.79
514.664	9671
515.032	9683.66
515.4	9745.35
515.767	9873.94
516.135	9940.6
516.502	9882.97
516.869	10042.97
517.237	10054.72
517.604	10040.03
517.972	10138.56
518.339	10225.34
518.706	10234.15
519.073	10251.78
519.44	10382.62
519.808	10481.38
520.175	10411.77
520.542	10569.28
520.909	10688.38
521.276	10640.69
521.643	10821.48
522.009	10786.91
522.376	10858.54
522.743	10904.64
523.11	10996.62
523.477	11121.81
523.843	11200.91
524.21	11267.12
524.577	11291.98
524.943	11427.79
525.31	11395.48
525.676	11569.03
526.043	11594.79
526.409	11619.65
526.776	11785.98
527.142	11759.31
527.508	11875.24
527.874	12012.18
528.241	12072.3
528.607	12056.48
528.973	12197.94
529.339	12152.97
529.705	12390.48
530.071	12375.56
530.437	12466.86
530.803	12532.4
531.169	12653.52
531.535	12581.43
531.901	12673.18
532.267	12701.21
532.632	12896.45
532.998	12837.47
533.364	12919.28
533.73	12889.45
534.095	13043.8
534.461	13083.79
534.826	13173.74
535.192	13168.31
535.557	13310.91
535.923	13250.34
536.288	13298.25
536.653	13344.13
537.019	13453.05
537.384	13483.56
537.749	13543.9
538.114	13618.47
538.479	13559.49
538.845	13704.8
539.21	13708.86
539.575	13735.3
539.94	13779.6
540.305	13933.26
540.67	13979.59
541.034	13955.86
541.399	14090.1
541.764	14056.65
542.129	14161.05
542.494	14242.63
542.858	14305.01
543.223	14283.08
543.587	14365.34
543.952	14437.66
544.316	14546.58
544.681	14507.26
545.045	14510.88
545.41	14607.37
545.774	14648.5
546.138	14644.88
546.503	14740.7
546.867	14746.12
547.231	14923.75
547.595	14873.13
547.959	14909.51
548.324	15050.52
548.688	15006.23
549.052	15106.79
549.416	15198.09
549.779	15223.17
550.143	15272.66
550.507	15384.07
550.871	15415.71
551.235	15384.75
551.599	15545.42
551.962	15662.03
552.326	15572.77
552.689	15669.49
553.053	15709.26
553.417	15704.52
553.78	15947.67
554.143	15861.35
554.507	15895.92
554.87	15871.07
555.234	16075.35
555.597	15990.38
555.96	16109.48
556.323	16177.27
556.686	16110.83
557.05	16334.56
557.413	16379.75
557.776	16372.3
558.139	16514.66
558.502	16551.05
558.865	16509.24
559.228	16661.1
559.59	16614.1
559.953	16727.54
560.316	16862.68
560.679	16820.87
561.041	16974.09
561.404	16989.91
561.767	17094.31
562.129	17091.6
562.492	17266.96
562.854	17303.12
563.217	17306.73
563.579	17354.87
563.941	17454.98
564.304	17473.06
564.666	17622.21
565.028	17651.81
565.39	17653.62
565.753	17790.79
566.115	17831.01
566.477	17869.66
566.839	17884.12
567.201	18118.69
567.563	18081.86
567.925	18169.31
568.287	18210.89
568.648	18254.05
569.01	18320.04
569.372	18634.16
569.734	18481.17
570.095	18713.93
570.457	18713.02
570.819	18710.77
571.18	18806.13
571.542	18976.75
571.903	19069.63
572.265	19060.13
572.626	19064.88
572.987	19211.32
573.349	19212.67
573.71	19435.27
574.071	19424.64
574.432	19537.86
574.794	19755.03
575.155	19733.79
575.516	19671.42
575.877	19844.75
576.238	19882.26
576.599	20180.56
576.96	20122.03
577.32	20302.81
577.681	20370.61
578.042	20547.78
578.403	20655.8
578.763	20730.6
579.124	20860.31
579.485	21073.41
579.845	21254.43
580.206	21292.84
580.566	21499.39
580.927	21679.05
581.287	21944.35
581.648	21970.11
582.008	22200.39
582.368	22272.03
582.728	22410.33
583.089	22574.17
583.449	22808.51
583.809	22941.39
584.169	23074.27
584.529	23359.46
584.889	23700.69
585.249	23583.18
585.609	23767.13
585.969	24178.19
586.329	24194.01
586.688	24562.14
587.048	24690.95
587.408	24909.92
587.768	25050.94
588.127	25210.93
588.487	25520.76
588.846	25978.14
589.206	25871.48
589.565	26183.79
589.925	26526.38
590.284	26631.46
590.643	26849.76
591.003	27148.96
591.362	27434.15
591.721	27612.68
592.08	27865.55
592.44	28185.32
592.799	28304.64
593.158	28516.61
593.517	28742.59
593.876	29024.39
594.235	29241.34
594.593	29392.52
594.952	29680.19
595.311	29805.16
595.67	30111.37
596.029	30604.01
596.387	30622.54
596.746	30935.3
597.104	31013.04
597.463	31171.91
597.822	31560.14
598.18	31514.27
598.538	31656.19
598.897	32146.12
599.255	32005.78
599.613	32710.85
599.972	32721.47
600.33	32901.13
600.688	33052.99
601.046	33328.01
601.404	33585.85
601.762	33678.73
602.12	34050.25
602.478	34179.28
602.836	34372.27
603.194	34326.85
603.552	34605.71
603.91	34693.17
604.268	34959.15
604.625	35023.56
604.983	35247.73
605.341	35305.81
605.698	35688.17
606.056	35762.52
606.413	35799.81
606.771	36139.69
607.128	36302.39
607.485	36263.98
607.843	36446.34
608.2	36754.13
608.557	36957.52
608.914	36918.2
609.272	37375.59
609.629	37444.06
609.986	37639.53
610.343	37656.71
610.7	38037.04
611.057	38041.33
611.414	38166.3
611.771	38228.9
612.127	38540.3
612.484	38640.86
612.841	38684.48
613.198	38768.99
613.554	38893.06
613.911	39168.98
614.267	39283.33
614.624	39333.95
614.98	39409.2
615.337	39813.04
615.693	39735.52
616.05	39686.71
616.406	40022.07
616.762	39994.73
617.118	40034.05
617.475	40074.5
617.831	40218.9
618.187	40307.03
618.543	40383.42
618.899	40705.22
619.255	40650.75
619.611	40632.22
619.967	40924.42
620.323	41078.54
620.678	40939.79
621.034	40766.23
621.39	40879.22
621.746	40983.63
622.101	41488.92
622.457	41161.93
622.812	41421.81
623.168	41563.05
623.523	41518.98
623.879	41726.21
624.234	41505.42
624.589	41755.36
624.945	41612.99
625.3	41906.54
625.655	41893.43
626.01	42061.11
626.365	42014.33
626.72	41977.95
627.075	41990.83
627.43	42048.23
627.785	41934.56
628.14	42133.65
628.495	42238.96
628.85	42124.39
629.205	42010.94
629.559	42421.78
629.914	42129.81
630.269	42211.84
630.623	42158.06
630.978	42228.79
631.332	42240.99
631.687	42351.95
632.041	42302.69
632.396	42312.4
632.75	42123.71
633.104	42269.24
633.459	42139.08
633.813	42223.59
634.167	42241.22
634.521	42195.35
634.875	42393.98
635.229	42229.24
635.583	42128
635.937	42173.65
636.291	42113.99
636.645	42250.49
636.999	42071.28
637.352	42314.89
637.706	42021.34
638.06	42280.54
638.413	41983.15
638.767	42092.75
639.121	42019.76
639.474	41978.4
639.828	41919.42
640.181	42071.96
640.534	42024.5
640.888	41784.06
641.241	41795.58
641.594	41903.38
641.947	41963.49
642.301	41779.31
642.654	42028.12
643.007	42031.96
643.36	41851.4
643.713	41811.85
644.066	42009.14
644.419	41668.81
644.771	41490.05
645.124	41188.59
645.477	41048.71
645.83	41010.29
646.182	40722.84
646.535	40632
646.888	40824.99
647.24	40432.45
647.593	40766
647.945	40637.65
648.298	40502.28
648.65	40414.38
649.002	40491.21
649.355	40510.87
649.707	40485.11
650.059	40702.96
650.411	41184.3
650.763	41090.52
651.115	41594.46
651.467	41444.4
651.819	41393.33
652.171	41329.38
652.523	41268.82
652.875	41338.19
653.227	41109.72
653.578	41393.78
653.93	41382.49
654.282	41154.92
654.633	41005.77
654.985	41204.86
655.337	41126.67
655.688	41171.42
656.039	41220.68
656.391	40974.13
656.742	41118.76
657.094	41022.49
657.445	41192.66
657.796	41069.27
658.147	40973.23
658.498	41046.22
658.849	41218.42
659.2	41099.55
659.551	40881.48
659.902	41125.77
660.253	41038.99
660.604	41027.47
660.955	40926.68
661.306	40958.09
661.656	40998.54
662.007	40923.51
662.358	41070.63
662.708	40936.17
663.059	40935.04
663.409	40754.71
663.76	41031.08
664.11	40935.49
664.461	41113.57
664.811	41030.4
665.161	40839.67
665.511	40680.13
665.862	40791.54
666.212	40890.07
666.562	41034.25
666.912	40799
667.262	40789.51
667.612	40759.45
667.962	40790.64
668.312	40904.53
668.662	40890.29
669.011	40798.32
669.361	40795.61
669.711	40650.53
670.06	40698.44
670.41	40607.59
670.76	40596.52
671.109	40692.11
671.459	40675.39
671.808	40682.16
672.157	40634.71
672.507	40408.95
672.856	40449.85
673.205	40593.13
673.554	40735.27
673.904	40722.16
674.253	40845.55
674.602	40509.74
674.951	39958.34
675.3	39806.71
675.649	40337.09
675.998	40324.89
676.346	40427.48
676.695	40562.85
677.044	40344.09
677.393	40293.7
677.741	40293.47
678.09	40237.88
678.438	40299.12
678.787	40290.76
679.135	40249.63
679.484	39949.3
679.832	40126.7
680.181	39892.81
680.529	40006.48
680.877	39890.32
681.225	40003.76
681.573	40155.4
681.922	39882.86
682.27	39719.48
682.618	39775.52
682.966	39621.18
683.314	39785.47
683.661	39700.04
684.009	39473.83
684.357	39542.53
684.705	39341.41
685.053	39360.17
685.4	39331.24
685.748	39178.02
686.095	39211.92
686.443	38998.14
686.79	39029.78
687.138	39034.3
687.485	39050.57
687.832	39047.63
688.18	39024.13
688.527	38895.09
688.874	38752.95
689.221	38611.03
689.568	38644.03
689.915	38564.25
690.262	38606.97
690.609	38420.98
690.956	38218.95
691.303	38312.51
691.65	38137.15
691.997	38020.31
692.344	37819.19
692.69	37768.57
693.037	37859.41
693.383	37609.93
693.73	37666.65
694.077	37410.39
694.423	37431.18
694.769	37202.03
695.116	37095.37
695.462	37261.92
695.808	37012.43
696.155	37135.14
696.501	36878.87
696.847	36854.47
697.193	36641.37
697.539	36739.9
697.885	36471.2
698.231	36428.49
698.577	36410.64
698.923	36288.83
699.269	36200.02
699.614	36077.31
699.96	35897.88
700.306	36038.45
700.651	35734.95
700.997	35773.82
701.342	35718.91
701.688	35738.79
702.033	35575.63
702.379	35598.46
702.724	35461.96
703.069	35431.46
703.415	35092.48
703.76	35024.46
704.105	35073.95
704.45	34945.59
704.795	34831.7
705.14	34928.42
705.485	34749.67
705.83	34538.6
706.175	34600.74
706.52	34507.19
706.865	34434.42
707.209	34290.69
707.554	34214.09
707.899	34303.35
708.243	34076.91
708.588	34057.03
708.932	33887.77
709.277	33905.17
709.621	33963.47
709.966	33715.34
710.31	33767.77
710.654	33585.4
710.998	33628.11
711.342	33435.8
711.687	33425.86
712.031	33421.79
712.375	33183.83
712.719	33256.82
713.063	33143.61
713.407	33305.41
713.75	33072.87
714.094	33118.75
714.438	32861.13
714.782	32854.57
715.125	32785.2
715.469	32865.87
715.812	32727.57
716.156	32513.11
716.499	32622.49
716.843	32515.6
717.186	32343.85
717.53	32547.46
717.873	32542.27
718.216	32128.04
718.559	32079.91
718.902	31910.19
719.246	32105.22
719.589	32016.4
719.932	31909.29
720.275	31879.23
720.617	31737.09
720.96	31769.86
721.303	31711.55
721.646	31713.81
721.989	31542.97
722.331	31578.68
722.674	31592.23
723.016	31525.12
723.359	31421.84
723.701	31562.4
724.044	31286.93
724.386	31163.77
724.729	31371.9
725.071	31214.84
725.413	31250.1
725.755	31108.41
726.097	30975.53
726.439	30878.81
726.782	30772.59
727.124	31005.36
727.465	30835.64
727.807	30824.34
728.149	30842.42
728.491	30757.68
728.833	30812.14
729.175	30635.65
729.516	30584.8
729.858	30562.2
730.199	30536.44
730.541	30493.28
730.882	30501.64
731.224	30522.43
731.565	30355.2
731.906	30338.03
732.248	30273.17
732.589	30281.31
732.93	30069.56
733.271	30084.93
733.612	30270.01
733.953	30068.88
734.294	29961.54
734.635	29916.35
734.976	29911.6
735.317	29830.25
735.658	29789.57
735.999	29780.53
736.339	29661.44
736.68	29861.88
737.021	29623.25
737.361	29428.68
737.702	29714.54
738.042	29518.39
738.383	29632.96
738.723	29504.61
739.063	29455.12
739.404	29475.23
739.744	29368.79
740.084	29249.92
740.424	29207.66
740.764	29149.13
741.104	29276.81
741.444	29094.9
741.784	28931.97
742.124	29132.86
742.464	29000.21
742.804	28877.5
743.143	28968.35
743.483	28911.63
743.823	28624.85
744.162	28704.17
744.502	28816.26
744.841	28629.15
745.181	28757.05
745.52	28659.43
745.86	28602.48
746.199	28657.85
746.538	28517.51
746.877	28519.32
747.216	28499.21
747.556	28338.53
747.895	28432.09
748.234	28269.84
748.573	28160.23
748.911	28258.31
749.25	28176.05
749.589	28068.03
749.928	28059.9
750.267	28166.56
750.605	27988.26
750.944	27969.28
751.283	27905.55
751.621	27940.58
751.96	27708.95
752.298	27737.65
752.636	27665.11
752.975	27542.62
753.313	27590.08
753.651	27654.03
753.989	27480.25
754.327	27343.76
754.666	27272.8
755.004	27402.06
755.342	27308.96
755.679	27368.39
756.017	27193.03
756.355	27237.77
756.693	27057.44
757.031	27084.78
757.368	26997.55
