Data from hue_250_FLMS001491_00086.txt Node
Date: Tue Feb 07 16:01:35 GMT 2017
User: dcchb
Spectrometer: FLMS00149
Trigger mode: 0
Integration Time (sec): 2.000000E-2
Scans to average: 10
Electric dark correction enabled: true
Nonlinearity correction enabled: false
Boxcar width: 0
XAxis mode: Wavelengths
Number of Pixels in Spectrum: 2048
>>>>>Begin Spectral Data<<<<<
341.393	-11.84
341.776	-11.84
342.16	-11.84
342.543	-60.65
342.927	-45.73
343.31	-67.88
343.693	-73.98
344.077	-68.56
344.46	-67.2
344.843	-56.35
345.226	-34.89
345.61	-53.19
345.993	-22.46
346.376	-10.71
346.759	18.9
347.142	18.45
347.525	32.91
347.908	79.01
348.291	83.08
348.674	117.88
349.057	105
349.44	117.88
349.823	146.13
350.206	140.93
350.588	180.48
350.971	196.52
351.354	216.63
351.737	224.99
352.119	219.34
352.502	257.76
352.884	272.22
353.267	263.41
353.65	288.04
354.032	283.75
354.414	281.04
354.797	284.88
355.179	309.29
355.562	311.09
355.944	336.86
356.326	313.58
356.709	323.07
357.091	328.04
357.473	317.87
357.855	319
358.238	327.82
358.62	319.68
359.002	313.81
359.384	331.43
359.766	340.47
360.148	351.77
360.53	337.31
360.912	320.36
361.294	318.78
361.676	317.42
362.057	334.82
362.439	324.2
362.821	302.28
363.203	299.57
363.584	302.51
363.966	321.04
364.348	305.44
364.729	298.89
365.111	309.74
365.493	338.66
365.874	322.39
366.256	321.71
366.637	307.03
367.019	303.18
367.4	317.42
367.781	290.53
368.163	317.65
368.544	311.32
368.925	293.24
369.306	305.67
369.688	309.96
370.069	322.62
370.45	313.13
370.831	321.71
371.212	312
371.593	308.61
371.974	316.29
372.355	302.96
372.736	325.33
373.117	302.73
373.498	308.61
373.879	329.17
374.26	307.7
374.641	310.19
375.021	301.83
375.402	300.7
375.783	299.79
376.163	326.01
376.544	327.59
376.925	310.64
377.305	316.29
377.686	310.64
378.066	318.1
378.447	332.11
378.827	318.32
379.208	320.36
379.588	316.97
379.968	323.52
380.349	329.85
380.729	336.63
381.109	325.78
381.489	347.93
381.87	331.43
382.25	321.94
382.63	338.44
383.01	329.17
383.39	340.47
383.77	338.21
384.15	333.47
384.53	338.66
384.91	349.51
385.29	347.93
385.67	348.61
386.049	339.12
386.429	325.1
386.809	337.53
387.189	344.76
387.568	367.36
387.948	364.88
388.328	333.69
388.707	346.57
389.087	356.74
389.466	356.06
389.846	361.49
390.225	358.55
390.605	364.43
390.984	359.23
391.363	380.47
391.743	389.06
392.122	371.66
392.501	348.61
392.881	383.18
393.26	394.93
393.639	375.5
394.018	370.98
394.397	364.2
394.776	377.08
395.155	384.76
395.534	383.86
395.913	366.69
396.292	381.6
396.671	372.56
397.05	392.22
397.429	396.29
397.808	383.86
398.186	394.93
398.565	393.58
398.944	409.17
399.323	389.06
399.701	413.69
400.08	401.49
400.458	406.91
400.837	421.83
401.215	415.72
401.594	372.56
401.972	407.36
402.351	421.15
402.729	417.08
403.107	434.03
403.486	415.05
403.864	431.32
404.242	427.93
404.62	433.35
404.999	428.38
405.377	436.74
405.755	429.06
406.133	433.35
406.511	449.62
406.889	466.34
407.267	442.39
407.645	458.21
408.023	484.65
408.401	472.67
408.779	472.9
409.156	471.32
409.534	493.69
409.912	470.86
410.29	496.17
410.667	519.22
411.045	502.73
411.422	502.05
411.8	507.25
412.178	542.5
412.555	545.66
412.933	523.97
413.31	550.64
413.687	548.83
414.065	541.14
414.442	569.39
414.819	580.92
415.197	587.24
415.574	563.06
415.951	560.35
416.328	596.28
416.705	601.48
417.082	597.19
417.46	600.35
417.837	613.91
418.214	618.43
418.591	618.66
418.967	625.21
419.344	652.33
419.721	632.22
420.098	644.19
420.475	662.95
420.852	654.14
421.228	689.61
421.605	697.3
421.982	692.33
422.358	689.16
422.735	724.64
423.111	730.74
423.488	729.39
423.864	758.77
424.241	763.96
424.617	742.04
424.994	748.37
425.37	787.92
425.746	782.27
426.123	797.86
426.499	799.44
426.875	786.56
427.251	831.53
427.627	848.71
428.003	860.91
428.379	875.37
428.756	869.72
429.132	867.92
429.507	876.95
429.883	897.97
430.259	929.83
430.635	916.05
431.011	934.81
431.387	922.83
431.763	982.04
432.138	960.12
432.514	977.74
432.89	982.49
433.265	995.6
433.641	993.34
434.016	1013.67
434.392	1050.06
434.767	1047.8
435.143	1066.78
435.518	1096.16
435.894	1110.39
436.269	1135.93
436.644	1124.86
437.02	1137.29
437.395	1160.34
437.77	1157.62
438.145	1191.97
438.52	1207.12
438.895	1233.1
439.271	1223.61
439.646	1264.29
440.021	1272.65
440.395	1290.28
440.77	1275.14
441.145	1279.43
441.52	1334.8
441.895	1337.06
442.27	1345.87
442.645	1350.16
443.019	1349.26
443.394	1370.95
443.769	1395.13
444.143	1394
444.518	1404.62
444.892	1404.85
445.267	1400.33
445.641	1424.06
446.016	1462.25
446.39	1456.15
446.764	1472.19
447.139	1472.87
447.513	1493.66
447.887	1472.19
448.262	1495.24
448.636	1484.4
449.01	1497.73
449.384	1514.9
449.758	1512.87
450.132	1566.88
450.506	1546.54
450.88	1575.92
451.254	1589.03
451.628	1604.17
452.002	1612.75
452.376	1616.14
452.75	1637.61
453.123	1662.92
453.497	1661.79
453.871	1707.89
454.244	1714.67
454.618	1698.18
454.992	1785.41
455.365	1756.03
455.739	1811.85
456.112	1814.56
456.486	1834.22
456.859	1808.46
457.232	1830.15
457.606	1837.83
457.979	1890.04
458.352	1963.25
458.725	1920.77
459.099	1935.46
459.472	1990.82
459.845	1989.24
460.218	2027.21
460.591	2054.1
460.964	2042.35
461.337	2093.87
461.71	2125.96
462.083	2127.09
462.456	2149.24
462.829	2136.13
463.201	2171.38
463.574	2156.47
463.947	2215.68
464.32	2250.48
464.692	2274.21
465.065	2306.52
465.438	2296.58
465.81	2333.87
466.183	2353.53
466.555	2432.62
466.928	2457.03
467.3	2410.02
467.672	2467.65
468.045	2509.45
468.417	2533.63
468.789	2572.05
469.161	2596.23
469.534	2590.81
469.906	2640.3
470.278	2678.04
470.65	2693.86
471.022	2730.46
471.394	2751.48
471.766	2771.37
472.138	2783.57
472.51	2913.74
472.882	2930.23
473.253	2944.02
473.625	2961.65
473.997	2998.25
474.369	3016.33
474.74	3075.54
475.112	3139.95
475.484	3170.91
475.855	3231.69
476.227	3258.13
476.598	3332.48
476.97	3346.27
477.341	3438.47
477.713	3480.28
478.084	3455.64
478.455	3556.88
478.827	3581.29
479.198	3677.33
479.569	3704.9
479.94	3784.9
480.311	3782.64
480.682	3840.27
481.053	3907.38
481.424	4002.52
481.795	4024.22
482.166	4063.76
482.537	4121.39
482.908	4197.77
483.279	4246.36
483.65	4316.64
484.021	4304.66
484.391	4376.98
484.762	4400.48
485.133	4398.67
485.503	4537.2
485.874	4577.42
486.244	4633.01
486.615	4710.75
486.985	4805.44
487.356	4830.3
487.726	4854.25
488.097	4965.89
488.467	4945.77
488.837	5026
489.207	5084.98
489.578	5152.55
489.948	5132.44
490.318	5244.07
490.688	5274.35
491.058	5266.22
491.428	5379.66
491.798	5452.88
492.168	5507.34
492.538	5545.53
492.908	5581.01
493.278	5614.68
493.648	5602.71
494.017	5674.12
494.387	5762.7
494.757	5804.51
495.126	5811.97
495.496	5858.97
495.866	5873.43
496.235	5939.65
496.605	5945.3
496.974	5969.02
497.344	6011.73
497.713	6073.65
498.082	6083.15
498.452	6090.15
498.821	6162.69
499.19	6170.6
499.559	6267.77
499.928	6257.83
500.298	6284.27
500.667	6321.56
501.036	6291.5
501.405	6365.62
501.774	6365.62
502.143	6435
502.512	6448.79
502.88	6516.13
503.249	6560.65
503.618	6532.62
503.987	6579.86
504.356	6588.44
504.724	6583.24
505.093	6571.27
505.462	6686.07
505.83	6668.21
506.199	6669.34
506.567	6782.79
506.936	6744.6
507.304	6745.27
507.672	6809.68
508.041	6867.31
508.409	6881.32
508.777	6942.56
509.145	6940.07
509.514	6938.94
509.882	6971.26
510.25	6997.47
510.618	7103.01
510.986	7074.08
511.354	7060.97
511.722	7077.02
512.09	7117.02
512.458	7053.97
512.826	7119.28
513.193	7192.49
513.561	7165.38
513.929	7160.86
514.297	7237.69
514.664	7284.7
515.032	7208.77
515.4	7308.2
515.767	7312.49
516.135	7294.86
516.502	7268.42
516.869	7345.26
517.237	7381.42
517.604	7335.09
517.972	7452.15
518.339	7458.25
518.706	7442.43
519.073	7487.4
519.44	7409.21
519.808	7555.65
520.175	7538.25
520.542	7571.92
520.909	7634.74
521.276	7577.12
521.643	7555.2
522.009	7611.01
522.376	7651.24
522.743	7683.33
523.11	7694.63
523.477	7721.29
523.843	7755.87
524.21	7825.92
524.577	7785.02
524.943	7831.35
525.31	7852.14
525.676	7873.83
526.043	7961.51
526.409	7949.54
526.776	7999.48
527.142	8015.07
527.508	7975.98
527.874	7974.17
528.241	8032.02
528.607	7956.32
528.973	8034.05
529.339	8041.29
529.705	8064.34
530.071	8086.71
530.437	8066.14
530.803	8129.19
531.169	8115.86
531.535	8165.12
531.901	8180.72
532.267	8166.25
532.632	8161.96
532.998	8189.98
533.364	8203.54
533.73	8228.63
534.095	8180.04
534.461	8234.95
534.826	8237.44
535.192	8183.43
535.557	8203.32
535.923	8241.96
536.288	8203.32
536.653	8272.47
537.019	8176.65
537.384	8189.76
537.749	8214.39
538.114	8244.9
538.479	8177.78
538.845	8214.61
539.21	8191.11
539.575	8155.63
539.94	8194.5
540.305	8195.18
540.67	8242.86
541.034	8181.17
541.399	8203.32
541.764	8217.78
542.129	8176.42
542.494	8294.16
542.858	8196.54
543.223	8183.88
543.587	8208.51
543.952	8178.68
544.316	8180.49
544.681	8210.32
545.045	8150.44
545.41	8207.61
545.774	8192.92
546.138	8170.55
546.503	8203.77
546.867	8118.35
547.231	8141.17
547.595	8182.75
547.959	8159.02
548.324	8153.37
548.688	8156.99
549.052	8110.66
549.416	8173.71
549.779	8107.05
550.143	8079.02
550.507	8082.87
550.871	8113.6
551.235	8104.33
551.599	8218.23
551.962	8140.04
552.326	8152.24
552.689	8182.3
553.053	8059.14
553.417	8076.09
553.78	8215.52
554.143	8126.48
554.507	8168.06
554.87	8122.64
555.234	8205.8
555.597	8154.05
555.96	8109.08
556.323	8146.59
556.686	8204.9
557.05	8251.9
557.413	8280.83
557.776	8230.43
558.139	8249.19
558.502	8253.26
558.865	8239.02
559.228	8307.04
559.59	8282.86
559.953	8304.1
560.316	8340.03
560.679	8311.79
561.041	8378.9
561.404	8353.37
561.767	8420.26
562.129	8340.49
562.492	8455.51
562.854	8413.93
563.217	8432.01
563.579	8429.98
563.941	8477.88
564.304	8509.52
564.666	8493.48
565.028	8558.79
565.39	8572.8
565.753	8524.21
566.115	8568.73
566.477	8656.41
566.839	8572.35
567.201	8699.35
567.563	8651.21
567.925	8736.86
568.287	8708.84
568.648	8739.57
569.01	8770.98
569.372	8832.45
569.734	8802.4
570.095	8851.66
570.457	8853.02
570.819	8918.1
571.18	8862.73
571.542	8860.47
571.903	8918.78
572.265	8886.24
572.626	9007.81
572.987	9045.55
573.349	9041.03
573.71	9060.02
574.071	9064.54
574.432	9054.14
574.794	9165.1
575.155	9161.26
575.516	9042.62
575.877	9206
576.238	9110.64
576.599	9181.82
576.96	9162.84
577.32	9167.81
577.681	9224.53
578.042	9301.14
578.403	9302.95
578.763	9325.77
579.124	9334.59
579.485	9325.55
579.845	9396.96
580.206	9384.98
580.566	9360.57
580.927	9374.36
581.287	9436.28
581.648	9387.92
582.008	9471.76
582.368	9431.53
582.728	9472.89
583.089	9444.19
583.449	9448.93
583.809	9447.58
584.169	9507.01
584.529	9497.07
584.889	9591.75
585.249	9539.78
585.609	9570.96
585.969	9619.55
586.329	9610.96
586.688	9615.48
587.048	9642.6
587.408	9563.51
587.768	9565.09
588.127	9582.26
588.487	9646.44
588.846	9671.07
589.206	9660
589.565	9656.38
589.925	9721.02
590.284	9639.66
590.643	9745.2
591.003	9801.69
591.362	9793.33
591.721	9817.96
592.08	9721.69
592.44	9664.07
592.799	9754.69
593.158	9772.09
593.517	9678.98
593.876	9856.61
594.235	9773.9
594.593	9820
594.952	9791.3
595.311	9831.07
595.67	9863.84
596.029	9845.31
596.387	9960.56
596.746	9925.76
597.104	9822.93
597.463	9830.17
597.822	9892.31
598.18	9852.76
598.538	9857.96
598.897	9917.62
599.255	9840.56
599.613	9943.61
599.972	9872.65
600.33	9938.64
600.688	9881.24
601.046	9909.49
601.404	10002.36
601.762	9954.23
602.12	10055.24
602.478	9991.52
602.836	10017.05
603.194	9943.38
603.552	9988.35
603.91	9949.26
604.268	10047.79
604.625	9992.87
604.983	10051.4
605.341	9965.53
605.698	10018.18
606.056	9978.41
606.413	10028.8
606.771	10023.61
607.128	10046.66
607.485	10000.33
607.843	10073.1
608.2	10081.46
608.557	10011.86
608.914	10106.99
609.272	10095.02
609.629	10141.34
609.986	10119.65
610.343	10138.41
610.7	10188.12
611.057	10215.47
611.414	10146.99
611.771	10258.63
612.127	10240.1
612.484	10121.23
612.841	10212.98
613.198	10222.47
613.554	10156.94
613.911	10219.53
614.267	10283.94
614.624	10273.09
614.98	10293.43
615.337	10292.98
615.693	10284.62
616.05	10260.44
616.406	10320.32
616.762	10302.92
617.118	10268.12
617.475	10305.41
617.831	10363.94
618.187	10371.17
618.543	10309.02
618.899	10359.42
619.255	10373.88
619.611	10340.43
619.967	10384.5
620.323	10419.53
620.678	10348.12
621.034	10409.59
621.39	10325.07
621.746	10357.83
622.101	10473.31
622.457	10392.41
622.812	10411.17
623.168	10448.91
623.523	10340.66
623.879	10468.79
624.234	10369.13
624.589	10388.12
624.945	10405.52
625.3	10495.01
625.655	10418.17
626.01	10375.24
626.365	10373.88
626.72	10401.9
627.075	10294.33
627.43	10350.6
627.785	10376.37
628.14	10314.22
628.495	10410.94
628.85	10324.84
629.205	10274
629.559	10314.45
629.914	10293.43
630.269	10297.05
630.623	10270.38
630.978	10267.22
631.332	10336.14
631.687	10255.69
632.041	10178.4
632.396	10264.5
632.75	10250.95
633.104	10219.53
633.459	10157.61
633.813	10182.25
634.167	10224.28
634.521	10180.89
634.875	10192.19
635.229	10134.11
635.583	10142.25
635.937	10135.69
636.291	10143.6
636.645	10087.33
636.999	10040.33
637.352	10135.47
637.706	10059.99
638.06	10085.07
638.413	10069.03
638.767	9968.47
639.121	10003.95
639.474	9945.64
639.828	9985.87
640.181	10025.19
640.534	10018.86
640.888	9933.21
641.241	9890.5
641.594	9960.33
641.947	9915.81
642.301	9888.24
642.654	9892.08
643.007	9993.1
643.36	9850.28
643.713	9806.66
644.066	9911.07
644.419	9863.38
644.771	9818.41
645.124	9697.74
645.477	9741.81
645.83	9638.98
646.182	9610.96
646.535	9567.8
646.888	9599.44
647.24	9511.08
647.593	9556.5
647.945	9489.84
648.298	9477.63
648.65	9495.48
649.002	9506.11
649.355	9585.88
649.707	9482.38
650.059	9583.39
650.411	9693.67
650.763	9607.8
651.115	9768.7
651.467	9731.64
651.819	9744.52
652.171	9687.34
652.523	9644.41
652.875	9662.03
653.227	9644.41
653.578	9730.73
653.93	9706.78
654.282	9631.75
654.633	9633.33
654.985	9709.94
655.337	9712.2
655.688	9636.5
656.039	9722.15
656.391	9657.06
656.742	9671.07
657.094	9661.81
657.445	9700.45
657.796	9681.47
658.147	9653.22
658.498	9720.11
658.849	9686.89
659.2	9651.64
659.551	9614.8
659.902	9647.12
660.253	9668.81
660.604	9622.94
660.955	9591.98
661.306	9688.25
661.656	9667.91
662.007	9643.96
662.358	9652.32
662.708	9653.45
663.059	9649.83
663.409	9610.51
663.76	9709.94
664.11	9607.35
664.461	9603.5
664.811	9608.93
665.161	9596.5
665.511	9634.01
665.862	9651.19
666.212	9702.94
666.562	9705.42
666.912	9702.48
667.262	9619.1
667.612	9679.66
667.962	9684.18
668.312	9608.7
668.662	9669.27
669.011	9653.9
669.361	9622.49
669.711	9649.83
670.06	9567.35
670.41	9602.83
670.76	9639.89
671.109	9586.78
671.459	9537.74
671.808	9649.83
672.157	9600.34
672.507	9534.35
672.856	9546.78
673.205	9532.09
673.554	9621.58
673.904	9583.62
674.253	9619.1
674.602	9539.78
674.951	9378.43
675.3	9353.79
675.649	9495.94
675.998	9497.52
676.346	9469.5
676.695	9480.8
677.044	9440.8
677.393	9506.11
677.741	9475.6
678.09	9463.85
678.438	9398.54
678.787	9422.49
679.135	9425.2
679.484	9366.45
679.832	9426.56
680.181	9277.19
680.529	9333.91
680.877	9289.61
681.225	9238.54
681.573	9383.85
681.922	9274.93
682.27	9280.12
682.618	9278.77
682.966	9235.38
683.314	9229.5
683.661	9245.1
684.009	9162.61
684.357	9226.57
684.705	9170.97
685.053	9096.17
685.4	9153.35
685.748	9067.25
686.095	9056.4
686.443	9052.11
686.79	9024.08
687.138	9077.64
687.485	9071.32
687.832	9041.26
688.18	9048.72
688.527	8935.73
688.874	8986.12
689.221	8897.99
689.568	8904.77
689.915	8778.89
690.262	8838.33
690.609	8802.17
690.956	8758.1
691.303	8752.91
691.65	8727.37
691.997	8720.82
692.344	8722.85
692.69	8654.6
693.037	8613.02
693.383	8550.42
693.73	8580.48
694.077	8523.08
694.423	8535.96
694.769	8479.69
695.116	8453.25
695.462	8493.25
695.808	8419.13
696.155	8413.25
696.501	8399.69
696.847	8348.85
697.193	8290.09
697.539	8356.53
697.885	8270.43
698.231	8264.1
698.577	8232.92
698.923	8205.35
699.269	8177.55
699.614	8141.4
699.96	8096.65
700.306	8100.49
700.651	8095.75
700.997	8051.91
701.342	8067.95
701.688	7941.4
702.033	7977.56
702.379	8004.22
702.724	7947.5
703.069	7940.72
703.415	7887.17
703.76	7822.31
704.105	7842.87
704.45	7817.79
704.795	7793.83
705.14	7776.21
705.485	7725.59
705.83	7660.96
706.175	7712.93
706.52	7627.29
706.865	7682.2
707.209	7615.31
707.554	7562.88
707.899	7661.41
708.243	7576.67
708.588	7503.45
708.932	7488.98
709.277	7494.63
709.621	7520.4
709.966	7451.02
710.31	7401.98
710.654	7367.63
710.998	7340.29
711.342	7412.15
711.687	7351.81
712.031	7350.91
712.375	7274.75
712.719	7288.09
713.063	7311.81
713.407	7323.56
713.75	7239.5
714.094	7254.19
714.438	7278.37
714.782	7213.74
715.125	7205.38
715.469	7189.78
715.812	7141.2
716.156	7143.91
716.499	7143.91
716.843	7149.33
717.186	7150.24
717.53	7151.37
717.873	7159.05
718.216	7158.6
718.559	7098.94
718.902	7062.1
719.246	7059.62
719.589	7053.52
719.932	7001.77
720.275	7017.58
720.617	6978.04
720.96	6968.32
721.303	6959.51
721.646	7039.5
721.989	6914.54
722.331	6950.24
722.674	6935.33
723.016	6998.6
723.359	6912.5
723.701	6947.98
724.044	6902.11
724.386	6867.53
724.729	6924.93
725.071	6892.62
725.413	6907.08
725.755	6878.6
726.097	6852.62
726.439	6813.52
726.782	6856.23
727.124	6807.19
727.465	6824.37
727.807	6884.25
728.149	6826.4
728.491	6866.18
728.833	6887.64
729.175	6759.06
729.516	6809.23
729.858	6857.81
730.199	6774.65
730.541	6832.28
730.882	6839.28
731.224	6829.57
731.565	6761.55
731.906	6755.67
732.248	6832.73
732.589	6769
732.93	6763.35
733.271	6770.13
733.612	6775.56
733.953	6771.71
734.294	6753.41
734.635	6758.38
734.976	6733.3
735.317	6692.62
735.658	6704.15
735.999	6731.72
736.339	6677.93
736.68	6783.01
737.021	6713.41
737.361	6766.29
737.702	6740.3
738.042	6741.88
738.383	6825.05
738.723	6762.45
739.063	6744.37
739.404	6736.91
739.744	6734.2
740.084	6765.61
740.424	6812.39
740.764	6745.27
741.104	6715.44
741.444	6749.34
741.784	6759.51
742.124	6752.28
742.464	6762.22
742.804	6799.96
743.143	6766.74
743.483	6799.06
743.823	6813.07
744.162	6788.66
744.502	6826.63
744.841	6805.39
745.181	6854.2
745.52	6881.54
745.86	6956.12
746.199	6918.6
746.538	6892.62
746.877	6971.48
747.216	6967.19
747.556	7033.85
747.895	7080.41
748.234	7034.98
748.573	7173.96
748.911	7119.95
749.25	7178.71
749.589	7166.51
749.928	7265.94
750.267	7331.47
750.605	7319.95
750.944	7342.77
751.283	7390.91
751.621	7484.24
751.96	7534.18
752.298	7589.32
752.636	7610.56
752.975	7672.71
753.313	7751.8
753.651	7837.68
753.989	7903.21
754.327	7895.75
754.666	7977.33
755.004	8103.88
755.342	8181.85
755.679	8174.16
756.017	8274.95
756.355	8435.63
756.693	8482.4
757.031	8551.78
757.368	8645.56
757.706	8712
758.044	8799.01
758.381	8952.45
758.719	8978.44
759.056	9188.15
759.394	9184.53
759.731	9303.63
760.068	9413.23
760.405	9445.32
760.743	9611.64
761.08	9672.2
761.417	9710.85
761.754	9872.42
762.091	9931.41
762.428	10057.05
762.765	10089.14
763.102	10297.27
763.438	10364.61
763.775	10424.73
764.112	10502.69
764.449	10716.7
764.785	10685.06
765.122	10737.26
765.458	10880.99
765.795	10956.92
766.131	11141.09
766.467	11135.89
766.804	11226.51
767.14	11309.67
767.476	11429.22
