Data from hue_80_FLMS001491_33.txt Node
Date: Mon Feb 06 15:22:54 GMT 2017
User: dcchb
Spectrometer: FLMS00149
Trigger mode: 0
Integration Time (sec): 2.000000E-2
Scans to average: 10
Electric dark correction enabled: true
Nonlinearity correction enabled: false
Boxcar width: 0
XAxis mode: Wavelengths
Number of Pixels in Spectrum: 2048
>>>>>Begin Spectral Data<<<<<
341.393	-14.39
341.776	-14.39
342.16	-14.39
342.543	-55.97
342.927	-53.71
343.31	-82.87
343.693	-68.4
344.077	-78.8
344.46	-43.77
344.843	-60.04
345.226	-46.26
345.61	-45.35
345.993	-21.62
346.376	10.01
346.759	21.76
347.142	15.66
347.525	53.18
347.908	51.14
348.291	81.65
348.674	115.55
349.057	98.15
349.44	129.33
349.823	141.31
350.206	161.87
350.588	198.48
350.971	207.52
351.354	212.72
351.737	241.65
352.119	243.45
352.502	265.15
352.884	265.6
353.267	284.13
353.65	284.36
354.032	288.65
354.414	304.24
354.797	319.38
355.179	321.19
355.562	312.6
355.944	333.85
356.326	327.75
356.709	319.16
357.091	329.55
357.473	339.04
357.855	351.93
358.238	334.98
358.62	362.55
359.002	349.89
359.384	339.27
359.766	335.2
360.148	335.66
360.53	344.69
360.912	317.8
361.294	358.93
361.676	345.82
362.057	324.81
362.439	345.82
362.821	325.26
363.203	310.34
363.584	330.46
363.966	311.25
364.348	320.06
364.729	342.89
365.111	314.86
365.493	322.1
365.874	310.12
366.256	312.15
366.637	314.19
367.019	304.24
367.4	302.21
367.781	338.82
368.163	309.89
368.544	313.51
368.925	322.32
369.306	318.03
369.688	287.29
370.069	314.86
370.45	297.69
370.831	312.38
371.212	321.19
371.593	276.67
371.974	287.52
372.355	295.2
372.736	315.77
373.117	295.88
373.498	328.65
373.879	303.57
374.26	319.38
374.641	339.04
375.021	318.03
375.402	324.58
375.783	337.69
376.163	314.41
376.544	318.93
376.925	315.54
377.305	315.32
377.686	330.91
378.066	323.68
378.447	344.69
378.827	331.81
379.208	327.52
379.588	302.89
379.968	314.86
380.349	311.93
380.729	305.37
381.109	333.4
381.489	312.6
381.87	342.66
382.25	334.53
382.63	326.39
383.01	343.56
383.39	344.47
383.77	351.02
384.15	331.36
384.53	348.08
384.91	324.36
385.29	340.4
385.67	344.02
386.049	341.08
386.429	334.53
386.809	349.89
387.189	355.77
387.568	345.6
387.948	349.67
388.328	345.6
388.707	358.71
389.087	355.54
389.466	356.67
389.846	341.08
390.225	358.71
390.605	353.28
390.984	361.87
391.363	351.7
391.743	356.22
392.122	352.83
392.501	362.55
392.881	370.68
393.26	359.38
393.639	364.81
394.018	358.03
394.397	377.46
394.776	400.51
395.155	377.46
395.534	382.66
395.913	374.98
396.292	359.61
396.671	395.77
397.05	385.15
397.429	384.69
397.808	395.31
398.186	377.01
398.565	366.61
398.944	383.11
399.323	406.39
399.701	389.89
400.08	382.66
400.458	367.97
400.837	400.96
401.215	396.44
401.594	368.2
401.972	379.27
402.351	391.47
402.729	387.41
403.107	395.09
403.486	395.09
403.864	403
404.242	410.23
404.62	408.87
404.999	404.13
405.377	393.05
405.755	425.6
406.133	400.51
406.511	436.22
406.889	440.74
407.267	416.33
407.645	433.05
408.023	434.64
408.401	400.06
408.779	438.03
409.156	438.25
409.534	449.55
409.912	445.03
410.29	441.19
410.667	413.17
411.045	446.39
411.422	457.01
411.8	468.31
412.178	447.29
412.555	435.09
412.933	459.49
413.31	455.43
413.687	449.32
414.065	452.49
414.442	438.03
414.819	480.28
415.197	477.12
415.574	461.53
415.951	451.58
416.328	467.63
416.705	474.18
417.082	491.36
417.46	477.8
417.837	511.92
418.214	469.44
418.591	494.29
418.967	481.19
419.344	522.99
419.721	502.2
420.098	489.1
420.475	510.34
420.852	479.38
421.228	501.53
421.605	498.59
421.982	525.48
422.358	515.09
422.735	527.74
423.111	543.11
423.488	536.78
423.864	520.28
424.241	550.34
424.617	535.2
424.994	537.91
425.37	533.84
425.746	539.49
426.123	544.01
426.499	555.76
426.875	541.75
427.251	548.76
427.627	571.58
428.003	572.94
428.379	593.73
428.756	570.9
429.132	585.14
429.507	598.7
429.883	595.76
430.259	586.27
430.635	603.9
431.011	605.48
431.387	622.43
431.763	606.16
432.138	621.75
432.514	625.59
432.89	610
433.265	632.37
433.641	641.64
434.016	664.23
434.392	634.4
434.767	674.63
435.143	648.64
435.518	650.22
435.894	654.52
436.269	666.27
436.644	683.22
437.02	692.26
437.395	680.73
437.77	687.96
438.145	700.62
438.52	706.72
438.895	705.36
439.271	715.31
439.646	714.18
440.021	735.42
440.395	745.36
440.77	731.8
441.145	727.96
441.52	762.31
441.895	753.27
442.27	753.95
442.645	741.52
443.019	748.98
443.394	771.8
443.769	780.16
444.143	745.59
444.518	781.52
444.892	772.93
445.267	781.74
445.641	806.38
446.016	765.02
446.39	795.3
446.764	786.26
447.139	786.26
447.513	816.55
447.887	802.54
448.262	794.85
448.636	839.6
449.01	824
449.384	826.94
449.758	822.42
450.132	829.65
450.506	835.98
450.88	868.75
451.254	837.79
451.628	880.27
452.002	868.07
452.376	892.93
452.75	915.53
453.123	902.19
453.497	902.19
453.871	934.28
454.244	918.24
454.618	927.5
454.992	959.82
455.365	954.62
455.739	959.59
456.112	978.58
456.486	970.44
456.859	1013.83
457.232	997.78
457.606	1001.17
457.979	1025.58
458.352	1008.63
458.725	1043.66
459.099	1035.3
459.472	1078.91
459.845	1079.82
460.218	1076.88
460.591	1070.78
460.964	1077.56
461.337	1144.22
461.71	1130.21
462.083	1130.21
462.456	1165.46
462.829	1157.55
463.201	1126.59
463.574	1155.52
463.947	1217.21
464.32	1209.76
464.692	1238.91
465.065	1241.17
465.438	1275.29
465.81	1262.41
466.183	1316.65
466.555	1334.27
466.928	1351
467.3	1367.04
467.672	1385.12
468.045	1416.98
468.417	1420.6
468.789	1388.51
469.161	1468.05
469.534	1488.85
469.906	1499.92
470.278	1512.57
470.65	1547.15
471.022	1598.9
471.394	1588.73
471.766	1669.18
472.138	1656.52
472.51	1684.09
472.882	1729.97
473.253	1747.82
473.625	1785.79
473.997	1840.47
474.369	1871.66
474.74	1898.1
475.112	1941.71
475.484	1994.37
475.855	2055.84
476.227	2067.81
476.598	2150.3
476.97	2171.09
477.341	2207.47
477.713	2299.22
478.084	2325.66
478.455	2424.19
478.827	2458.31
479.198	2540.12
479.569	2575.6
479.94	2644.97
480.311	2746.89
480.682	2831.18
481.053	2927.23
481.424	2959.09
481.795	3025.98
482.166	3131.97
482.537	3177.84
482.908	3292.41
483.279	3331.96
483.65	3470.49
484.021	3561.11
484.391	3674.55
484.762	3736.02
485.133	3832.74
485.503	3917.26
485.874	4069.79
486.244	4154.99
486.615	4297.13
486.985	4347.53
487.356	4487.41
487.726	4594.75
488.097	4732.6
488.467	4836.33
488.837	4971.47
489.207	5075.87
489.578	5246.26
489.948	5367.16
490.318	5483.77
490.688	5552.47
491.058	5690.09
491.428	5838.79
491.798	5980.25
492.168	6124.43
492.538	6233.58
492.908	6355.84
493.278	6522.38
493.648	6542.27
494.017	6818.2
494.387	6915.59
494.757	6995.37
495.126	7165.76
495.496	7202.82
495.866	7350.16
496.235	7455.69
496.605	7647.33
496.974	7717.16
497.344	7855.91
497.713	7970.48
498.082	8115.34
498.452	8225.62
498.821	8326.86
499.19	8444.37
499.559	8566.4
499.928	8693.85
500.298	8826.96
500.667	8957.35
501.036	9018.14
501.405	9167.97
501.774	9212.48
502.143	9323.22
502.512	9405.92
502.88	9572.93
503.249	9628.74
503.618	9744.22
503.987	9813.6
504.356	9962.97
504.724	10005.01
505.093	10123.19
505.462	10198.45
505.83	10322.96
506.199	10374.94
506.567	10629.85
506.936	10668.94
507.304	10751.88
507.672	10799.33
508.041	10896.06
508.409	11047.24
508.777	11096.28
509.145	11203.62
509.514	11208.14
509.882	11345.08
510.25	11430.73
510.618	11524.97
510.986	11472.54
511.354	11632.31
511.722	11821.91
512.09	11885.63
512.458	11825.07
512.826	12066.19
513.193	12057.15
513.561	12056.7
513.929	12194.33
514.297	12289.92
514.664	12409.91
515.032	12409.01
515.4	12528.55
515.767	12641.09
516.135	12729
516.502	12644.03
516.869	12869.79
517.237	12912.05
517.604	12839.51
517.972	12973.51
518.339	13030.91
518.706	13063.68
519.073	13110.23
519.44	13150.01
519.808	13312.71
520.175	13297.35
520.542	13424.58
520.909	13455.31
521.276	13453.95
521.643	13692.14
522.009	13706.6
522.376	13721.29
522.743	13852.59
523.11	13901.63
523.477	14023.2
523.843	13985.47
524.21	14109.53
524.577	14262.07
524.943	14269.07
525.31	14378
525.676	14398.56
526.043	14499.35
526.409	14522.63
526.776	14599.01
527.142	14573.92
527.508	14623.64
527.874	14704.32
528.241	14738.21
528.607	14817.53
528.973	14905.22
529.339	14871.32
529.705	14954.25
530.071	15008.04
530.437	15044.87
530.803	15064.53
531.169	15132.1
531.535	15152.67
531.901	15153.12
532.267	15178.88
532.632	15274.02
532.998	15246.9
533.364	15276.96
533.73	15273.34
534.095	15364.86
534.461	15453.22
534.826	15406.9
535.192	15337.07
535.557	15457.52
535.923	15482.6
536.288	15506.33
536.653	15438.31
537.019	15379.78
537.384	15464.75
537.749	15479.21
538.114	15518.53
538.479	15401.7
538.845	15483.51
539.21	15494.58
539.575	15445.31
539.94	15501.13
540.305	15462.04
540.67	15567.8
541.034	15485.54
541.399	15534.13
541.764	15570.51
542.129	15558.08
542.494	15568.93
542.858	15431.3
543.223	15419.55
543.587	15496.39
543.952	15393.34
544.316	15519.89
544.681	15424.98
545.045	15505.88
545.41	15478.08
545.774	15453
546.138	15506.56
546.503	15473.79
546.867	15432.66
547.231	15433.79
547.595	15490.06
547.959	15414.81
548.324	15472.21
548.688	15499.78
549.052	15457.52
549.416	15398.31
549.779	15364.64
550.143	15447.12
550.507	15533.67
550.871	15409.38
551.235	15411.87
551.599	15504.97
551.962	15427.91
552.326	15420.68
552.689	15480.79
553.053	15420.68
553.417	15387.01
553.78	15579.32
554.143	15407.35
554.507	15443.96
554.87	15416.61
555.234	15550.4
555.597	15494.8
555.96	15459.78
556.323	15531.87
556.686	15534.35
557.05	15586.33
557.413	15594.91
557.776	15526.89
558.139	15662.03
558.502	15613.9
558.865	15664.29
559.228	15736.15
559.59	15703.39
559.953	15726.21
560.316	15782.03
560.679	15811.41
561.041	15881.23
561.404	15842.59
561.767	15942.25
562.129	15852.99
562.492	15958.52
562.854	15966.66
563.217	15903.61
563.579	15988.12
563.941	16046.88
564.304	16108.12
564.666	16107.44
565.028	16081.46
565.39	16142.25
565.753	16190.61
566.115	16235.35
566.477	16207.1
566.839	16277.16
567.201	16337.72
567.563	16344.05
567.925	16464.27
568.287	16370.04
568.648	16353.09
569.01	16433.54
569.372	16489.58
569.734	16446.87
570.095	16544.95
570.457	16570.26
570.819	16631.5
571.18	16616.13
571.542	16684.15
571.903	16699.52
572.265	16756.01
572.626	16710.59
572.987	16830.59
573.349	16863.58
573.71	16876.91
574.071	16857.25
574.432	16965.27
574.794	16940.42
575.155	16911.94
575.516	16871.04
575.877	16991.71
576.238	17012.73
576.599	17053.63
576.96	17050.47
577.32	17028.1
577.681	16988.32
578.042	17152.84
578.403	17053.86
578.763	17040.3
579.124	17075.1
579.485	17161.2
579.845	17160.98
580.206	17074.2
580.566	17127.53
580.927	17174.31
581.287	17137.7
581.648	17130.02
582.008	17247.53
582.368	17212.73
582.728	17204.36
583.089	17127.3
583.449	17152.84
583.809	17100.86
584.169	17169.34
584.529	17119.62
584.889	17149.9
585.249	17123.24
585.609	17076.01
585.969	17186.29
586.329	17134.99
586.688	17129.11
587.048	17091.6
587.408	17086.4
587.768	17015.67
588.127	17074.42
588.487	16948.55
588.846	17143.35
589.206	16988.78
589.565	17028.1
589.925	17190.58
590.284	17064.03
590.643	17127.53
591.003	17170.69
591.362	17198.94
591.721	17039.17
592.08	17204.59
592.44	17090.47
592.799	17099.96
593.158	17055.44
593.517	17058.38
593.876	17011.37
594.235	16979.06
594.593	17047.98
594.952	17071.49
595.311	16959.4
595.67	17035.55
596.029	17100.19
596.387	17059.96
596.746	17098.15
597.104	16972.96
597.463	16994.88
597.822	17111.26
598.18	17029.91
598.538	16944.71
598.897	17138.15
599.255	16970.25
599.613	17102.67
599.972	17036.46
600.33	17103.8
600.688	16955.33
601.046	16990.36
601.404	17144.93
601.762	17059.06
602.12	17152.61
602.478	17168.43
602.836	17150.35
603.194	16942.22
603.552	17091.37
603.91	17030.81
604.268	17109
604.625	17094.54
604.983	17213.86
605.341	17018.83
605.698	17085.27
606.056	17202.78
606.413	17111.49
606.771	17173.63
607.128	17234.42
607.485	17060.19
607.843	17144.03
608.2	17266.28
608.557	17306.28
608.914	17103.35
609.272	17274.64
609.629	17288.43
609.986	17302.67
610.343	17300.41
610.7	17499.72
611.057	17375.21
611.414	17363.91
611.771	17372.5
612.127	17379.05
612.484	17398.48
612.841	17453.62
613.198	17452.95
613.554	17451.14
613.911	17439.84
614.267	17548.08
614.624	17485.49
614.98	17490.68
615.337	17546.95
615.693	17563.68
616.05	17586.27
616.406	17626.05
616.762	17671.02
617.118	17525.71
617.475	17666.27
617.831	17665.14
618.187	17604.13
618.543	17684.8
618.899	17811.35
619.255	17801.41
619.611	17678.93
619.967	17804.12
620.323	17819.49
620.678	17834.4
621.034	17634.18
621.39	17799.6
621.746	17712.37
622.101	17893.61
622.457	17748.76
622.812	17833.95
623.168	17887.74
623.523	17828.75
623.879	17908.07
624.234	17866.27
624.589	17892.71
624.945	17885.7
625.3	17994.63
625.655	17904.68
626.01	17903.55
626.365	17931.8
626.72	17823.56
627.075	17861.07
627.43	17837.34
627.785	17834.63
628.14	17865.36
628.495	17841.41
628.85	17872.6
629.205	17743.78
629.559	17854.52
629.914	17763.22
630.269	17795.99
630.623	17749.21
630.978	17755.99
631.332	17750.11
631.687	17793.95
632.041	17768.87
632.396	17713.73
632.75	17669.44
633.104	17657.91
633.459	17646.39
633.813	17659.04
634.167	17593.28
634.521	17548.31
634.875	17686.39
635.229	17609.55
635.583	17509.44
635.937	17551.93
636.291	17506.5
636.645	17550.34
636.999	17485.26
637.352	17487.07
637.706	17444.58
638.06	17440.29
638.413	17464.92
638.767	17393.06
639.121	17455.2
639.474	17279.62
639.828	17348.09
640.181	17330.46
640.534	17384.25
640.888	17324.13
641.241	17265.15
641.594	17304.02
641.947	17304.02
642.301	17257.47
642.654	17310.58
643.007	17346.96
643.36	17262.44
643.713	17233.29
644.066	17284.59
644.419	17093.18
644.771	17090.02
645.124	16952.85
645.477	16890.02
645.83	16773.64
646.182	16671.27
646.535	16595.79
646.888	16668.11
647.24	16588.11
647.593	16618.62
647.945	16719.18
648.298	16543.14
648.65	16631.5
649.002	16479.41
649.355	16654.77
649.707	16494.33
650.059	16606.19
650.411	16913.75
650.763	16808.67
651.115	16988.1
651.467	17022
651.819	16931.15
652.171	17021.32
652.523	16844.83
652.875	16989.91
653.227	16860.42
653.578	17065.38
653.93	17023.8
654.282	16851.15
654.633	16888.89
654.985	16805.05
655.337	16926.86
655.688	16972.73
656.039	16982
656.391	16830.14
656.742	16778.16
657.094	16895.9
657.445	16931.38
657.796	16932.28
658.147	16889.57
658.498	16933.64
658.849	16983.58
659.2	16926.86
659.551	16826.29
659.902	16975.22
660.253	16962.34
660.604	16956.46
660.955	16859.74
661.306	16970.47
661.656	16941.09
662.007	16893.86
662.358	16910.13
662.708	16895.45
663.059	16982.9
663.409	16907.42
663.76	16941.77
664.11	16960.08
664.461	16996.01
664.811	17009.11
665.161	16937.03
665.511	16914.88
665.862	16904.03
666.212	17018.83
666.562	17015.44
666.912	16991.04
667.262	16958.04
667.612	16941.77
667.962	16955.33
668.312	16991.26
668.662	17088.21
669.011	16932.51
669.361	16920.76
669.711	16947.65
670.06	16855.45
670.41	16878.72
670.76	16946.52
671.109	16939.29
671.459	16859.97
671.808	16816.58
672.157	16838.95
672.507	16789.23
672.856	16738.16
673.205	16762.34
673.554	16809.8
673.904	16723.25
674.253	16927.31
674.602	16727.99
674.951	16567.09
675.3	16464.72
675.649	16749.91
675.998	16662.91
676.346	16707.88
676.695	16777.71
677.044	16606.19
677.393	16624.72
677.741	16666.53
678.09	16629.24
678.438	16613.19
678.787	16585.17
679.135	16670.14
679.484	16461.78
679.832	16560.54
680.181	16550.82
680.529	16546.75
680.877	16398.96
681.225	16417.04
681.573	16575.91
681.922	16382.92
682.27	16369.36
682.618	16284.16
682.966	16297.72
683.314	16329.36
683.661	16189.48
684.009	16222.02
684.357	16108.8
684.705	16171.62
685.053	16209.81
685.4	16059.76
685.748	16020.44
686.095	16061.8
686.443	15982.48
686.79	15911.29
687.138	16010.05
687.485	15990.38
687.832	15951.74
688.18	15940.44
688.527	15770.73
688.874	15775.48
689.221	15785.19
689.568	15642.82
689.915	15655.03
690.262	15667.68
690.609	15532.09
690.956	15519.44
691.303	15529.83
691.65	15418.2
691.997	15410.29
692.344	15285.32
692.69	15239.44
693.037	15223.4
693.383	15079.67
693.73	15168.26
694.077	15129.16
694.423	15012.33
694.769	15020.01
695.116	14967.59
695.462	14997.42
695.808	14941.15
696.155	14867.02
696.501	14799.23
696.847	14830.19
697.193	14621.61
697.539	14645.79
697.885	14581.83
698.231	14513.59
698.577	14468.84
698.923	14502.74
699.269	14410.99
699.614	14344.33
699.96	14305.23
700.306	14236.31
700.651	14258.9
700.997	14096.42
701.342	14202.41
701.688	14132.81
702.033	14038.12
702.379	13994.28
702.724	13938.01
703.069	13970.78
703.415	13811.91
703.76	13785.24
704.105	13842.19
704.45	13741.4
704.795	13681.07
705.14	13668.64
705.485	13628.41
705.83	13512.03
706.175	13503.67
706.52	13552.26
706.865	13513.39
707.209	13486.04
707.554	13413.5
707.899	13400.62
708.243	13333.05
708.588	13297.8
708.932	13180.29
709.277	13152.72
709.621	13177.58
709.966	13088.31
710.31	13186.62
710.654	12954.76
710.998	13043.57
711.342	12990.92
711.687	12968.54
712.031	12888.32
712.375	12920.63
712.719	12886.51
713.063	12804.71
713.407	12861.2
713.75	12751.37
714.094	12848.77
714.438	12773.07
714.782	12765.38
715.125	12655.11
715.469	12699.62
715.812	12563.58
716.156	12594.09
716.499	12594.32
716.843	12542.57
717.186	12521.78
717.53	12600.19
717.873	12588.67
718.216	12449.46
718.559	12514.09
718.902	12362.68
719.246	12459.63
719.589	12431.16
719.932	12362.01
720.275	12354.32
720.617	12293.98
720.96	12305.51
721.303	12356.81
721.646	12236.36
721.989	12197.72
722.331	12305.74
722.674	12162.24
723.016	12298.73
723.359	12223.25
723.701	12220.77
724.044	12108.23
724.386	12103.03
724.729	12040.43
725.071	12124.05
725.413	12084.72
725.755	12072.07
726.097	12007.21
726.439	11925.63
726.782	12014.9
727.124	12061
727.465	11976.03
727.807	11964.95
728.149	11985.52
728.491	11949.59
728.833	11924.95
729.175	11988.68
729.516	11941.23
729.858	11972.64
730.199	11971.28
730.541	11935.8
730.882	11957.95
731.224	11905.52
731.565	11904.62
731.906	11843.83
732.248	11962.69
732.589	11820.78
732.93	11835.01
733.271	11842.92
733.612	11882.47
733.953	11896.71
734.294	11806.99
734.635	11856.48
734.976	11792.08
735.317	11839.08
735.658	11787.78
735.999	11806.09
736.339	11830.49
736.68	11943.71
737.021	11832.3
737.361	11855.8
737.702	11846.76
738.042	11847.44
738.383	11917.72
738.723	11879.76
739.063	11840.21
739.404	11863.94
739.744	11885.63
740.084	11795.24
740.424	11864.39
740.764	11848.8
741.104	11875.24
741.444	11844.96
741.784	11876.59
742.124	11981
742.464	11936.71
742.804	11903.94
743.143	11878.63
743.483	11960.43
743.823	11900.77
744.162	11964.95
744.502	11972.19
744.841	11980.32
745.181	12054.67
745.52	11979.64
745.86	12195.91
746.199	12111.39
746.538	12173.76
746.877	12213.53
747.216	12275
747.556	12297.83
747.895	12289.46
748.234	12270.71
748.573	12393.87
748.911	12474.32
749.25	12451.49
749.589	12569.68
749.928	12619.85
750.267	12639.51
750.605	12689.68
750.944	12788.21
751.283	12765.38
751.621	12999.95
751.96	12919.96
752.298	13048.77
752.636	13130.35
752.975	13135.32
753.313	13136.45
753.651	13299.38
753.989	13307.07
754.327	13424.8
754.666	13538.7
755.004	13610.33
755.342	13769.2
755.679	13788.41
756.017	13935.75
756.355	14039.02
756.693	13996.99
