Data from hue_150_FLMS001491_00026.txt Node
Date: Tue Feb 07 16:53:49 GMT 2017
User: dcchb
Spectrometer: FLMS00149
Trigger mode: 0
Integration Time (sec): 2.000000E-2
Scans to average: 10
Electric dark correction enabled: true
Nonlinearity correction enabled: false
Boxcar width: 0
XAxis mode: Wavelengths
Number of Pixels in Spectrum: 2048
>>>>>Begin Spectral Data<<<<<
341.393	-19.15
341.776	-19.15
342.16	-19.15
342.543	-52.6
342.927	-57.8
343.31	-62.99
343.693	-70.68
344.077	-63.44
344.46	-59.15
344.843	-59.83
345.226	-61.86
345.61	-44.46
345.993	-20.96
346.376	14.07
346.759	25.82
347.142	14.07
347.525	50.9
347.908	41.41
348.291	84.57
348.674	106.72
349.057	105.82
349.44	129.09
349.823	158.47
350.206	170.9
350.588	202.31
350.971	231.69
351.354	237.56
351.737	243.21
352.119	257
352.502	265.36
352.884	270.78
353.267	291.35
353.65	306.04
354.032	306.94
354.414	326.15
354.797	311.69
355.179	325.02
355.562	337.67
355.944	335.87
356.326	320.05
356.709	334.28
357.091	327.73
357.473	351.69
357.855	364.79
358.238	358.92
358.62	352.82
359.002	351.91
359.384	341.06
359.766	344.91
360.148	339.03
360.53	341.52
360.912	329.54
361.294	331.12
361.676	343.78
362.057	335.19
362.439	326.15
362.821	331.12
363.203	331.35
363.584	343.32
363.966	328.18
364.348	313.27
364.729	326.6
365.111	312.82
365.493	318.92
365.874	332.03
366.256	317.79
366.637	313.95
367.019	332.7
367.4	334.51
367.781	332.7
368.163	306.49
368.544	320.05
368.925	318.92
369.306	319.82
369.688	323.21
370.069	318.01
370.45	321.4
370.831	318.01
371.212	332.48
371.593	327.73
371.974	322.53
372.355	305.59
372.736	312.59
373.117	335.19
373.498	316.21
373.879	307.39
374.26	312.59
374.641	316.66
375.021	334.28
375.402	332.25
375.783	327.96
376.163	327.28
376.544	351.01
376.925	348.3
377.305	330.9
377.686	347.62
378.066	337.9
378.447	341.52
378.827	327.73
379.208	321.86
379.588	328.86
379.968	327.05
380.349	341.97
380.729	346.71
381.109	328.18
381.489	341.97
381.87	363.44
382.25	331.8
382.63	329.31
383.01	348.3
383.39	353.04
383.77	360.27
384.15	350.1
384.53	367.05
384.91	349.43
385.29	359.6
385.67	358.24
386.049	362.08
386.429	366.37
386.809	353.49
387.189	376.77
387.568	358.01
387.948	360.95
388.328	356.66
388.707	349.88
389.087	368.41
389.466	390.55
389.846	378.13
390.225	391.68
390.605	375.87
390.984	366.83
391.363	380.61
391.743	376.32
392.122	385.58
392.501	388.97
392.881	393.94
393.26	386.71
393.639	378.13
394.018	404.57
394.397	393.94
394.776	373.61
395.155	380.16
395.534	379.71
395.913	402.31
396.292	403.66
396.671	393.72
397.05	411.12
397.429	396.43
397.808	419.71
398.186	388.29
398.565	398.69
398.944	431.23
399.323	412.48
399.701	389.65
400.08	389.88
400.458	400.95
400.837	390.1
401.215	428.75
401.594	419.03
401.972	432.36
402.351	423.55
402.729	422.87
403.107	410.67
403.486	428.29
403.864	434.4
404.242	434.4
404.62	449.99
404.999	434.17
405.377	442.98
405.755	451.8
406.133	452.47
406.511	461.51
406.889	458.58
407.267	449.31
407.645	451.57
408.023	488.41
408.401	473.72
408.779	486.82
409.156	467.61
409.534	493.38
409.912	478.91
410.29	485.47
410.667	466.03
411.045	472.36
411.422	465.81
411.8	485.02
412.178	489.54
412.555	482.76
412.933	526.37
413.31	500.38
413.687	500.16
414.065	506.48
414.442	516.2
414.819	526.37
415.197	513.72
415.574	522.3
415.951	532.25
416.328	547.61
416.705	543.55
417.082	538.12
417.46	545.8
417.837	553.26
418.214	547.84
418.591	561.85
418.967	568.63
419.344	540.61
419.721	593.49
420.098	565.69
420.475	586.03
420.852	556.43
421.228	597.55
421.605	589.65
421.982	578.12
422.358	580.61
422.735	601.85
423.111	596.88
423.488	597.33
423.864	632.81
424.241	614.96
424.617	604.56
424.994	628.06
425.37	635.75
425.746	628.06
426.123	656.76
426.499	633.71
426.875	647.27
427.251	661.96
427.627	667.38
428.003	651.56
428.379	666.25
428.756	676.65
429.132	671
429.507	692.47
429.883	695.86
430.259	701.28
430.635	698.34
431.011	693.15
431.387	715.52
431.763	714.84
432.138	714.16
432.514	727.49
432.89	742.86
433.265	778.79
433.641	757.32
434.016	779.92
434.392	759.81
434.767	777.44
435.143	794.16
435.518	793.26
435.894	807.27
436.269	798.23
436.644	812.24
437.02	843.88
437.395	808.4
437.77	821.96
438.145	856.08
438.52	859.47
438.895	854.95
439.271	860.37
439.646	882.29
440.021	883.2
440.395	871.9
440.77	863.76
441.145	886.59
441.52	918.22
441.895	902.86
442.27	902.41
442.645	908.73
443.019	909.86
443.394	904.89
443.769	915.96
444.143	940.82
444.518	941.27
444.892	945.79
445.267	953.03
445.641	962.29
446.016	934.72
446.39	993.25
446.764	965.68
447.139	978.34
447.513	983.08
447.887	998
448.262	988.96
448.636	1036.41
449.01	996.41
449.384	1034.15
449.758	1029.63
450.132	1047.71
450.506	1054.27
450.88	1064.21
451.254	1059.01
451.628	1093.36
452.002	1065.57
452.376	1099.69
452.75	1102.85
453.123	1105.79
453.497	1112.12
453.871	1126.35
454.244	1135.39
454.618	1182.62
454.992	1157.99
455.365	1170.65
455.739	1223.53
456.112	1226.24
456.486	1217.65
456.859	1220.14
457.232	1251.1
457.606	1248.61
457.979	1309.63
458.352	1329.74
458.725	1297.2
459.099	1322.06
459.472	1341.72
459.845	1386.69
460.218	1390.53
460.591	1376.07
460.964	1411.32
461.337	1412.22
461.71	1481.6
462.083	1461.94
462.456	1469.85
462.829	1491.77
463.201	1530.19
463.574	1523.86
463.947	1542.61
464.32	1546
464.692	1587.59
465.065	1624.87
465.438	1635.04
465.81	1655.15
466.183	1697.41
466.555	1699.67
466.928	1737.86
467.3	1742.84
467.672	1748.71
468.045	1811.76
468.417	1838.65
468.789	1850.18
469.161	1886.56
469.534	1906.22
469.906	1991.42
470.278	1991.64
470.65	1995.48
471.022	2055.14
471.394	2083.84
471.766	2127.46
472.138	2169.49
472.51	2188.7
472.882	2249.26
473.253	2283.61
473.625	2327
473.997	2395.93
474.369	2412.2
474.74	2429.6
475.112	2538.97
475.484	2567.22
475.855	2586.66
476.227	2671.17
476.598	2754.11
476.97	2822.58
477.341	2882.69
477.713	2948.23
478.084	2980.77
478.455	3113.19
478.827	3174.66
479.198	3265.28
479.569	3299.63
479.94	3427.99
480.311	3449.68
480.682	3566.29
481.053	3740.98
481.424	3806.51
481.795	3858.26
482.166	3958.82
482.537	4051.93
482.908	4185.03
483.279	4283.79
483.65	4373.5
484.021	4489.43
484.391	4615.53
484.762	4663.89
485.133	4811.91
485.503	4924.45
485.874	5050.77
486.244	5157.21
486.615	5248.96
486.985	5426.58
487.356	5482.4
487.726	5670.87
488.097	5796.51
488.467	5928.71
488.837	6069.73
489.207	6198.76
489.578	6346.56
489.948	6476.95
490.318	6556.95
490.688	6775.25
491.058	6822.7
491.428	6982.7
491.798	7139.3
492.168	7333.2
492.538	7428.79
492.908	7555.11
493.278	7765.28
493.648	7810.02
494.017	7943.12
494.387	8160.52
494.757	8212.95
495.126	8347.86
495.496	8416.11
495.866	8547.18
496.235	8651.13
496.605	8784.01
496.974	8868.52
497.344	9060.84
497.713	9183.54
498.082	9221.73
498.452	9406.36
498.821	9484.55
499.19	9583.31
499.559	9693.13
499.928	9777.88
500.298	9883.64
500.667	10012.22
501.036	10013.58
501.405	10158.21
501.774	10282.72
502.143	10334.7
502.512	10390.29
502.88	10595.03
503.249	10524.98
503.618	10741.47
503.987	10769.04
504.356	10793.67
504.724	10951.41
505.093	11000.67
505.462	11047
505.83	11178.29
506.199	11211.97
506.567	11382.36
506.936	11364.96
507.304	11465.29
507.672	11577.15
508.041	11679.98
508.409	11670.26
508.777	11763.59
509.145	11982.11
509.514	11906.18
509.882	11996.13
510.25	11988.89
510.618	12092.39
510.986	12130.58
511.354	12248.1
511.722	12321.77
512.09	12392.72
512.458	12423.68
512.826	12468.43
513.193	12538.94
513.561	12566.05
513.929	12595.21
514.297	12709.33
514.664	12728.54
515.032	12741.19
515.4	12828.19
515.767	12856.89
516.135	12893.5
516.502	12864.35
516.869	13032.93
517.237	13081.29
517.604	13076.1
517.972	13123.78
518.339	13204
518.706	13188.64
519.073	13237.22
519.44	13302.76
519.808	13364.68
520.175	13314.28
520.542	13396.77
520.909	13460.04
521.276	13447.39
521.643	13478.8
522.009	13507.05
522.376	13597.67
522.743	13554.95
523.11	13685.8
523.477	13754.5
523.843	13825.46
524.21	13919.46
524.577	13970.99
524.943	14015.51
525.31	13996.52
525.676	14017.32
526.043	14009.86
526.409	13947.26
526.776	14190.19
527.142	14175.73
527.508	14205.33
527.874	14164.2
528.241	14271.32
528.607	14175.28
528.973	14253.47
529.339	14223.41
529.705	14312.45
530.071	14320.81
530.437	14256.86
530.803	14429.06
531.169	14401.94
531.535	14344.76
531.901	14288.04
532.267	14327.14
532.632	14384.99
532.998	14249.63
533.364	14355.84
533.73	14313.8
534.095	14406.01
534.461	14335.72
534.826	14376.18
535.192	14298.66
535.557	14418.43
535.923	14359.9
536.288	14312
536.653	14344.99
537.019	14269.96
537.384	14259.34
537.749	14262.28
538.114	14193.81
538.479	14215.5
538.845	14294.14
539.21	14104.09
539.575	14207.59
539.94	14082.62
540.305	14090.08
540.67	14125.56
541.034	13993.13
541.399	14025.9
541.764	14012.34
542.129	13959.69
542.494	13903.87
542.858	13942.51
543.223	13902.06
543.587	13926.7
543.952	13948.84
544.316	13919.24
544.681	13821.16
545.045	13828.17
545.41	13898.9
545.774	13757.66
546.138	13677.89
546.503	13673.6
546.867	13682.41
547.231	13710.43
547.595	13646.25
547.959	13631.56
548.324	13571.45
548.688	13584.33
549.052	13515.41
549.416	13564.67
549.779	13543.66
550.143	13488.74
550.507	13508.18
550.871	13503.88
551.235	13447.39
551.599	13356.54
551.962	13417.33
552.326	13356.77
552.689	13378.24
553.053	13385.24
553.417	13352.7
553.78	13401.29
554.143	13265.7
554.507	13281.97
554.87	13277.45
555.234	13390.66
555.597	13222.76
555.96	13351.12
556.323	13314.51
556.686	13220.27
557.05	13297.11
557.413	13246.04
557.776	13232.02
558.139	13296.2
558.502	13336.88
558.865	13274.51
559.228	13227.28
559.59	13302.76
559.953	13262.08
560.316	13319.48
560.679	13271.35
561.041	13326.03
561.404	13345.92
561.767	13344.11
562.129	13299.14
562.492	13390.89
562.854	13311.12
563.217	13250.78
563.579	13320.16
563.941	13459.82
564.304	13436.09
564.666	13384.11
565.028	13399.48
565.39	13481.74
565.753	13444.9
566.115	13486.48
566.477	13518.57
566.839	13519.02
567.201	13532.36
567.563	13478.12
567.925	13674.27
568.287	13658.23
568.648	13635.86
569.01	13657.55
569.372	13729.86
569.734	13613.48
570.095	13695.06
570.457	13807.6
570.819	13792.01
571.18	13740.94
571.542	13769.64
571.903	13759.02
572.265	13795.63
572.626	13808.06
572.987	13837.43
573.349	13811.44
573.71	13789.52
574.071	13812.57
574.432	13835.17
574.794	13933.02
575.155	13898
575.516	13829.75
575.877	13923.76
576.238	13850.99
576.599	13948.84
576.96	13910.43
577.32	13932.35
577.681	14008.73
578.042	13928.05
578.403	13933.02
578.763	13922.63
579.124	13914.27
579.485	14018.44
579.845	14031.1
580.206	14073.13
580.566	14057.77
580.927	14086.92
581.287	14068.16
581.648	13958.33
582.008	14054.15
582.368	13998.78
582.728	14080.14
583.089	14032.46
583.449	14012.12
583.809	14102.74
584.169	14088.5
584.529	14009.18
584.889	14077.43
585.249	14089.86
585.609	13941.84
585.969	14039.69
586.329	13977.54
586.688	13973.93
587.048	13991.1
587.408	13829.98
587.768	13870.65
588.127	13866.36
588.487	13840.82
588.846	13952.68
589.206	13760.37
589.565	13876.53
589.925	13872.69
590.284	13916.53
590.643	13924.21
591.003	13890.54
591.362	13908.39
591.721	13897.32
592.08	13792.01
592.44	13929.63
592.799	13986.36
593.158	13881.5
593.517	13775.29
593.876	13888.5
594.235	13939.13
594.593	13838.11
594.952	13846.47
595.311	13785
595.67	13862.74
596.029	13859.35
596.387	13782.07
596.746	13874.04
597.104	13756.98
597.463	13736.42
597.822	13769.86
598.18	13740.26
598.538	13797.21
598.897	13816.19
599.255	13737.77
599.613	13894.83
599.972	13876.53
600.33	13856.64
600.688	13787.94
601.046	13842.63
601.404	13837.88
601.762	13878.56
602.12	13877.21
602.478	13912.23
602.836	13945.23
603.194	13801.05
603.552	13784.1
603.91	13748.4
604.268	13878.11
604.625	13742.29
604.983	13845.57
605.341	13801.5
605.698	13765.57
606.056	13879.69
606.413	13813.48
606.771	13883.53
607.128	13871.33
607.485	13815.96
607.843	13797.21
608.2	13934.38
608.557	13941.38
608.914	13883.31
609.272	13976.64
609.629	14040.82
609.986	13968.5
610.343	13909.3
610.7	14011.44
611.057	13916.53
611.414	13914.72
611.771	13933.25
612.127	13950.42
612.484	14004.21
612.841	13996.3
613.198	14010.54
613.554	14005.11
613.911	14123.98
614.267	14158.33
614.624	14034.26
614.98	14065.68
615.337	14171.89
615.693	14112.45
616.05	14110.87
616.406	14205.78
616.762	14149.74
617.118	14156.97
617.475	14086.69
617.831	14266.35
618.187	14172.11
618.543	14149.51
618.899	14257.08
619.255	14127.82
619.611	14227.25
619.967	14268.83
620.323	14287.36
620.678	14196.29
621.034	14303.64
621.39	14196.97
621.746	14161.04
622.101	14419.79
622.457	14143.87
622.812	14289.62
623.168	14302.73
623.523	14307.7
623.879	14306.8
624.234	14273.81
624.589	14218.89
624.945	14229.06
625.3	14283.97
625.655	14246.24
626.01	14239.68
626.365	14187.03
626.72	14322.39
627.075	14257.99
627.43	14191.1
627.785	14145.9
628.14	14190.64
628.495	14252.79
628.85	14178.44
629.205	14159.46
629.559	14184.32
629.914	14133.7
630.269	14123.07
630.623	14147.48
630.978	14142.28
631.332	14130.31
631.687	14170.76
632.041	14065.45
632.396	14139.8
632.75	13987.26
633.104	14076.52
633.459	14026.35
633.813	13931.89
634.167	13919.24
634.521	13992.91
634.875	13951.33
635.229	14033.36
635.583	13871.78
635.937	13925.34
636.291	13935.96
636.645	13877.88
636.999	13938.45
637.352	13896.64
637.706	13855.74
638.06	13855.51
638.413	13756.08
638.767	13798.34
639.121	13940.71
639.474	13690.09
639.828	13794.27
640.181	13843.53
640.534	13796.53
640.888	13730.32
641.241	13693.48
641.594	13642.64
641.947	13788.85
642.301	13673.14
642.654	13738.68
643.007	13700.04
643.36	13698.91
643.713	13577.1
644.066	13614.16
644.419	13568.51
644.771	13442.64
645.124	13364
645.477	13356.32
645.83	13282.42
646.182	13218.47
646.535	13123.1
646.888	13181.18
647.24	13127.62
647.593	13247.39
647.945	13194.51
648.298	13092.59
648.65	13034.74
649.002	13042.65
649.355	13111.12
649.707	13204.23
650.059	13198.58
650.411	13366.48
650.763	13391.34
651.115	13475.63
651.467	13413.49
651.819	13425.92
652.171	13531.45
652.523	13439.7
652.875	13392.25
653.227	13388.18
653.578	13458.23
653.93	13450.32
654.282	13356.32
654.633	13332.36
654.985	13472.92
655.337	13448.06
655.688	13325.81
656.039	13477.22
656.391	13323.55
656.742	13424.56
657.094	13379.82
657.445	13477.89
657.796	13394.73
658.147	13397.9
658.498	13377.11
658.849	13381.17
659.2	13340.5
659.551	13415.75
659.902	13465.01
660.253	13423.21
660.604	13402.19
660.955	13383.89
661.306	13432.25
661.656	13427.05
662.007	13390.44
662.358	13419.82
662.708	13398.8
663.059	13433.6
663.409	13397.22
663.76	13413.94
664.11	13350.21
664.461	13519.25
664.811	13462.3
665.161	13419.82
665.511	13401.06
665.862	13383.43
666.212	13413.26
666.562	13400.16
666.912	13364.9
667.262	13418.91
667.612	13465.01
667.962	13402.42
668.312	13406.94
668.662	13469.53
669.011	13463.88
669.361	13401.96
669.711	13377.78
670.06	13383.66
670.41	13336.65
670.76	13299.59
671.109	13357.67
671.459	13384.11
671.808	13293.27
672.157	13346.37
672.507	13246.04
672.856	13303.44
673.205	13357.45
673.554	13327.16
673.904	13280.61
674.253	13358.58
674.602	13239.26
674.951	13137.34
675.3	13022.09
675.649	13222.08
675.998	13218.24
676.346	13213.04
676.695	13204.91
677.044	13144.8
677.393	13137.56
677.741	13143.67
678.09	13140.5
678.438	12983.9
678.787	13050.56
679.135	13043.56
679.484	13016.89
679.832	13072.03
680.181	12980.05
680.529	13069.09
680.877	12978.25
681.225	12916.78
681.573	12994.52
681.922	12911.81
682.27	12904.12
682.618	12920.62
682.966	12905.03
683.314	12861.41
683.661	12818.02
684.009	12852.6
684.357	12765.6
684.705	12712.94
685.053	12739.83
685.4	12690.34
685.748	12662.32
686.095	12633.62
686.443	12627.75
686.79	12613.51
687.138	12543.68
687.485	12625.71
687.832	12553.85
688.18	12554.75
688.527	12403.8
688.874	12484.93
689.221	12347.08
689.568	12365.61
689.915	12370.13
690.262	12336
690.609	12287.42
690.956	12251.49
691.303	12197.02
691.65	12187.98
691.997	12161.32
692.344	12039.51
692.69	12139.85
693.037	12077.03
693.383	11863.93
693.73	12016.69
694.077	11914.77
694.423	11831.38
694.769	11820.08
695.116	11716.81
695.462	11736.47
695.808	11710.94
696.155	11703.93
696.501	11659.41
696.847	11557.27
697.193	11525.63
697.539	11580.09
697.885	11457.83
698.231	11419.64
698.577	11470.49
698.923	11353.88
699.269	11279.08
699.614	11265.3
699.96	11198.41
700.306	11208.35
700.651	11155.92
700.997	11142.36
701.342	11067.79
701.688	11013.33
702.033	11024.63
702.379	11064.4
702.724	10993.89
703.069	11008.35
703.415	10851.75
703.76	10786.21
704.105	10826.44
704.45	10786.44
704.795	10711.64
705.14	10660.57
705.485	10700.57
705.83	10653.79
706.175	10638.87
706.52	10628.25
706.865	10545.09
707.209	10589.38
707.554	10515.71
707.899	10548.03
708.243	10436.17
708.588	10417.18
708.932	10392.33
709.277	10382.16
709.621	10397.52
709.966	10276.85
710.31	10240.47
710.654	10217.41
710.998	10250.18
711.342	10168.38
711.687	10201.82
712.031	10070.75
712.375	10107.59
712.719	10152.78
713.063	10063.29
713.407	10172.22
713.75	10066.91
714.094	10054.26
714.438	10000.7
714.782	10106.01
715.125	9959.34
715.469	9993.92
715.812	9944.88
716.156	9878.44
716.499	9828.05
716.843	9896.29
717.186	9809.52
717.53	9864.66
717.873	9889.51
718.216	9789.63
718.559	9748.73
718.902	9736.3
719.246	9714.15
719.589	9740.59
719.932	9723.19
720.275	9675.28
720.617	9725.9
720.96	9656.98
721.303	9628.5
721.646	9612.23
721.989	9638.22
722.331	9660.82
722.674	9609.97
723.016	9573.82
723.359	9588.96
723.701	9596.87
724.044	9510.09
724.386	9488.17
724.729	9571.33
725.071	9546.7
725.413	9605.45
725.755	9576.53
726.097	9489.98
726.439	9428.28
726.782	9478
727.124	9540.37
727.465	9505.12
727.807	9465.8
728.149	9478.23
728.491	9422.63
728.833	9432.12
729.175	9486.36
729.516	9464.67
729.858	9403.2
730.199	9433.71
730.541	9328.62
730.882	9418.79
731.224	9369.98
731.565	9397.1
731.906	9382.18
732.248	9397.32
732.589	9340.6
732.93	9333.14
733.271	9322.3
733.612	9348.06
733.953	9389.87
734.294	9343.77
734.635	9388.74
734.976	9332.01
735.317	9266.48
735.658	9335.86
735.999	9286.59
736.339	9373.82
736.68	9397.1
737.021	9304.44
737.361	9329.75
737.702	9336.76
738.042	9316.2
738.383	9383.31
738.723	9357.78
739.063	9361.17
739.404	9359.58
739.744	9306.93
740.084	9382.63
740.424	9378.34
740.764	9372.24
741.104	9393.26
741.444	9363.43
741.784	9402.75
742.124	9415.63
742.464	9475.74
742.804	9394.39
743.143	9397.1
743.483	9428.06
743.823	9454.72
744.162	9499.47
744.502	9559.58
744.841	9526.13
745.181	9588.5
745.52	9561.16
745.86	9624.66
746.199	9670.31
746.538	9667.6
746.877	9718.67
747.216	9817.2
747.556	9837.54
747.895	9851.55
748.234	9908.5
748.573	9846.58
748.911	9967.03
749.25	10055.84
749.589	10126.8
749.928	10206.34
750.267	10230.3
750.605	10291.99
750.944	10299.9
751.283	10356.85
751.621	10526.33
751.96	10554.13
752.298	10644.97
752.636	10758.42
752.975	10707.12
753.313	10780.56
753.651	10987.56
753.989	10967.9
754.327	11134
754.666	11252.42
755.004	11303.49
755.342	11488.79
755.679	11618.96
756.017	11613.54
756.355	11794.1
756.693	11960.65
757.031	12057.82
757.368	12179.17
757.706	12231.37
758.044	12381.2
758.381	12641.76
