Data from hue_34_FLMS001491_00052.txt Node
Date: Tue Feb 07 17:25:49 GMT 2017
User: dcchb
Spectrometer: FLMS00149
Trigger mode: 0
Integration Time (sec): 2.000000E-2
Scans to average: 10
Electric dark correction enabled: true
Nonlinearity correction enabled: false
Boxcar width: 0
XAxis mode: Wavelengths
Number of Pixels in Spectrum: 2048
>>>>>Begin Spectral Data<<<<<
341.393	-17.94
341.776	-17.94
342.16	-17.94
342.543	-69.01
342.927	-76.01
343.31	-74.66
343.693	-78.95
344.077	-63.59
344.46	-55.9
344.843	-37.15
345.226	-38.5
345.61	-31.5
345.993	-34.21
346.376	-12.51
346.759	-7.54
347.142	39.01
347.525	26.36
347.908	61.61
348.291	79.69
348.674	100.93
349.057	126.92
349.44	157.65
349.823	137.76
350.206	157.2
350.588	191.77
350.971	210.98
351.354	214.37
351.737	235.84
352.119	243.07
352.502	256.41
352.884	278.1
353.267	302.96
353.65	299.79
354.032	292.79
354.414	299.79
354.797	301.15
355.179	310.42
355.562	320.36
355.944	320.36
356.326	338.89
356.709	330.3
357.091	334.82
357.473	344.99
357.855	339.12
358.238	347.25
358.62	342.51
359.002	339.12
359.384	362.39
359.766	335.95
360.148	341.83
360.53	336.18
360.912	357.87
361.294	316.52
361.676	317.87
362.057	342.51
362.439	342.28
362.821	332.11
363.203	347.93
363.584	322.62
363.966	307.93
364.348	311.09
364.729	321.71
365.111	321.26
365.493	311.77
365.874	310.19
366.256	318.78
366.637	314.71
367.019	333.24
367.4	309.51
367.781	329.62
368.163	308.83
368.544	324.43
368.925	284.65
369.306	328.72
369.688	315.39
370.069	319.68
370.45	322.17
370.831	305.9
371.212	314.26
371.593	321.26
371.974	310.19
372.355	341.83
372.736	340.47
373.117	315.84
373.498	310.64
373.879	341.83
374.26	307.93
374.641	312.9
375.021	301.15
375.402	338.89
375.783	316.52
376.163	333.01
376.544	337.08
376.925	333.01
377.305	328.72
377.686	317.2
378.066	319.45
378.447	330.98
378.827	346.8
379.208	338.89
379.588	343.41
379.968	333.92
380.349	334.14
380.729	345.67
381.109	365.78
381.489	340.47
381.87	339.79
382.25	326.69
382.63	339.57
383.01	351.09
383.39	330.75
383.77	326.91
384.15	340.25
384.53	349.06
384.91	336.18
385.29	342.28
385.67	360.81
386.049	339.79
386.429	365.56
386.809	341.15
387.189	368.95
387.568	338.89
387.948	339.12
388.328	347.25
388.707	340.92
389.087	360.13
389.466	373.92
389.846	361.94
390.225	354.71
390.605	374.37
390.984	365.1
391.363	361.49
391.743	360.13
392.122	388.61
392.501	362.84
392.881	381.15
393.26	381.15
393.639	382.96
394.018	375.05
394.397	373.69
394.776	377.08
395.155	385.22
395.534	381.6
395.913	389.06
396.292	378.89
396.671	398.55
397.05	392
397.429	418.66
397.808	369.17
398.186	388.83
398.565	378.66
398.944	393.58
399.323	405.33
399.701	397.64
400.08	397.42
400.458	407.59
400.837	395.39
401.215	420.47
401.594	386.57
401.972	425.89
402.351	408.27
402.729	397.87
403.107	423.41
403.486	419.57
403.864	400.58
404.242	419.57
404.62	414.82
404.999	410.07
405.377	440.36
405.755	423.41
406.133	417.98
406.511	435.61
406.889	432.22
407.267	441.49
407.645	419.11
408.023	425.21
408.401	448.04
408.779	422.95
409.156	454.59
409.534	433.8
409.912	424.54
410.29	434.93
410.667	459.56
411.045	467.7
411.422	442.16
411.8	458.21
412.178	474.03
412.555	484.2
412.933	475.61
413.31	466.8
413.687	482.61
414.065	488.04
414.442	475.61
414.819	479.68
415.197	496.85
415.574	500.69
415.951	500.02
416.328	490.98
416.705	475.16
417.082	497.3
417.46	507.02
417.837	491.88
418.214	518.55
418.591	499.56
418.967	528.71
419.344	516.74
419.721	521.48
420.098	526.46
420.475	526.46
420.852	507.47
421.228	509.51
421.605	544.08
421.982	515.38
422.358	526.68
422.735	541.14
423.111	553.8
423.488	549.28
423.864	543.4
424.241	550.41
424.617	570.75
424.994	546.12
425.37	540.92
425.746	572.78
426.123	576.62
426.499	578.88
426.875	571.43
427.251	576.85
427.627	588.83
428.003	564.65
428.379	598.77
428.756	596.28
429.132	596.51
429.507	594.48
429.883	596.51
430.259	610.75
430.635	640.8
431.011	636.06
431.387	637.19
431.763	619.56
432.138	637.64
432.514	673.12
432.89	651.42
433.265	638.54
433.641	663.4
434.016	667.24
434.392	672.67
434.767	676.96
435.143	686.45
435.518	685.77
435.894	691.42
436.269	675.6
436.644	703.4
437.02	691.65
437.395	713.79
437.77	721.48
438.145	742.27
438.52	717.86
438.895	726.45
439.271	727.81
439.646	750.86
440.021	739.78
440.395	759.44
440.77	744.08
441.145	791.08
441.52	780.91
441.895	766.67
442.27	783.62
442.645	767.13
443.019	792.66
443.394	761.7
443.769	757.41
444.143	769.16
444.518	805.77
444.892	776.84
445.267	788.82
445.641	814.58
446.016	784.53
446.39	800.35
446.764	840.57
447.139	812.1
447.513	833.79
447.887	831.98
448.262	823.17
448.636	830.18
449.01	848.71
449.384	832.21
449.758	885.54
450.132	864.07
450.506	864.3
450.88	875.6
451.254	867.92
451.628	913.56
452.002	889.16
452.376	887.58
452.75	886.9
453.123	899.78
453.497	946.56
453.871	925.77
454.244	939.1
454.618	947.91
454.992	952.88
455.365	943.62
455.739	979.32
456.112	1009.15
456.486	977.29
456.859	991.08
457.232	987.46
457.606	1022.26
457.979	1055.48
458.352	1024.97
458.725	1041.7
459.099	1082.37
459.472	1079.89
459.845	1064.75
460.218	1105.87
460.591	1079.89
460.964	1118.08
461.337	1110.17
461.71	1120.11
462.083	1166.89
462.456	1146.55
462.829	1135.25
463.201	1185.42
463.574	1211.18
463.947	1180.68
464.32	1225.87
464.692	1254.35
465.065	1259.54
465.438	1247.34
465.81	1282.37
466.183	1295.02
466.555	1331.41
466.928	1313.78
467.3	1334.8
467.672	1351.52
468.045	1398.3
468.417	1375.25
468.789	1418.18
469.161	1416.83
469.534	1449.59
469.906	1469.71
470.278	1500.89
470.65	1522.36
471.022	1553.55
471.394	1592.19
471.766	1605.75
472.138	1618.63
472.51	1652.08
472.882	1718.51
473.253	1695.46
473.625	1696.37
473.997	1791.05
474.369	1789.92
474.74	1802.35
475.112	1846.87
475.484	1910.83
475.855	1967.55
476.227	1944.72
476.598	2046.64
476.97	2054.32
477.341	2160.76
477.713	2173.19
478.084	2160.76
478.455	2261.1
478.827	2279.18
479.198	2363.02
479.569	2350.59
479.94	2432.62
480.311	2496.57
480.682	2594.42
481.053	2654.08
481.424	2729.34
481.795	2744.7
482.166	2826.28
482.537	2899.27
482.908	2966.39
483.279	3015.2
483.65	3111.02
484.021	3211.81
484.391	3238.93
484.762	3306.72
485.133	3353.05
485.503	3458.36
485.874	3565.92
486.244	3607.73
486.615	3668.07
486.985	3788.06
487.356	3887.04
487.726	3960.94
488.097	4083.65
488.467	4084.1
488.837	4226.92
489.207	4324.32
489.578	4388.5
489.948	4488.61
490.318	4575.16
490.688	4670.53
491.058	4726.34
491.428	4894.25
491.798	4873.69
492.168	5049.27
492.538	5099.44
492.908	5202.94
493.278	5302.6
493.648	5329.27
494.017	5451.3
494.387	5543.5
494.757	5639.54
495.126	5665.08
495.496	5789.59
495.866	5906.65
496.235	5915.24
496.605	5999.76
496.974	6066.87
497.344	6167.21
497.713	6210.15
498.082	6268.23
498.452	6395.68
498.821	6459.41
499.19	6513.19
499.559	6613.07
499.928	6713.19
500.298	6707.31
500.667	6820.98
501.036	6842
501.405	7015.1
501.774	7010.13
502.143	7052.16
502.512	7163.57
502.88	7221.19
503.249	7241.76
503.618	7286.73
503.987	7386.39
504.356	7417.35
504.724	7455.09
505.093	7557
505.462	7567.85
505.83	7674.97
506.199	7757.68
506.567	7808.75
506.936	7909.54
507.304	7970.33
507.672	8000.61
508.041	8065.92
508.409	8106.14
508.777	8140.72
509.145	8256.87
509.514	8310.66
509.882	8316.31
510.25	8319.7
510.618	8420.71
510.986	8506.36
511.354	8569.41
511.722	8586.13
512.09	8728.05
512.458	8685.56
512.826	8770.53
513.193	8808.5
513.561	8859.8
513.929	8986.12
514.297	9059.11
514.664	9079
515.032	9132.78
515.4	9135.72
515.767	9235.15
516.135	9212.33
516.502	9243.74
516.869	9400.8
517.237	9425.43
517.604	9414.58
517.972	9459.33
518.339	9564.41
518.706	9567.8
519.073	9580.91
519.44	9666.78
519.808	9744.29
520.175	9745.42
520.542	9831.52
520.909	9867.68
521.276	9927.79
521.643	9972.31
522.009	10046.66
522.376	10103.83
522.743	10161.91
523.11	10221.79
523.477	10318.97
523.843	10391.28
524.21	10487.78
524.577	10569.13
524.943	10626.3
525.31	10597.83
525.676	10750.82
526.043	10795.34
526.409	10829.69
526.776	10923.02
527.142	10904.04
527.508	11029.91
527.874	11080.53
528.241	11220.86
528.607	11196.23
528.973	11304.02
529.339	11279.84
529.705	11402.33
530.071	11530.46
530.437	11508.99
530.803	11527.97
531.169	11582.21
531.535	11608.65
531.901	11638.71
532.267	11721.87
532.632	11866.04
532.998	11881.18
533.364	12010.67
533.73	11938.58
534.095	12047.51
534.461	12101.29
534.826	12195.75
535.192	12159.82
535.557	12320.04
535.923	12316.2
536.288	12393.71
536.653	12459.25
537.019	12385.35
537.384	12490.21
537.749	12485.91
538.114	12616.53
538.479	12614.27
538.845	12710.54
539.21	12674.16
539.575	12816.53
539.94	12756.19
540.305	12881.84
540.67	12883.42
541.034	12853.59
541.399	12972.23
541.764	13016.3
542.129	13037.76
542.494	13168.16
542.858	13209.51
543.223	13195.27
543.587	13280.92
543.952	13356.17
544.316	13357.98
544.681	13404.76
545.045	13510.07
545.41	13547.81
545.774	13553.46
546.138	13694.7
546.503	13654.92
546.867	13721.14
547.231	13796.84
547.595	13896.27
547.959	13857.63
548.324	13929.27
548.688	13953.9
549.052	14039.09
549.416	14066.44
549.779	14184.85
550.143	14147.11
550.507	14232.54
550.871	14282.7
551.235	14306.66
551.599	14442.7
551.962	14321.57
552.326	14497.16
552.689	14541
553.053	14463.04
553.417	14513.88
553.78	14663.48
554.143	14671.39
554.507	14717.72
554.87	14695.12
555.234	14912.97
555.597	14767.44
555.96	14933.76
556.323	14947.32
556.686	15016.24
557.05	15089.91
557.413	15123.36
557.776	15132.62
558.139	15327.42
558.502	15259.85
558.865	15331.26
559.228	15396.12
559.59	15425.5
559.953	15477.02
560.316	15686.96
560.679	15563.12
561.041	15698.94
561.404	15802.89
561.767	15940.74
562.129	15710.24
562.492	15999.04
562.854	15961.98
563.217	15908.88
563.579	16101.64
563.941	16168.98
564.304	16145.93
564.666	16226.16
565.028	16319.26
565.39	16268.19
565.753	16433.61
566.115	16461.63
566.477	16579.82
566.839	16716.54
567.201	16734.84
567.563	16732.36
567.925	16937.1
568.287	16855.29
568.648	16923.09
569.01	16993.82
569.372	17067.72
569.734	17178.45
570.095	17206.69
570.457	17206.69
570.819	17304.77
571.18	17328.5
571.542	17397.88
571.903	17543.86
572.265	17619.11
572.626	17667.47
572.987	17676.06
573.349	17785.89
573.71	17915.83
574.071	18009.39
574.432	18100
574.794	18279.66
575.155	18314.69
575.516	18283.05
575.877	18387.23
576.238	18557.39
576.599	18622.7
576.96	18769.82
577.32	18819.76
577.681	19018.62
578.042	19017.27
578.403	19154.44
578.763	19358.73
579.124	19474.88
579.485	19646.4
579.845	19761.2
580.206	19845.27
580.566	19970.69
580.927	20125.26
581.287	20433.28
581.648	20451.58
582.008	20781.52
582.368	20780.39
582.728	21091.79
583.089	21148.06
583.449	21246.36
583.809	21487.71
584.169	21732.23
584.529	21885.67
584.889	22226
585.249	22259.89
585.609	22464.41
585.969	22732.65
586.329	22927.45
586.688	23223.94
587.048	23416.02
587.408	23599.52
587.768	23679.97
588.127	23939.85
588.487	24248.09
588.846	24562.66
589.206	24679.04
589.565	24827.29
589.925	25184.34
590.284	25279.7
590.643	25701.16
591.003	25941.38
591.362	26228.38
591.721	26393.8
592.08	26599.67
592.44	26997.85
592.799	27171.86
593.158	27453.88
593.517	27608
593.876	27861.33
594.235	28149.23
594.593	28341.99
594.952	28733.17
595.311	28736.79
595.67	29111.47
596.029	29517.33
596.387	29696.31
596.746	30017.66
597.104	30056.3
597.463	30279.57
597.822	30605.44
598.18	30740.35
598.538	30969.72
598.897	31358.64
599.255	31375.36
599.613	31965.85
599.972	31935.57
600.33	32313.42
600.688	32364.94
601.046	32652.16
601.404	32956.34
601.762	33081.31
602.12	33342.99
602.478	33514.51
602.836	33731.91
603.194	33860.27
603.552	34020.49
603.91	34169.41
604.268	34474.94
604.625	34520.14
604.983	34876.96
605.341	34902.27
605.698	35352.43
606.056	35327.12
606.413	35505.87
606.771	35700.9
607.128	35947.44
607.485	36008.01
607.843	36134.78
608.2	36449.8
608.557	36638.5
608.914	36647.77
609.272	36885.95
609.629	37059.73
609.986	37210.91
610.343	37302.89
610.7	37669.21
611.057	37723.9
611.414	37878.02
611.771	38007.5
612.127	38272.81
612.484	38339.47
612.841	38559.13
613.198	38645.45
613.554	38692.91
613.911	38924.99
614.267	39043.18
614.624	39147.81
614.98	39437.3
615.337	39457.86
615.693	39553.68
616.05	39603.17
616.406	39971.29
616.762	39959.54
617.118	39852.88
617.475	39895.82
617.831	40213.55
618.187	40295.58
618.543	40383.71
618.899	40736.92
619.255	40563.59
619.611	40714.1
619.967	40785.96
620.323	41019.4
620.678	41025.5
621.034	40928.33
621.39	40926.75
621.746	41088.78
622.101	41625.94
622.457	41224.82
622.812	41544.81
623.168	41672.72
623.523	41617.35
623.879	41674.75
624.234	41449.67
624.589	41706.39
624.945	41900.96
625.3	41841.98
625.655	41906.16
626.01	41948.87
626.365	42054.18
626.72	42014.18
627.075	42157.9
627.43	42070.22
627.785	41965.14
628.14	42230.44
628.495	42225.25
628.85	42246.04
629.205	42016.44
629.559	42359.48
629.914	42209.2
630.269	42230.44
630.623	42064.8
630.978	42099.37
631.332	42394.51
631.687	42416.65
632.041	42361.97
632.396	42380.27
632.75	42251.69
633.104	42419.14
633.459	42316.99
633.813	42237
634.167	42278.35
634.521	42292.59
634.875	42397.22
635.229	42293.27
635.583	42111.58
635.937	42115.19
636.291	42078.36
636.645	42118.36
636.999	42085.36
637.352	42337.79
637.706	42051.01
638.06	42175.76
638.413	42163.33
638.767	42068.41
639.121	42202.2
639.474	41862.09
639.828	42022.31
640.181	41947.96
640.534	42188.18
640.888	41871.58
641.241	41862.32
641.594	41906.84
641.947	42074.52
642.301	41943.22
642.654	41820.96
643.007	41846.5
643.36	41957
643.713	41945.03
644.066	42119.71
644.419	41685.15
644.771	41543.23
645.124	41145.5
645.477	41116.12
645.83	41054.65
646.182	40855.34
646.535	40593.88
646.888	40699.64
647.24	40421.23
647.593	40804.72
647.945	40608.34
648.298	40472.75
648.65	40331.74
649.002	40283.38
649.355	40524.27
649.707	40354.11
650.059	40679.98
650.411	41068.21
650.763	41050.81
651.115	41499.16
651.467	41341.43
651.819	41420.07
652.171	41392.05
652.523	41423.01
652.875	41323.8
653.227	41189.34
653.578	41482.21
653.93	41203.35
654.282	41137.14
654.633	41072.51
654.985	41158.83
655.337	41149.79
655.688	41133.75
656.039	41268.43
656.391	40919.29
656.742	41058.27
657.094	41126.97
657.445	41157.48
657.796	41109.57
658.147	41017.37
658.498	41006.07
658.849	41060.76
659.2	40980.76
659.551	40842.68
659.902	40923.58
660.253	40981.21
660.604	41040.19
660.955	40731.73
661.306	40990.93
661.656	40785.06
662.007	40858.28
662.358	40893.98
662.708	40791.84
663.059	40855.34
663.409	40660.77
663.76	40926.07
664.11	40722.01
664.461	40718.39
664.811	40863.02
665.161	40879.74
665.511	40742.57
665.862	40751.61
666.212	40860.31
666.562	40763.14
666.912	40751.39
667.262	40803.59
667.612	40787.32
667.962	40688.56
668.312	40730.14
668.662	40885.85
669.011	40738.05
669.361	40721.78
669.711	40763.14
670.06	40678.85
670.41	40618.96
670.76	40714.1
671.109	40662.35
671.459	40651.5
671.808	40571.96
672.157	40688.79
672.507	40423.94
672.856	40421
673.205	40532.86
673.554	40671.16
673.904	40505.52
674.253	40722.69
674.602	40542.35
674.951	39970.62
675.3	39679.1
675.649	40395.24
675.998	40296.03
676.346	40420.55
676.695	40556.81
677.044	40206.54
677.393	40308.23
677.741	40441.34
678.09	40223.72
678.438	40123.83
678.787	40122.02
679.135	40156.6
679.484	39944.4
679.832	40211.97
680.181	39976.94
680.529	40021.46
680.877	39990.73
681.225	39941.01
681.573	40030.95
681.922	39776.04
682.27	39661.7
682.618	39742.83
682.966	39593.45
683.314	39666.89
683.661	39635.48
684.009	39301.25
684.357	39320.24
684.705	39310.52
685.053	39313.46
685.4	39429.61
685.748	39143.74
686.095	39031.66
686.443	39034.6
686.79	38887.71
687.138	38963.86
687.485	39032.11
687.832	38791.89
688.18	38826.24
688.527	38687.03
688.874	38741.72
689.221	38608.17
689.568	38543.08
689.915	38384.89
690.262	38378.34
690.609	38370.88
690.956	38128.86
691.303	38195.3
691.65	37987.84
691.997	37941.06
692.344	37671.69
692.69	37837.56
693.037	37671.24
693.383	37409.55
693.73	37567.52
694.077	37327.3
694.423	37238.94
694.769	37247.3
695.116	37087.53
695.462	37080.52
695.808	37021.09
696.155	37148.09
696.501	36724.37
696.847	36772.96
697.193	36535.68
697.539	36678.95
697.885	36453.42
698.231	36363.25
698.577	36447.09
698.923	36335.68
699.269	36214.33
699.614	36111.73
699.96	35911.97
700.306	35990.16
700.651	35722.82
700.997	35637.4
701.342	35646.66
701.688	35626.1
702.033	35319.89
702.379	35425.65
702.724	35221.81
703.069	35417.52
703.415	35001.25
703.76	34982.05
704.105	34898.43
704.45	35044.42
704.795	34808.94
705.14	34663.64
705.485	34514.26
705.83	34618.44
706.175	34620.47
706.52	34414.6
706.865	34302.52
707.209	34278.34
707.554	34234.27
707.899	34273.82
708.243	33959.02
708.588	34034.5
708.932	33712.93
709.277	33712.02
709.621	33719.93
709.966	33649.2
710.31	33675.19
710.654	33321.07
710.998	33437.23
711.342	33322.65
711.687	33413.05
712.031	33265.71
712.375	32960.86
712.719	33114.3
713.063	32975.77
713.407	32979.61
713.75	32885.6
714.094	32837.24
714.438	32710.92
714.782	32864.14
715.125	32558.61
715.469	32660.07
715.812	32585.05
716.156	32398.16
716.499	32407.65
716.843	32345.96
717.186	32177.6
717.53	32262.12
717.873	32470.25
718.216	32139.41
718.559	32123.36
718.902	31871.62
719.246	32035.01
719.589	31877.27
719.932	31717.73
720.275	31781.68
720.617	31687.9
720.96	31651.74
721.303	31659.65
721.646	31650.38
721.989	31338.98
722.331	31460.1
722.674	31450.61
723.016	31361.58
723.359	31344.85
723.701	31404.29
724.044	31131.07
724.386	30902.15
724.729	31184.63
725.071	31128.59
725.413	31091.08
725.755	31030.74
726.097	30909.84
726.439	30794.36
726.782	30793.23
727.124	30847.24
727.465	30694.93
727.807	30767.24
728.149	30683.4
728.491	30475.95
728.833	30644.08
729.175	30490.86
729.516	30504.88
729.858	30331.55
730.199	30329.97
730.541	30298.78
730.882	30187.14
731.224	30201.38
731.565	30223.3
731.906	30238.89
732.248	30188.95
732.589	30041.39
732.93	29999.13
733.271	29855.63
733.612	29988.28
733.953	30012.46
734.294	29759.81
734.635	29773.82
734.976	29823.31
735.317	29652.24
735.658	29589.42
735.999	29683.43
736.339	29531.12
736.68	29638.91
737.021	29501.51
737.361	29386.49
737.702	29510.1
738.042	29341.52
738.383	29323.21
738.723	29433.94
739.063	29316.21
739.404	29377
739.744	29093.16
740.084	29087.29
740.424	29219.71
740.764	29068.76
741.104	29166.83
741.444	29132.93
741.784	28939.72
742.124	29088.64
742.464	29031.69
742.804	28767.07
743.143	28833.51
743.483	28848.2
743.823	28762.55
744.162	28680.52
744.502	28748.31
744.841	28625.15
745.181	28621.08
745.52	28405.95
745.86	28591.71
746.199	28542.22
746.538	28424.03
746.877	28497.7
747.216	28470.58
747.556	28268.32
747.895	28354.88
748.234	28167.31
748.573	28184.94
748.911	28164.15
749.25	28210.02
749.589	27900.65
749.928	28031.72
750.267	27964.38
750.605	27951.04
750.944	27871.27
751.283	27829.69
751.621	27813.2
751.96	27697.27
752.298	27594.22
752.636	27591.28
752.975	27483.71
753.313	27465.86
753.651	27525.75
753.989	27280.55
754.327	27335.24
754.666	27235.13
755.004	27165.53
755.342	27296.37
755.679	27103.84
756.017	27105.42
756.355	27226.77
756.693	26924.63
757.031	27089.82
757.368	26781.58
757.706	26754.24
