Data from hue_00_FLMS001491_96.txt Node
Date: Mon Feb 06 15:30:42 GMT 2017
User: dcchb
Spectrometer: FLMS00149
Trigger mode: 0
Integration Time (sec): 2.000000E-2
Scans to average: 10
Electric dark correction enabled: true
Nonlinearity correction enabled: false
Boxcar width: 0
XAxis mode: Wavelengths
Number of Pixels in Spectrum: 2048
>>>>>Begin Spectral Data<<<<<
341.393	-18.05
341.776	-18.05
342.16	-18.05
342.543	-70.93
342.927	-67.09
343.31	-65.28
343.693	-68.67
344.077	-77.03
344.46	-74.55
344.843	-58.05
345.226	-54.43
345.61	-27.99
345.993	-17.82
346.376	16.3
346.759	13.59
347.142	45.68
347.525	50.42
347.908	39.35
348.291	90.87
348.674	84.32
349.057	103.3
349.44	115.51
349.823	131.55
350.206	159.57
350.588	195.96
350.971	185.11
351.354	233.02
351.737	239.8
352.119	232.56
352.502	272.34
352.884	272.56
353.267	274.37
353.65	286.8
354.032	273.69
354.414	297.2
354.797	313.24
355.179	297.2
355.562	319.12
355.944	324.99
356.326	326.57
356.709	321.15
357.091	333.35
357.473	331.32
357.855	315.95
358.238	315.5
358.62	342.17
359.002	344.65
359.384	366.12
359.766	330.42
360.148	319.79
360.53	357.31
360.912	321.15
361.294	344.43
361.676	328.16
362.057	337.42
362.439	323.18
362.821	322.28
363.203	310.98
363.584	336.06
363.966	330.87
364.348	313.92
364.729	314.82
365.111	304.65
365.493	293.35
365.874	316.86
366.256	320.92
366.637	325.44
367.019	298.55
367.4	292
367.781	305.33
368.163	321.15
368.544	297.2
368.925	315.05
369.306	335.39
369.688	306.01
370.069	307.36
370.45	300.81
370.831	318.44
371.212	315.73
371.593	338.55
371.974	306.91
372.355	314.82
372.736	332.22
373.117	317.53
373.498	305.78
373.879	301.04
374.26	317.76
374.641	294.03
375.021	303.07
375.402	318.66
375.783	315.73
376.163	311.43
376.544	326.57
376.925	330.87
377.305	323.64
377.686	325.9
378.066	314.14
378.447	319.79
378.827	329.51
379.208	334.93
379.588	305.1
379.968	329.51
380.349	335.84
380.729	335.61
381.109	323.41
381.489	352.56
381.87	323.86
382.25	322.51
382.63	318.21
383.01	338.78
383.39	330.42
383.77	339.68
384.15	335.16
384.53	326.35
384.91	340.36
385.29	324.09
385.67	345.56
386.049	346.23
386.429	334.71
386.809	333.58
387.189	330.64
387.568	339.23
387.948	353.01
388.328	343.3
388.707	355.05
389.087	347.59
389.466	365.67
389.846	343.3
390.225	353.24
390.605	356.4
390.984	360.92
391.363	364.54
391.743	360.24
392.122	348.04
392.501	367.25
392.881	352.79
393.26	367.93
393.639	353.92
394.018	345.78
394.397	371.32
394.776	363.41
395.155	351.21
395.534	354.82
395.913	378.1
396.292	366.35
396.671	360.47
397.05	377.65
397.429	376.74
397.808	366.12
398.186	399.79
398.565	366.57
398.944	382.84
399.323	371.77
399.701	389.85
400.08	367.02
400.458	378.32
400.837	382.62
401.215	387.36
401.594	381.26
401.972	404.54
402.351	383.75
402.729	369.74
403.107	402.5
403.486	393.46
403.864	380.58
404.242	390.53
404.62	409.51
404.999	408.61
405.377	401.6
405.755	384.42
406.133	396.85
406.511	399.79
406.889	409.96
407.267	394.82
407.645	390.3
408.023	419.9
408.401	423.75
408.779	424.88
409.156	420.58
409.534	428.72
409.912	447.93
410.29	439.79
410.667	406.12
411.045	414.03
411.422	442.05
411.8	419.45
412.178	438.66
412.555	437.08
412.933	438.89
413.31	454.03
413.687	465.55
414.065	459.23
414.442	460.36
414.819	462.16
415.197	465.1
415.574	489.51
415.951	482.05
416.328	457.64
416.705	493.35
417.082	474.59
417.46	450.19
417.837	501.48
418.214	488.83
418.591	501.26
418.967	515.95
419.344	472.56
419.721	497.42
420.098	493.57
420.475	497.19
420.852	525.44
421.228	526.79
421.605	507.36
421.982	505.55
422.358	531.31
422.735	506.91
423.111	511.2
423.488	541.26
423.864	524.76
424.241	533.57
424.617	541.93
424.994	546
425.37	534.25
425.746	529.73
426.123	557.53
426.499	552.33
426.875	549.84
427.251	538.09
427.627	561.14
428.003	547.81
428.379	578.54
428.756	582.61
429.132	607.7
429.507	583.06
429.883	581.71
430.259	602.72
430.635	598.2
431.011	600.01
431.387	611.99
431.763	608.6
432.138	611.09
432.514	614.25
432.89	631.42
433.265	640.69
433.641	610.18
434.016	629.39
434.392	644.53
434.767	662.84
435.143	640.01
435.518	665.55
435.894	644.98
436.269	682.95
436.644	677.07
437.02	684.76
437.395	661.71
437.77	702.16
438.145	672.78
438.52	695.38
438.895	708.71
439.271	727.69
439.646	714.59
440.021	726.11
440.395	735.38
440.77	731.99
441.145	737.18
441.52	738.09
441.895	741.93
442.27	757.97
442.645	753.45
443.019	747.13
443.394	749.39
443.769	769.73
444.143	755.26
444.518	769.05
444.892	768.37
445.267	760.46
445.641	764.98
446.016	794.13
446.39	780.57
446.764	768.82
447.139	784.19
447.513	775.6
447.887	795.04
448.262	804.07
448.636	790.29
449.01	811.76
449.384	788.26
449.758	818.76
450.132	811.08
450.506	823.74
450.88	813.79
451.254	813.11
451.628	824.64
452.002	860.8
452.376	857.18
452.75	856.05
453.123	869.38
453.497	859.67
453.871	887.01
454.244	862.6
454.618	910.74
454.992	878.65
455.365	915.03
455.739	908.7
456.112	940.34
456.486	924.98
456.859	936.95
457.232	963.84
457.606	953.9
457.979	956.16
458.352	942.38
458.725	987.57
459.099	1000
459.472	988.48
459.845	998.19
460.218	985.99
460.591	1013.79
460.964	1030.96
461.337	1036.16
461.71	1040.45
462.083	1072.54
462.456	1092.65
462.829	1075.03
463.201	1111.41
463.574	1103.5
463.947	1094.69
464.32	1122.71
464.692	1113.45
465.065	1136.27
465.438	1164.07
465.81	1161.35
466.183	1161.13
466.555	1174.69
466.928	1185.08
467.3	1201.13
467.672	1212.88
468.045	1260.56
468.417	1233.22
468.789	1246.78
469.161	1274.57
469.534	1303.72
469.906	1288.36
470.278	1302.37
470.65	1334.46
471.022	1351.86
471.394	1365.64
471.766	1400.9
472.138	1406.09
472.51	1445.64
472.882	1459.65
473.253	1484.51
473.625	1502.36
473.997	1519.31
474.369	1545.07
474.74	1536.71
475.112	1577.39
475.484	1606.31
475.855	1616.26
476.227	1640.89
476.598	1702.36
476.97	1686.09
477.341	1750.72
477.713	1756.14
478.084	1779.19
478.455	1815.57
478.827	1891.73
479.198	1863.48
479.569	1917.94
479.94	1945.06
480.311	1956.36
480.682	1997.94
481.053	2001.11
481.424	2067.77
481.795	2079.97
482.166	2115
482.537	2145.73
482.908	2185.96
483.279	2259.86
483.65	2283.36
484.021	2318.84
484.391	2352.96
484.762	2379.17
485.133	2411.72
485.503	2435.44
485.874	2476.57
486.244	2542.11
486.615	2597.02
486.985	2569.23
487.356	2621.88
487.726	2674.31
488.097	2710.69
488.467	2703.69
488.837	2771.25
489.207	2825.94
489.578	2855.09
489.948	2852.38
490.318	2909.1
490.688	2975.77
491.058	2971.25
491.428	3012.38
491.798	3100.51
492.168	3156.78
492.538	3164.01
492.908	3157.23
493.278	3245.14
493.648	3220.28
494.017	3277.23
494.387	3353.61
494.757	3327.85
495.126	3417.11
495.496	3434.97
495.866	3415.76
496.235	3450.11
496.605	3485.81
496.974	3515.87
497.344	3535.98
497.713	3583.44
498.082	3589.99
498.452	3644
498.821	3656.2
499.19	3667.5
499.559	3694.39
499.928	3711.34
500.298	3756.31
500.667	3778.91
501.036	3763.55
501.405	3789.76
501.774	3830.44
502.143	3833.15
502.512	3879.02
502.88	3897.1
503.249	3922.19
503.618	3936.87
503.987	3973.71
504.356	3973.48
504.724	4015.29
505.093	4037.44
505.462	4047.15
505.83	4058
506.199	4088.73
506.567	4147.04
506.936	4155.63
507.304	4195.17
507.672	4191.56
508.041	4208.05
508.409	4254.83
508.777	4257.77
509.145	4281.05
509.514	4292.12
509.882	4329.63
510.25	4302.51
510.618	4333.47
510.986	4344.32
511.354	4389.74
511.722	4417.77
512.09	4468.16
512.458	4451.89
512.826	4488.5
513.193	4486.01
513.561	4469.29
513.929	4526.46
514.297	4525.56
514.664	4569.63
515.032	4610.3
515.4	4613.69
515.767	4639.91
516.135	4657.76
516.502	4614.82
516.869	4705.44
517.237	4693.24
517.604	4728.04
517.972	4726.01
518.339	4759.23
518.706	4746.12
519.073	4765.55
519.44	4762.61
519.808	4831.99
520.175	4820.47
520.542	4885.78
520.909	4889.39
521.276	4920.12
521.643	4969.39
522.009	4923.06
522.376	4950.86
522.743	4943.85
523.11	5024.53
523.477	5069.05
523.843	5076.05
524.21	5147.24
524.577	5156.95
524.943	5192.43
525.31	5187.69
525.676	5214.81
526.043	5250.06
526.409	5320.34
526.776	5287.8
527.142	5368.47
527.508	5357.18
527.874	5435.59
528.241	5363.96
528.607	5438.08
528.973	5460.45
529.339	5500
529.705	5526.89
530.071	5565.98
530.437	5571.18
530.803	5643.72
531.169	5633.33
531.535	5674.91
531.901	5634.68
532.267	5659.09
532.632	5704.29
532.998	5747.67
533.364	5741.35
533.73	5774.11
534.095	5859.76
534.461	5852.08
534.826	5903.6
535.192	5931.4
535.557	5951.96
535.923	5914.67
536.288	5920.55
536.653	5977.5
537.019	5987.89
537.384	6025.86
537.749	6033.32
538.114	6036.03
538.479	6058.63
538.845	6166.19
539.21	6143.37
539.575	6184.72
539.94	6167.32
540.305	6234.21
540.67	6226.98
541.034	6274.89
541.399	6248.68
541.764	6273.31
542.129	6299.75
542.494	6365.74
542.858	6370.93
543.223	6375.45
543.587	6398.28
543.952	6433.76
544.316	6485.51
544.681	6433.31
545.045	6515.34
545.41	6525.73
545.774	6592.85
546.138	6589.23
546.503	6596.46
546.867	6684.37
547.231	6625.84
547.595	6654.99
547.959	6746.52
548.324	6717.37
548.688	6768.21
549.052	6798.72
549.416	6826.29
549.779	6811.6
550.143	6844.37
550.507	6852.05
550.871	6871.94
551.235	6963.91
551.599	6891.82
551.962	6975.89
552.326	6941.77
552.689	6954.42
553.053	6962.56
553.417	7009.34
553.78	7140.41
554.143	7055.66
554.507	7117.58
554.87	7147.86
555.234	7169.33
555.597	7176.34
555.96	7153.74
556.323	7246.39
556.686	7193.96
557.05	7287.07
557.413	7268.76
557.776	7270.57
558.139	7376.33
558.502	7345.15
558.865	7393.28
559.228	7415.43
559.59	7483.9
559.953	7451.81
560.316	7471.24
560.679	7519.38
561.041	7548.3
561.404	7571.81
561.767	7651.8
562.129	7627.17
562.492	7655.87
562.854	7733.61
563.217	7678.92
563.579	7723.44
563.941	7792.14
564.304	7859.71
564.666	7778.58
565.028	7798.47
565.39	7904.91
565.753	7936.99
566.115	7880.5
566.477	7870.78
566.839	7953.72
567.201	7975.41
567.563	8074.62
567.925	8043.66
568.287	8083.88
568.648	8055.86
569.01	8139.02
569.372	8212.69
569.734	8121.17
570.095	8257.89
570.457	8276.65
570.819	8258.57
571.18	8368.62
571.542	8381.73
571.903	8409.3
572.265	8507.6
572.626	8548.28
572.987	8514.38
573.349	8570.88
573.71	8645.22
574.071	8648.39
574.432	8695.39
574.794	8727.26
575.155	8781.94
575.516	8789.63
575.877	8891.32
576.238	8984.88
576.599	9061.94
576.96	9121.82
577.32	9154.82
577.681	9259.45
578.042	9350.52
578.403	9343.51
578.763	9443.17
579.124	9540.79
579.485	9623.73
579.845	9695.14
580.206	9802.71
580.566	9895.36
580.927	9989.82
581.287	10079.99
581.648	10137.16
582.008	10267.78
582.368	10394.33
582.728	10597.26
583.089	10604.5
583.449	10806.07
583.809	10872.28
584.169	11089.68
584.529	11235.89
584.889	11412.84
585.249	11485.15
585.609	11657.35
585.969	11978.24
586.329	11985.7
586.688	12235.19
587.048	12364.22
587.408	12595.63
587.768	12742.74
588.127	13001.72
588.487	13181.38
588.846	13471.54
589.206	13570.29
589.565	13845.31
589.925	14124.63
590.284	14256.83
590.643	14486.2
591.003	14730.71
591.362	15035.34
591.721	15273.3
592.08	15554.42
592.44	15790.57
592.799	16013.84
593.158	16226.72
593.517	16482.31
593.876	16746.48
594.235	16932.92
594.593	17276.41
594.952	17512.56
595.311	17756.85
595.67	18065.77
596.029	18399.54
596.387	18629.82
596.746	18984.84
597.104	19115.23
597.463	19475.9
597.822	19826.63
598.18	19856.91
598.538	20159.27
598.897	20623.89
599.255	20629.54
599.613	21320.15
599.972	21378
600.33	21735.28
600.688	21766.69
601.046	22128.26
601.404	22511.07
601.762	22753.1
602.12	22945.87
602.478	23189.25
602.836	23465.85
603.194	23432.86
603.552	23841.21
603.91	23888.67
604.268	24351.03
604.625	24554.86
604.983	24914.18
605.341	24977.68
605.698	25374.73
606.056	25531.33
606.413	25701.73
606.771	26081.38
607.128	26173.8
607.485	26446.34
607.843	26692.21
608.2	26867.12
608.557	27260.55
608.914	27317.95
609.272	27596.14
609.629	27856.92
609.986	28065.05
610.343	28176.91
610.7	28545.04
611.057	28599.5
611.414	28768.09
611.771	28970.11
612.127	29300.05
612.484	29283.55
612.841	29701.62
613.198	29737.55
613.554	29880.6
613.911	30164.21
614.267	30399
614.624	30321.49
614.98	30661.82
615.337	30814.59
615.693	30813.23
616.05	30940.46
616.406	31374.12
616.762	31224.52
617.118	31414.57
617.475	31568.92
617.831	31816.37
618.187	31889.59
618.543	32082.8
618.899	32303.81
619.255	32334.77
619.611	32380.65
619.967	32650.7
620.323	32840.75
620.678	32868.77
621.034	32776.34
621.39	33062.89
621.746	32994.87
622.101	33489.32
622.457	33272.37
622.812	33492.71
623.168	33575.19
623.523	33632.36
623.879	33836.43
624.234	33695.64
624.589	33782.87
624.945	33845.69
625.3	34002.52
625.655	34036.2
626.01	34217.21
626.365	34249.3
626.72	34308.73
627.075	34277.77
627.43	34286.81
627.785	34350.76
628.14	34445.68
628.495	34648.83
628.85	34639.34
629.205	34580.36
629.559	34695.39
629.914	34687.48
630.269	34818.1
630.623	34643.64
630.978	34720.25
631.332	34878.21
631.687	34911.65
632.041	34812.67
632.396	34959.34
632.75	34802.28
633.104	34977.87
633.459	34692
633.813	34817.87
634.167	34955.72
634.521	34848.6
634.875	34990.52
635.229	34937.19
635.583	34821.49
635.937	34947.36
636.291	34859.9
636.645	34900.81
636.999	34874.37
637.352	35079.11
637.706	34692.45
638.06	35017.64
638.413	34849.73
638.767	34953.23
639.121	34834.59
639.474	34783.97
639.828	34869.17
640.181	35027.36
640.534	34802.05
640.888	34687.48
641.241	34740.81
641.594	34849.73
641.947	34893.35
642.301	34725.89
642.654	34927.7
643.007	34862.16
643.36	34843.18
643.713	34783.29
644.066	34819.68
644.419	34735.39
644.771	34482.74
645.124	34283.19
645.477	33988.51
645.83	33866.03
646.182	33871.68
646.535	33875.97
646.888	33855.18
647.24	33713.94
647.593	33776.99
647.945	33835.07
648.298	33624.68
648.65	33658.58
649.002	33490.45
649.355	33733.38
649.707	33693.61
650.059	33741.29
650.411	34180.82
650.763	34112.8
651.115	34431.67
651.467	34405
651.819	34313.93
652.171	34314.61
652.523	34322.52
652.875	34214.04
653.227	34206.13
653.578	34390.99
653.93	34298.79
654.282	34136.76
654.633	34128.17
654.985	34227.15
655.337	34219.47
655.688	34187.15
656.039	34320.03
656.391	34059.92
656.742	34245.91
657.094	34230.54
657.445	34296.53
657.796	34174.27
658.147	34169.3
658.498	34035.29
658.849	34045.23
659.2	34045.91
659.551	34066.7
659.902	34140.37
660.253	33949.42
660.604	34174.72
660.955	33996.2
661.306	34032.58
661.656	34061.05
662.007	34014.95
662.358	33931.34
662.708	34090.43
663.059	34049.98
663.409	33816.99
663.76	34082.75
664.11	34126.36
664.461	34151.22
664.811	34104.67
665.161	34155.97
665.511	34040.72
665.862	34087.27
666.212	34179.24
666.562	34028.96
666.912	33991.68
667.262	33849.53
667.612	33908.29
667.962	34088.17
668.312	33927.5
668.662	34079.81
669.011	33856.09
669.361	33918.23
669.711	33851.34
670.06	33821.74
670.41	33802.3
670.76	33771.34
671.109	33846.14
671.459	33880.95
671.808	33822.19
672.157	33913.26
672.507	33650.22
672.856	33632.59
673.205	33757.33
673.554	33851.79
673.904	33871.23
674.253	33908.97
674.602	33691.35
674.951	33281.87
675.3	33110.8
675.649	33701.74
675.998	33569.77
676.346	33581.52
676.695	33809.76
677.044	33510.11
677.393	33596.88
677.741	33584.91
678.09	33571.12
678.438	33515.76
678.787	33532.03
679.135	33554.17
679.484	33219.95
679.832	33479.37
680.181	33212.71
680.529	33221.3
680.877	33223.79
681.225	33182.66
681.573	33328.64
681.922	33176.56
682.27	33051.14
682.618	33046.62
682.966	33049.78
683.314	33032.15
683.661	32900.63
684.009	32831.26
684.357	32651.15
684.705	32636.68
685.053	32713.52
685.4	32727.76
685.748	32518.72
686.095	32545.61
686.443	32335.68
686.79	32393.3
687.138	32501.32
687.485	32371.61
687.832	32354.43
688.18	32306.75
688.527	32081.9
688.874	32114.44
689.221	32099.07
689.568	32003.25
689.915	32002.12
690.262	31902.24
690.609	31862.24
690.956	31741.34
691.303	31710.15
691.65	31411.18
691.997	31502.25
692.344	31441.69
692.69	31291.86
693.037	31405.3
693.383	30956.28
693.73	31162.6
694.077	31014.81
694.423	31015.26
694.769	30965.32
695.116	30829.05
695.462	30704.53
695.808	30744.98
696.155	30687.81
696.501	30521.94
696.847	30574.59
697.193	30396.29
697.539	30457.98
697.885	30182.29
698.231	30177.99
698.577	30280.14
698.923	30058.67
699.269	29895.97
699.614	29862.97
699.96	29765.8
700.306	29688.06
700.651	29656.2
700.997	29606.26
701.342	29527.61
701.688	29553.83
702.033	29427.05
702.379	29467.28
702.724	29343.66
703.069	29268.41
703.415	28933.5
703.76	29015.31
704.105	29094.18
704.45	28966.72
704.795	28733.96
705.14	28811.47
705.485	28787.75
705.83	28589.78
706.175	28622.55
706.52	28526.74
706.865	28474.99
707.209	28298.27
707.554	28366.06
707.899	28347.53
708.243	28176.01
708.588	28230.92
708.932	28008.11
709.277	27910.71
709.621	27894.44
709.966	27856.47
710.31	27857.6
710.654	27519.53
710.998	27574.22
711.342	27648.57
711.687	27578.51
712.031	27437.5
712.375	27359.76
712.719	27431.62
713.063	27350.95
713.407	27382.59
713.75	27282.25
714.094	27209.26
714.438	27094.68
714.782	27044.74
715.125	26931.3
715.469	26985.76
715.812	26848.59
716.156	26731.75
716.499	26753.45
716.843	26897.17
717.186	26490.63
717.53	26803.84
717.873	26783.96
718.216	26638.42
718.559	26473
718.902	26393.91
719.246	26593.23
719.589	26414.25
719.932	26319.11
720.275	26291.54
720.617	26272.33
720.96	26250.19
721.303	26113.24
721.646	26206.8
721.989	25970.64
722.331	26118.66
722.674	25971.1
723.016	25978.78
723.359	25934.94
723.701	26001.15
724.044	25848.16
724.386	25666.25
724.729	25696.98
725.071	25680.26
725.413	25736.3
725.755	25626.25
726.097	25505.12
726.439	25433.71
726.782	25566.59
727.124	25503.31
727.465	25463.77
727.807	25416.31
728.149	25372.69
728.491	25290.66
728.833	25347.16
729.175	25057.22
729.516	25136.09
729.858	25138.58
730.199	25066.94
730.541	25073.04
730.882	25042.53
731.224	24983.33
731.565	24890
731.906	24934.97
732.248	24936.1
732.589	24780.39
732.93	24772.48
733.271	24730.23
733.612	24840.05
733.953	24786.27
734.294	24615.65
734.635	24636.89
734.976	24601.42
735.317	24521.42
735.658	24560.96
735.999	24435.77
736.339	24529.33
736.68	24525.26
737.021	24462.89
737.361	24345.6
737.702	24351.03
738.042	24268.77
738.383	24338.82
738.723	24244.59
739.063	24118.94
739.404	24219.73
739.744	24245.72
740.084	24066.74
740.424	24122.78
740.764	23987.19
741.104	24174.53
741.444	24062.22
741.784	23902.68
742.124	24001.66
742.464	23919.63
742.804	23933.86
743.143	23833.3
743.483	23796.01
743.823	23627.43
744.162	23657.94
744.502	23774.54
744.841	23676.69
745.181	23771.15
745.52	23629.24
745.86	23676.02
746.199	23529.35
746.538	23513.99
746.877	23563.7
747.216	23521.22
747.556	23349.02
747.895	23420.43
748.234	23362.8
748.573	23336.82
748.911	23262.92
749.25	23256.59
749.589	23134.34
749.928	23305.63
750.267	23177.5
750.605	23184.05
750.944	23016.82
751.283	22971.4
751.621	23039.2
751.96	22886.66
752.298	22918.52
752.636	22966.66
752.975	22782.71
753.313	22692.76
753.651	22819.09
753.989	22559.66
754.327	22601.47
754.666	22521.7
755.004	22510.4
755.342	22476.05
755.679	22476.73
756.017	22426.78
756.355	22413.45
756.693	22222.49
757.031	22350.85
757.368	22235.38
757.706	22225.66
758.044	22144.76
758.381	22079.22
758.719	22066.11
759.056	22068.6
759.394	21990.64
759.731	21833.35
760.068	21760.81
760.405	21789.96
760.743	21639.69
