Data from hue_190_FLMS001491_00057.txt Node
Date: Tue Feb 07 16:45:29 GMT 2017
User: dcchb
Spectrometer: FLMS00149
Trigger mode: 0
Integration Time (sec): 2.000000E-2
Scans to average: 10
Electric dark correction enabled: true
Nonlinearity correction enabled: false
Boxcar width: 0
XAxis mode: Wavelengths
Number of Pixels in Spectrum: 2048
>>>>>Begin Spectral Data<<<<<
341.393	1.64
341.776	1.64
342.16	1.64
342.543	-57.34
342.927	-67.74
343.31	-34.07
343.693	-62.77
344.077	-80.17
344.46	-66.83
344.843	-49.66
345.226	-45.37
345.61	-18.02
345.993	-37
346.376	-14.18
346.759	22.88
347.142	29.43
347.525	53.16
347.908	48.19
348.291	58.59
348.674	90.22
349.057	105.59
349.44	129.32
349.823	144.23
350.206	168.19
350.588	225.14
350.971	226.04
351.354	235.53
351.737	234.4
352.119	258.81
352.502	265.81
352.884	286.6
353.267	276.43
353.65	295.87
354.032	308.52
354.414	326.6
354.797	323.89
355.179	319.14
355.562	314.85
355.944	308.07
356.326	332.93
356.709	335.41
357.091	333.83
357.473	348.75
357.855	322.31
358.238	348.07
358.62	326.38
359.002	314.4
359.384	342.42
359.766	335.19
360.148	343.55
360.53	339.03
360.912	340.61
361.294	361.18
361.676	350.56
362.057	339.48
362.439	314.17
362.821	320.73
363.203	308.52
363.584	315.98
363.966	321.63
364.348	317.56
364.729	312.36
365.111	322.31
365.493	310.78
365.874	323.89
366.256	319.82
366.637	316.88
367.019	320.05
367.4	281.63
367.781	328.64
368.163	306.04
368.544	300.16
368.925	316.43
369.306	295.87
369.688	309.43
370.069	299.26
370.45	311.46
370.831	310.33
371.212	292.7
371.593	314.17
371.974	288.64
372.355	306.72
372.736	296.77
373.117	322.08
373.498	315.98
373.879	306.26
374.26	334.06
374.641	324.57
375.021	313.27
375.402	315.53
375.783	301.07
376.163	306.72
376.544	320.27
376.925	316.21
377.305	322.53
377.686	321.86
378.066	341.29
378.447	338.35
378.827	356.66
379.208	341.52
379.588	331.8
379.968	334.28
380.349	336.09
380.729	327.96
381.109	342.19
381.489	341.06
381.87	320.05
382.25	343.78
382.63	322.76
383.01	335.19
383.39	337.67
383.77	316.21
384.15	318.47
384.53	346.26
384.91	332.25
385.29	327.73
385.67	351.91
386.049	353.49
386.429	354.4
386.809	351.91
387.189	363.66
387.568	351.23
387.948	358.92
388.328	353.49
388.707	366.83
389.087	358.47
389.466	365.7
389.846	343.78
390.225	374.28
390.605	368.86
390.984	353.04
391.363	377.45
391.743	360.72
392.122	365.24
392.501	375.41
392.881	372.25
393.26	371.12
393.639	376.54
394.018	399.59
394.397	395.3
394.776	378.13
395.155	390.33
395.534	388.75
395.913	377.67
396.292	401.4
396.671	376.54
397.05	400.5
397.429	405.24
397.808	386.26
398.186	386.71
398.565	412.02
398.944	402.53
399.323	414.06
399.701	405.7
400.08	402.98
400.458	407.5
400.837	401.4
401.215	414.96
401.594	382.19
401.972	402.31
402.351	412.7
402.729	419.03
403.107	442.08
403.486	443.43
403.864	428.97
404.242	417.45
404.62	424
404.999	441.4
405.377	462.87
405.755	430.78
406.133	447.5
406.511	454.28
406.889	460.84
407.267	452.7
407.645	488.63
408.023	499.25
408.401	491.12
408.779	475.07
409.156	494.51
409.534	488.63
409.912	514.17
410.29	523.66
410.667	523.66
411.045	535.18
411.422	515.52
411.8	535.86
412.178	542.19
412.555	571.79
412.933	563.88
413.31	579.02
413.687	587.16
414.065	595.97
414.442	604.33
414.819	618.57
415.197	609.76
415.574	629.19
415.951	624.9
416.328	662.41
416.705	643.43
417.082	643.43
417.46	647.72
417.837	658.57
418.214	690.21
418.591	683.88
418.967	678.46
419.344	706.03
419.721	704.44
420.098	699.93
420.475	732.24
420.852	734.5
421.228	747.83
421.605	756.65
421.982	768.17
422.358	760.49
422.735	793.93
423.111	804.56
423.488	828.96
423.864	858.56
424.241	847.72
424.617	855.18
424.994	861.05
425.37	885.68
425.746	901.28
426.123	916.19
426.499	907.6
426.875	934.04
427.251	939.92
427.627	945.34
428.003	950.09
428.379	974.95
428.756	1009.52
429.132	995.28
429.507	1012.69
429.883	1013.59
430.259	1058.56
430.635	1071.44
431.011	1061.72
431.387	1090.65
431.763	1087.03
432.138	1100.82
432.514	1111.44
432.89	1124.77
433.265	1164.32
433.641	1186.24
434.016	1203.87
434.392	1216.97
434.767	1252.9
435.143	1271.89
435.518	1280.47
435.894	1307.59
436.269	1334.71
436.644	1350.98
437.02	1335.84
437.395	1386.91
437.77	1400.7
438.145	1455.61
438.52	1468.72
438.895	1503.97
439.271	1486.57
439.646	1506.23
440.021	1519.56
440.395	1553.01
440.77	1564.08
441.145	1574.25
441.52	1629.84
441.895	1616.74
442.27	1650.86
442.645	1686.34
443.019	1708.94
443.394	1694.48
443.769	1718.88
444.143	1713.68
444.518	1752.55
444.892	1768.82
445.267	1792.1
445.641	1793.91
446.016	1784.64
446.39	1839.78
446.764	1827.58
447.139	1877.07
447.513	1860.8
447.887	1873.23
448.262	1911.87
448.636	1886.33
449.01	1918.42
449.384	1957.29
449.758	1955.94
450.132	2005.88
450.506	2027.12
450.88	2001.13
451.254	2030.06
451.628	2056.95
452.002	2082.04
452.376	2099.89
452.75	2119.32
453.123	2154.58
453.497	2152.32
453.871	2211.52
454.244	2239.32
454.618	2201.13
454.992	2280.22
455.365	2279.77
455.739	2353.89
456.112	2350.5
456.486	2369.94
456.859	2389.6
457.232	2452.2
457.606	2455.13
457.979	2454.91
458.352	2548.24
458.725	2521.12
459.099	2557.05
459.472	2628.69
459.845	2661.91
460.218	2635.69
460.591	2675.69
460.964	2699.42
461.337	2772.41
461.71	2806.54
462.083	2835.46
462.456	2883.14
462.829	2872.07
463.201	2959.75
463.574	2931.05
463.947	2992.29
464.32	3048.56
464.692	3081.11
465.065	3129.69
465.438	3150.48
465.81	3194.1
466.183	3228.9
466.555	3319.29
466.928	3319.52
467.3	3347.99
467.672	3387.31
468.045	3491.94
468.417	3495.33
468.789	3512.51
469.161	3559.96
469.534	3649.23
469.906	3757.7
470.278	3719.05
470.65	3801.76
471.022	3856.9
471.394	3970.8
471.766	4022.78
472.138	4019.16
472.51	4148.65
472.882	4189.55
473.253	4208.08
473.625	4269.77
473.997	4388.42
474.369	4408.98
474.74	4493.5
475.112	4549.09
475.484	4640.39
475.855	4672.93
476.227	4776.88
476.598	4955.18
476.97	4898.23
477.341	5045.8
477.713	5139.36
478.084	5148.85
478.455	5247.15
478.827	5361.27
479.198	5489.18
479.569	5603.75
479.94	5625.9
480.311	5694.6
480.682	5823.18
481.053	5978.88
481.424	6050.29
481.795	6103.62
482.166	6217.97
482.537	6280.12
482.908	6438.53
483.279	6533.22
483.65	6620.67
484.021	6761.69
484.391	6829.03
484.762	6897.05
485.133	6973.88
485.503	7148.57
485.874	7305.63
486.244	7260.43
486.615	7407.77
486.985	7541.78
487.356	7728.89
487.726	7676.46
488.097	7898.61
488.467	7933.86
488.837	8034.2
489.207	8165.04
489.578	8260.86
489.948	8411.59
490.318	8489.55
490.688	8527.74
491.058	8656.78
491.428	8758.7
491.798	8813.38
492.168	8974.06
492.538	9016.77
492.908	9121.17
493.278	9255.86
493.648	9267.84
494.017	9367.72
494.387	9395.29
494.757	9500.82
495.126	9632.35
495.496	9607.94
495.866	9694.72
496.235	9785.11
496.605	9843.87
496.974	9897.2
497.344	9983.52
497.713	10021.04
498.082	10135.61
498.452	10127.02
498.821	10157.53
499.19	10205.44
499.559	10311.2
499.928	10327.69
500.298	10373.34
500.667	10520.23
501.036	10442.49
501.405	10570.17
501.774	10547.12
502.143	10593.68
502.512	10573.34
502.88	10736.95
503.249	10697.18
503.618	10749.6
503.987	10763.39
504.356	10816.27
504.724	10843.39
505.093	10877.74
505.462	10901.69
505.83	10900.79
506.199	11029.82
506.567	11101.69
506.936	11023.27
507.304	11194.34
507.672	11172.19
508.041	11247.67
508.409	11274.34
508.777	11325.41
509.145	11345.52
509.514	11246.77
509.882	11332.19
510.25	11298.29
510.618	11341
510.986	11340.55
511.354	11442.69
511.722	11501.9
512.09	11578.96
512.458	11507.55
512.826	11576.25
513.193	11569.7
513.561	11581.9
513.929	11533.99
514.297	11686.98
514.664	11799.07
515.032	11679.07
515.4	11715.23
515.767	11729.24
516.135	11718.62
516.502	11677.72
516.869	11858.5
517.237	11802.68
517.604	11743.25
517.972	11825.06
518.339	11816.69
518.706	11787.77
519.073	11812.63
519.44	11910.7
519.808	11966.07
520.175	11888.11
520.542	11914.32
520.909	11884.94
521.276	11850.14
521.643	11939.18
522.009	12018.72
522.376	11999.74
522.743	11940.53
523.11	12013.53
523.477	12060.76
523.843	12063.92
524.21	12090.59
524.577	12098.95
524.943	12081.77
525.31	12070.47
525.676	12070.47
526.043	12126.97
526.409	12152.28
526.776	12194.54
527.142	12107.76
527.508	12178.95
527.874	12166.52
528.241	12187.08
528.607	12173.07
528.973	12150.7
529.339	12042.9
529.705	12128.78
530.071	12101.66
530.437	12134.2
530.803	12047.88
531.169	12057.14
531.535	12000.87
531.901	11947.09
532.267	11959.06
532.632	12031.83
532.998	12037.71
533.364	11914.32
533.73	11883.36
534.095	11915
534.461	11864.38
534.826	11849.24
535.192	11818.5
535.557	11812.4
535.923	11684.5
536.288	11671.16
536.653	11595.46
537.019	11635.68
537.384	11560.2
537.749	11542.58
538.114	11498.96
538.479	11472.07
538.845	11378.97
539.21	11352.98
539.575	11305.3
539.94	11259.65
540.305	11271.4
540.67	11148.24
541.034	11131.52
541.399	11111.85
541.764	11075.02
542.129	11015.81
542.494	10996.38
542.858	10968.81
543.223	10885.19
543.587	10867.34
543.952	10822.37
544.316	10746.21
544.681	10694.24
545.045	10680.23
545.41	10645.65
545.774	10609.27
546.138	10463.06
546.503	10512.1
546.867	10447.01
547.231	10399.56
547.595	10430.74
547.959	10355.72
548.324	10348.71
548.688	10200.47
549.052	10206.79
549.416	10127.47
549.779	10085.44
550.143	10096.29
550.507	10009.74
550.871	10017.19
551.235	9932.22
551.599	9934.71
551.962	9880.25
552.326	9783.3
552.689	9835.5
553.053	9712.8
553.417	9699.69
553.78	9702.17
554.143	9612.91
554.507	9568.17
554.87	9518.22
555.234	9631.44
555.597	9471.22
555.96	9407.94
556.323	9443.42
556.686	9405.01
557.05	9427.61
557.413	9386.48
557.776	9353.03
558.139	9347.61
558.502	9330.88
558.865	9285.01
559.228	9241.17
559.59	9245.24
559.953	9186.93
560.316	9267.61
560.679	9246.37
561.041	9202.98
561.404	9221.28
561.767	9204.56
562.129	9147.16
562.492	9149.87
562.854	9099.7
563.217	9059.93
563.579	9101.74
563.941	9143.54
564.304	9087.5
564.666	9109.42
565.028	9045.69
565.39	9082.98
565.753	9005.7
566.115	9058.12
566.477	9082.08
566.839	9084.11
567.201	9074.62
567.563	9069.65
567.925	9059.03
568.287	9081.85
568.648	9082.3
569.01	9058.8
569.372	9091.79
569.734	9061.97
570.095	9098.57
570.457	9054.06
570.819	9069.87
571.18	8963.66
571.542	9054.73
571.903	9070.78
572.265	9050.44
572.626	9087.95
572.987	9066.48
573.349	9029.2
573.71	9025.36
574.071	9000.95
574.432	9032.36
574.794	9094.05
575.155	9035.3
575.516	9009.99
575.877	9054.73
576.238	9032.81
576.599	9037.33
576.96	9025.81
577.32	9049.54
577.681	9040.04
578.042	9041.85
578.403	9063.32
578.763	9097.67
579.124	8986.49
579.485	9042.98
579.845	9042.3
580.206	8975.41
580.566	9016.32
580.927	9002.31
581.287	9060.84
581.648	9021.74
582.008	8984.9
582.368	9008.41
582.728	8962.76
583.089	9007.96
583.449	8963.44
583.809	8913.04
584.169	8942.65
584.529	8901.97
584.889	8978.13
585.249	8932.03
585.609	8812.71
585.969	8957.56
586.329	8906.49
586.688	8960.27
587.048	8867.17
587.408	8857.9
587.768	8875.3
588.127	8806.15
588.487	8798.24
588.846	8814.29
589.206	8839.82
589.565	8760.28
589.925	8804.34
590.284	8810.45
590.643	8744.69
591.003	8833.5
591.362	8798.92
591.721	8779.26
592.08	8788.53
592.44	8797.34
592.799	8781.07
593.158	8738.36
593.517	8682.31
593.876	8708.08
594.235	8697.68
594.593	8709.88
594.952	8711.92
595.311	8673.27
595.67	8701.97
596.029	8653.16
596.387	8671.24
596.746	8750.33
597.104	8709.43
597.463	8642.77
597.822	8654.07
598.18	8583.56
598.538	8613.16
598.897	8741.52
599.255	8577.91
599.613	8744.23
599.972	8660.17
600.33	8648.87
600.688	8533.39
601.046	8677.12
601.404	8705.82
601.762	8660.62
602.12	8644.57
602.478	8673.05
602.836	8632.6
603.194	8529.78
603.552	8622.65
603.91	8608.42
604.268	8597.34
604.625	8553.73
604.983	8645.7
605.341	8596.21
605.698	8586.72
606.056	8592.37
606.413	8598.25
606.771	8605.93
607.128	8627.63
607.485	8628.76
607.843	8627.4
608.2	8635.99
608.557	8697.23
608.914	8607.29
609.272	8653.61
609.629	8652.48
609.986	8607.97
610.343	8670.11
610.7	8660.39
611.057	8634.18
611.414	8638.93
611.771	8656.1
612.127	8694.97
612.484	8686.83
612.841	8693.61
613.198	8681.86
613.554	8664.46
613.911	8737.23
614.267	8675.08
614.624	8686.83
614.98	8648.64
615.337	8679.6
615.693	8658.36
616.05	8666.04
616.406	8735.65
616.762	8698.58
617.118	8708.3
617.475	8660.39
617.831	8740.17
618.187	8775.42
618.543	8760.96
618.899	8753.05
619.255	8751.24
619.611	8710.34
619.967	8794.4
620.323	8813.61
620.678	8713.73
621.034	8720.05
621.39	8767.28
621.746	8652.94
622.101	8771.13
622.457	8738.81
622.812	8728.64
623.168	8766.15
623.523	8766.15
623.879	8761.41
624.234	8752.14
624.589	8768.41
624.945	8742.43
625.3	8741.97
625.655	8749.88
626.01	8757.79
626.365	8709.88
626.72	8766.83
627.075	8793.5
627.43	8809.09
627.785	8757.79
628.14	8717.79
628.495	8708.08
628.85	8736.1
629.205	8699.94
629.559	8765.48
629.914	8679.38
630.269	8700.17
630.623	8661.52
630.978	8657.68
631.332	8697.23
631.687	8701.3
632.041	8619.72
632.396	8617.91
632.75	8627.85
633.104	8602.77
633.459	8574.52
633.813	8522.54
634.167	8534.3
634.521	8509.66
634.875	8571.81
635.229	8548.98
635.583	8487.74
635.937	8522.77
636.291	8501.53
636.645	8540.17
636.999	8470.34
637.352	8464.69
637.706	8420.63
638.06	8480.29
638.413	8475.54
638.767	8466.95
639.121	8501.98
639.474	8395.09
639.828	8400.51
640.181	8414.3
640.534	8440.06
640.888	8405.71
641.241	8325.49
641.594	8384.24
641.947	8388.08
642.301	8332.49
642.654	8381.08
643.007	8388.08
643.36	8312.61
643.713	8308.09
644.066	8345.83
644.419	8320.06
644.771	8290.69
645.124	8173.85
645.477	8214.98
645.83	8149.22
646.182	8149.22
646.535	8080.75
646.888	8099.5
647.24	8036.68
647.593	8064.25
647.945	8094.53
648.298	7956.46
648.65	8014.31
649.002	8049.11
649.355	8027.42
649.707	8088.66
650.059	8086.17
650.411	8224.7
650.763	8209.33
651.115	8159.16
651.467	8224.02
651.819	8245.26
652.171	8278.71
652.523	8241.2
652.875	8213.17
653.227	8254.75
653.578	8264.47
653.93	8241.65
654.282	8186.28
654.633	8217.02
654.985	8158.26
655.337	8255.21
655.688	8187.64
656.039	8226.28
656.391	8177.92
656.742	8194.19
657.094	8222.44
657.445	8212.27
657.796	8162.33
658.147	8156.68
658.498	8179.05
658.849	8232.61
659.2	8254.75
659.551	8226.28
659.902	8258.82
660.253	8238.26
660.604	8252.72
660.955	8237.81
661.306	8252.49
661.656	8249.11
662.007	8252.95
662.358	8287.07
662.708	8273.74
663.059	8271.93
663.409	8233.74
663.76	8281.42
664.11	8240.07
664.461	8318.93
664.811	8283.23
665.161	8271.25
665.511	8272.83
665.862	8298.14
666.212	8311.7
666.562	8311.25
666.912	8292.49
667.262	8284.58
667.612	8331.36
667.962	8276.45
668.312	8283.23
668.662	8330.68
669.011	8327.52
669.361	8318.26
669.711	8283.23
670.06	8300.86
670.41	8284.58
670.76	8242.78
671.109	8330.01
671.459	8258.6
671.808	8265.15
672.157	8346.5
672.507	8229.22
672.856	8215.66
673.205	8250.01
673.554	8265.83
673.904	8218.15
674.253	8246.39
674.602	8181.54
674.951	8075.1
675.3	8010.24
675.649	8218.6
675.998	8154.64
676.346	8186.51
676.695	8208.88
677.044	8170.69
677.393	8146.51
677.741	8080.07
678.09	8115.1
678.438	8130.46
678.787	8071.71
679.135	8093.4
679.484	8072.16
679.832	8051.37
680.181	8028.09
680.529	8058.6
680.877	7955.55
681.225	8037.59
681.573	8019.28
681.922	8008.66
682.27	7918.04
682.618	7913.52
682.966	7892.73
683.314	7900.64
683.661	7937.25
684.009	7840.08
684.357	7873.75
684.705	7843.92
685.053	7847.99
685.4	7821.55
685.748	7780.42
686.095	7797.37
686.443	7696.58
686.79	7699.97
687.138	7718.5
687.485	7710.81
687.832	7713.75
688.18	7658.39
688.527	7657.93
688.874	7669.23
689.221	7651.15
689.568	7584.49
689.915	7586.3
690.262	7564.38
690.609	7504.49
690.956	7501.33
691.303	7517.15
691.65	7490.48
691.997	7493.19
692.344	7380.65
692.69	7396.02
693.037	7391.95
693.383	7322.8
693.73	7346.98
694.077	7255.46
694.423	7269.7
694.769	7233.76
695.116	7268.11
695.462	7232.86
695.808	7192.41
696.155	7171.62
696.501	7192.64
696.847	7061.79
697.193	7077.38
697.539	7001.91
697.885	6989.48
698.231	6992.64
698.577	7012.98
698.923	6938.63
699.269	6904.06
699.614	6907.67
699.96	6778.41
700.306	6863.38
700.651	6800.56
700.997	6770.27
701.342	6754.68
701.688	6758.97
702.033	6747
702.379	6690.05
702.724	6656.38
703.069	6644.85
703.415	6611.41
703.76	6674.68
704.105	6615.25
704.45	6541.13
704.795	6541.35
705.14	6483.28
705.485	6493.22
705.83	6442.37
706.175	6418.87
706.52	6434.24
706.865	6369.38
707.209	6374.35
707.554	6390.85
707.899	6415.93
708.243	6359.89
708.588	6366.67
708.932	6289.16
709.277	6289.38
709.621	6257.52
709.966	6235.6
710.31	6248.25
710.654	6220.23
710.998	6193.57
711.342	6213.68
711.687	6148.6
712.031	6119.67
712.375	6171.42
712.719	6130.74
713.063	6108.14
713.407	6085.09
713.75	6076.28
714.094	6065.89
714.438	6070.41
714.782	6076.28
715.125	6015.94
715.469	6069.73
715.812	6072.44
716.156	5994.02
716.499	6017.53
716.843	5959.45
717.186	6005.32
717.53	5995.83
717.873	5993.8
718.216	5972.33
718.559	5916.06
718.902	5906.79
719.246	5904.08
719.589	5942.95
719.932	5917.64
720.275	5940.69
720.617	5852.11
720.96	5893.46
721.303	5891.43
721.646	5877.87
721.989	5795.61
722.331	5884.42
722.674	5927.13
723.016	5875.61
723.359	5930.3
723.701	5859.34
724.044	5875.61
724.386	5864.99
724.729	5881.71
725.071	5840.58
725.413	5824.76
725.755	5844.2
726.097	5824.54
726.439	5823.63
726.782	5831.09
727.124	5848.04
727.465	5757.87
727.807	5775.5
728.149	5793.58
728.491	5760.36
728.833	5756.97
729.175	5747.93
729.516	5765.33
729.858	5774.82
730.199	5799.9
730.541	5808.94
730.882	5802.84
731.224	5797.64
731.565	5753.35
731.906	5781.15
732.248	5782.96
732.589	5788.83
732.93	5794.03
733.271	5753.35
733.612	5745.44
733.953	5802.39
734.294	5809.4
734.635	5811.66
734.976	5801.03
735.317	5759.23
735.658	5800.13
735.999	5763.97
736.339	5779.57
736.68	5833.35
737.021	5833.35
737.361	5829.06
737.702	5838.77
738.042	5788.83
738.383	5879
738.723	5855.04
739.063	5883.97
739.404	5859.56
739.744	5891.43
740.084	5883.74
740.424	5921.26
740.764	5952.44
741.104	5998.77
741.444	5884.2
741.784	5924.65
742.124	5941.14
742.464	5996.96
742.804	6013.23
743.143	6012.55
743.483	6020.92
743.823	6005.1
744.162	6113.34
744.502	6097.07
744.841	6068.6
745.181	6152.44
745.52	6133.68
745.86	6217.75
746.199	6223.85
746.538	6252.1
746.877	6322.38
747.216	6389.49
747.556	6370.06
747.895	6398.98
748.234	6454.35
748.573	6516.04
748.911	6594.91
749.25	6653.89
749.589	6612.76
749.928	6772.31
750.267	6789.26
750.605	6884.17
750.944	6904.51
751.283	6958.74
751.621	7072.19
751.96	7134.78
752.298	7278.96
752.636	7333.65
752.975	7485.74
753.313	7448.67
753.651	7678.27
753.989	7765.05
754.327	7761.66
754.666	7925.27
755.004	8089.56
755.342	8217.69
755.679	8348.76
756.017	8390.12
756.355	8603.22
756.693	8737.91
757.031	8837.11
757.368	8978.8
757.706	9129.31
758.044	9332.69
758.381	9441.62
758.719	9595.06
759.056	9747.37
759.394	9947.37
759.731	10010.19
760.068	10190.52
760.405	10352.33
760.743	10568.82
761.08	10709.83
761.417	10926.55
761.754	11040.67
762.091	11239.99
762.428	11341.45
762.765	11504.61
763.102	11762.23
763.438	11944.83
763.775	12065.05
764.112	12239.06
764.449	12484.47
764.785	12629.1
765.122	12735.31
765.458	12905.93
765.795	13060.73
766.131	13210.1
