Data from hue_210_FLMS001491_00067.txt Node
Date: Tue Feb 07 16:41:33 GMT 2017
User: dcchb
Spectrometer: FLMS00149
Trigger mode: 0
Integration Time (sec): 2.000000E-2
Scans to average: 10
Electric dark correction enabled: true
Nonlinearity correction enabled: false
Boxcar width: 0
XAxis mode: Wavelengths
Number of Pixels in Spectrum: 2048
>>>>>Begin Spectral Data<<<<<
341.393	-37.75
341.776	-37.75
342.16	-37.75
342.543	-87.02
342.927	-59.22
343.31	-74.59
343.693	-80.92
344.077	-54.25
344.46	-62.61
344.843	-54.25
345.226	-27.13
345.61	-23.74
345.993	-23.74
346.376	-14.7
346.759	13.32
347.142	40.66
347.525	42.7
347.908	59.42
348.291	64.39
348.674	85.86
349.057	109.59
349.44	127.21
349.823	126.76
350.206	150.04
350.588	190.04
350.971	207.66
351.354	221
351.737	222.13
352.119	245.86
352.502	255.12
352.884	275.23
353.267	277.27
353.65	295.8
354.032	297.15
354.414	301.45
354.797	304.16
355.179	332.86
355.562	333.99
355.944	311.16
356.326	319.3
356.709	340.77
357.091	341.67
357.473	312.07
357.855	333.31
358.238	353.42
358.62	333.08
359.002	299.86
359.384	341.45
359.766	334.67
360.148	318.4
360.53	347.1
360.912	320.43
361.294	331.28
361.676	327.66
362.057	328.79
362.439	332.63
362.821	330.82
363.203	338.06
363.584	313.42
363.966	303.48
364.348	298.74
364.729	302.58
365.111	291.73
365.493	292.86
365.874	293.09
366.256	304.16
366.637	310.26
367.019	300.54
367.4	299.41
367.781	293.31
368.163	315.46
368.544	320.66
368.925	313.2
369.306	307.77
369.688	305.51
370.069	303.48
370.45	284.72
370.831	320.66
371.212	309.36
371.593	298.74
371.974	306.42
372.355	319.98
372.736	307.55
373.117	294.44
373.498	301.67
373.879	308
374.26	301.22
374.641	310.49
375.021	332.18
375.402	310.03
375.783	317.27
376.163	314.55
376.544	318.4
376.925	335.57
377.305	310.26
377.686	345.97
378.066	300.54
378.447	322.69
378.827	317.94
379.208	314.1
379.588	324.27
379.968	347.32
380.349	332.18
380.729	323.14
381.109	329.92
381.489	346.19
381.87	353.42
382.25	330.6
382.63	338.28
383.01	354.78
383.39	341.67
383.77	346.64
384.15	332.86
384.53	336.47
384.91	347.55
385.29	335.8
385.67	340.77
386.049	338.28
386.429	352.07
386.809	352.07
387.189	354.1
387.568	360.43
387.948	344.38
388.328	355
388.707	355.46
389.087	344.84
389.466	378.73
389.846	367.21
390.225	358.17
390.605	349.36
390.984	376.93
391.363	355.91
391.743	363.37
392.122	371.05
392.501	362.91
392.881	361.11
393.26	355
393.639	367.89
394.018	383.7
394.397	398.62
394.776	389.81
395.155	411.5
395.534	372.18
395.913	395.46
396.292	364.5
396.671	390.26
397.05	389.35
397.429	394.33
397.808	386.42
398.186	414.21
398.565	412.63
398.944	386.19
399.323	411.27
399.701	416.02
400.08	418.28
400.458	398.39
400.837	410.37
401.215	423.7
401.594	407.21
401.972	404.72
402.351	415.57
402.729	446.98
403.107	419.86
403.486	422.12
403.864	427.09
404.242	430.71
404.62	439.97
404.999	446.3
405.377	437.49
405.755	468.9
406.133	474.55
406.511	466.19
406.889	459.18
407.267	460.99
407.645	472.29
408.023	492.18
408.401	484.27
408.779	488.11
409.156	496.24
409.534	508.67
409.912	534.21
410.29	530.14
410.667	523.59
411.045	542.57
411.422	536.92
411.8	561.33
412.178	562.91
412.555	555.23
412.933	581.67
413.31	599.74
413.687	582.8
414.065	580.99
414.442	619.63
414.819	640.87
415.197	617.37
415.574	651.95
415.951	657.6
416.328	661.44
416.705	657.6
417.082	681.32
417.46	670.93
417.837	674.54
418.214	710.25
418.591	702.11
418.967	701.21
419.344	707.76
419.721	724.71
420.098	756.58
420.475	748.21
420.852	764.71
421.228	768.1
421.605	780.98
421.982	802
422.358	790.93
422.735	816.46
423.111	833.86
423.488	867.31
423.864	863.24
424.241	884.26
424.617	896.69
424.994	912.05
425.37	924.71
425.746	938.49
426.123	947.76
426.499	949.34
426.875	972.84
427.251	972.84
427.627	989.34
428.003	994.08
428.379	1044.48
428.756	1029.56
429.132	1058.94
429.507	1064.36
429.883	1086.96
430.259	1094.65
430.635	1098.26
431.011	1115.44
431.387	1129.45
431.763	1159.96
432.138	1164.7
432.514	1196.79
432.89	1203.8
433.265	1255.77
433.641	1228.43
434.016	1256.9
434.392	1286.05
434.767	1321.08
435.143	1333.96
435.518	1345.49
435.894	1377.12
436.269	1399.05
436.644	1411.93
437.02	1446.5
437.395	1449.44
437.77	1494.41
438.145	1506.61
438.52	1527.86
438.895	1540.51
439.271	1553.62
439.646	1634.07
440.021	1633.39
440.395	1653.5
440.77	1647.63
441.145	1682.88
441.52	1715.2
441.895	1705.93
442.27	1745.48
442.645	1760.62
443.019	1777.34
443.394	1802.42
443.769	1787.96
444.143	1827.96
444.518	1846.49
444.892	1841.07
445.267	1872.03
445.641	1902.31
446.016	1909.99
446.39	1924.68
446.764	1919.94
447.139	1938.69
447.513	1966.71
447.887	1970.33
448.262	1997.22
448.636	1997
449.01	2023.21
449.384	2066.82
449.758	2027.5
450.132	2074.73
450.506	2088.97
450.88	2112.02
451.254	2095.52
451.628	2154.28
452.002	2195.18
452.376	2189.53
452.75	2176.2
453.123	2198.35
453.497	2243.54
453.871	2281.51
454.244	2310.43
454.618	2311.79
454.992	2337.78
455.365	2366.03
455.739	2407.38
456.112	2444.67
456.486	2468.62
456.859	2483.31
457.232	2496.87
457.606	2514.95
457.979	2524.67
458.352	2570.54
458.725	2634.27
459.099	2637.43
459.472	2707.94
459.845	2754.72
460.218	2755.39
460.591	2769.4
460.964	2802.17
461.337	2855.28
461.71	2869.51
462.083	2885.56
462.456	2935.73
462.829	2946.58
463.201	2936.86
463.574	3003.97
463.947	2989.29
464.32	3093.69
464.692	3111.09
465.065	3142.28
465.438	3189.51
465.81	3208.49
466.183	3255.49
466.555	3328.49
466.928	3321.71
467.3	3337.75
467.672	3351.99
468.045	3524.86
468.417	3464.08
468.789	3458.2
469.161	3552.66
469.534	3581.13
469.906	3647.8
470.278	3692.54
470.65	3737.06
471.022	3834.01
471.394	3880.11
471.766	3878.08
472.138	3932.09
472.51	3970.28
472.882	4079.65
473.253	4110.16
473.625	4181.34
473.997	4176.6
474.369	4205.53
474.74	4272.87
475.112	4348.35
475.484	4383.37
475.855	4483.26
476.227	4505.63
476.598	4620.88
476.97	4665.85
477.341	4729.81
477.713	4848.9
478.084	4802.57
478.455	4945.39
478.827	5007.09
479.198	5152.62
479.569	5130.02
479.94	5230.36
480.311	5286.85
480.682	5401.43
481.053	5436
481.424	5506.06
481.795	5628.09
482.166	5647.3
482.537	5706.73
482.908	5831.7
483.279	5891.13
483.65	5955.54
484.021	6105.59
484.391	6166.38
484.762	6147.17
485.133	6253.15
485.503	6311.46
485.874	6392.13
486.244	6482.53
486.615	6589.87
486.985	6631.45
487.356	6734.72
487.726	6741.05
488.097	6883.19
488.467	6953.7
488.837	7044.77
489.207	7164.32
489.578	7200.47
489.948	7186.69
490.318	7335.39
490.688	7303.97
491.058	7454.71
491.428	7526.12
491.798	7581.71
492.168	7734.25
492.538	7723.4
492.908	7809.72
493.278	7923.39
493.648	7940.34
494.017	7994.58
494.387	8018.31
494.757	8122.03
495.126	8187.34
495.496	8181.69
495.866	8190.05
496.235	8287.45
496.605	8347.79
496.974	8414.45
497.344	8423.49
497.713	8499.42
498.082	8466.88
498.452	8564.28
498.821	8654.9
499.19	8659.42
499.559	8646.76
499.928	8765.86
500.298	8722.02
500.667	8814.22
501.036	8718.4
501.405	8856.7
501.774	8879.07
502.143	8885.4
502.512	8909.81
502.88	8957.72
503.249	8979.18
503.618	9022.57
503.987	9082.68
504.356	9112.51
504.724	9173.98
505.093	9189.8
505.462	9167.88
505.83	9221.89
506.199	9269.12
506.567	9330.36
506.936	9267.31
507.304	9361.77
507.672	9373.75
508.041	9439.74
508.409	9474.09
508.777	9500.75
509.145	9519.51
509.514	9531.26
509.882	9511.6
510.25	9506.18
510.618	9627.76
510.986	9544.82
511.354	9676.12
511.722	9653.97
512.09	9761.09
512.458	9708.88
512.826	9802.44
513.193	9778.03
513.561	9781.42
513.929	9825.94
514.297	9829.33
514.664	9924.7
515.032	9900.74
515.4	9928.99
515.767	9947.52
516.135	9939.61
516.502	9820.74
516.869	9959.72
517.237	10012.83
517.604	9964.02
517.972	10037.01
518.339	9953.17
518.706	10022.77
519.073	10036.78
519.44	10023.9
519.808	9993.17
520.175	10058.93
520.542	10144.35
520.909	10098.25
521.276	10044.47
521.643	10081.98
522.009	10154.07
522.376	10185.48
522.743	10189.32
523.11	10224.8
523.477	10241.98
523.843	10277.68
524.21	10312.26
524.577	10411.46
524.943	10301.41
525.31	10334.86
525.676	10352.03
526.043	10398.58
526.409	10356.55
526.776	10436.1
527.142	10364.46
527.508	10333.73
527.874	10457.11
528.241	10390.9
528.607	10459.82
528.973	10474.29
529.339	10393.61
529.705	10483.1
530.071	10527.62
530.437	10467.73
530.803	10469.77
531.169	10507.73
531.535	10397.68
531.901	10424.12
532.267	10454.4
532.632	10504.34
532.998	10371.24
533.364	10424.8
533.73	10411.46
534.095	10382.31
534.461	10398.13
534.826	10404.01
535.192	10368.07
535.557	10351.35
535.923	10339.6
536.288	10269.09
536.653	10307.74
537.019	10265.25
537.384	10261.18
537.749	10233.39
538.114	10232.26
538.479	10212.82
538.845	10185.48
539.21	10173.5
539.575	10060.51
539.94	10101.19
540.305	10116.56
540.67	10031.13
541.034	10015.32
541.399	10036.78
541.764	9992.04
542.129	9979.38
542.494	9936.22
542.858	9929.22
543.223	9878.14
543.587	9918.82
543.952	9887.18
544.316	9884.25
544.681	9769.22
545.045	9803.57
545.41	9808.09
545.774	9701.43
546.138	9779.84
546.503	9681.77
546.867	9689.9
547.231	9666.4
547.595	9671.82
547.959	9587.53
548.324	9640.64
548.688	9552.05
549.052	9583.24
549.416	9501.2
549.779	9492.62
550.143	9543.69
550.507	9463.24
550.871	9438.61
551.235	9372.62
551.599	9438.83
551.962	9351.38
552.326	9355.22
552.689	9373.98
553.053	9284.49
553.417	9220.53
553.78	9329.68
554.143	9244.94
554.507	9245.39
554.87	9208.78
555.234	9229.35
555.597	9195.45
555.96	9176.24
556.323	9146.64
556.686	9202.23
557.05	9122.91
557.413	9127.43
557.776	9121.55
558.139	9123.81
558.502	9089.69
558.865	9073.65
559.228	9126.07
559.59	9101.89
559.953	9047.21
560.316	9145.06
560.679	9097.6
561.041	9061.22
561.404	9128.56
561.767	9108.67
562.129	9056.02
562.492	9147.54
562.854	9117.03
563.217	9085.85
563.579	9117.03
563.941	9119.52
564.304	9148.45
564.666	9197.26
565.028	9130.37
565.39	9096.7
565.753	9175.79
566.115	9096.02
566.477	9196.58
566.839	9190.93
567.201	9223.02
567.563	9259.18
567.925	9221.89
568.287	9188.22
568.648	9222.79
569.01	9231.16
569.372	9288.78
569.734	9249.91
570.095	9256.24
570.457	9270.02
570.819	9207.88
571.18	9259.63
571.542	9326.29
571.903	9298.27
572.265	9391.83
572.626	9327.2
572.987	9347.31
573.349	9371.94
573.71	9390.02
574.071	9414.65
574.432	9421.89
574.794	9388.21
575.155	9439.06
575.516	9336.69
575.877	9462.34
576.238	9512.28
576.599	9486.29
576.96	9536.46
577.32	9536.01
577.681	9505.05
578.042	9508.89
578.403	9565.84
578.763	9529
579.124	9556.34
579.485	9578.49
579.845	9611.26
580.206	9569
580.566	9591.82
580.927	9618.72
581.287	9693.06
581.648	9580.52
582.008	9646.96
582.368	9663.46
582.728	9687.19
583.089	9657.36
583.449	9644.03
583.809	9672.73
584.169	9740.97
584.529	9638.38
584.889	9748.66
585.249	9704.59
585.609	9617.36
585.969	9731.03
586.329	9667.75
586.688	9727.41
587.048	9749.11
587.408	9720.63
587.768	9743.68
588.127	9702.56
588.487	9687.87
588.846	9766.96
589.206	9700.52
589.565	9712.5
589.925	9729.45
590.284	9761.54
590.643	9674.08
591.003	9773.51
591.362	9750.92
591.721	9736.9
592.08	9800.18
592.44	9814.87
592.799	9841.76
593.158	9738.94
593.517	9824.36
593.876	9787.53
594.235	9789.56
594.593	9792.72
594.952	9768.99
595.311	9792.04
595.67	9783.91
596.029	9760.41
596.387	9893.96
596.746	9861.87
597.104	9801.76
597.463	9778.26
597.822	9764.02
598.18	9767.64
598.538	9771.25
598.897	9802.67
599.255	9787.75
599.613	9910.01
599.972	9813.29
600.33	9851.03
600.688	9808.77
601.046	9834.3
601.404	9896.45
601.762	9875.66
602.12	9897.35
602.478	9867.97
602.836	9864.36
603.194	9809.45
603.552	9866.85
603.91	9835.43
604.268	9917.92
604.625	9792.27
604.983	9884.92
605.341	9870.23
605.698	9809.45
606.056	9872.27
606.413	9824.36
606.771	9865.04
607.128	9916.11
607.485	9824.59
607.843	9884.92
608.2	9945.26
608.557	9976.45
608.914	9884.02
609.272	10002.89
609.629	10026.16
609.986	9940.97
610.343	9994.07
610.7	10053.73
611.057	10014.19
611.414	9983
611.771	10078.14
612.127	10048.31
612.484	9975.09
612.841	10042.21
613.198	10046.28
613.554	10072.72
613.911	10058.25
614.267	10037.69
614.624	10027.52
614.98	10078.59
615.337	10094.18
615.693	10106.16
616.05	10024.58
616.406	10112.04
616.762	10078.59
617.118	10060.74
617.475	10105.71
617.831	10132.37
618.187	10069.78
618.543	10151.36
618.899	10154.97
619.255	10242.43
619.611	10192.94
619.967	10180.06
620.323	10186.38
620.678	10153.39
621.034	10164.69
621.39	10103.45
621.746	10134.86
622.101	10186.16
622.457	10158.59
622.812	10211.92
623.168	10206.95
623.523	10128.31
623.879	10201.75
624.234	10134.86
624.589	10210.11
624.945	10197.01
625.3	10177.57
625.655	10158.59
626.01	10184.8
626.365	10174.41
626.72	10077.24
627.075	10189.32
627.43	10136.44
627.785	10167.4
628.14	10190.68
628.495	10163.79
628.85	10159.04
629.205	10053.51
629.559	10201.07
629.914	10132.15
630.269	10147.29
630.623	10034.52
630.978	10044.24
631.332	10130.57
631.687	10052.6
632.041	10025.94
632.396	10124.24
632.75	9987.07
633.104	9988.42
633.459	9948.88
633.813	10046.05
634.167	10088.53
634.521	9980.51
634.875	9989.55
635.229	9899.61
635.583	9897.13
635.937	9887.41
636.291	9907.97
636.645	9941.87
636.999	9865.94
637.352	9900.29
637.706	9826.62
638.06	9877.24
638.413	9865.04
638.767	9910.23
639.121	9890.12
639.474	9813.29
639.828	9763.8
640.181	9823.23
640.534	9843.12
640.888	9776.23
641.241	9801.54
641.594	9694.19
641.947	9800.86
642.301	9709.34
642.654	9687.19
643.007	9762.22
643.36	9709.11
643.713	9731.03
644.066	9741.2
644.419	9667.75
644.771	9531.94
645.124	9558.83
645.477	9519.96
645.83	9424.6
646.182	9472.05
646.535	9367.2
646.888	9456.46
647.24	9344.82
647.593	9425.5
647.945	9382.11
648.298	9405.61
648.65	9349.34
649.002	9369.91
649.355	9391.38
649.707	9418.5
650.059	9395.22
650.411	9532.39
650.763	9493.07
651.115	9609.22
651.467	9608.55
651.819	9570.81
652.171	9539.17
652.523	9601.54
652.875	9590.24
653.227	9510.02
653.578	9591.15
653.93	9570.58
654.282	9559.73
654.633	9496.23
654.985	9526.06
655.337	9552.05
655.688	9514.31
656.039	9559.06
656.391	9559.51
656.742	9497.36
657.094	9574.42
657.445	9590.47
657.796	9549.79
658.147	9552.96
658.498	9564.71
658.849	9625.95
659.2	9575.78
659.551	9535.78
659.902	9559.28
660.253	9541.88
660.604	9617.13
660.955	9580.75
661.306	9613.52
661.656	9570.81
662.007	9561.54
662.358	9561.99
662.708	9632.27
663.059	9598.6
663.409	9552.05
663.76	9623.91
664.11	9522.9
664.461	9651.71
664.811	9612.61
665.161	9630.92
665.511	9650.58
665.862	9617.36
666.212	9647.42
666.562	9566.74
666.912	9533.29
667.262	9618.49
667.612	9608.32
667.962	9669.56
668.312	9611.26
668.662	9591.15
669.011	9643.12
669.361	9550.47
669.711	9617.81
670.06	9552.96
670.41	9557.47
670.76	9538.94
671.109	9637.92
671.459	9548.21
671.808	9546.85
672.157	9555.44
672.507	9535.33
672.856	9556.12
673.205	9555.44
673.554	9525.16
673.904	9545.95
674.253	9599.28
674.602	9532.62
674.951	9317.48
675.3	9298.5
675.649	9516.12
675.998	9427.31
676.346	9477.93
676.695	9511.6
677.044	9369.23
677.393	9439.51
677.741	9435.22
678.09	9399.96
678.438	9390.93
678.787	9409.23
679.135	9359.74
679.484	9295.56
679.832	9432.96
680.181	9286.52
680.529	9295.11
680.877	9241.1
681.225	9262.12
681.573	9351.15
681.922	9236.13
682.27	9220.99
682.618	9319.97
682.966	9241.32
683.314	9202.91
683.661	9188.67
684.009	9169.69
684.357	9142.12
684.705	9079.52
685.053	9112.29
685.4	9047.66
685.748	9057.6
686.095	9045.62
686.443	9010.37
686.79	8940.54
687.138	8993.42
687.485	9021.22
687.832	8964.5
688.18	8964.95
688.527	8939.41
688.874	8863.71
689.221	8845.63
689.568	8798.62
689.915	8842.92
690.262	8772.86
690.609	8721.11
690.956	8721.34
691.303	8667.33
691.65	8666.42
691.997	8620.32
692.344	8567.9
692.69	8616.93
693.037	8578.52
693.383	8488.8
693.73	8553.89
694.077	8461.68
694.423	8407.22
694.769	8409.71
695.116	8443.83
695.462	8383.72
695.808	8323.61
696.155	8360.22
696.501	8204.29
696.847	8275.7
697.193	8183.27
697.539	8239.09
697.885	8171.3
698.231	8160.68
698.577	8136.5
698.923	8105.99
699.269	8113.44
699.614	7996.61
699.96	7933.11
700.306	7987.57
700.651	7893.56
700.997	7906.9
701.342	7875.03
701.688	7841.59
702.033	7832.1
702.379	7804.3
702.724	7807.24
703.069	7833.68
703.415	7677.52
703.76	7683.17
704.105	7720.23
704.45	7642.95
704.795	7626.45
705.14	7580.13
705.485	7576.06
705.83	7558.88
706.175	7530.86
706.52	7530.18
706.865	7489.96
707.209	7486.34
707.554	7447.47
707.899	7421.26
708.243	7405.67
708.588	7379.9
708.932	7335.16
709.277	7349.17
709.621	7330.87
709.966	7315.5
710.31	7279.57
710.654	7207.93
710.998	7276.18
711.342	7228.27
711.687	7195.05
712.031	7142.4
712.375	7171.32
712.719	7170.64
713.063	7119.57
713.407	7165.9
713.75	7079.8
714.094	7033.93
714.438	7056.52
714.782	7097.2
715.125	7033.25
715.469	7057.2
715.812	7009.52
716.156	7006.36
716.499	7023.98
716.843	6960.03
717.186	6966.58
717.53	7027.6
717.873	7015.17
718.216	6982.63
718.559	6977.2
718.902	6929.97
719.246	6933.14
719.589	6900.37
719.932	6853.36
720.275	6887.71
720.617	6935.4
720.96	6873.25
721.303	6837.09
721.646	6895.62
721.989	6785.57
722.331	6796.19
722.674	6812.01
723.016	6803.42
723.359	6821.73
723.701	6871.67
724.044	6789.41
724.386	6769.98
724.729	6784.67
725.071	6828.96
725.413	6741.28
725.755	6709.87
726.097	6761.84
726.439	6745.12
726.782	6740.6
727.124	6782.86
727.465	6671.45
727.807	6723.42
728.149	6665.57
728.491	6671.67
728.833	6669.87
729.175	6669.87
729.516	6663.09
729.858	6722.07
730.199	6670.32
730.541	6725.23
730.882	6685.91
731.224	6651.79
731.565	6647.27
731.906	6644.33
732.248	6685.46
732.589	6691.34
732.93	6652.47
733.271	6684.56
733.612	6666.48
733.953	6662.86
734.294	6688.85
734.635	6685.91
734.976	6696.08
735.317	6663.99
735.658	6636.2
735.999	6682.75
736.339	6728.85
736.68	6656.53
737.021	6697.44
737.361	6656.53
737.702	6721.39
738.042	6707.61
738.383	6734.05
738.723	6710.54
739.063	6783.54
739.404	6738.57
739.744	6712.58
740.084	6762.75
740.424	6801.39
740.764	6756.64
741.104	6768.85
741.444	6749.41
741.784	6812.91
742.124	6774.27
742.464	6812.91
742.804	6790.99
743.143	6842.97
743.483	6873.48
743.823	6833.7
744.162	6901.73
744.502	6909.63
744.841	6927.94
745.181	7037.54
745.52	6989.63
745.86	7073.25
746.199	7070.31
746.538	7107.82
746.877	7184.2
747.216	7154.6
747.556	7213.58
747.895	7255.16
748.234	7254.48
748.573	7291.09
748.911	7375.39
749.25	7355.72
749.589	7476.17
749.928	7514.82
750.267	7652.21
750.605	7666.9
750.944	7680.91
751.283	7783.28
751.621	7894.69
751.96	7936.73
752.298	8064.86
752.636	8111.41
752.975	8136.04
753.313	8251.07
753.651	8369.94
753.989	8512.76
754.327	8573.32
754.666	8615.8
755.004	8796.36
755.342	8933.76
755.679	9025.06
756.017	9110.25
756.355	9252.4
756.693	9409.23
757.031	9581.65
757.368	9668.43
757.706	9806.06
758.044	9892.83
758.381	10137.57
758.719	10249.89
759.056	10434.29
759.394	10545.47
759.731	10710.89
760.068	10830.89
760.405	11012.35
760.743	11128.51
761.08	11289.41
761.417	11409.86
761.754	11646.46
762.091	11768.49
762.428	11876.28
762.765	12049.39
763.102	12348.14
763.438	12442.6
763.775	12567.11
764.112	12725.75
764.449	13024.5
764.785	13165.29
765.122	13288
765.458	13466.75
765.795	13553.75
766.131	13702.9
766.467	13851.6
