Data from hue_24_FLMS001491_00024.txt Node
Date: Tue Feb 07 17:12:02 GMT 2017
User: dcchb
Spectrometer: FLMS00149
Trigger mode: 0
Integration Time (sec): 2.000000E-2
Scans to average: 10
Electric dark correction enabled: true
Nonlinearity correction enabled: false
Boxcar width: 0
XAxis mode: Wavelengths
Number of Pixels in Spectrum: 2048
>>>>>Begin Spectral Data<<<<<
341.393	-0.68
341.776	-0.68
342.16	-0.68
342.543	-48.81
342.927	-76.38
343.31	-72.54
343.693	-70.96
344.077	-66.66
344.46	-75.7
344.843	-51.75
345.226	-29.15
345.61	-36.61
345.993	-8.14
346.376	-8.14
346.759	1.36
347.142	16.95
347.525	44.52
347.908	63.05
348.291	78.87
348.674	103.95
349.057	110.96
349.44	122.93
349.823	134.46
350.206	179.2
350.588	213.33
350.971	203.84
351.354	242.71
351.737	248.81
352.119	256.04
352.502	256.26
352.884	271.41
353.267	277.05
353.65	287.22
354.032	287.45
354.414	315.92
354.797	298.3
355.179	322.48
355.562	316.38
355.944	329.93
356.326	334.45
356.709	340.1
357.091	332.19
357.473	325.19
357.855	333.1
358.238	348.47
358.62	345.08
359.002	333.78
359.384	343.49
359.766	336.71
360.148	329.93
360.53	341.23
360.912	350.05
361.294	350.05
361.676	355.7
362.057	331.74
362.439	346.66
362.821	348.24
363.203	359.31
363.584	333.1
363.966	326.09
364.348	327.9
364.729	329.48
365.111	321.8
365.493	342.82
365.874	328.58
366.256	333.1
366.637	324.29
367.019	324.74
367.4	319.54
367.781	308.47
368.163	329.03
368.544	310.5
368.925	320.67
369.306	330.84
369.688	331.29
370.069	317.51
370.45	311.4
370.831	301.91
371.212	320.9
371.593	317.96
371.974	313.89
372.355	331.97
372.736	333.1
373.117	331.52
373.498	315.92
373.879	326.09
374.26	337.84
374.641	330.16
375.021	312.53
375.402	326.32
375.783	344.62
376.163	326.09
376.544	321.8
376.925	340.56
377.305	318.86
377.686	322.93
378.066	308.01
378.447	341.46
378.827	323.83
379.208	343.27
379.588	331.74
379.968	325.87
380.349	352.08
380.729	333.55
381.109	355.7
381.489	353.66
381.87	334.91
382.25	334.91
382.63	349.14
383.01	352.53
383.39	336.04
383.77	352.08
384.15	334.23
384.53	349.14
384.91	349.6
385.29	346.43
385.67	340.1
386.049	363.83
386.429	351.86
386.809	361.8
387.189	356.37
387.568	373.55
387.948	369.26
388.328	379.65
388.707	359.76
389.087	348.24
389.466	362.7
389.846	372.87
390.225	379.88
390.605	388.92
390.984	368.13
391.363	370.84
391.743	383.72
392.122	385.07
392.501	368.35
392.881	374
393.26	387.79
393.639	385.3
394.018	369.93
394.397	385.53
394.776	399.31
395.155	402.48
395.534	392.76
395.913	387.11
396.292	380.55
396.671	383.27
397.05	400.89
397.429	389.14
397.808	396.37
398.186	388.46
398.565	412.42
398.944	392.08
399.323	404.51
399.701	422.81
400.08	397.73
400.458	400.44
400.837	393.21
401.215	427.11
401.594	410.61
401.972	393.21
402.351	415.13
402.729	432.31
403.107	406.99
403.486	432.31
403.864	415.13
404.242	423.72
404.62	428.01
404.999	442.25
405.377	429.37
405.755	438.63
406.133	423.72
406.511	434.79
406.889	442.47
407.267	441.57
407.645	450.16
408.023	466.65
408.401	434.79
408.779	455.36
409.156	441.57
409.534	457.16
409.912	457.39
410.29	483.38
410.667	474.56
411.045	467.11
411.422	462.81
411.8	493.77
412.178	489.7
412.555	467.11
412.933	472.3
413.31	480.21
413.687	507.11
414.065	503.49
414.442	523.6
414.819	507.78
415.197	514.34
415.574	489.93
415.951	503.72
416.328	508.46
416.705	496.48
417.082	531.51
417.46	518.86
417.837	527.9
418.214	504.85
418.591	520.66
418.967	536.03
419.344	526.54
419.721	547.33
420.098	526.54
420.475	530.83
420.852	542.81
421.228	547.33
421.605	562.47
421.982	546.43
422.358	557.5
422.735	543.94
423.111	550.49
423.488	557.5
423.864	574.45
424.241	586.43
424.617	577.39
424.994	581.68
425.37	578.52
425.746	552.08
426.123	574.45
426.499	563.83
426.875	585.07
427.251	599.98
427.627	580.1
428.003	591.85
428.379	616.25
428.756	637.72
429.132	605.41
429.507	615.8
429.883	631.17
430.259	641.57
430.635	645.41
431.011	649.7
431.387	658.29
431.763	665.52
432.138	659.87
432.514	659.42
432.89	672.3
433.265	670.04
433.641	689.25
434.016	703.48
434.392	677.72
434.767	704.61
435.143	692.64
435.518	739.42
435.894	723.82
436.269	719.76
436.644	740.55
437.02	731.28
437.395	729.25
437.77	739.64
438.145	763.82
438.52	726.99
438.895	758.85
439.271	722.47
439.646	762.24
440.021	788.68
440.395	793.65
440.77	788.68
441.145	764.05
441.52	794.56
441.895	798.4
442.27	797.04
442.645	796.59
443.019	821
443.394	803.37
443.769	827.1
444.143	827.55
444.518	835.91
444.892	831.62
445.267	838.85
445.641	835.01
446.016	829.58
446.39	858.96
446.764	835.91
447.139	857.38
447.513	823.93
447.887	883.82
448.262	872.97
448.636	857.83
449.01	901.22
449.384	894.44
449.758	893.31
450.132	901.22
450.506	879.3
450.88	908.9
451.254	915.46
451.628	924.95
452.002	933.31
452.376	933.76
452.75	964.72
453.123	937.6
453.497	935.79
453.871	970.6
454.244	979.41
454.618	981.22
454.992	982.35
455.365	994.32
455.739	1014.66
456.112	1024.83
456.486	1035.9
456.859	1039.29
457.232	1083.81
457.606	1069.8
457.979	1081.1
458.352	1091.72
458.725	1092.85
459.099	1087.88
459.472	1130.37
459.845	1126.07
460.218	1155.9
460.591	1141.66
460.964	1119.29
461.337	1172.4
461.71	1182.79
462.083	1190.7
462.456	1195.9
462.829	1214.43
463.201	1243.13
463.574	1240.87
463.947	1230.02
464.32	1263.02
464.692	1286.97
465.065	1290.36
465.438	1322
465.81	1319.06
466.183	1315.67
466.555	1327.87
466.928	1358.38
467.3	1380.08
467.672	1411.49
468.045	1437.7
468.417	1435.44
468.789	1437.93
469.161	1451.04
469.534	1505.05
469.906	1510.24
470.278	1534.2
470.65	1539.17
471.022	1552.73
471.394	1599.73
471.766	1597.25
472.138	1632.95
472.51	1643.12
472.882	1679.28
473.253	1688.09
473.625	1712.95
473.997	1754.3
474.369	1793.63
474.74	1796.34
475.112	1837.92
475.484	1879.27
475.855	1861.87
476.227	1917.69
476.598	1972.38
476.97	1966.95
477.341	2028.42
477.713	2073.39
478.084	2100.51
478.455	2124.92
478.827	2176.67
479.198	2227.06
479.569	2247.85
479.94	2322.65
480.311	2337.57
480.682	2379.82
481.053	2404.91
481.424	2468.86
481.795	2538.69
482.166	2543.44
482.537	2590.21
482.908	2636.31
483.279	2698.46
483.65	2733.04
484.021	2772.13
484.391	2825.24
484.762	2870.21
485.133	2916.53
485.503	2924.44
485.874	2991.56
486.244	3097.32
486.615	3133.48
486.985	3185.9
487.356	3216.86
487.726	3246.69
488.097	3357.43
488.467	3369.4
488.837	3458.67
489.207	3484.43
489.578	3504.09
489.948	3574.14
490.318	3647.81
490.688	3666.8
491.058	3702.28
491.428	3812.1
491.798	3829.73
492.168	3887.36
492.538	3911.76
492.908	3954.25
493.278	4054.58
493.648	4070.4
494.017	4124.19
494.387	4184.52
494.757	4241.7
495.126	4235.14
495.496	4246.67
495.866	4332.09
496.235	4385.42
496.605	4427.45
496.974	4457.51
497.344	4494.12
497.713	4528.92
498.082	4540.45
498.452	4635.36
498.821	4578.64
499.19	4617.73
499.559	4690.05
499.928	4721.68
500.298	4775.47
500.667	4797.61
501.036	4805.3
501.405	4890.94
501.774	4871.06
502.143	4918.51
502.512	4911.96
502.88	4980.89
503.249	4998.29
503.618	5055.69
503.987	5081.67
504.356	5123.48
504.724	5132.75
505.093	5177.72
505.462	5110.83
505.83	5202.12
506.199	5218.39
506.567	5328.22
506.936	5328.9
507.304	5403.47
507.672	5384.94
508.041	5420.87
508.409	5417.48
508.777	5446.86
509.145	5481.66
509.514	5486.41
509.882	5548.78
510.25	5535.67
510.618	5608.89
510.986	5608.67
511.354	5637.82
511.722	5733.41
512.09	5756.91
512.458	5723.47
512.826	5788.32
513.193	5777.02
513.561	5751.94
513.929	5837.13
514.297	5892.5
514.664	5950.35
515.032	5937.47
515.4	5963.68
515.767	5953.74
516.135	5969.11
516.502	6000.07
516.869	6065.15
517.237	6112.83
517.604	6115.09
517.972	6105.6
518.339	6120.07
518.706	6112.16
519.073	6173.4
519.44	6233.28
519.808	6250.68
520.175	6280.29
520.542	6359.15
520.909	6371.36
521.276	6385.37
521.643	6419.04
522.009	6455.2
522.376	6485.71
522.743	6560.05
523.11	6573.61
523.477	6620.84
523.843	6588.75
524.21	6704.68
524.577	6732.03
524.943	6711.24
525.31	6749.88
525.676	6845.92
526.043	6859.93
526.409	6893.6
526.776	7011.34
527.142	6975.41
527.508	7036.65
527.874	7105.35
528.241	7122.98
528.607	7132.92
528.973	7146.25
529.339	7189.87
529.705	7275.74
530.071	7296.98
530.437	7346.47
530.803	7348.73
531.169	7407.04
531.535	7381.73
531.901	7403.2
532.267	7398.45
532.632	7540.82
532.998	7592.79
533.364	7576.98
533.73	7661.04
534.095	7685
534.461	7712.57
534.826	7751.89
535.192	7773.35
535.557	7831.21
535.923	7876.18
536.288	7859.23
536.653	7960.24
537.019	7889.51
537.384	7957.98
537.749	7971.99
538.114	7968.15
538.479	7994.37
538.845	8064.87
539.21	8081.14
539.575	8155.04
539.94	8131.31
540.305	8197.52
540.67	8228.26
541.034	8282.72
541.399	8273.91
541.764	8290.63
542.129	8337.63
542.494	8343.06
542.858	8348.03
543.223	8424.19
543.587	8463.05
543.952	8540.11
544.316	8490.4
544.681	8598.19
545.045	8564.75
545.41	8634.8
545.774	8688.81
546.138	8603.84
546.503	8717.51
546.867	8739.21
547.231	8822.14
547.595	8777.17
547.959	8809.49
548.324	8921.35
548.688	8923.38
549.052	8937.39
549.416	8937.39
549.779	9008.35
550.143	9017.62
550.507	9088.35
550.871	9039.99
551.235	9078.18
551.599	9225.97
551.962	9195.01
552.326	9095.81
552.689	9223.03
553.053	9273.88
553.417	9250.83
553.78	9395.01
554.143	9388.23
554.507	9412.86
554.87	9443.82
555.234	9516.81
555.597	9432.75
555.96	9540.99
556.323	9500.77
556.686	9599.75
557.05	9611.27
557.413	9619.18
557.776	9649.24
558.139	9693.76
558.502	9709.8
558.865	9765.39
559.228	9891.94
559.59	9827.99
559.953	9878.84
560.316	9955.67
560.679	9909.34
561.041	10053.97
561.404	10075.89
561.767	10098.72
562.129	10139.62
562.492	10163.35
562.854	10128.32
563.217	10164.25
563.579	10218.26
563.941	10316.79
564.304	10354.08
564.666	10372.16
565.028	10370.35
565.39	10413.06
565.753	10448.99
566.115	10484.24
566.477	10521.76
566.839	10589.33
567.201	10597.24
567.563	10618.03
567.925	10749.32
568.287	10753.84
568.648	10772.82
569.01	10858.02
569.372	10856.44
569.734	10824.35
570.095	10968.75
570.457	10970.56
570.819	11057.79
571.18	11055.08
571.542	11145.47
571.903	11092.82
572.265	11197.22
572.626	11251.23
572.987	11349.31
573.349	11347.95
573.71	11449.87
574.071	11495.97
574.432	11509.75
574.794	11591.11
575.155	11681.73
575.516	11701.16
575.877	11774.38
576.238	11801.27
576.599	11919.69
576.96	11993.81
577.32	12072.22
577.681	12167.14
578.042	12243.52
578.403	12387.02
578.763	12401.48
579.124	12473.12
579.485	12615.49
579.845	12697.52
580.206	12791.08
580.566	12935.03
580.927	13063.16
581.287	13225.41
581.648	13269.71
582.008	13469.48
582.368	13597.16
582.728	13798.51
583.089	13882.35
583.449	14070.14
583.809	14131.61
584.169	14449.79
584.529	14499.96
584.889	14816.79
585.249	14875.09
585.609	14989.44
585.969	15307.62
586.329	15489.31
586.688	15712.13
587.048	15827.15
587.408	16072.35
587.768	16334.26
588.127	16542.39
588.487	16839.11
588.846	17108.02
589.206	17247.68
589.565	17524.06
589.925	17778.29
590.284	18128.79
590.643	18355.9
591.003	18607.87
591.362	18922.89
591.721	19150.91
592.08	19480.62
592.44	19845.13
592.799	20164.67
593.158	20300.71
593.517	20607.59
593.876	20915.38
594.235	21267.01
594.593	21450.51
594.952	21871.52
595.311	22083.26
595.67	22371.84
596.029	22782.68
596.387	23070.58
596.746	23432.83
597.104	23632.82
597.463	23958.69
597.822	24384.22
598.18	24547.15
598.538	24836.41
598.897	25366.11
599.255	25417.41
599.613	26079.54
599.972	26230.04
600.33	26552.97
600.688	26825.28
601.046	27162.68
601.404	27553.85
601.762	27651.02
602.12	28185.25
602.478	28391.8
602.836	28730.54
603.194	28795.4
603.552	29102.96
603.91	29417.31
604.268	29875.37
604.625	29892.1
604.983	30325.3
605.341	30406.21
605.698	30905.18
606.056	31137.03
606.413	31324.6
606.771	31764.14
607.128	31882.55
607.485	32203.45
607.843	32384.23
608.2	32774.28
608.557	33106.25
608.914	33188.73
609.272	33466.24
609.629	33755.27
609.986	34160.46
610.343	34190.06
610.7	34560
611.057	34670.5
611.414	34889.48
611.771	35177.83
612.127	35461.67
612.484	35658.95
612.841	35901.2
613.198	35976.91
613.554	36138.71
613.911	36610.34
614.267	36723.33
614.624	36927.39
614.98	37056.65
615.337	37360.37
615.693	37321.28
616.05	37530.09
616.406	37804.2
616.762	37781.38
617.118	37992.45
617.475	38104.53
617.831	38538.87
618.187	38580.23
618.543	38631.75
618.899	39009.6
619.255	39212.53
619.611	39137.73
619.967	39426.76
620.323	39550.15
620.678	39688.9
621.034	39596.47
621.39	39860.65
621.746	39865.39
622.101	40444.59
622.457	40137.48
622.812	40445.49
623.168	40537.24
623.523	40509.22
623.879	40761.41
624.234	40637.8
624.589	40890
624.945	41044.57
625.3	40994.18
625.655	41178.35
626.01	41251.34
626.365	41409.08
626.72	41295.19
627.075	41424.67
627.43	41414.5
627.785	41462.19
628.14	41746.92
628.495	41786.47
628.85	41750.31
629.205	41550.77
629.559	41948.73
629.914	41709.64
630.269	41806.36
630.623	41760.26
630.978	41892.46
631.332	41950.99
631.687	42086.8
632.041	42004.32
632.396	42055.39
632.75	42021.95
633.104	42202.73
633.459	42014.04
633.813	42082.51
634.167	41918.22
634.521	42057.65
634.875	42142.17
635.229	42192.56
635.583	42044.54
635.937	42048.39
636.291	41998.22
636.645	42081.61
636.999	42131.55
637.352	42260.81
637.706	42006.81
638.06	42261.04
638.413	42113.92
638.767	42078.44
639.121	42124.77
639.474	41902.18
639.828	41895.4
640.181	41971.55
640.534	42000.25
640.888	41932.68
641.241	41715.97
641.594	41953.02
641.947	41997.09
642.301	41921.16
642.654	42021.72
643.007	41993.7
643.36	42041.61
643.713	41933.81
644.066	42008.16
644.419	41787.6
644.771	41670.54
645.124	41292.7
645.477	41216.09
645.83	40996.89
646.182	40880.06
646.535	40703.11
646.888	40896.55
647.24	40760.96
647.593	40917.12
647.945	40785.14
648.298	40631.47
648.65	40664.24
649.002	40512.83
649.355	40710.79
649.707	40830.56
650.059	40883.67
650.411	41343.77
650.763	41423.09
651.115	41808.62
651.467	41620.6
651.819	41553.03
652.171	41589.64
652.523	41486.37
652.875	41493.37
653.227	41256.77
653.578	41621.5
653.93	41577.89
654.282	41353.71
654.633	41281.85
654.985	41292.02
655.337	41260.38
655.688	41491.34
656.039	41586.7
656.391	41207.05
656.742	41263.1
657.094	41141.52
657.445	41500.15
657.796	41220.16
658.147	41270.33
658.498	41238.46
658.849	41275.3
659.2	41242.76
659.551	41155.98
659.902	41330.44
660.253	41277.78
660.604	41273.27
660.955	41166.38
661.306	41264.23
661.656	41214.96
662.007	41139.26
662.358	41189.88
662.708	41207.5
663.059	41184
663.409	40932.71
663.76	41327.95
664.11	41221.29
664.461	41309.87
664.811	41329.31
665.161	41235.98
665.511	41105.13
665.862	41182.42
666.212	41214.06
666.562	41213.15
666.912	41143.1
667.262	41053.84
667.612	41023.78
667.962	41114.4
668.312	41069.2
668.662	41322.53
669.011	41035.08
669.361	41105.59
669.711	41095.19
670.06	40978.81
670.41	40991.01
670.76	40863.78
671.109	41120.05
671.459	40952.14
671.808	40853.16
672.157	40989.66
672.507	40680.74
672.856	40779.49
673.205	40896.33
673.554	41013.38
673.904	40828.76
674.253	41039.15
674.602	40792.37
674.951	40322.56
675.3	40155.55
675.649	40761.41
675.998	40725.48
676.346	40657.69
676.695	40845.03
677.044	40522.78
677.393	40671.7
677.741	40823.79
678.09	40553.51
678.438	40410.46
678.787	40659.72
679.135	40649.1
679.484	40302.22
679.832	40452.27
680.181	40196.01
680.529	40273.07
680.877	40286.4
681.225	40125.27
681.573	40532.04
681.922	40334.98
682.27	40042.11
682.618	40111.71
682.966	40089.57
683.314	40111.94
683.661	39920.31
684.009	39835.11
684.357	39778.16
684.705	39658.62
685.053	39817.48
685.4	39678.28
685.748	39480.32
686.095	39573.87
686.443	39324.84
686.79	39326.88
687.138	39351.73
687.485	39305.86
687.832	39289.81
688.18	39245.52
688.527	39049.59
688.874	38931.86
689.221	38838.53
689.568	38812.99
689.915	38721.02
690.262	38763.05
690.609	38529.38
690.956	38451.42
691.303	38366
691.65	38274.93
691.997	38347.01
692.344	38073.35
692.69	38160.13
693.037	38069.28
693.383	37806.92
693.73	37902.51
694.077	37696.86
694.423	37699.8
694.769	37590.88
695.116	37531.89
695.462	37499.8
695.808	37212.81
696.155	37458.22
696.501	37143.2
696.847	37213.48
697.193	36921.97
697.539	37010.1
697.885	36731.46
698.231	36709.09
698.577	36626.38
698.923	36633.16
699.269	36516.33
699.614	36226.62
699.96	36375.99
700.306	36212.61
700.651	36145.49
700.997	36039.28
701.342	35930.58
701.688	35901.65
702.033	35733.98
702.379	35640.19
702.724	35664.37
703.069	35602.68
703.415	35332.4
703.76	35268.45
704.105	35340.77
704.45	35189.13
704.795	34983.03
705.14	35040.89
705.485	34990.27
705.83	34813.77
706.175	34744.62
706.52	34646.32
706.865	34695.13
707.209	34497.17
707.554	34435.48
707.899	34614.01
708.243	34264.41
708.588	34209.04
708.932	34020.57
709.277	33929.96
709.621	34035.72
709.966	33877.08
710.31	33994.81
710.654	33601.83
710.998	33743.07
711.342	33710.98
711.687	33582.85
712.031	33474.15
712.375	33476.18
712.719	33465.33
713.063	33325.45
713.407	33498.33
713.75	33183.76
714.094	33191.67
714.438	33038.23
714.782	33093.82
715.125	32962.3
715.469	32917.55
715.812	32904.67
716.156	32644.34
716.499	32743.32
716.843	32741.06
717.186	32496.32
717.53	32646.37
717.873	32646.83
718.216	32565.7
718.559	32349.43
718.902	32247.06
719.246	32416.55
719.589	32080.74
719.932	32039.38
720.275	32056.78
720.617	32056.33
720.96	32000.74
721.303	31958.71
721.646	31886.39
721.989	31827.64
722.331	31829.45
722.674	31767.3
723.016	31725.95
723.359	31730.24
723.701	31629
724.044	31452.28
724.386	31380.19
724.729	31481.66
725.071	31352.4
725.413	31461.77
725.755	31238.05
726.097	31221.55
726.439	31063.14
726.782	31041.22
727.124	31249.8
727.465	31002.57
727.807	31109.46
728.149	30905.63
728.491	30828.57
728.833	30976.59
729.175	30704.05
729.516	30767.78
729.858	30698.63
730.199	30706.09
730.541	30615.47
730.882	30638.74
731.224	30733.43
731.565	30330.95
731.906	30307.45
732.248	30417.96
732.589	30188.81
732.93	30238.3
733.271	30219.09
733.612	30202.14
733.953	30303.16
734.294	30149.26
734.635	30053.45
734.976	30114.69
735.317	30031.07
735.658	29835.15
735.999	29964.64
736.339	30005.31
736.68	29944.3
737.021	29897.97
737.361	29711.54
737.702	29926.44
738.042	29755.38
738.383	29673.34
738.723	29782.27
739.063	29614.59
739.404	29688.94
739.744	29461.6
740.084	29508.83
740.424	29645.55
740.764	29408.72
741.104	29638.09
741.444	29381.37
741.784	29305.9
742.124	29225.22
742.464	29265.9
742.804	29282.39
743.143	29134.38
743.483	29124.88
743.823	28966.7
744.162	29033.81
744.502	29071.78
744.841	28975.74
745.181	28993.59
745.52	28908.62
745.86	28980.93
746.199	28834.27
746.538	28813.25
746.877	28843.99
747.216	28885.12
747.556	28794.05
747.895	28634.5
748.234	28626.82
748.573	28588.85
748.911	28520.83
749.25	28406.48
749.589	28409.65
749.928	28516.31
750.267	28439.7
750.605	28271.12
750.944	28340.72
751.283	28280.39
751.621	28248.75
751.96	28092.37
752.298	28074.97
752.636	28169.88
752.975	27854.41
753.313	27912.49
753.651	27926.95
753.989	27877.01
754.327	27803.34
754.666	27686.05
755.004	27725.37
755.342	27825.71
755.679	27699.16
756.017	27466.17
756.355	27647.63
756.693	27396.79
757.031	27526.96
757.368	27351.82
757.706	27226.4
758.044	27230.47
758.381	27239.06
758.719	27214.2
759.056	27097.14
759.394	27029.8
759.731	26908.67
