Data from hue_340_FLMS001491_12.txt Node
Date: Mon Feb 06 15:42:20 GMT 2017
User: dcchb
Spectrometer: FLMS00149
Trigger mode: 0
Integration Time (sec): 2.000000E-2
Scans to average: 10
Electric dark correction enabled: true
Nonlinearity correction enabled: false
Boxcar width: 0
XAxis mode: Wavelengths
Number of Pixels in Spectrum: 2048
>>>>>Begin Spectral Data<<<<<
341.393	-24.89
341.776	-24.89
342.16	-24.89
342.543	-60.59
342.927	-72.34
343.31	-63.53
343.693	-78.67
344.077	-77.99
344.46	-70.53
344.843	-58.78
345.226	-36.86
345.61	-27.6
345.993	-13.36
346.376	-14.49
346.759	20.08
347.142	28.45
347.525	53.98
347.908	51.27
348.291	81.55
348.674	103.7
349.057	102.79
349.44	125.39
349.823	147.09
350.206	163.81
350.588	210.36
350.971	207.65
351.354	202.23
351.737	239.06
352.119	237.03
352.502	265.73
352.884	253.98
353.267	299.4
353.65	297.59
354.032	303.47
354.414	290.59
354.797	324.48
355.179	314.99
355.562	310.02
355.944	319.96
356.326	348.21
356.709	329
357.091	331.49
357.473	327.42
357.855	364.48
358.238	329.68
358.62	327.87
359.002	342.34
359.384	341.88
359.766	314.31
360.148	335.33
360.53	337.36
360.912	329.45
361.294	327.42
361.676	317.48
362.057	333.07
362.439	314.54
362.821	315.9
363.203	337.59
363.584	329.45
363.966	316.12
364.348	341.43
364.729	326.74
365.111	324.71
365.493	337.59
365.874	333.3
366.256	300.08
366.637	275.9
367.019	293.98
367.4	307.08
367.781	285.39
368.163	321.55
368.544	293.3
368.925	300.3
369.306	331.71
369.688	330.36
370.069	303.92
370.45	312.51
370.831	308.66
371.212	292.85
371.593	308.89
371.974	330.58
372.355	313.64
372.736	290.59
373.117	290.36
373.498	324.26
373.879	319.96
374.26	312.73
374.641	296.91
375.021	302.79
375.402	312.05
375.783	325.84
376.163	322.9
376.544	313.86
376.925	319.06
377.305	304.37
377.686	312.73
378.066	329.23
378.447	312.05
378.827	312.73
379.208	322.45
379.588	325.39
379.968	334.2
380.349	333.07
380.729	332.84
381.109	329.45
381.489	322.9
381.87	318.61
382.25	322
382.63	339.85
383.01	340.75
383.39	345.5
383.77	329
384.15	338.27
384.53	340.3
384.91	322.45
385.29	340.53
385.67	348.66
386.049	366.06
386.429	354.76
386.809	343.24
387.189	335.56
387.568	327.87
387.948	319.96
388.328	349.79
388.707	344.37
389.087	380.98
389.466	348.44
389.846	355.22
390.225	340.3
390.605	366.97
390.984	358.38
391.363	337.36
391.743	363.13
392.122	337.82
392.501	379.17
392.881	370.13
393.26	346.18
393.639	354.99
394.018	374.65
394.397	367.42
394.776	375.56
395.155	372.17
395.534	388.66
395.913	377.81
396.292	377.81
396.671	387.76
397.05	380.07
397.429	378.04
397.808	381.66
398.186	383.46
398.565	399.74
398.944	381.2
399.323	385.27
399.701	377.81
400.08	392.73
400.458	387.76
400.837	375.1
401.215	390.02
401.594	400.41
401.972	413.52
402.351	405.61
402.729	396.12
403.107	389.57
403.486	400.41
403.864	377.59
404.242	382.11
404.62	383.24
404.999	409.68
405.377	406.97
405.755	409.9
406.133	412.16
406.511	413.07
406.889	434.08
407.267	409.68
407.645	432.28
408.023	421.66
408.401	424.37
408.779	429.79
409.156	422.79
409.534	453.52
409.912	446.74
410.29	447.64
410.667	451.03
411.045	455.55
411.422	454.42
411.8	449.68
412.178	458.94
412.555	479.96
412.933	486.51
413.31	484.7
413.687	476.12
414.065	473.41
414.442	497.13
414.819	505.72
415.197	494.42
415.574	500.75
415.951	510.69
416.328	499.85
416.705	519.28
417.082	511.6
417.46	528.77
417.837	535.55
418.214	521.09
418.591	548.88
418.967	516.57
419.344	535.55
419.721	541.2
420.098	545.72
420.475	551.82
420.852	532.39
421.228	545.95
421.605	577.81
421.982	553.63
422.358	558.38
422.735	593.4
423.111	565.38
423.488	573.06
423.864	576.91
424.241	613.06
424.617	598.6
424.994	604.93
425.37	604.93
425.746	594.53
426.123	610.35
426.499	637.47
426.875	601.09
427.251	620.29
427.627	648.32
428.003	640.63
428.379	647.64
428.756	663.23
429.132	639.5
429.507	666.62
429.883	663.01
430.259	681.76
430.635	695.09
431.011	680.63
431.387	701.65
431.763	702.33
432.138	695.09
432.514	738.03
432.89	708.2
433.265	719.73
433.641	747.75
434.016	745.04
434.392	761.31
434.767	755.88
435.143	752.49
435.518	768.09
435.894	755.43
436.269	777.35
436.644	800.85
437.02	785.26
437.395	791.36
437.77	775.77
438.145	804.02
438.52	794.53
438.895	828.2
439.271	824.58
439.646	823.68
440.021	827.29
440.395	846.28
440.77	834.75
441.145	862.1
441.52	855.09
441.895	855.54
442.27	844.24
442.645	865.26
443.019	868.42
443.394	875.43
443.769	870.23
444.143	877.01
444.518	890.57
444.892	887.63
445.267	889.67
445.641	920.85
446.016	903.45
446.39	899.84
446.764	927.18
447.139	896.9
447.513	909.33
447.887	916.11
448.262	928.08
448.636	900.97
449.01	931.02
449.384	966.95
449.758	953.17
450.132	953.84
450.506	950.91
450.88	986.61
451.254	954.52
451.628	1007.63
452.002	975.09
452.376	981.41
452.75	976.67
453.123	990.68
453.497	988.19
453.871	1006.72
454.244	1016.67
454.618	1030
454.992	1034.29
455.365	1047.18
455.739	1070.45
456.112	1077.91
456.486	1061.86
456.859	1101.86
457.232	1080.4
457.606	1059.15
457.979	1103.22
458.352	1102.32
458.725	1157
459.099	1126.95
459.472	1129.43
459.845	1143.44
460.218	1161.98
460.591	1173.27
460.964	1174.18
461.337	1207.17
461.71	1210.11
462.083	1213.95
462.456	1217.11
462.829	1210.34
463.201	1247.62
463.574	1252.82
463.947	1257.79
464.32	1274.06
464.692	1281.75
465.065	1306.15
465.438	1308.86
465.81	1331.24
466.183	1306.83
466.555	1352.7
466.928	1362.65
467.3	1360.84
467.672	1414.85
468.045	1436.09
468.417	1423.21
468.789	1413.04
469.161	1456.43
469.534	1463.21
469.906	1481.97
470.278	1506.6
470.65	1480.38
471.022	1528.52
471.394	1563.77
471.766	1551.8
472.138	1559.48
472.51	1605.81
472.882	1610.55
473.253	1637.22
473.625	1654.39
473.997	1667.27
474.369	1694.39
474.74	1716.31
475.112	1741.85
475.484	1763.54
475.855	1773.48
476.227	1826.82
476.598	1844.67
476.97	1856.87
477.341	1883.99
477.713	1937.1
478.084	1952.46
478.455	1962.18
478.827	2010.54
479.198	2030.43
479.569	2013.03
479.94	2099.13
480.311	2113.81
480.682	2185
481.053	2183.64
481.424	2219.35
481.795	2231.33
482.166	2280.14
482.537	2327.14
482.908	2331.44
483.279	2370.3
483.65	2371.21
484.021	2438.33
484.391	2468.38
484.762	2496.63
485.133	2497.08
485.503	2527.36
485.874	2580.69
486.244	2634.93
486.615	2678.09
486.985	2671.99
487.356	2722.61
487.726	2759.22
488.097	2810.07
488.467	2821.59
488.837	2833.8
489.207	2913.12
489.578	2942.27
489.948	2965.77
490.318	2991.98
490.688	2987.46
491.058	3048.03
491.428	3067.46
491.798	3095.94
492.168	3151.53
492.538	3159.44
492.908	3223.84
493.278	3276.04
493.648	3236.5
494.017	3327.57
494.387	3296.38
494.757	3362.6
495.126	3365.53
495.496	3421.12
495.866	3364.86
496.235	3425.42
496.605	3455.93
496.974	3480.78
497.344	3491.63
497.713	3558.52
498.082	3567.56
498.452	3591.74
498.821	3627.67
499.19	3623.15
499.559	3639.88
499.928	3682.36
500.298	3703.15
500.667	3701.12
501.036	3714
501.405	3769.82
501.774	3749.03
502.143	3784.28
502.512	3797.61
502.88	3852.75
503.249	3818.4
503.618	3849.14
503.987	3897.5
504.356	3869.25
504.724	3877.16
505.093	3913.54
505.462	3918.06
505.83	3951.73
506.199	3977.95
506.567	4029.7
506.936	4014.1
507.304	4030.83
507.672	4059.07
508.041	4077.38
508.409	4077.83
508.777	4104.27
509.145	4153.31
509.514	4120.99
509.882	4201.22
510.25	4163.03
510.618	4210.48
510.986	4191.05
511.354	4257.03
511.722	4252.29
512.09	4271.27
512.458	4256.13
512.826	4290.25
513.193	4300.88
513.561	4298.84
513.929	4338.61
514.297	4331.61
514.664	4359.41
515.032	4356.24
515.4	4413.64
515.767	4449.8
516.135	4480.08
516.502	4397.82
516.869	4486.86
517.237	4451.61
517.604	4434.21
517.972	4555.78
518.339	4549.46
518.706	4509.01
519.073	4544.49
519.44	4574.09
519.808	4624.03
520.175	4603.24
520.542	4596.69
520.909	4642.34
521.276	4602.79
521.643	4709.9
522.009	4680.75
522.376	4697.02
522.743	4734.08
523.11	4715.55
523.477	4786.29
523.843	4786.06
524.21	4851.14
524.577	4868.77
524.943	4890.92
525.31	4913.97
525.676	4941.31
526.043	4977.02
526.409	4974.76
526.776	4994.64
527.142	5078.48
527.508	5094.08
527.874	5040.29
528.241	5072.15
528.607	5117.8
528.973	5139.27
529.339	5156.22
529.705	5236.9
530.071	5239.83
530.437	5247.29
530.803	5293.39
531.169	5335.65
531.535	5259.04
531.901	5333.39
532.267	5317.57
532.632	5372.94
532.998	5410.22
533.364	5460.85
533.73	5392.37
534.095	5480.05
534.461	5497.23
534.826	5560.28
535.192	5518.02
535.557	5599.15
535.923	5583.33
536.288	5552.14
536.653	5655.42
537.019	5607.73
537.384	5630.78
537.749	5701.06
538.114	5665.81
538.479	5714.62
538.845	5744.23
539.21	5737.9
539.575	5816.99
539.94	5841.17
540.305	5827.39
540.67	5818.35
541.034	5884.79
541.399	5882.08
541.764	5911
542.129	5900.83
542.494	5958.23
542.858	6012.92
543.223	6029.42
543.587	6095.63
543.952	6031.68
544.316	6065.8
544.681	6089.3
545.045	6162.75
545.41	6142.41
545.774	6171.79
546.138	6197.32
546.503	6214.5
546.867	6246.59
547.231	6323.42
547.595	6304.44
547.959	6322.07
548.324	6383.76
548.688	6324.1
549.052	6384.89
549.416	6395.51
549.779	6435.28
550.143	6503.3
550.507	6475.73
550.871	6517.77
551.235	6474.83
551.599	6546.01
551.962	6586.92
552.326	6567.03
552.689	6623.75
553.053	6590.76
553.417	6588.27
553.78	6680.47
554.143	6606.8
554.507	6746.01
554.87	6695.39
555.234	6754.82
555.597	6704.65
555.96	6715.5
556.323	6765.44
556.686	6818.78
557.05	6857.87
557.413	6887.7
557.776	6851.54
558.139	6937.87
558.502	6918.66
558.865	6952.56
559.228	6962.27
559.59	6975.61
559.953	6990.3
560.316	7128.6
560.679	7029.17
561.041	7151.87
561.404	7166.11
561.767	7177.18
562.129	7119.78
562.492	7240.23
562.854	7265.54
563.217	7242.27
563.579	7209.73
563.941	7252.21
564.304	7359.33
564.666	7405.43
565.028	7450.4
565.39	7366.11
565.753	7438.87
566.115	7470.74
566.477	7532.43
566.839	7521.13
567.201	7552.99
567.563	7473.45
567.925	7617.4
568.287	7599.09
568.648	7607.91
569.01	7705.08
569.372	7680.45
569.734	7670.73
570.095	7784.4
570.457	7789.37
570.819	7862.36
571.18	7916.37
571.542	7967.67
571.903	7960.44
572.265	7997.28
572.626	8005.86
572.987	8064.84
573.349	8080.89
573.71	8177.61
574.071	8188.91
574.432	8232.75
574.794	8346.64
575.155	8363.37
575.516	8356.36
575.877	8399.98
576.238	8481.78
576.599	8557.49
576.96	8648.56
577.32	8769.23
577.681	8766.97
578.042	8820.98
578.403	8956.8
578.763	9002.9
579.124	9023.24
579.485	9166.28
579.845	9267.3
580.206	9324.7
580.566	9479.5
580.927	9648.31
581.287	9736.44
581.648	9771.69
582.008	9999.71
582.368	10074.06
582.728	10221.4
583.089	10393.6
583.449	10456.19
583.809	10671.1
584.169	10820.7
584.529	10889.4
584.889	11142.96
585.249	11285.78
585.609	11450.97
585.969	11698.2
586.329	11824.97
586.688	12028.81
587.048	12242.36
587.408	12434.9
587.768	12664.72
588.127	12849.13
588.487	13055.67
588.846	13379.28
589.206	13474.19
589.565	13760.06
589.925	14061.07
590.284	14220.39
590.643	14479.37
591.003	14802.29
591.362	15066.24
591.721	15280.25
592.08	15574.48
592.44	15855.83
592.799	16106.89
593.158	16385.76
593.517	16614.22
593.876	16966.76
594.235	17227.32
594.593	17399.74
594.952	17767.87
595.311	17883.34
595.67	18327.4
596.029	18737.56
596.387	18923.32
596.746	19326.24
597.104	19507.48
597.463	19685.78
597.822	20043.74
598.18	20318.31
598.538	20531.41
598.897	21010.72
599.255	21032.19
599.613	21661.55
599.972	21673.53
600.33	22080.07
600.688	22328.65
601.046	22522.54
601.404	22936.54
601.762	23240.94
602.12	23487.49
602.478	23733.36
602.836	23968.61
603.194	24016.52
603.552	24450.85
603.91	24605.43
604.268	25025.08
604.625	25036.38
604.983	25407.21
605.341	25599.98
605.698	26006.07
606.056	26263.01
606.413	26513.4
606.771	26797.46
607.128	26988.19
607.485	27027.06
607.843	27360.16
608.2	27638.57
608.557	27887.83
608.914	27960.37
609.272	28398.55
609.629	28572.78
609.986	28930.96
610.343	28916.05
610.7	29309.71
611.057	29357.39
611.414	29552.19
611.771	29693.43
612.127	29962.12
612.484	30098.16
612.841	30412.96
613.198	30547.64
613.554	30716.45
613.911	31068.53
614.267	31058.82
614.624	31291.58
614.98	31458.13
615.337	31626.71
615.693	31750.32
616.05	31927.04
616.406	32214.72
616.762	32219.01
617.118	32315.05
617.475	32563.64
617.831	32842.95
618.187	32910.97
618.543	33058.09
618.899	33235.71
619.255	33312.54
619.611	33453.78
619.967	33614.68
620.323	33819.87
620.678	33824.39
621.034	33677.73
621.39	33909.36
621.746	34027.1
622.101	34495.11
622.457	34218.28
622.812	34444.94
623.168	34603.36
623.523	34688.1
623.879	34947.3
624.234	34776.23
624.589	34864.37
624.945	35081.08
625.3	35226.84
625.655	35160.18
626.01	35228.88
626.365	35348.87
626.72	35462.77
627.075	35552.48
627.43	35449.89
627.785	35561.52
628.14	35761.74
628.495	35735.3
628.85	35687.17
629.205	35726.72
629.559	35829.54
629.914	35788.86
630.269	35899.59
630.623	35773.49
630.978	35814.62
631.332	36005.8
631.687	36101.62
632.041	36025.69
632.396	36122.19
632.75	36059.81
633.104	36131.23
633.459	36029.31
633.813	35974.85
634.167	36022.75
634.521	36103.43
634.875	36282.18
635.229	36123.77
635.583	36085.8
635.937	36113.6
636.291	35967.39
636.645	36100.49
636.999	36113.82
637.352	36361.5
637.706	35941.4
638.06	36099.81
638.413	36184.11
638.767	36119.47
639.121	36187.72
639.474	35863.66
639.828	36138.46
640.181	36171.22
640.534	36069.53
640.888	36074.05
641.241	35858.46
641.594	35951.34
641.947	36113.15
642.301	36078.35
642.654	36096.88
643.007	36093.94
643.36	36056.2
643.713	36001.06
644.066	36124.9
644.419	36031.11
644.771	35698.92
645.124	35395.43
645.477	35234.53
645.83	35247.63
646.182	34932.84
646.535	34966.06
646.888	35030.92
647.24	34785.72
647.593	35081.31
647.945	34983.91
648.298	34822.56
648.65	34840.19
649.002	34785.27
649.355	34939.62
649.707	34909.79
650.059	34881.77
650.411	35374.63
650.763	35424.58
651.115	35928.74
651.467	35666.6
651.819	35693.95
652.171	35655.08
652.523	35574.63
652.875	35691.91
653.227	35426.84
653.578	35614.85
653.93	35696.21
654.282	35360.17
654.633	35391.58
654.985	35596.32
655.337	35527.4
655.688	35510.22
656.039	35613.5
656.391	35204.92
656.742	35193.62
657.094	35324.92
657.445	35492.15
657.796	35420.06
658.147	35282.66
658.498	35385.48
658.849	35415.54
659.2	35322.66
659.551	35281.53
659.902	35310.68
660.253	35408.31
660.604	35373.96
660.955	35183
661.306	35401.75
661.656	35297.12
662.007	35343.22
662.358	35437.91
662.708	35358.36
663.059	35306.39
663.409	35159.27
663.76	35404.46
664.11	35333.28
664.461	35370.34
664.811	35263.68
665.161	35258.71
665.511	35156.34
665.862	35210.35
666.212	35447.4
666.562	35367.4
666.912	35259.61
667.262	35179.84
667.612	35268.87
667.962	35251.02
668.312	35265.49
668.662	35558.36
669.011	35225.71
669.361	35198.82
669.711	35139.39
670.06	35088.99
670.41	35098.71
670.76	35013.74
671.109	35093.29
671.459	35084.47
671.808	35014.64
672.157	35238.59
672.507	34971.71
672.856	34976
673.205	35013.29
673.554	35064.13
673.904	35020.07
674.253	35235.88
674.602	34955.21
674.951	34566.52
675.3	34416.92
675.649	34945.27
675.998	34852.84
676.346	34841.54
676.695	34929
677.044	34759.28
677.393	34858.49
677.741	34788.66
678.09	34782.33
678.438	34759.51
678.787	34635.9
679.135	34737.14
679.484	34681.77
679.832	34775.1
680.181	34471.38
680.529	34659.4
680.877	34542.79
681.225	34611.49
681.573	34535.11
681.922	34388.22
682.27	34302.57
682.618	34419.41
682.966	34207.66
683.314	34397.94
683.661	34284.27
684.009	34069.13
684.357	33988.46
684.705	33947.33
685.053	33943.49
685.4	33987.33
685.748	33729.93
686.095	33846.09
686.443	33733.1
686.79	33672.98
687.138	33750.27
687.485	33632.76
687.832	33572.2
688.18	33602.7
688.527	33531.97
688.874	33503.05
689.221	33336.72
689.568	33300.11
689.915	33256.95
690.262	33219.66
690.609	33105.09
690.956	33110.29
691.303	33007.69
691.65	32708.26
691.997	32962.49
692.344	32580.81
692.69	32580.13
693.037	32648.6
693.383	32300.37
693.73	32487.71
694.077	32100.82
694.423	32300.82
694.769	32262.85
695.116	32077.09
695.462	31993.48
695.808	31986.93
696.155	31975.4
696.501	31786.48
696.847	31687.27
697.193	31509.88
697.539	31727.5
697.885	31494.51
698.231	31338.81
698.577	31288.19
698.923	31301.52
699.269	31129.32
699.614	30944.92
699.96	30970.91
700.306	31007.07
700.651	30866.5
700.997	30793.29
701.342	30802.33
701.688	30729.79
702.033	30587.42
702.379	30438.49
702.724	30470.13
703.069	30491.6
703.415	30102.68
703.76	30168.9
704.105	30257.03
704.45	30212.28
704.795	30038.73
705.14	29869.47
705.485	29963.48
705.83	29708.12
706.175	29792.86
706.52	29664.95
706.865	29560.78
707.209	29634.45
707.554	29477.16
707.899	29455.92
708.243	29327.11
708.588	29278.07
708.932	29142.93
709.277	29039.21
709.621	29050.06
709.966	28852.32
710.31	28925.31
710.654	28756.05
710.998	28857.29
711.342	28704.75
711.687	28662.04
712.031	28594.47
712.375	28670.63
712.719	28582.72
713.063	28447.13
713.407	28553.8
713.75	28410.98
714.094	28348.15
714.438	28213.24
714.782	28268.16
715.125	28174.6
715.469	28121.04
715.812	27915.4
716.156	27932.8
716.499	27804.44
716.843	27898.22
717.186	27765.12
717.53	27872.01
717.873	27947.49
718.216	27855.06
718.559	27588.17
718.902	27527.16
719.246	27528.06
719.589	27482.19
719.932	27334.85
720.275	27459.14
720.617	27374.39
720.96	27332.59
721.303	27290.78
721.646	27275.41
721.989	27055.53
722.331	27256.43
722.674	27113.16
723.016	27058.92
723.359	27097.11
723.701	27069.77
724.044	26888.3
724.386	26826.61
724.729	26901.64
725.071	26849.89
725.413	26806.27
725.755	26792.26
726.097	26738.93
726.439	26441.99
726.782	26437.24
727.124	26614.87
727.465	26447.19
727.807	26457.13
728.149	26354.98
728.491	26296.46
728.833	26407.41
729.175	26286.96
729.516	26276.57
729.858	26281.09
730.199	26182.11
730.541	26171.04
730.882	26162
731.224	26288.77
731.565	26001.1
731.906	25929.69
732.248	25996.8
732.589	25863.47
732.93	25778.95
733.271	25876.13
733.612	25799.97
733.953	25957.03
734.294	25620.99
734.635	25722.23
734.976	25642.69
735.317	25528.57
735.658	25511.39
735.999	25537.38
736.339	25394.33
736.68	25493.99
737.021	25468
737.361	25355.24
737.702	25455.8
738.042	25368.34
738.383	25287.89
738.723	25316.59
739.063	25250.61
739.404	25247.9
739.744	25135.36
740.084	25106.2
740.424	25153.66
740.764	25056.71
741.104	25133.32
741.444	24957.28
741.784	24940.78
742.124	24844.74
742.464	24910.96
742.804	24815.14
743.143	24833.67
743.483	24762.03
743.823	24757.51
744.162	24630.28
744.502	24685.42
744.841	24467.58
745.181	24768.59
745.52	24541.7
745.86	24606.1
746.199	24470.51
746.538	24468.93
746.877	24513.23
747.216	24370.18
747.556	24426.9
747.895	24360.01
748.234	24224.19
748.573	24259.9
748.911	24203.18
749.25	24191.88
749.589	24129.96
749.928	24194.59
750.267	24186.23
750.605	24124.08
750.944	24068.94
751.283	23972.67
751.621	24034.37
751.96	23860.14
752.298	23834.83
752.636	23854.49
752.975	23717.09
753.313	23743.53
753.651	23706.47
753.989	23623.98
754.327	23582.18
754.666	23496.08
755.004	23440.94
755.342	23588.73
755.679	23456.76
756.017	23161.4
756.355	23400.26
756.693	23170.44
757.031	23259.02
757.368	23130.44
757.706	23082.3
758.044	22972.25
758.381	22965.92
758.719	22823.78
759.056	22961.63
759.394	22908.07
759.731	22660.84
760.068	22688.41
760.405	22560.28
760.743	22571.36
