Data from hue_90_FLMS001491_59.txt Node
Date: Mon Feb 06 15:25:20 GMT 2017
User: dcchb
Spectrometer: FLMS00149
Trigger mode: 0
Integration Time (sec): 2.000000E-2
Scans to average: 10
Electric dark correction enabled: true
Nonlinearity correction enabled: false
Boxcar width: 0
XAxis mode: Wavelengths
Number of Pixels in Spectrum: 2048
>>>>>Begin Spectral Data<<<<<
341.393	-15.56
341.776	-15.56
342.16	-15.56
342.543	-64.38
342.927	-59.86
343.31	-54.66
343.693	-73.19
344.077	-39.52
344.46	-62.79
344.843	-60.08
345.226	-51.95
345.61	-29.8
345.993	-5.17
346.376	-12.63
346.759	-0.2
347.142	39.8
347.525	31.21
347.908	59.01
348.291	75.28
348.674	99.69
349.057	85
349.44	151.44
349.823	150.98
350.206	165.45
350.588	191.44
350.971	194.15
351.354	220.14
351.737	251.32
352.119	230.98
352.502	277.76
352.884	261.94
353.267	255.61
353.65	287.93
354.032	286.35
354.414	285.67
354.797	302.17
355.179	323.18
355.562	309.62
355.944	321.6
356.326	321.15
356.709	301.94
357.091	334.48
357.473	357.98
357.855	324.09
358.238	312.79
358.62	323.41
359.002	354.82
359.384	335.84
359.766	336.06
360.148	319.12
360.53	345.33
360.912	325.44
361.294	309.62
361.676	324.99
362.057	308.27
362.439	311.21
362.821	339.45
363.203	346.23
363.584	319.12
363.966	307.14
364.348	322.51
364.729	321.83
365.111	312.56
365.493	298.33
365.874	310.53
366.256	321.6
366.637	301.72
367.019	309.62
367.4	297.65
367.781	294.48
368.163	290.87
368.544	304.43
368.925	310.75
369.306	306.91
369.688	313.01
370.069	294.48
370.45	304.88
370.831	307.36
371.212	328.83
371.593	309.4
371.974	289.74
372.355	302.85
372.736	316.4
373.117	299
373.498	307.59
373.879	312.79
374.26	304.43
374.641	300.81
375.021	326.8
375.402	301.72
375.783	313.47
376.163	316.18
376.544	308.27
376.925	321.15
377.305	297.65
377.686	306.91
378.066	311.66
378.447	306.69
378.827	313.24
379.208	312.34
379.588	313.01
379.968	313.47
380.349	332.9
380.729	342.62
381.109	324.09
381.489	331.77
381.87	334.48
382.25	343.75
382.63	344.2
383.01	341.49
383.39	332.9
383.77	340.58
384.15	340.13
384.53	323.18
384.91	347.14
385.29	336.97
385.67	350.98
386.049	350.08
386.429	362.73
386.809	340.58
387.189	350.08
387.568	332.67
387.948	327.93
388.328	346.23
388.707	339.91
389.087	342.17
389.466	351.66
389.846	353.47
390.225	354.6
390.605	359.34
390.984	364.76
391.363	364.31
391.743	373.58
392.122	362.73
392.501	368.61
392.881	372.9
393.26	358.89
393.639	359.57
394.018	359.34
394.397	385.1
394.776	346.46
395.155	377.65
395.534	366.35
395.913	384.65
396.292	376.29
396.671	373.35
397.05	381.26
397.429	367.48
397.808	406.12
398.186	369.51
398.565	373.8
398.944	383.52
399.323	393.46
399.701	370.19
400.08	392.33
400.458	364.76
400.837	374.71
401.215	378.78
401.594	371.54
401.972	384.88
402.351	402.5
402.729	398.44
403.107	402.5
403.486	389.62
403.864	397.31
404.242	413.12
404.62	390.3
404.999	407.25
405.377	410.86
405.755	409.06
406.133	420.36
406.511	407.93
406.889	428.72
407.267	437.3
407.645	416.97
408.023	414.71
408.401	428.49
408.779	410.86
409.156	426.46
409.534	426.46
409.912	456.74
410.29	437.08
410.667	433.92
411.045	444.76
411.422	454.48
411.8	465.55
412.178	436.63
412.555	459.68
412.933	460.13
413.31	475.27
413.687	456.74
414.065	480.02
414.442	458.1
414.819	477.3
415.197	450.64
415.574	474.59
415.951	486.57
416.328	487.93
416.705	475.5
417.082	465.55
417.46	489.28
417.837	498.55
418.214	478.66
418.591	500.35
418.967	495.38
419.344	498.09
419.721	478.21
420.098	509.17
420.475	506.46
420.852	489.05
421.228	496.06
421.605	507.59
421.982	530.18
422.358	520.92
422.735	539.9
423.111	526.57
423.488	528.6
423.864	532.44
424.241	543.74
424.617	561.82
424.994	542.61
425.37	551.43
425.746	556.62
426.123	562.5
426.499	553.46
426.875	564.99
427.251	548.04
427.627	580.13
428.003	579.22
428.379	579.9
428.756	584.87
429.132	594.59
429.507	571.99
429.883	604.76
430.259	607.24
430.635	634.36
431.011	598.88
431.387	624.87
431.763	609.05
432.138	622.84
432.514	628.94
432.89	629.16
433.265	643.18
433.641	630.29
434.016	646.79
434.392	658.32
434.767	668.49
435.143	649.5
435.518	667.36
435.894	677.75
436.269	673.91
436.644	697.86
437.02	720.91
437.395	698.09
437.77	718.2
438.145	712.1
438.52	706.68
438.895	707.13
439.271	727.47
439.646	749.61
440.021	710.74
440.395	734.25
440.77	755.04
441.145	764.3
441.52	743.29
441.895	763.17
442.27	774.02
442.645	766.56
443.019	782.38
443.394	784.41
443.769	788.48
444.143	770.18
444.518	781.25
444.892	781.02
445.267	796.84
445.641	787.35
446.016	788.48
446.39	818.09
446.764	827.35
447.139	784.64
447.513	814.7
447.887	808.82
448.262	804.75
448.636	824.64
449.01	864.41
449.384	837.97
449.758	842.27
450.132	849.5
450.506	874.13
450.88	869.61
451.254	868.25
451.628	872.1
452.002	894.47
452.376	887.91
452.75	903.73
453.123	914.35
453.497	913.68
453.871	924.3
454.244	932.43
454.618	942.6
454.992	954.58
455.365	955.48
455.739	997.97
456.112	974.69
456.486	983.05
456.859	982.83
457.232	1028.48
457.606	1035.03
457.979	1026.67
458.352	1044.75
458.725	1032.09
459.099	1034.13
459.472	1075.25
459.845	1099.66
460.218	1108.47
460.591	1109.15
460.964	1125.2
461.337	1155.48
461.71	1150.51
462.083	1174.23
462.456	1183.95
462.829	1202.03
463.201	1206.55
463.574	1225.53
463.947	1238.41
464.32	1242.93
464.692	1275.7
465.065	1301.24
465.438	1333.1
465.81	1315.93
466.183	1352.99
466.555	1325.42
466.928	1374.46
467.3	1370.84
467.672	1406.09
468.045	1439.99
468.417	1445.87
468.789	1473.66
469.161	1499.2
469.534	1518.41
469.906	1573.77
470.278	1560.21
470.65	1589.36
471.022	1622.36
471.394	1649.7
471.766	1680.21
472.138	1698.06
472.51	1735.58
472.882	1784.61
473.253	1842.47
473.625	1866.19
473.997	1889.92
474.369	1932.18
474.74	1961.33
475.112	2001.33
475.484	2080.88
475.855	2140.99
476.227	2166.52
476.598	2213.53
476.97	2229.12
477.341	2313.41
477.713	2371.94
478.084	2432.05
478.455	2461.66
478.827	2546.63
479.198	2587.53
479.569	2680.86
479.94	2769.45
480.311	2815.32
480.682	2904.58
481.053	3004.92
481.424	3080.63
481.795	3132.38
482.166	3224.12
482.537	3366.72
482.908	3391.13
483.279	3467.51
483.65	3617.79
484.021	3698.91
484.391	3769.87
484.762	3810.55
485.133	3968.51
485.503	4058.45
485.874	4137.77
486.244	4223.87
486.615	4382.06
486.985	4456.86
487.356	4593.13
487.726	4717.42
488.097	4844.42
488.467	4965.55
488.837	5056.84
489.207	5194.24
489.578	5317.63
489.948	5418.42
490.318	5571.63
490.688	5596.49
491.058	5787.9
491.428	5884.17
491.798	6049.13
492.168	6252.29
492.538	6285.29
492.908	6418.39
493.278	6550.82
493.648	6627.65
494.017	6750.81
494.387	6895.89
494.757	6941.09
495.126	7138.15
495.496	7172.5
495.866	7267.86
496.235	7424.47
496.605	7537.23
496.974	7638.02
497.344	7783.55
497.713	7905.13
498.082	7978.8
498.452	8160.49
498.821	8140.15
499.19	8305.35
499.559	8449.52
499.928	8540.82
500.298	8604.55
500.667	8702.62
501.036	8738.1
501.405	8878.89
501.774	8859.46
502.143	9044.76
502.512	9157.3
502.88	9239.56
503.249	9261.48
503.618	9429.61
503.987	9460.34
504.356	9542.38
504.724	9573.34
505.093	9624.41
505.462	9730.85
505.83	9829.15
506.199	9908.69
506.567	10058.29
506.936	10100.33
507.304	10108.24
507.672	10189.14
508.041	10242.47
508.409	10363.37
508.777	10418.06
509.145	10524.95
509.514	10505.74
509.882	10606.98
510.25	10604.04
510.618	10635
510.986	10753.42
511.354	10855.79
511.722	10931.27
512.09	10929.01
512.458	10921.77
512.826	11110.92
513.193	11091.04
513.561	11136.68
513.929	11179.62
514.297	11246.51
514.664	11330.8
515.032	11347.75
515.4	11397.69
515.767	11468.2
516.135	11506.17
516.502	11408.54
516.869	11557.24
517.237	11520.86
517.604	11530.35
517.972	11658.25
518.339	11696.67
518.706	11677.69
519.073	11731.92
519.44	11776.67
519.808	11851.92
520.175	11766.05
520.542	12000.84
520.909	11999.71
521.276	11945.48
521.643	11978.92
522.009	12041.52
522.376	12079.03
522.743	12174.17
523.11	12269.31
523.477	12294.85
523.843	12311.79
524.21	12359.93
524.577	12399.48
524.943	12439.25
525.31	12550.21
525.676	12523.54
526.043	12542.07
526.409	12452.36
526.776	12608.74
527.142	12558.12
527.508	12654.38
527.874	12677.21
528.241	12566.03
528.607	12695.97
528.973	12733.48
529.339	12669.75
529.705	12699.36
530.071	12853.02
530.437	12837.66
530.803	12784.55
531.169	12797.21
531.535	12771.22
531.901	12726.02
532.267	12845.79
532.632	12810.99
532.998	12830.65
533.364	12795.85
533.73	12822.29
534.095	12829.07
534.461	12835.85
534.826	12882.4
535.192	12773.93
535.557	12914.26
535.923	12735.06
536.288	12851.22
536.653	12721.73
537.019	12679.47
537.384	12745.46
537.749	12749.52
538.114	12698.9
538.479	12564.22
538.845	12570.09
539.21	12582.3
539.575	12629.07
539.94	12589.53
540.305	12542.52
540.67	12572.13
541.034	12483.77
541.399	12545.69
541.764	12438.8
542.129	12499.13
542.494	12433.6
542.858	12428.4
543.223	12397.67
543.587	12415.52
543.952	12330.78
544.316	12330.78
544.681	12294.62
545.045	12229.54
545.41	12272.93
545.774	12228.41
546.138	12225.02
546.503	12198.8
546.867	12153.16
547.231	12220.05
547.595	12145.7
547.959	12155.87
548.324	12080.84
548.688	12049.65
549.052	12021.18
549.416	12020.73
549.779	11945.7
550.143	11936.66
550.507	11930.34
550.871	11992.26
551.235	11884.01
551.599	11947.51
551.962	11872.03
552.326	11920.84
552.689	11828.87
553.053	11819.15
553.417	11837.23
553.78	11813.05
554.143	11739.15
554.507	11783.9
554.87	11690.57
555.234	11897.34
555.597	11665.26
555.96	11684.01
556.323	11669.1
556.686	11606.05
557.05	11679.95
557.413	11587.29
557.776	11641.53
558.139	11638.82
558.502	11640.63
558.865	11606.73
559.228	11646.28
559.59	11563.79
559.953	11591.81
560.316	11759.27
560.679	11648.08
561.041	11690.79
561.404	11636.11
561.767	11715.2
562.129	11700.29
562.492	11742.77
562.854	11701.19
563.217	11719.72
563.579	11707.29
563.941	11679.72
564.304	11724.24
564.666	11747.74
565.028	11836.33
565.39	11787.97
565.753	11793.16
566.115	11847.17
566.477	11906.83
566.839	11857.57
567.201	11950.45
567.563	11906.38
567.925	11862.09
568.287	11806.05
568.648	11867.74
569.01	11869.32
569.372	11931.01
569.734	11828.42
570.095	11967.85
570.457	12027.06
570.819	11917.68
571.18	11932.6
571.542	11998.36
571.903	11968.98
572.265	12042.88
572.626	11973.95
572.987	12015.08
573.349	12039.26
573.71	12015.53
574.071	12101.63
574.432	12063.21
574.794	12126.72
575.155	12122.65
575.516	12052.37
575.877	12093.5
576.238	12132.14
576.599	12150.67
576.96	12127.39
577.32	12175.08
577.681	12145.92
578.042	12194.74
578.403	12120.39
578.763	12169.65
579.124	12240.38
579.485	12138.47
579.845	12111.8
580.206	12086.72
580.566	12121.97
580.927	12179.37
581.287	12288.74
581.648	12109.31
582.008	12181.85
582.368	12199.26
582.728	12144.57
583.089	12132.14
583.449	12153.16
583.809	12145.7
584.169	12146.83
584.529	12092.37
584.889	12178.92
585.249	12130.1
585.609	12055.3
585.969	12130.1
586.329	12095.76
586.688	12148.41
587.048	12087.17
587.408	12042.88
587.768	12067.28
588.127	12105.25
588.487	11940.51
588.846	12095.98
589.206	11950.22
589.565	11933.5
589.925	12000.62
590.284	11946.15
590.643	11971.01
591.003	12024.8
591.362	12050.11
591.721	11959.49
592.08	12027.28
592.44	11955.87
592.799	12015.53
593.158	11978.24
593.517	11990
593.876	11964.69
594.235	11987.74
594.593	11923.56
594.952	11939.83
595.311	11854.41
595.67	11884.91
596.029	11981.86
596.387	11918.36
596.746	11977.11
597.104	11970.11
597.463	11935.08
597.822	11952.93
598.18	11828.19
598.538	11832.26
598.897	11972.14
599.255	11804.24
599.613	11932.37
599.972	11867.29
600.33	11907.96
600.688	11842.2
601.046	11826.16
601.404	11934.18
601.762	11923.78
602.12	11960.17
602.478	11923.1
602.836	11868.87
603.194	11831.36
603.552	11873.16
603.91	11871.58
604.268	11996.1
604.625	11819.15
604.983	11894.18
605.341	11799.72
605.698	11841.07
606.056	11871.58
606.413	11891.69
606.771	11909.77
607.128	11984.57
607.485	11835.2
607.843	11952.93
608.2	11924.23
608.557	11949.54
608.914	11960.62
609.272	11980.05
609.629	11993.84
609.986	12004.23
610.343	11932.82
610.7	12005.59
611.057	11991.35
611.414	12005.59
611.771	12056.89
612.127	12068.41
612.484	11985.7
612.841	12028.86
613.198	12015.53
613.554	12018.24
613.911	12068.64
614.267	12124
614.624	12020.28
614.98	12065.02
615.337	12105.7
615.693	12130.78
616.05	12121.74
616.406	12231.35
616.762	12108.41
617.118	12090.56
617.475	12092.14
617.831	12163.78
618.187	12189.54
618.543	12160.84
618.899	12279.93
619.255	12140.95
619.611	12202.65
619.967	12257.33
620.323	12253.04
620.678	12245.36
621.034	12157.22
621.39	12120.16
621.746	12116.55
622.101	12308.18
622.457	12145.25
622.812	12252.59
623.168	12159.71
623.523	12225.7
623.879	12270.44
624.234	12221.4
624.589	12233.83
624.945	12250.78
625.3	12233.15
625.655	12308.86
626.01	12290.1
626.365	12156.32
626.72	12164.45
627.075	12236.09
627.43	12142.99
627.785	12149.54
628.14	12159.93
628.495	12138.47
628.85	12146.6
629.205	12158.13
629.559	12219.59
629.914	12095.3
630.269	12207.62
630.623	12250.78
630.978	12119.03
631.332	12091.69
631.687	12187.73
632.041	12190.44
632.396	12048.3
632.75	12062.54
633.104	12159.03
633.459	12102.99
633.813	12018.47
634.167	11916.78
634.521	12026.38
634.875	12054.85
635.229	11964.91
635.583	11883.78
635.937	11922.43
636.291	11994.52
636.645	11959.94
636.999	11946.61
637.352	11912.94
637.706	11889.89
638.06	11860.96
638.413	11839.49
638.767	11852.82
639.121	11825.25
639.474	11738.02
639.828	11692.6
640.181	11766.72
640.534	11786.61
640.888	11730.34
641.241	11724.24
641.594	11694.64
641.947	11806.5
642.301	11718.14
642.654	11681.53
643.007	11725.82
643.36	11631.81
643.713	11703.45
644.066	11754.75
644.419	11593.4
644.771	11564.02
645.124	11492.61
645.477	11458.48
645.83	11429.78
646.182	11338.49
646.535	11254.65
646.888	11391.14
647.24	11331.71
647.593	11344.81
647.945	11282.9
648.298	11209.68
648.65	11155.89
649.002	11226.63
649.355	11191.15
649.707	11170.36
650.059	11307.75
650.411	11383.91
650.763	11482.21
651.115	11566.5
651.467	11453.74
651.819	11459.84
652.171	11444.02
652.523	11543.68
652.875	11444.47
653.227	11469.11
653.578	11556.11
653.93	11444.47
654.282	11491.93
654.633	11391.37
654.985	11496.9
655.337	11466.85
655.688	11495.77
656.039	11518.14
656.391	11418.71
656.742	11393.18
657.094	11488.77
657.445	11524.92
657.796	11506.17
658.147	11495.32
658.498	11539.39
658.849	11467.75
659.2	11464.59
659.551	11450.12
659.902	11490.57
660.253	11515.43
660.604	11508.65
660.955	11525.6
661.306	11546.39
661.656	11509.1
662.007	11511.59
662.358	11502.1
662.708	11540.29
663.059	11584.81
663.409	11496.45
663.76	11626.62
664.11	11556.79
664.461	11625.71
664.811	11577.35
665.161	11547.52
665.511	11580.06
665.862	11655.77
666.212	11563.79
666.562	11601.31
666.912	11620.74
667.262	11525.6
667.612	11595.66
667.962	11602.89
668.312	11531.93
668.662	11612.83
669.011	11613.73
669.361	11503.68
669.711	11531.25
670.06	11480.63
670.41	11478.82
670.76	11517.69
671.109	11557.69
671.459	11563.34
671.808	11487.86
672.157	11508.65
672.507	11457.13
672.856	11435.66
673.205	11434.53
673.554	11511.14
673.904	11462.55
674.253	11508.65
674.602	11456
674.951	11325.83
675.3	11293.29
675.649	11433.85
675.998	11394.3
676.346	11404.25
676.695	11410.12
677.044	11339.84
677.393	11323.57
677.741	11430.69
678.09	11370.35
678.438	11264.14
678.787	11398.6
679.135	11292.61
679.484	11227.08
679.832	11241.31
680.181	11300.3
680.529	11277.02
680.877	11237.92
681.225	11204.71
681.573	11244.03
681.922	11116.8
682.27	11084.26
682.618	11072.73
682.966	11071.38
683.314	11063.01
683.661	11068.66
684.009	11018.95
684.357	10990.02
684.705	10938.5
685.053	10994.54
685.4	10942.57
685.748	10905.5
686.095	10872.96
686.443	10808.56
686.79	10853.3
687.138	10820.76
687.485	10777.82
687.832	10774.21
688.18	10718.84
688.527	10750.03
688.874	10698.5
689.221	10646.75
689.568	10650.82
689.915	10660.54
690.262	10673.87
690.609	10622.57
690.956	10545.97
691.303	10489.92
691.65	10543.25
691.997	10501
692.344	10462.35
692.69	10355.24
693.037	10371.05
693.383	10252.19
693.73	10334.45
694.077	10190.49
694.423	10233.43
694.769	10179.65
695.116	10240.89
695.462	10135.13
695.808	10102.81
696.155	10059.42
696.501	10033.66
696.847	9976.26
697.193	9911.63
697.539	9927.22
697.885	9854.01
698.231	9873.21
698.577	9822.14
698.923	9731.07
699.269	9719.55
699.614	9659.89
699.96	9676.38
700.306	9672.77
700.651	9616.5
700.997	9544.41
701.342	9545.31
701.688	9486.33
702.033	9514.35
702.379	9477.29
702.724	9486.33
703.069	9457.41
703.415	9331.08
703.76	9371.08
704.105	9339.44
704.45	9292.21
704.795	9247.92
705.14	9196.62
705.485	9196.17
705.83	9158.88
706.175	9095.83
706.52	9077.53
706.865	9075.27
707.209	9136.74
707.554	9046.34
707.899	9015.38
708.243	8967.25
708.588	8960.47
708.932	8941.49
709.277	8905.78
709.621	8880.25
709.966	8886.12
710.31	8791.44
710.654	8768.84
710.998	8709.4
711.342	8742.62
711.687	8677.54
712.031	8692.46
712.375	8640.71
712.719	8675.28
713.063	8615.39
713.407	8682.96
713.75	8569.07
714.094	8554.38
714.438	8541.05
714.782	8569.75
715.125	8569.52
715.469	8529.97
715.812	8460.6
716.156	8450.2
716.499	8391.22
716.843	8463.31
717.186	8408.85
717.53	8469.86
717.873	8460.6
718.216	8377.21
718.559	8382.86
718.902	8345.35
719.246	8342.18
719.589	8357.77
719.932	8327.49
720.275	8327.72
720.617	8325.23
720.96	8341.5
721.303	8274.39
721.646	8266.7
721.989	8218.8
722.331	8301.28
722.674	8218.12
723.016	8256.53
723.359	8258.79
723.701	8221.06
724.044	8204.78
724.386	8156.88
724.729	8176.08
725.071	8141.96
725.413	8141.06
725.755	8188.97
726.097	8181.51
726.439	8050.66
726.782	8163.43
727.124	8116.88
727.465	8092.47
727.807	8128.85
728.149	8106.71
728.491	8155.52
728.833	8135.18
729.175	8146.71
729.516	8031
729.858	8066.26
730.199	8039.14
730.541	8102.41
730.882	8082.3
731.224	8150.77
731.565	8067.16
731.906	8068.97
732.248	8120.04
732.589	8048.4
732.93	8030.33
733.271	8090.21
733.612	8091.57
733.953	8085.47
734.294	8002.53
734.635	8027.61
734.976	8051.79
735.317	8077.56
735.658	8017.9
735.999	8042.3
736.339	8075.07
736.68	8092.47
737.021	8146.71
737.361	8039.59
737.702	8084.11
738.042	8112.58
738.383	8047.27
738.723	8173.6
739.063	8076.43
739.404	8118.68
739.744	8099.02
740.084	8064
740.424	8096.99
740.764	8129.76
741.104	8153.94
741.444	8082.75
741.784	8155.52
742.124	8160.27
742.464	8210.43
742.804	8128.85
743.143	8211.79
743.483	8176.31
743.823	8244.78
744.162	8226.48
744.502	8296.08
744.841	8289.08
745.181	8341.05
745.52	8423.76
745.86	8438.9
746.199	8446.59
746.538	8437.09
746.877	8509.41
747.216	8533.82
747.556	8573.81
747.895	8586.7
748.234	8647.26
748.573	8607.03
748.911	8730.19
749.25	8779.68
749.589	8849.74
749.928	8869.4
750.267	8931.09
750.605	8951.88
750.944	9092.22
751.283	9139.67
751.621	9160.01
751.96	9263.29
752.298	9354.58
752.636	9419.44
752.975	9433.45
753.313	9548.7
753.651	9748.02
753.989	9808.58
754.327	9849.94
754.666	9927.68
755.004	10017.39
755.342	10161.34
755.679	10266.65
756.017	10353.2
756.355	10508.68
756.693	10586.19
757.031	10747.99
757.368	10755.68
757.706	10961.77
758.044	11029.12
758.381	11189.11
758.719	11267.98
759.056	11419.39
759.394	11557.69
759.731	11648.08
760.068	11768.53
