Data from hue_24_FLMS001491_00041.txt Node
Date: Tue Feb 07 17:12:18 GMT 2017
User: dcchb
Spectrometer: FLMS00149
Trigger mode: 0
Integration Time (sec): 2.000000E-2
Scans to average: 10
Electric dark correction enabled: true
Nonlinearity correction enabled: false
Boxcar width: 0
XAxis mode: Wavelengths
Number of Pixels in Spectrum: 2048
>>>>>Begin Spectral Data<<<<<
341.393	-25.97
341.776	-25.97
342.16	-25.97
342.543	-56.03
342.927	-82.47
343.31	-74.11
343.693	-59.87
344.077	-67.33
344.46	-53.09
344.843	-50.83
345.226	-58.29
345.61	-11.96
345.993	-17.84
346.376	-10.61
346.759	-3.15
347.142	29.17
347.525	35.04
347.908	51.99
348.291	77.75
348.674	113.91
349.057	99.22
349.44	121.59
349.823	142.84
350.206	165.43
350.588	195.49
350.971	205.88
351.354	232.78
351.737	244.53
352.119	256.5
352.502	280.91
352.884	274.58
353.267	271.19
353.65	267.13
354.032	300.12
354.414	302.38
354.797	308.93
355.179	299.89
355.562	329.95
355.944	313.68
356.326	327.24
356.709	340.12
357.091	343.28
357.473	353.23
357.855	344.86
358.238	335.37
358.62	336.95
359.002	353.23
359.384	329.72
359.766	329.95
360.148	333.79
360.53	347.12
360.912	333.79
361.294	334.24
361.676	328.82
362.057	324.75
362.439	319.78
362.821	337.63
363.203	334.24
363.584	350.51
363.966	333.56
364.348	320.23
364.729	326.11
365.111	328.37
365.493	333.79
365.874	315.26
366.256	306.67
366.637	322.49
367.019	333.56
367.4	322.94
367.781	316.62
368.163	311.64
368.544	319.1
368.925	313.9
369.306	334.69
369.688	324.07
370.069	307.58
370.45	304.64
370.831	325.88
371.212	301.25
371.593	306.45
371.974	332.21
372.355	312.77
372.736	303.73
373.117	305.99
373.498	311.64
373.879	324.07
374.26	324.98
374.641	317.75
375.021	301.48
375.402	314.36
375.783	335.82
376.163	318.2
376.544	336.95
376.925	322.04
377.305	297.86
377.686	336.73
378.066	334.02
378.447	316.39
378.827	334.24
379.208	330.85
379.588	323.62
379.968	323.62
380.349	356.61
380.729	341.47
381.109	332.66
381.489	340.8
381.87	340.57
382.25	331.3
382.63	346.67
383.01	348.71
383.39	329.95
383.77	346.45
384.15	362.94
384.53	364.75
384.91	361.13
385.29	337.86
385.67	347.12
386.049	344.64
386.429	356.84
386.809	357.07
387.189	377.18
387.568	367.46
387.948	342.15
388.328	362.72
388.707	359.33
389.087	363.17
389.466	353.45
389.846	357.52
390.225	367.46
390.605	356.16
390.984	366.11
391.363	376.95
391.743	353
392.122	370.85
392.501	356.84
392.881	385.99
393.26	364.52
393.639	386.67
394.018	370.17
394.397	395.71
394.776	395.03
395.155	407.24
395.534	375.15
395.913	366.78
396.292	394.13
396.671	378.31
397.05	388.25
397.429	403.39
397.808	390.29
398.186	408.14
398.565	397.97
398.944	405.88
399.323	400.46
399.701	390.51
400.08	392.32
400.458	416.5
400.837	414.24
401.215	411.3
401.594	409.49
401.972	416.73
402.351	404.07
402.729	424.41
403.107	419.21
403.486	414.47
403.864	418.76
404.242	434.13
404.62	431.19
404.999	410.85
405.377	421.47
405.755	433.22
406.133	431.42
406.511	423.96
406.889	428.93
407.267	441.81
407.645	433.45
408.023	432.77
408.401	433.45
408.779	450.4
409.156	448.59
409.534	471.41
409.912	468.02
410.29	476.16
410.667	460.57
411.045	438.87
411.422	464.86
411.8	469.15
412.178	488.81
412.555	491.3
412.933	474.58
413.31	463.05
413.687	495.82
414.065	500.57
414.442	490.62
414.819	481.58
415.197	488.81
415.574	508.93
415.951	489.94
416.328	488.36
416.705	498.31
417.082	497.85
417.46	510.28
417.837	512.54
418.214	510.28
418.591	517.51
418.967	513.45
419.344	505.09
419.721	520.68
420.098	530.17
420.475	545.76
420.852	520.9
421.228	531.07
421.605	551.41
421.982	557.29
422.358	552.54
422.735	544.63
423.111	563.39
423.488	576.27
423.864	583.73
424.241	568.81
424.617	581.69
424.994	579.21
425.37	571.98
425.746	564.75
426.123	562.49
426.499	582.37
426.875	576.27
427.251	586.21
427.627	587.8
428.003	591.19
428.379	589.83
428.756	609.72
429.132	632.54
429.507	614.69
429.883	642.48
430.259	632.09
430.635	631.18
431.011	643.61
431.387	668.25
431.763	681.35
432.138	658.75
432.514	649.49
432.89	685.19
433.265	674.8
433.641	659.43
434.016	682.71
434.392	728.13
434.767	729.94
435.143	694.91
435.518	736.94
435.894	726.77
436.269	729.94
436.644	721.8
437.02	736.04
437.395	726.1
437.77	764.74
438.145	755.47
438.52	741.24
438.895	757.28
439.271	759.99
439.646	759.77
440.021	775.59
440.395	782.14
440.77	766.77
441.145	786.21
441.52	799.32
441.895	795.93
442.27	788.02
442.645	797.73
443.019	810.39
443.394	817.62
443.769	823.72
444.143	815.81
444.518	820.56
444.892	839.99
445.267	849.03
445.641	834.57
446.016	800.9
446.39	838.86
446.764	840.44
447.139	843.16
447.513	866.88
447.887	863.27
448.262	862.59
448.636	892.65
449.01	872.99
449.384	899.2
449.758	874.57
450.132	891.52
450.506	898.52
450.88	885.64
451.254	898.07
451.628	908.24
452.002	925.87
452.376	940.55
452.75	929.48
453.123	945.53
453.497	950.72
453.871	962.25
454.244	969.25
454.618	990.04
454.992	992.53
455.365	985.07
455.739	1025.07
456.112	1018.97
456.486	1034.11
456.859	1037.27
457.232	1063.26
457.606	1076.6
457.979	1068.91
458.352	1070.72
458.725	1071.85
459.099	1089.48
459.472	1110.72
459.845	1141.91
460.218	1155.69
460.591	1119.98
460.964	1165.63
461.337	1169.93
461.71	1174.45
462.083	1218.29
462.456	1196.14
462.829	1192.75
463.201	1234.78
463.574	1262.81
463.947	1281.56
464.32	1277.04
464.692	1278.85
465.065	1280.88
465.438	1309.81
465.81	1320.66
466.183	1354.1
466.555	1376.48
466.928	1410.82
467.3	1362.92
467.672	1402.24
468.045	1436.81
468.417	1450.6
468.789	1434.33
469.161	1461.44
469.534	1498.51
469.906	1500.31
470.278	1530.6
470.65	1575.11
471.022	1611.5
471.394	1601.55
471.766	1597.94
472.138	1653.08
472.51	1671.61
472.882	1681.1
473.253	1723.13
473.625	1740.31
473.997	1779.18
474.369	1804.71
474.74	1842
475.112	1818.05
475.484	1853.3
475.855	1952.96
476.227	1949.12
476.598	1991.83
476.97	2005.84
477.341	2069.34
477.713	2093.07
478.084	2098.49
478.455	2172.61
478.827	2183.69
479.198	2257.13
479.569	2278.82
479.94	2314.76
480.311	2348.43
480.682	2407.18
481.053	2471.36
481.424	2530.57
481.795	2529.67
482.166	2548.2
482.537	2612.6
482.908	2691.02
483.279	2749.77
483.65	2801.97
484.021	2823.67
484.391	2862.76
484.762	2934.85
485.133	2984.34
485.503	3005.58
485.874	3052.59
486.244	3111.8
486.615	3206.03
486.985	3258.91
487.356	3287.61
487.726	3263.21
488.097	3383.88
488.467	3414.61
488.837	3507.72
489.207	3581.61
489.578	3605.8
489.948	3645.12
490.318	3691.67
490.688	3725.34
491.058	3762.63
491.428	3866.58
491.798	3876.52
492.168	3954.94
492.538	4000.36
492.908	4018.44
493.278	4077.87
493.648	4105.22
494.017	4203.52
494.387	4188.38
494.757	4255.04
495.126	4308.38
495.496	4366.9
495.866	4369.84
496.235	4467.92
496.605	4505.21
496.974	4493
497.344	4546.56
497.713	4567.13
498.082	4677.86
498.452	4666.78
498.821	4657.74
499.19	4699.1
499.559	4713.11
499.928	4809.15
500.298	4799.21
500.667	4858.19
501.036	4884.86
501.405	4924.63
501.774	4908.36
502.143	4957.85
502.512	4999.43
502.88	5037.85
503.249	5053.89
503.618	5075.13
503.987	5066.1
504.356	5174.57
504.724	5179.09
505.093	5179.31
505.462	5185.41
505.83	5255.92
506.199	5257.28
506.567	5308.35
506.936	5307.22
507.304	5419.98
507.672	5439.19
508.041	5435.8
508.409	5463.6
508.777	5483.71
509.145	5542.24
509.514	5567.55
509.882	5579.53
510.25	5594.22
510.618	5690.49
510.986	5624.05
511.354	5669.24
511.722	5771.84
512.09	5795.34
512.458	5756.25
512.826	5845.28
513.193	5839.63
513.561	5844.38
513.929	5904.49
514.297	5902.46
514.664	5944.72
515.032	5982.46
515.4	6049.12
515.767	6049.35
516.135	6035.34
516.502	6062.91
516.869	6124.82
517.237	6098.61
517.604	6128.67
517.972	6179.29
518.339	6186.52
518.706	6201.88
519.073	6316.91
519.44	6249.79
519.808	6285.5
520.175	6312.62
520.542	6332.73
520.909	6451.6
521.276	6415.66
521.643	6473.06
522.009	6488.88
522.376	6524.14
522.743	6482.56
523.11	6603.46
523.477	6609.33
523.843	6693.85
524.21	6744.24
524.577	6759.38
524.943	6775.43
525.31	6781.3
525.676	6876.9
526.043	6905.82
526.409	6947.85
526.776	7005.03
527.142	6983.56
527.508	7088.64
527.874	7061.07
528.241	7078.47
528.607	7125.02
528.973	7200.95
529.339	7190.33
529.705	7233.95
530.071	7281.4
530.437	7385.13
530.803	7400.05
531.169	7425.58
531.535	7449.54
531.901	7382.64
532.267	7529.53
532.632	7590.32
532.998	7603.66
533.364	7615.18
533.73	7651.34
534.095	7689.08
534.461	7718.46
534.826	7789.41
535.192	7758
535.557	7882.97
535.923	7830.32
536.288	7902.63
536.653	7967.04
537.019	7982.86
537.384	8027.6
537.749	8030.54
538.114	8061.72
538.479	8051.33
538.845	8165.9
539.21	8088.84
539.575	8176.75
539.94	8109.41
540.305	8218.56
540.67	8220.59
541.034	8249.29
541.399	8270.31
541.764	8317.08
542.129	8388.95
542.494	8370.19
542.858	8393.24
543.223	8438.89
543.587	8486.12
543.952	8515.72
544.316	8561.14
544.681	8553.46
545.045	8598.43
545.41	8640.01
545.774	8707.36
546.138	8685.21
546.503	8715.94
546.867	8734.47
547.231	8882.94
547.595	8831.19
547.959	8787.58
548.324	8887.01
548.688	8874.81
549.052	9021.92
549.416	8988.93
549.779	9034.13
550.143	9030.29
550.507	9089.49
550.871	9130.85
551.235	9115.93
551.599	9161.58
551.962	9174.01
552.326	9219.88
552.689	9235.48
553.053	9258.98
553.417	9303.95
553.78	9368.58
554.143	9356.15
554.507	9419.43
554.87	9380.56
555.234	9525.87
555.597	9486.32
555.96	9469.37
556.323	9567.22
556.686	9593.66
557.05	9652.42
557.413	9595.92
557.776	9714.33
558.139	9757.72
558.502	9752.75
558.865	9734
559.228	9856.25
559.59	9819.64
559.953	9847.21
560.316	9982.12
560.679	9951.62
561.041	10040.88
561.404	10066.19
561.767	10084.49
562.129	10102.35
562.492	10216.47
562.854	10177.15
563.217	10195.68
563.579	10272.29
563.941	10230.03
564.304	10287.43
564.666	10304.15
565.028	10337.82
565.39	10423.47
565.753	10541.66
566.115	10446.75
566.477	10533.97
566.839	10552.73
567.201	10576.91
567.563	10659.17
567.925	10739.84
568.287	10732.61
568.648	10772.16
569.01	10907.07
569.372	10872.95
569.734	10905.94
570.095	10927.18
570.457	11058.93
570.819	11090.8
571.18	11096.9
571.542	11104.13
571.903	11145.94
572.265	11215.54
572.626	11330.56
572.987	11323.78
573.349	11335.76
573.71	11347.74
574.071	11465.02
574.432	11546.6
574.794	11590.44
575.155	11634.06
575.516	11625.47
575.877	11771.46
576.238	11828.63
576.599	11928.29
576.96	12034.05
577.32	12002.18
577.681	12149.3
578.042	12268.84
578.403	12343.87
578.763	12373.93
579.124	12530.53
579.485	12630.64
579.845	12710.19
580.206	12839.22
580.566	12937.98
580.927	13071.08
581.287	13265.65
581.648	13294.13
582.008	13522.14
582.368	13637.85
582.728	13826.09
583.089	13912.42
583.449	14113.32
583.809	14252.07
584.169	14464.49
584.529	14619.29
584.889	14862
585.249	14960.07
585.609	15142.21
585.969	15344.02
586.329	15577.46
586.688	15797.56
587.048	16008.63
587.408	16149.42
587.768	16423.99
588.127	16599.8
588.487	16884.54
588.846	17211.54
589.206	17384.64
589.565	17566.11
589.925	17990.05
590.284	18102.36
590.643	18400.43
591.003	18780.76
591.362	19132.17
591.721	19241.32
592.08	19566.28
592.44	19944.12
592.799	20115.87
593.158	20462.98
593.517	20700.49
593.876	21073.58
594.235	21354.93
594.593	21658.2
594.952	22016.84
595.311	22104.52
595.67	22483.94
596.029	22936.36
596.387	23198.27
596.746	23611.82
597.104	23760.52
597.463	24052.26
597.822	24369.77
598.18	24547.17
598.538	24984.67
598.897	25321.16
599.255	25496.52
599.613	26158.65
599.972	26189.61
600.33	26637.73
600.688	26873.43
601.046	27199.75
601.404	27599.97
601.762	27839.28
602.12	28219.61
602.478	28490.56
602.836	28787.96
603.194	28921.97
603.552	29233.14
603.91	29435.4
604.268	29770.98
604.625	30010.3
604.983	30380.01
605.341	30513.79
605.698	30911.29
606.056	31232.41
606.413	31522.8
606.771	31793.08
607.128	31926.18
607.485	32094.31
607.843	32472.15
608.2	32763.9
608.557	33137
608.914	33197.79
609.272	33536.31
609.629	33835.96
609.986	34090.64
610.343	34212.67
610.7	34593
611.057	34782.38
611.414	34941.02
611.771	35106.66
612.127	35402.7
612.484	35606.08
612.841	35757.72
613.198	35970.82
613.554	36241.1
613.911	36417.14
614.267	36768.54
614.624	36676.11
614.98	36949.1
615.337	37271.12
615.693	37359.71
616.05	37548.63
616.406	37717.89
616.762	37949.52
617.118	38032.46
617.475	38181.38
617.831	38455.73
618.187	38637.42
618.543	38830.18
618.899	39092.09
619.255	39140
619.611	39124.18
619.967	39436.49
620.323	39544.51
620.678	39623.61
621.034	39596.71
621.39	39753.55
621.746	39834.9
622.101	40278.28
622.457	40048
622.812	40216.36
623.168	40534.54
623.523	40556.91
623.879	40802.33
624.234	40682.11
624.589	40931.82
624.945	40899.5
625.3	41011.14
625.655	41122.1
626.01	41149.44
626.365	41294.52
626.72	41176.78
627.075	41245.94
627.43	41380.85
627.785	41333.16
628.14	41536.1
628.495	41569.54
628.85	41685.92
629.205	41581.52
629.559	41886.6
629.914	41564.57
630.269	41793.04
630.623	41728.63
630.978	41731.35
631.332	41920.72
631.687	42072.35
632.041	41911
632.396	42052.02
632.75	42008.4
633.104	41971.79
633.459	41989.87
633.813	42056.31
634.167	42121.39
634.521	41948.29
634.875	42165.46
635.229	42063.09
635.583	41831.23
635.937	42158
636.291	42062.86
636.645	42102.18
636.999	41988.74
637.352	42035.29
637.706	41953.04
638.06	42148.96
638.413	42150.54
638.767	42092.47
639.121	42094.95
639.474	41884.79
639.828	42036.65
640.181	42080.94
640.534	42056.54
640.888	41969.76
641.241	41878.01
641.594	41925.69
641.947	42239.81
642.301	42059.02
642.654	41900.61
643.007	41959.59
643.36	41955.97
643.713	41964.33
644.066	42061.96
644.419	41881.17
644.771	41574.74
645.124	41296.56
645.477	41295.2
645.83	41054.98
646.182	40794.87
646.535	40832.61
646.888	40934.31
647.24	40643.92
647.593	40960.52
647.945	40897.02
648.298	40766.85
648.65	40690.02
649.002	40621.32
649.355	40821.77
649.707	40792.84
650.059	40834.87
650.411	41331.58
650.763	41371.58
651.115	41805.47
651.467	41619.71
651.819	41757.79
652.171	41538.13
652.523	41487.28
652.875	41376.33
653.227	41312.6
653.578	41513.05
653.93	41566.38
654.282	41377.23
654.633	41383.33
654.985	41397.8
655.337	41411.81
655.688	41381.3
656.039	41748.07
656.391	41197.8
656.742	41380.17
657.094	41329.77
657.445	41494.29
657.796	41381.3
658.147	41423.11
658.498	41242.09
658.849	41416.55
659.2	41433.73
659.551	41202.77
659.902	41372.26
660.253	41351.24
660.604	41418.13
660.955	41231.02
661.306	41465.14
661.656	41239.83
662.007	41399.15
662.358	41302.88
662.708	41328.64
663.059	41371.36
663.409	41190.12
663.76	41424.91
664.11	41352.37
664.461	41388.98
664.811	41254.75
665.161	41158.71
665.511	41075.32
665.862	41234.41
666.212	41204.35
666.562	41289.32
666.912	41089.78
667.262	41060.18
667.612	41233.28
667.962	41212.26
668.312	41172.49
668.662	41261.53
669.011	41012.72
669.361	41097.46
669.711	41071.02
670.06	41130.68
670.41	41028.77
670.76	40891.37
671.109	41052.72
671.459	41034.42
671.808	40941.76
672.157	41078.71
672.507	40741.32
672.856	40798.26
673.205	40994.64
673.554	41020.4
673.904	40854.99
674.253	40985.83
674.602	40948.54
674.951	40334.32
675.3	40255.23
675.649	40765.5
675.998	40808.21
676.346	40813.63
676.695	40997.13
677.044	40643.47
677.393	40676.68
677.741	40747.42
678.09	40624.48
678.438	40503.58
678.787	40558.27
679.135	40640.53
679.484	40465.16
679.832	40610.25
680.181	40387.43
680.529	40304.72
680.877	40253.87
681.225	40248.22
681.573	40471.04
681.922	40148.79
682.27	40094.78
682.618	40138.17
682.966	40033.99
683.314	40132.74
683.661	39938.63
684.009	39818.85
684.357	39845.97
684.705	39809.36
685.053	39778.4
685.4	39643.04
685.748	39387.91
686.095	39587.67
686.443	39386.78
686.79	39389.94
687.138	39441.24
687.485	39328.25
687.832	39251.41
688.18	39376.15
688.527	39169.38
688.874	39164.63
689.221	39049.83
689.568	39014.81
689.915	38829.95
690.262	38862.5
690.609	38668.38
690.956	38637.19
691.303	38479.68
691.65	38438.33
691.997	38428.16
692.344	38174.83
692.69	38255.05
693.037	38213.25
693.383	37929.19
693.73	38093.02
694.077	37844.89
694.423	37936.42
694.769	37667.72
695.116	37757.89
695.462	37514.28
695.808	37391.57
696.155	37636.76
696.501	37322.87
696.847	37194.06
697.193	37094.63
697.539	37178.92
697.885	36893.73
698.231	36860.29
698.577	36815.54
698.923	36705.94
699.269	36644.93
699.614	36545.72
699.96	36380.3
700.306	36411.03
700.651	36274.09
700.997	36183.7
701.342	36058.05
701.688	35908.67
702.033	35883.36
702.379	35901.44
702.724	35685.63
703.069	35805.63
703.415	35326.09
703.76	35562.02
704.105	35510.27
704.45	35227.11
704.795	35192.99
705.14	35061.01
705.485	35087.68
705.83	34897.85
706.175	35087
706.52	34973.78
706.865	34882.49
707.209	34686.11
707.554	34583.74
707.899	34632.55
708.243	34471.88
708.588	34473.68
708.932	34265.33
709.277	34177.87
709.621	34134.94
709.966	33982.17
710.31	34086.58
710.654	33824.21
710.998	33817.43
711.342	33876.86
711.687	33662.63
712.031	33553.03
712.375	33553.26
712.719	33606.36
713.063	33513.48
713.407	33553.93
713.75	33279.37
714.094	33360.94
714.438	33186.49
714.782	33221.74
715.125	33057.68
715.469	33068.98
715.812	32909.43
716.156	32745.59
716.499	32709.89
716.843	32863.1
717.186	32713.5
717.53	32784.46
717.873	32783.78
718.216	32698.59
718.559	32634.86
718.902	32317.81
719.246	32442.32
719.589	32341.76
719.932	32236.91
720.275	32280.07
720.617	32021.09
720.96	32132.28
721.303	32181.99
721.646	32049.11
721.989	32040.75
722.331	31974.54
722.674	31955.33
723.016	31943.58
723.359	31768.67
723.701	31865.16
724.044	31665.85
724.386	31598.05
724.729	31547.21
725.071	31511.5
725.413	31471.95
725.755	31593.31
726.097	31316.25
726.439	31218.18
726.782	31158.97
727.124	31257.72
727.465	31102.47
727.807	31168.46
728.149	31034.45
728.491	31114.9
728.833	31075.36
729.175	30904.06
729.516	30807.57
729.858	30915.36
730.199	30851.86
730.541	30719.21
730.882	30655.71
731.224	30775.93
731.565	30464.07
731.906	30679.66
732.248	30590.62
732.589	30443.28
732.93	30343.62
733.271	30330.97
733.612	30462.49
733.953	30368.26
734.294	30213.46
734.635	30227.69
734.976	30333.68
735.317	30114.48
735.658	30139.79
735.999	30106.57
736.339	30025.44
736.68	30122.84
737.021	29976.63
737.361	29864.09
737.702	29970.53
738.042	29870.64
738.383	29857.08
738.723	29798.1
739.063	29783.41
739.404	29926.46
739.744	29788.16
740.084	29614.15
740.424	29716.07
740.764	29599.01
741.104	29586.81
741.444	29517.66
741.784	29468.62
742.124	29553.36
742.464	29419.13
742.804	29347.49
743.143	29297.1
743.483	29305.23
743.823	29069.08
744.162	29168.74
744.502	29249.64
744.841	29057.78
745.181	29219.13
745.52	29096.42
745.86	29055.75
746.199	29057.56
746.538	28948.86
746.877	28995.64
747.216	29041.96
747.556	28884.9
747.895	28961.29
748.234	28740.28
748.573	28732.59
748.911	28697.11
749.25	28752.48
749.589	28613.05
749.928	28620.73
750.267	28685.36
750.605	28538.47
750.944	28439.49
751.283	28367.63
751.621	28391.58
751.96	28286.28
752.298	28289.44
752.636	28348.42
752.975	28156.11
753.313	28183.45
753.651	28207.86
753.989	28079.5
754.327	27984.82
754.666	27896.91
755.004	27866.63
755.342	27917.47
755.679	27886.96
756.017	27776.91
756.355	27814.65
756.693	27557.71
757.031	27608.55
757.368	27468.67
757.706	27494.21
758.044	27514.32
758.381	27549.57
758.719	27384.6
759.056	27368.33
