Data from hue_330_FLMS001491_50.txt Node
Date: Mon Feb 06 15:45:28 GMT 2017
User: dcchb
Spectrometer: FLMS00149
Trigger mode: 0
Integration Time (sec): 2.000000E-2
Scans to average: 10
Electric dark correction enabled: true
Nonlinearity correction enabled: false
Boxcar width: 0
XAxis mode: Wavelengths
Number of Pixels in Spectrum: 2048
>>>>>Begin Spectral Data<<<<<
341.393	-1.99
341.776	-1.99
342.16	-1.99
342.543	-44.48
342.927	-64.59
343.31	-79.73
343.693	-57.36
344.077	-77.02
344.46	-63.46
344.843	-39.5
345.226	-53.29
345.61	-39.28
345.993	-22.78
346.376	-17.36
346.759	26.93
347.142	26.93
347.525	47.27
347.908	66.48
348.291	69.42
348.674	110.1
349.057	102.64
349.44	99.47
349.823	140.15
350.206	182.18
350.588	213.37
350.971	223.77
351.354	225.35
351.737	253.6
352.119	237.55
352.502	265.57
352.884	258.57
353.267	285.01
353.65	281.84
354.032	308.06
354.414	305.57
354.797	294.95
355.179	313.03
355.562	316.42
355.944	320.03
356.326	347.38
356.709	331.79
357.091	325.46
357.473	338.56
357.855	303.99
358.238	315.29
358.62	349.86
359.002	310.99
359.384	330.43
359.766	347.38
360.148	327.27
360.53	337.43
360.912	331.33
361.294	344.44
361.676	320.03
362.057	326.81
362.439	330.2
362.821	309.41
363.203	320.94
363.584	313.25
363.966	309.19
364.348	324.33
364.729	324.55
365.111	327.27
365.493	317.32
365.874	311.67
366.256	299.47
366.637	290.88
367.019	322.75
367.4	303.99
367.781	296.76
368.163	320.71
368.544	306.47
368.925	306.25
369.306	327.94
369.688	307.83
370.069	301.28
370.45	317.77
370.831	309.86
371.212	318.45
371.593	311.45
371.974	322.52
372.355	320.26
372.736	330.66
373.117	306.02
373.498	324.1
373.879	306.7
374.26	331.11
374.641	324.78
375.021	287.27
375.402	309.86
375.783	314.61
376.163	322.29
376.544	304.89
376.925	312.12
377.305	320.03
377.686	325.46
378.066	325.91
378.447	335.4
378.827	339.69
379.208	328.85
379.588	330.88
379.968	342.18
380.349	334.04
380.729	320.49
381.109	326.59
381.489	319.81
381.87	335.17
382.25	323.2
382.63	339.24
383.01	321.62
383.39	328.17
383.77	355.29
384.15	352.8
384.53	342.86
384.91	341.28
385.29	372.69
385.67	346.7
386.049	362.29
386.429	346.47
386.809	344.44
387.189	347.83
387.568	358.23
387.948	374.72
388.328	367.26
388.707	351.45
389.087	363.87
389.466	369.07
389.846	356.42
390.225	337.89
390.605	365
390.984	382.86
391.363	373.37
391.743	379.24
392.122	363.65
392.501	345.34
392.881	369.07
393.26	399.58
393.639	371.56
394.018	362.74
394.397	370.43
394.776	376.53
395.155	378.34
395.534	382.86
395.913	356.19
396.292	395.06
396.671	372.46
397.05	395.96
397.429	386.47
397.808	384.67
398.186	385.57
398.565	378.11
398.944	414.95
399.323	389.41
399.701	411.56
400.08	388.51
400.458	390.31
400.837	408.62
401.215	392.12
401.594	394.83
401.972	402.29
402.351	405
402.729	407.49
403.107	412.23
403.486	402.97
403.864	394.83
404.242	410.43
404.62	421.27
404.999	414.04
405.377	415.4
405.755	422.18
406.133	416.75
406.511	440.26
406.889	426.92
407.267	437.09
407.645	449.97
408.023	446.13
408.401	450.88
408.779	454.27
409.156	457.21
409.534	452.46
409.912	465.57
410.29	457.88
410.667	457.21
411.045	463.31
411.422	490.88
411.8	481.61
412.178	503.98
412.555	505.79
412.933	511.44
413.31	494.27
413.687	507.15
414.065	522.06
414.442	519.8
414.819	519.35
415.197	531.78
415.574	537.43
415.951	544.43
416.328	548.5
416.705	572
417.082	548.5
417.46	556.64
417.837	599.12
418.214	563.19
418.591	557.99
418.967	576.07
419.344	597.99
419.721	597.99
420.098	597.09
420.475	611.1
420.852	608.39
421.228	605.68
421.605	629.86
421.982	651.32
422.358	631.66
422.735	652
423.111	607.48
423.488	660.59
423.864	650.87
424.241	666.01
424.617	668.5
424.994	656.07
425.37	670.31
425.746	676.18
426.123	693.81
426.499	662.85
426.875	687.48
427.251	712.34
427.627	747.59
428.003	747.37
428.379	727.93
428.756	729.97
429.132	743.53
429.507	757.99
429.883	746.01
430.259	760.7
430.635	798.89
431.011	776.97
431.387	756.63
431.763	780.59
432.138	812
432.514	814.26
432.89	813.35
433.265	826.46
433.641	836.4
434.016	845.67
434.392	856.29
434.767	857.19
435.143	872.34
435.518	870.98
435.894	879.79
436.269	904.2
436.644	895.61
437.02	903.07
437.395	906.91
437.77	914.59
438.145	918.21
438.52	908.49
438.895	922.28
439.271	945.78
439.646	937.87
440.021	983.29
440.395	981.03
440.77	956.63
441.145	986.01
441.52	971.32
441.895	991.65
442.27	990.52
442.645	1032.33
443.019	1004.31
443.394	1016.06
443.769	1031.2
444.143	1026
444.518	1006.8
444.892	1042.95
445.267	1028.04
445.641	1055.83
446.016	1061.71
446.39	1030.75
446.764	1047.47
447.139	1037.3
447.513	1065.33
447.887	1051.77
448.262	1051.77
448.636	1071.65
449.01	1090.41
449.384	1068.49
449.758	1088.15
450.132	1098.54
450.506	1120.01
450.88	1088.83
451.254	1110.97
451.628	1123.85
452.002	1131.99
452.376	1119.56
452.75	1116.17
453.123	1140.8
453.497	1139.67
453.871	1169.96
454.244	1169.05
454.618	1171.54
454.992	1188.49
455.365	1173.8
455.739	1181.25
456.112	1209.73
456.486	1223.51
456.859	1219.45
457.232	1252.21
457.606	1267.81
457.979	1248.6
458.352	1273.23
458.725	1287.69
459.099	1291.53
459.472	1341.25
459.845	1290.63
460.218	1305.09
460.591	1326.56
460.964	1332.89
461.337	1371.53
461.71	1369.72
462.083	1381.7
462.456	1385.99
462.829	1373.34
463.201	1409.72
463.574	1369.27
463.947	1424.41
464.32	1443.17
464.692	1437.29
465.065	1466.44
465.438	1473.9
465.81	1510.06
466.183	1501.7
466.555	1514.35
466.928	1543.5
467.3	1530.4
467.672	1585.76
468.045	1551.87
468.417	1587.8
468.789	1625.08
469.161	1594.35
469.534	1618.08
469.906	1658.08
470.278	1669.15
470.65	1691.3
471.022	1674.57
471.394	1711.64
471.766	1745.53
472.138	1760
472.51	1779.43
472.882	1789.15
473.253	1801.12
473.625	1824.63
473.997	1845.42
474.369	1847.68
474.74	1917.05
475.112	1895.59
475.484	1928.81
475.855	1995.92
476.227	1961.35
476.598	2008.58
476.97	2038.41
477.341	2046.54
477.713	2067.78
478.084	2094
478.455	2128.57
478.827	2144.17
479.198	2191.85
479.569	2209.7
479.94	2255.8
480.311	2260.77
480.682	2313.65
481.053	2326.53
481.424	2379.19
481.795	2376.03
482.166	2407.44
482.537	2449.24
482.908	2499.64
483.279	2484.04
483.65	2538.51
484.021	2578.73
484.391	2587.32
484.762	2626.19
485.133	2647.2
485.503	2678.62
485.874	2747.54
486.244	2700.08
486.615	2778.95
486.985	2820.76
487.356	2818.27
487.726	2850.36
488.097	2896.24
488.467	2923.13
488.837	2951.83
489.207	2994.54
489.578	2978.5
489.948	3056.23
490.318	3100.07
490.688	3072.96
491.058	3139.62
491.428	3169.45
491.798	3220.52
492.168	3238.83
492.538	3273.85
492.908	3298.49
493.278	3342.1
493.648	3351.37
494.017	3358.82
494.387	3375.77
494.757	3439.95
495.126	3464.36
495.496	3454.64
495.866	3465.71
496.235	3462.55
496.605	3554.3
496.974	3556.33
497.344	3605.15
497.713	3621.42
498.082	3642.88
498.452	3654.41
498.821	3622.55
499.19	3621.42
499.559	3682.88
499.928	3719.49
500.298	3727.63
500.667	3764.46
501.036	3766.05
501.405	3800.39
501.774	3745.25
502.143	3801.3
502.512	3817.57
502.88	3816.44
503.249	3858.7
503.618	3890.79
503.987	3906.83
504.356	3877.45
504.724	3944.57
505.093	3879.49
505.462	3942.31
505.83	3948.64
506.199	3987.51
506.567	4033.38
506.936	4005.59
507.304	4066.6
507.672	4053.27
508.041	4075.19
508.409	4087.17
508.777	4092.82
509.145	4109.76
509.514	4109.76
509.882	4124.45
510.25	4183.44
510.618	4188.86
510.986	4192.7
511.354	4225.92
511.722	4295.07
512.09	4224.56
512.458	4285.81
512.826	4303.66
513.193	4247.84
513.561	4300.72
513.929	4342.98
514.297	4362.41
514.664	4363.09
515.032	4303.66
515.4	4395.41
515.767	4375.07
516.135	4420.27
516.502	4384.79
516.869	4408.29
517.237	4446.71
517.604	4448.29
517.972	4467.72
518.339	4488.96
518.706	4500.26
519.073	4472.69
519.44	4474.5
519.808	4537.78
520.175	4526.25
520.542	4554.72
520.909	4608.28
521.276	4640.15
521.643	4584.78
522.009	4625.01
522.376	4669.98
522.743	4668.85
523.11	4738
523.477	4716.75
523.843	4760.82
524.21	4763.31
524.577	4751.78
524.943	4845.34
525.31	4806.92
525.676	4862.06
526.043	4872.91
526.409	4905
526.776	4935.05
527.142	4985.67
527.508	4956.3
527.874	4988.39
528.241	5075.84
528.607	5027.03
528.973	5050.76
529.339	5066.58
529.705	5116.97
530.071	5096.41
530.437	5184.99
530.803	5213.46
531.169	5185.89
531.535	5169.4
531.901	5209.62
532.267	5241.49
532.632	5276.97
532.998	5321.94
533.364	5304.99
533.73	5328.72
534.095	5379.79
534.461	5400.58
534.826	5440.58
535.192	5403.52
535.557	5496.17
535.923	5432.22
536.288	5477.64
536.653	5523.29
537.019	5539.78
537.384	5580.69
537.749	5573.68
538.114	5613.45
538.479	5622.95
538.845	5628.14
539.21	5703.85
539.575	5634.92
539.94	5694.13
540.305	5685.77
540.67	5711.98
541.034	5734.35
541.399	5818.87
541.764	5783.17
542.129	5874.24
542.494	5874.46
542.858	5931.41
543.223	5900.68
543.587	5943.16
543.952	5919.66
544.316	5962.82
544.681	6004.86
545.045	5984.97
545.41	6042.37
545.774	6021.35
546.138	6074.46
546.503	6113.1
546.867	6095.93
547.231	6161.24
547.595	6133.44
547.959	6217.73
548.324	6236.71
548.688	6212.53
549.052	6264.74
549.416	6340.44
549.779	6330.5
550.143	6309.71
550.507	6357.39
550.871	6381.8
551.235	6322.81
551.599	6375.92
551.962	6419.76
552.326	6435.81
552.689	6503.15
553.053	6509.93
553.417	6523.26
553.78	6559.19
554.143	6567.1
554.507	6478.29
554.87	6591.96
555.234	6644.39
555.597	6566.65
555.96	6626.53
556.323	6698.17
556.686	6645.29
557.05	6690.49
557.413	6697.49
557.776	6751.5
558.139	6781.56
558.502	6798.28
558.865	6784.72
559.228	6799.86
559.59	6855.91
559.953	6891.61
560.316	6934.55
560.679	6994.89
561.041	6936.58
561.404	7033.3
561.767	7029.01
562.129	6995.34
562.492	7068.56
562.854	7060.42
563.217	7080.08
563.579	7103.81
563.941	7110.59
564.304	7160.98
564.666	7242.34
565.028	7151.72
565.39	7204.6
565.753	7222.9
566.115	7257.03
566.477	7317.82
566.839	7311.71
567.201	7407.08
567.563	7347.42
567.925	7350.58
568.287	7407.76
568.648	7391.26
569.01	7510.58
569.372	7492.95
569.734	7525.49
570.095	7560.52
570.457	7600.75
570.819	7625.38
571.18	7629.9
571.542	7705.15
571.903	7736.79
572.265	7771.14
572.626	7822.44
572.987	7885.48
573.349	7907.41
573.71	8035.99
574.071	8015.2
574.432	8072.37
574.794	8160.05
575.155	8155.31
575.516	8147.85
575.877	8239.37
576.238	8306.04
576.599	8400.73
576.96	8390.78
577.32	8459.71
577.681	8581.96
578.042	8707.84
578.403	8763.43
578.763	8899.24
579.124	8885.46
579.485	9013.59
579.845	9067.6
580.206	9235.28
580.566	9356.86
580.927	9517.98
581.287	9536.29
581.648	9630.75
582.008	9821.71
582.368	9910.29
582.728	10122.04
583.089	10189.6
583.449	10402.93
583.809	10608.35
584.169	10707.78
584.529	10838.85
584.889	11157.26
585.249	11215.11
585.609	11435.67
585.969	11689.9
586.329	11818.94
586.688	12023.23
587.048	12316.55
587.408	12449.66
587.768	12661.63
588.127	12909.53
588.487	13055.74
588.846	13441.72
589.206	13571.66
589.565	13752.9
589.925	14056.17
590.284	14323.51
590.643	14620.22
591.003	14853.89
591.362	15125.52
591.721	15354.21
592.08	15702.45
592.44	15997.14
592.799	16200.52
593.158	16491.13
593.517	16743.78
593.876	17088.63
594.235	17363.2
594.593	17551.22
594.952	17917.99
595.311	18181.49
595.67	18418.77
596.029	18846.55
596.387	19129.48
596.746	19427.33
597.104	19540.77
597.463	19881.33
597.822	20203.13
598.18	20471.14
598.538	20729.44
598.897	21081.07
599.255	21172.14
599.613	21786.59
599.972	21936.87
600.33	22343.64
600.688	22443.52
601.046	22836.05
601.404	23187.23
601.762	23481.46
602.12	23797.61
602.478	23923.71
602.836	24253.87
603.194	24472.39
603.552	24777.02
603.91	24827.19
604.268	25370.45
604.625	25449.54
604.983	25751.23
605.341	25880.72
605.698	26330.42
606.056	26549.17
606.413	26734.93
606.771	27085.66
607.128	27276.16
607.485	27489.04
607.843	27621.24
608.2	28109.13
608.557	28265.29
608.914	28273.42
609.272	28742.56
609.629	29041.76
609.986	29202.66
610.343	29359.04
610.7	29620.05
611.057	29730.79
611.414	30025.47
611.771	30082.19
612.127	30475.17
612.484	30575.51
612.841	30974.82
613.198	30912.22
613.554	31154.03
613.911	31327.81
614.267	31550.4
614.624	31559.89
614.98	31842.14
615.337	32208.24
615.693	32202.13
616.05	32307.89
616.406	32757.37
616.762	32654.55
617.118	32705.85
617.475	32873.75
617.831	33106.52
618.187	33283.24
618.543	33256.8
618.899	33663.56
619.255	33773.84
619.611	33858.36
619.967	34000.05
620.323	34364.34
620.678	34125.7
621.034	34186.26
621.39	34414.96
621.746	34457.44
622.101	34731.33
622.457	34626.48
622.812	34797.32
623.168	35146.01
623.523	35124.09
623.879	35355.27
624.234	35027.37
624.589	35358.21
624.945	35381.94
625.3	35610.18
625.655	35502.84
626.01	35649.05
626.365	35772.44
626.72	35804.98
627.075	35860.57
627.43	35882.94
627.785	35913.9
628.14	36010.17
628.495	36196.83
628.85	36035.25
629.205	36075.48
629.559	36291.97
629.914	36204.74
630.269	36108.02
630.623	36202.03
630.978	36169.26
631.332	36425.75
631.687	36474.79
632.041	36489.25
632.396	36528.8
632.75	36436.6
633.104	36552.53
633.459	36473.66
633.813	36570.83
634.167	36500.33
634.521	36469.82
634.875	36616.93
635.229	36640.66
635.583	36412.64
635.937	36450.61
636.291	36519.53
636.645	36591.4
636.999	36592.75
637.352	36594.56
637.706	36577.61
638.06	36596.14
638.413	36490.38
638.767	36395.7
639.121	36658.06
639.474	36242.48
639.828	36393.21
640.181	36511.62
640.534	36497.39
640.888	36512.98
641.241	36348.47
641.594	36423.94
641.947	36450.84
642.301	36350.5
642.654	36433.89
643.007	36595.92
643.36	36408.8
643.713	36474.56
644.066	36409.03
644.419	36289.94
644.771	36085.65
645.124	35781.25
645.477	35720.01
645.83	35527.92
646.182	35549.16
646.535	35382.84
646.888	35483.4
647.24	35287.48
647.593	35470.97
647.945	35388.94
648.298	35169.29
648.65	35236.63
649.002	35124.54
649.355	35307.36
649.707	35150.53
650.059	35498.54
650.411	35746.9
650.763	35717.07
651.115	36220.56
651.467	36004.07
651.819	36026.89
652.171	35988.7
652.523	35994.35
652.875	35938.98
653.227	35938.98
653.578	36136.95
653.93	36002.49
654.282	35852.21
654.633	35769.72
654.985	35807.91
655.337	35815.15
655.688	35787.12
656.039	35943.73
656.391	35599.78
656.742	35774.47
657.094	35661.25
657.445	35798.2
657.796	35766.56
658.147	35765.66
658.498	35619.67
658.849	35841.59
659.2	35775.82
659.551	35550.97
659.902	35642.04
660.253	35647.24
660.604	35794.58
660.955	35587.81
661.306	35721.81
661.656	35615.15
662.007	35567.02
662.358	35619.67
662.708	35528.83
663.059	35647.01
663.409	35436.62
663.76	35622.38
664.11	35607.02
664.461	35675.04
664.811	35762.72
665.161	35637.98
665.511	35444.31
665.862	35602.27
666.212	35682.27
666.562	35580.58
666.912	35640.46
667.262	35512.33
667.612	35484.53
667.962	35586.68
668.312	35499.22
668.662	35682.72
669.011	35479.79
669.361	35474.82
669.711	35520.92
670.06	35449.51
670.41	35444.53
670.76	35349.62
671.109	35525.44
671.459	35396.17
671.808	35327.25
672.157	35432.11
672.507	35216.97
672.856	35363.41
673.205	35390.98
673.554	35468.04
673.904	35368.15
674.253	35581.25
674.602	35360.69
674.951	34873.7
675.3	34772.69
675.649	35331.99
675.998	35025.56
676.346	35200.25
676.695	35322.73
677.044	34992.12
677.393	35162.96
677.741	35200.92
678.09	35063.98
678.438	35103.3
678.787	35161.15
679.135	35191.43
679.484	34901.95
679.832	34903.76
680.181	34821.95
680.529	34902.18
680.877	34744.44
681.225	34717.55
681.573	35042.51
681.922	34715.51
682.27	34560.26
682.618	34613.37
682.966	34538.34
683.314	34582.41
683.661	34515.74
684.009	34315.07
684.357	34259.25
684.705	34157.34
685.053	34148.97
685.4	34171.12
685.748	34114.85
686.095	34109.43
686.443	33894.29
686.79	33929.55
687.138	34141.29
687.485	33909.89
687.832	33795.09
688.18	33777.46
688.527	33702.43
688.874	33623.11
689.221	33657.69
689.568	33593.74
689.915	33388.99
690.262	33532.04
690.609	33344.25
690.956	33292.73
691.303	33200.07
691.65	33193.29
691.997	33144.03
692.344	32913.08
692.69	32897.48
693.037	33056.35
693.383	32597.15
693.73	32840.99
694.077	32605.96
694.423	32626.53
694.769	32572.52
695.116	32412.52
695.462	32415.24
695.808	32196.71
696.155	32258.18
696.501	32108.8
696.847	31999.2
697.193	31819.54
697.539	31906.1
697.885	31714.91
698.231	31557.63
698.577	31581.13
698.923	31574.58
699.269	31420.69
699.614	31201.93
699.96	31267.92
700.306	31217.98
700.651	31083.52
700.997	31041.49
701.342	30956.06
701.688	30861.83
702.033	30852.56
702.379	30895.5
702.724	30706.58
703.069	30761.04
703.415	30487.6
703.76	30421.62
704.105	30386.14
704.45	30391.56
704.795	30218.23
705.14	30115.63
705.485	30128.06
705.83	29929.88
706.175	29996.09
706.52	29949.76
706.865	29836.55
707.209	29935.98
707.554	29690.79
707.899	29759.49
708.243	29501.64
708.588	29455.99
708.932	29307.07
709.277	29366.73
709.621	29417.57
709.966	29220.07
710.31	29265.04
710.654	28994.76
710.998	29137.13
711.342	29024.14
711.687	29007.42
712.031	28902.11
712.375	28719.29
712.719	28862.79
713.063	28606.3
713.407	28845.84
713.75	28602.91
714.094	28631.38
714.438	28522.91
714.782	28580.53
715.125	28398.39
715.469	28403.59
715.812	28182.35
716.156	28146.42
716.499	28107.33
716.843	28258.06
717.186	28038.63
717.53	28171.73
717.873	28064.84
718.216	28023.94
718.559	27901.91
718.902	27699.65
719.246	27781.01
719.589	27661.24
719.932	27482.94
720.275	27587.57
720.617	27519.54
720.96	27527.91
721.303	27530.62
721.646	27556.15
721.989	27312.54
722.331	27460.79
722.674	27353.22
723.016	27193
723.359	27389.15
723.701	27201.36
724.044	26978.99
724.386	26871.43
724.729	27072.1
725.071	26969.05
725.413	26981.71
725.755	27077.52
726.097	26918.66
726.439	26764.99
726.782	26752.11
727.124	26786.91
727.465	26678.89
727.807	26628.49
728.149	26556.41
728.491	26573.58
728.833	26551.66
729.175	26457.65
729.516	26338.56
729.858	26323.64
730.199	26343.76
730.541	26383.76
730.882	26389.63
731.224	26336.98
731.565	26248.62
731.906	26170.43
732.248	26070.77
732.589	25991.68
732.93	25913.94
733.271	26012.47
733.612	26088.62
733.953	26042.52
734.294	25886.82
734.635	25777.67
734.976	25925.91
735.317	25719.82
735.658	25583.1
735.999	25709.2
736.339	25699.25
736.68	25821.06
737.021	25657.22
737.361	25472.59
737.702	25643.21
738.042	25594.4
738.383	25452.48
738.723	25376.1
739.063	25395.98
739.404	25485.93
739.744	25331.81
740.084	25360.51
740.424	25222.66
740.764	25222.88
741.104	25221.75
741.444	25090.23
741.784	25074.64
742.124	25132.04
742.464	25013.62
742.804	25085.71
743.143	24944.25
743.483	24983.57
743.823	24854.76
744.162	24855.21
744.502	24860.41
744.841	24759.39
745.181	24782.89
745.52	24642.56
745.86	24696.57
746.199	24640.75
746.538	24559.85
746.877	24630.81
747.216	24538.61
747.556	24544.26
747.895	24562.79
748.234	24458.16
748.573	24449.12
748.911	24384.94
749.25	24327.09
749.589	24186.3
749.928	24225.17
750.267	24406.86
750.605	24092.29
750.944	24083.25
751.283	23944.27
751.621	24000.32
751.96	23882.13
752.298	23933.42
752.636	23825.4
752.975	23838.06
753.313	23748.57
753.651	23868.57
753.989	23579.54
754.327	23676.93
754.666	23544.73
755.004	23570.72
755.342	23592.42
755.679	23483.72
756.017	23296.38
756.355	23391.29
756.693	23369.37
757.031	23372.31
757.368	23256.61
757.706	23163.95
758.044	22999.66
758.381	23105.42
758.719	22950.63
759.056	23027.46
759.394	22792.66
759.731	22729.39
