Data from hue_240_FLMS001491_00097.txt Node
Date: Tue Feb 07 16:36:12 GMT 2017
User: dcchb
Spectrometer: FLMS00149
Trigger mode: 0
Integration Time (sec): 2.000000E-2
Scans to average: 10
Electric dark correction enabled: true
Nonlinearity correction enabled: false
Boxcar width: 0
XAxis mode: Wavelengths
Number of Pixels in Spectrum: 2048
>>>>>Begin Spectral Data<<<<<
341.393	-18.95
341.776	-18.95
342.16	-18.95
342.543	-69.8
342.927	-57.6
343.31	-58.28
343.693	-70.48
344.077	-76.58
344.46	-53.53
344.843	-39.29
345.226	-61.89
345.61	-38.16
345.993	-4.04
346.376	-1.1
346.759	4.55
347.142	47.26
347.525	26.47
347.908	71.89
348.291	68.95
348.674	79.8
349.057	104.43
349.44	129.06
349.823	153.02
350.206	149.4
350.588	172
350.971	204.77
351.354	230.53
351.737	240.47
352.119	253.58
352.502	266.91
352.884	277.99
353.267	285.44
353.65	274.37
354.032	303.52
354.414	308.95
354.797	309.62
355.179	317.76
355.562	320.47
355.944	312.11
356.326	315.73
356.709	344.65
357.091	314.82
357.473	341.94
357.855	344.65
358.238	341.49
358.62	333.58
359.002	346.01
359.384	322.28
359.766	327.25
360.148	321.38
360.53	329.29
360.912	306.91
361.294	310.3
361.676	316.4
362.057	326.35
362.439	322.28
362.821	330.19
363.203	321.6
363.584	309.62
363.966	304.2
364.348	320.02
364.729	326.8
365.111	309.62
365.493	302.17
365.874	289.96
366.256	300.36
366.637	294.94
367.019	310.98
367.4	325.67
367.781	318.66
368.163	296.74
368.544	283.41
368.925	303.3
369.306	304.88
369.688	294.26
370.069	299.23
370.45	311.66
370.831	314.14
371.212	324.99
371.593	305.1
371.974	303.07
372.355	292.45
372.736	329.96
373.117	318.44
373.498	311.66
373.879	332.22
374.26	323.64
374.641	320.02
375.021	307.59
375.402	320.47
375.783	327.48
376.163	318.66
376.544	307.82
376.925	310.98
377.305	323.86
377.686	313.92
378.066	322.96
378.447	318.89
378.827	328.38
379.208	330.64
379.588	329.74
379.968	311.88
380.349	315.05
380.729	339.68
381.109	334.71
381.489	331.09
381.87	327.7
382.25	333.8
382.63	335.84
383.01	350.3
383.39	342.62
383.77	331.09
384.15	336.29
384.53	341.26
384.91	339.23
385.29	348.49
385.67	362.05
386.049	344.43
386.429	334.93
386.809	352.34
387.189	345.56
387.568	376.29
387.948	351.43
388.328	352.11
388.707	347.14
389.087	344.65
389.466	371.09
389.846	339.45
390.225	356.18
390.605	373.13
390.984	366.57
391.363	366.35
391.743	355.73
392.122	376.52
392.501	380.36
392.881	355.05
393.26	374.93
393.639	366.8
394.018	362.73
394.397	369.74
394.776	372.22
395.155	392.79
395.534	375.61
395.913	374.71
396.292	388.49
396.671	410.86
397.05	389.62
397.429	401.6
397.808	403.86
398.186	387.59
398.565	408.61
398.944	396.4
399.323	387.59
399.701	397.76
400.08	404.54
400.458	413.8
400.837	401.6
401.215	414.03
401.594	402.73
401.972	423.29
402.351	440.02
402.729	417.64
403.107	420.58
403.486	436.17
403.864	435.5
404.242	434.82
404.62	423.52
404.999	434.59
405.377	426.01
405.755	426.46
406.133	439.34
406.511	452.9
406.889	441.15
407.267	446.57
407.645	461.71
408.023	468.04
408.401	455.84
408.779	491.09
409.156	472.33
409.534	479.79
409.912	487.7
410.29	491.54
410.667	508.04
411.045	512.78
411.422	521.37
411.8	523.86
412.178	522.05
412.555	552.78
412.933	535.38
413.31	556.17
413.687	545.55
414.065	553.69
414.442	550.52
414.819	544.19
415.197	594.36
415.574	572.44
415.951	608.37
416.328	587.13
416.705	600.24
417.082	606.79
417.46	583.52
417.837	587.36
418.214	627.81
418.591	657.19
418.967	629.62
419.344	643.18
419.721	648.37
420.098	658.77
420.475	649.05
420.852	647.24
421.228	663.97
421.605	692.89
421.982	698.54
422.358	710.52
422.735	706.45
423.111	718.88
423.488	720.24
423.864	734.92
424.241	723.85
424.617	757.3
424.994	753.45
425.37	766.11
425.746	789.39
426.123	783.28
426.499	791.87
426.875	804.3
427.251	805.88
427.627	832.32
428.003	845.2
428.379	858.31
428.756	858.99
429.132	861.02
429.507	879.55
429.883	892.43
430.259	890.85
430.635	901.47
431.011	928.59
431.387	912.77
431.763	942.38
432.138	943.05
432.514	980.57
432.89	964.3
433.265	977.86
433.641	992.09
434.016	1002.26
434.392	1014.92
434.767	1060.57
435.143	1081.36
435.518	1066.89
435.894	1086.55
436.269	1114.58
436.644	1115.25
437.02	1122.03
437.395	1139.21
437.77	1166.33
438.145	1183.5
438.52	1194.35
438.895	1186.44
439.271	1193.9
439.646	1228.92
440.021	1227.57
440.395	1246.78
440.77	1260.33
441.145	1276.83
441.52	1329.48
441.895	1308.47
442.27	1308.24
442.645	1307.79
443.019	1357.28
443.394	1342.59
443.769	1358.86
444.143	1344.63
444.518	1364.06
444.892	1369.71
445.267	1411.97
445.641	1380.33
446.016	1398.18
446.39	1406.32
446.764	1430.27
447.139	1432.31
447.513	1428.92
447.887	1447.67
448.262	1442.48
448.636	1478.18
449.01	1480.67
449.384	1494
449.758	1536.03
450.132	1528.58
450.506	1532.19
450.88	1571.74
451.254	1542.81
451.628	1574.45
452.002	1606.09
452.376	1607.9
452.75	1636.14
453.123	1634.56
453.497	1630.95
453.871	1661.68
454.244	1672.07
454.618	1695.8
454.992	1703.49
455.365	1722.47
455.739	1761.11
456.112	1767.67
456.486	1789.81
456.859	1776.03
457.232	1819.87
457.606	1810.83
457.979	1863.26
458.352	1916.59
458.725	1898.28
459.099	1902.58
459.472	1965.63
459.845	1957.04
460.218	1958.17
460.591	2038.62
460.964	2043.82
461.337	2050.37
461.71	2052.63
462.083	2111.16
462.456	2127.2
462.829	2123.36
463.201	2134.21
463.574	2169.46
463.947	2169.46
464.32	2231.16
464.692	2223.47
465.065	2249.69
465.438	2300.98
465.81	2317.71
466.183	2388.44
466.555	2404.26
466.928	2415.33
467.3	2354.54
467.672	2433.41
468.045	2495.1
468.417	2524.03
468.789	2513.86
469.161	2524.48
469.534	2574.65
469.906	2644.7
470.278	2652.84
470.65	2667.75
471.022	2671.14
471.394	2760.41
471.766	2811.71
472.138	2831.37
472.51	2822.1
472.882	2856.45
473.253	2909.78
473.625	2926.5
473.997	2981.19
474.369	3025.71
474.74	3066.16
475.112	3072.26
475.484	3111.58
475.855	3168.76
476.227	3221.64
476.598	3290.11
476.97	3312.26
477.341	3390
477.713	3418.47
478.084	3391.58
478.455	3542.31
478.827	3530.56
479.198	3666.82
479.569	3621.85
479.94	3713.83
480.311	3770.78
480.682	3823.2
481.053	3916.99
481.424	3942.07
481.795	3941.85
482.166	4030.88
482.537	4082.63
482.908	4166.92
483.279	4212.35
483.65	4249.63
484.021	4333.7
484.391	4330.76
484.762	4429.52
485.133	4417.99
485.503	4498.44
485.874	4622.96
486.244	4600.13
486.615	4674.03
486.985	4730.07
487.356	4816.4
487.726	4844.42
488.097	4918.77
488.467	4966
488.837	5048.94
489.207	5087.8
489.578	5109.27
489.948	5118.54
490.318	5187.01
490.688	5223.17
491.058	5347.91
491.428	5415.48
491.798	5404.18
492.168	5553.1
492.538	5539.09
492.908	5634.46
493.278	5636.04
493.648	5662.48
494.017	5730.27
494.387	5799.88
494.757	5769.37
495.126	5871.29
495.496	5849.37
495.866	5911.96
496.235	5973.2
496.605	6008.68
496.974	6000.77
497.344	6072.41
497.713	6161
498.082	6212.52
498.452	6219.07
498.821	6202.58
499.19	6229.92
499.559	6271.95
499.928	6340.2
500.298	6341.78
500.667	6347.88
501.036	6386.3
501.405	6440.08
501.774	6385.17
502.143	6533.42
502.512	6524.6
502.88	6558.95
503.249	6586.3
503.618	6570.7
503.987	6644.83
504.356	6673.75
504.724	6671.49
505.093	6643.92
505.462	6730.7
505.83	6664.03
506.199	6853.63
506.567	6819.28
506.936	6850.7
507.304	6916.46
507.672	6932.5
508.041	6963.91
508.409	6949
508.777	7036.91
509.145	7053.18
509.514	7044.36
509.882	7066.06
510.25	7114.42
510.618	7115.55
510.986	7092.72
511.354	7195.09
511.722	7194.19
512.09	7247.52
512.458	7260.85
512.826	7308.99
513.193	7248.43
513.561	7282.32
513.929	7344.47
514.297	7392.15
514.664	7420.62
515.032	7371.81
515.4	7490.23
515.767	7471.02
516.135	7518.02
516.502	7431.47
516.869	7545.37
517.237	7550.56
517.604	7537.68
517.972	7667.17
518.339	7628.75
518.706	7609.32
519.073	7665.59
519.44	7656.32
519.808	7695.87
520.175	7715.53
520.542	7755.76
520.909	7811.57
521.276	7795.3
521.643	7841.63
522.009	7844.34
522.376	7858.58
522.743	7911.91
523.11	7926.6
523.477	7945.81
523.843	7935.64
524.21	8037.33
524.577	8050.66
524.943	8092.02
525.31	8075.97
525.676	8177.21
526.043	8126.82
526.409	8229.64
526.776	8222.64
527.142	8261.51
527.508	8245.46
527.874	8298.12
528.241	8261.51
528.607	8292.47
528.973	8353.93
529.339	8290.88
529.705	8366.59
530.071	8405.23
530.437	8405
530.803	8400.71
531.169	8461.95
531.535	8377.89
531.901	8378.11
532.267	8406.36
532.632	8453.37
532.998	8397.32
533.364	8439.58
533.73	8445.68
534.095	8507.6
534.461	8508.51
534.826	8562.51
535.192	8524.78
535.557	8573.14
535.923	8544.21
536.288	8543.31
536.653	8559.58
537.019	8540.37
537.384	8594.83
537.749	8571.78
538.114	8578.79
538.479	8555.28
538.845	8479.81
539.21	8573.81
539.575	8564.55
539.94	8497.21
540.305	8540.14
540.67	8513.93
541.034	8535.4
541.399	8510.09
541.764	8469.64
542.129	8532.46
542.494	8486.58
542.858	8525.45
543.223	8496.3
543.587	8551.44
543.952	8517.77
544.316	8493.14
544.681	8448.85
545.045	8537.66
545.41	8506.25
545.774	8539.24
546.138	8450.65
546.503	8522.74
546.867	8424.21
547.231	8532.01
547.595	8525.45
547.959	8485.68
548.324	8499.69
548.688	8480.03
549.052	8527.71
549.416	8505.12
549.779	8527.04
550.143	8509.18
550.507	8501.27
550.871	8568.39
551.235	8461.5
551.599	8509.18
551.962	8488.62
552.326	8483.65
552.689	8570.88
553.053	8428.96
553.417	8433.93
553.78	8545.11
554.143	8489.3
554.507	8492.01
554.87	8449.52
555.234	8647.71
555.597	8498.56
555.96	8527.49
556.323	8532.69
556.686	8548.05
557.05	8565.45
557.413	8570.42
557.776	8580.37
558.139	8609.29
558.502	8641.61
558.865	8573.36
559.228	8544.89
559.59	8666.02
559.953	8568.39
560.316	8788.72
560.679	8669.18
561.041	8783.3
561.404	8700.14
561.767	8765.22
562.129	8789.85
562.492	8811.55
562.854	8809.29
563.217	8798.89
563.579	8854.94
563.941	8796.18
564.304	8828.27
564.666	8893.81
565.028	8961.83
565.39	8899.23
565.753	8993.24
566.115	8926.12
566.477	8962.05
566.839	8975.16
567.201	9076.4
567.563	9040.02
567.925	9054.48
568.287	9073.69
568.648	9154.82
569.01	9159.56
569.372	9146.23
569.734	9115.72
570.095	9240.01
570.457	9225.1
570.819	9258.09
571.18	9245.21
571.542	9314.36
571.903	9329.27
572.265	9371.31
572.626	9411.98
572.987	9388.26
573.349	9393.91
573.71	9418.76
574.071	9433.68
574.432	9503.28
574.794	9540.79
575.155	9533.79
575.516	9503.06
575.877	9543.73
576.238	9557.52
576.599	9557.07
576.96	9634.58
577.32	9635.93
577.681	9593.45
578.042	9680
578.403	9718.19
578.763	9675.48
579.124	9668.47
579.485	9800.45
579.845	9804.52
580.206	9822.82
580.566	9784.86
580.927	9798.19
581.287	9806.1
581.648	9809.71
582.008	9870.5
582.368	9836.83
582.728	9891.07
583.089	9832.54
583.449	9870.5
583.809	9875.93
584.169	9941.01
584.529	9918.41
584.889	9956.15
585.249	9870.5
585.609	9935.13
585.969	10003.38
586.329	9966.55
586.688	10051.29
587.048	9976.26
587.408	9919.54
587.768	10034.57
588.127	10007.45
588.487	9974.91
588.846	10041.57
589.206	9982.36
589.565	10044.74
589.925	10038.41
590.284	10010.84
590.643	10087.22
591.003	10128.8
591.362	10169.7
591.721	10124.51
592.08	10079.09
592.44	10077.28
592.799	10088.8
593.158	10072.76
593.517	10108.91
593.876	10104.17
594.235	10129.03
594.593	10076.37
594.952	10080.44
595.311	10131.06
595.67	10168.57
596.029	10173.09
596.387	10183.26
596.746	10154.34
597.104	10091.97
597.463	10185.07
597.822	10169.48
598.18	10162.25
598.538	10188.46
598.897	10260.78
599.255	10063.49
599.613	10319.3
599.972	10191.17
600.33	10194.11
600.688	10269.36
601.046	10239.08
601.404	10355.69
601.762	10268.91
602.12	10259.65
602.478	10269.81
602.836	10351.39
603.194	10223.94
603.552	10292.86
603.91	10254.9
604.268	10344.62
604.625	10278.63
604.983	10301.68
605.341	10289.25
605.698	10342.36
606.056	10342.81
606.413	10283.6
606.771	10426.65
607.128	10346.87
607.485	10294.45
607.843	10313.2
608.2	10394.56
608.557	10373.99
608.914	10334.9
609.272	10411.05
609.629	10473.2
609.986	10491.96
610.343	10409.02
610.7	10538.51
611.057	10430.71
611.414	10452.41
611.771	10407.44
612.127	10543.25
612.484	10585.96
612.841	10512.29
613.198	10518.62
613.554	10533.76
613.911	10625.06
614.267	10526.76
614.624	10516.81
614.98	10535.12
615.337	10600.65
615.693	10581.22
616.05	10597.26
616.406	10597.04
616.762	10532.86
617.118	10580.99
617.475	10611.27
617.831	10607.66
618.187	10655.12
618.543	10612.18
618.899	10742.8
619.255	10740.31
619.611	10674.32
619.967	10674.78
620.323	10740.54
620.678	10757.49
621.034	10716.13
621.39	10680.88
621.746	10656.47
622.101	10709.13
622.457	10673.65
622.812	10685.17
623.168	10696.7
623.523	10703.48
623.879	10740.54
624.234	10614.21
624.589	10713.19
624.945	10747.54
625.3	10771.72
625.655	10642.91
626.01	10712.74
626.365	10656.25
626.72	10702.35
627.075	10647.43
627.43	10672.74
627.785	10601.78
628.14	10621.22
628.495	10664.38
628.85	10616.7
629.205	10636.36
629.559	10638.39
629.914	10614.89
630.269	10642.23
630.623	10649.24
630.978	10600.43
631.332	10583.03
631.687	10616.25
632.041	10547.1
632.396	10621.67
632.75	10508.23
633.104	10532.18
633.459	10472.97
633.813	10484.05
634.167	10480.2
634.521	10468
634.875	10511.84
635.229	10421
635.583	10400.21
635.937	10453.31
636.291	10445.4
636.645	10387.33
636.999	10350.49
637.352	10375.8
637.706	10313.66
638.06	10403.6
638.413	10324.05
638.767	10312.3
639.121	10329.02
639.474	10302.36
639.828	10248.12
640.181	10342.81
640.534	10283.83
640.888	10227.78
641.241	10237.27
641.594	10271.85
641.947	10284.28
642.301	10254.45
642.654	10240.66
643.007	10210.61
643.36	10226.88
643.713	10210.38
644.066	10262.58
644.419	10212.64
644.771	10150.72
645.124	10047.45
645.477	9927.68
645.83	10000.67
646.182	9928.81
646.535	9805.19
646.888	9894.68
647.24	9735.14
647.593	9849.03
647.945	9828.02
648.298	9789.38
648.65	9758.64
649.002	9775.14
649.355	9761.58
649.707	9848.13
650.059	9838.19
650.411	9971.52
650.763	9984.62
651.115	10055.58
651.467	9990.5
651.819	10038.41
652.171	10014.68
652.523	9984.17
652.875	9949.37
653.227	9928.81
653.578	10039.76
653.93	9982.14
654.282	9946.66
654.633	9893.1
654.985	9884.51
655.337	9907.79
655.688	9965.42
656.039	9977.39
656.391	9873.89
656.742	9949.82
657.094	9877.73
657.445	9978.75
657.796	9936.49
658.147	9991.18
658.498	9916.38
658.849	9891.52
659.2	9909.6
659.551	9915.93
659.902	9952.31
660.253	9929.48
660.604	9957.51
660.955	9906.89
661.306	10002.7
661.656	9916.6
662.007	9957.73
662.358	9907.11
662.708	9929.48
663.059	9864.85
663.409	9844.52
663.76	9860.56
664.11	9967
664.461	9891.29
664.811	9938.3
665.161	9928.58
665.511	9897.17
665.862	9874.34
666.212	9894.23
666.562	9968.58
666.912	9863.27
667.262	9917.73
667.612	9912.99
667.962	9912.31
668.312	9924.51
668.662	9971.74
669.011	9905.98
669.361	9904.85
669.711	9835.7
670.06	9891.75
670.41	9882.71
670.76	9881.8
671.109	9904.4
671.459	9888.13
671.808	9872.09
672.157	9899.43
672.507	9759.55
672.856	9765.42
673.205	9767.23
673.554	9847.45
673.904	9775.82
674.253	9821.46
674.602	9856.94
674.951	9682.26
675.3	9632.09
675.649	9784.18
675.998	9786.66
676.346	9796.61
676.695	9797.06
677.044	9672.54
677.393	9765.42
677.741	9651.3
678.09	9681.81
678.438	9681.36
678.787	9712.09
679.135	9734.69
679.484	9595.26
679.832	9652.88
680.181	9651.3
680.529	9633.45
680.877	9605.65
681.225	9591.64
681.573	9635.26
681.922	9539.89
682.27	9560.68
682.618	9576.95
682.966	9486.56
683.314	9508.7
683.661	9518.65
684.009	9439.55
684.357	9416.73
684.705	9421.25
685.053	9355.04
685.4	9361.14
685.748	9344.42
686.095	9306.68
686.443	9260.35
686.79	9296.28
687.138	9282.04
687.485	9239.33
687.832	9255.38
688.18	9249.95
688.527	9231.42
688.874	9202.27
689.221	9106
689.568	9161.82
689.915	9112.11
690.262	9106.46
690.609	9061.26
690.956	9030.98
691.303	9008.38
691.65	8921.15
691.997	8928.61
692.344	8885.67
692.69	8913.92
693.037	8896.29
693.383	8842.96
693.73	8866.91
694.077	8764.77
694.423	8835.05
694.769	8720.25
695.116	8678.67
695.462	8684.55
695.808	8682.96
696.155	8660.59
696.501	8567.03
696.847	8626.24
697.193	8539.69
697.539	8581.5
697.885	8521.61
698.231	8419.24
698.577	8471.22
698.923	8485
699.269	8356.19
699.614	8426.47
699.96	8333.82
700.306	8299.25
700.651	8279.58
700.997	8271.9
701.342	8274.39
701.688	8184.9
702.033	8180.15
702.379	8178.8
702.724	8210.43
703.069	8156.42
703.415	8036.43
703.76	8100.83
704.105	8071
704.45	8076.2
704.795	7990.33
705.14	7980.16
705.485	7933.38
705.83	7917.11
706.175	7942.64
706.52	7891.57
706.865	7845.25
707.209	7812.03
707.554	7889.54
707.899	7849.99
708.243	7812.48
708.588	7821.52
708.932	7688.19
709.277	7718.7
709.621	7727.96
709.966	7719.6
710.31	7640.96
710.654	7650
710.998	7595.53
711.342	7556.89
711.687	7549.43
712.031	7555.76
712.375	7529.77
712.719	7542.2
713.063	7556.21
713.407	7553.05
713.75	7438.25
714.094	7476.89
714.438	7507.4
714.782	7495.2
715.125	7453.39
715.469	7422.21
715.812	7400.74
716.156	7274.41
716.499	7348.76
716.843	7341.76
717.186	7320.74
717.53	7291.14
717.873	7337.01
718.216	7314.19
718.559	7302.44
718.902	7257.92
719.246	7230.57
719.589	7224.47
719.932	7244.81
720.275	7247.97
720.617	7265.15
720.96	7250.01
721.303	7208.2
721.646	7234.64
721.989	7161.65
722.331	7133.63
722.674	7120.97
723.016	7149.22
723.359	7172.04
723.701	7192.38
724.044	7149.22
724.386	7085.94
724.729	7128.43
725.071	7101.76
725.413	7075.55
725.755	7089.11
726.097	7018.37
726.439	7025.15
726.782	7047.3
727.124	6999.62
727.465	6995.78
727.807	7003.69
728.149	7015.66
728.491	7019.96
728.833	6981.31
729.175	6949.9
729.516	6955.33
729.858	7000.3
730.199	6991.48
730.541	6962.11
730.882	6945.16
731.224	6981.77
731.565	6970.92
731.906	6985.61
732.248	6991.93
732.589	6888.21
732.93	6881.88
733.271	6914.42
733.612	6915.55
733.953	6918.72
734.294	6906.97
734.635	6947.64
734.976	6993.52
735.317	6889.79
735.658	6941.77
735.999	6879.4
736.339	6910.13
736.68	6958.94
737.021	6913.97
737.361	6897.25
737.702	7021.99
738.042	6910.81
738.383	6886.85
738.723	6938.15
739.063	6891.6
739.404	6931.37
739.744	6978.38
740.084	6932.05
740.424	6911.03
740.764	6891.6
741.104	6961.2
741.444	6910.58
741.784	6852.28
742.124	6906.29
742.464	6932.73
742.804	6987.19
743.143	6998.94
743.483	6986.06
743.823	6943.8
744.162	6973.18
744.502	6999.62
744.841	6968.88
745.181	7096.34
745.52	7065.38
745.86	7065.83
746.199	7097.24
746.538	7069.22
746.877	7112.61
747.216	7167.52
747.556	7137.47
747.895	7277.35
748.234	7183.79
748.573	7243.68
748.911	7244.36
749.25	7302.21
749.589	7353.96
749.928	7385.37
750.267	7430.34
750.605	7440.96
750.944	7450
751.283	7542.2
751.621	7591.47
751.96	7612.26
752.298	7602.99
752.636	7760.28
752.975	7796.89
753.313	7777
753.651	7956.2
753.989	7963.21
754.327	7985.36
754.666	8002.53
755.004	8123.43
755.342	8211.34
755.679	8250.43
756.017	8281.17
756.355	8433.03
756.693	8507.15
757.031	8583.53
757.368	8582.63
757.706	8704.88
758.044	8718.44
758.381	8870.98
758.719	8917.76
759.056	9068.04
759.394	9091.09
759.731	9169.5
760.068	9357.97
760.405	9329.95
760.743	9428.25
761.08	9545.09
761.417	9570.62
761.754	9723.39
762.091	9802.71
762.428	9843.39
762.765	9945.3
763.102	10057.62
763.438	10113.43
763.775	10152.53
764.112	10313.2
764.449	10421.68
764.785	10502.12
765.122	10525.4
765.458	10557.94
765.795	10633.19
766.131	10794.09
766.467	10799.74
766.804	10782.34
