Data from hue_36_FLMS001491_00016.txt Node
Date: Tue Feb 07 17:29:27 GMT 2017
User: dcchb
Spectrometer: FLMS00149
Trigger mode: 0
Integration Time (sec): 2.000000E-2
Scans to average: 10
Electric dark correction enabled: true
Nonlinearity correction enabled: false
Boxcar width: 0
XAxis mode: Wavelengths
Number of Pixels in Spectrum: 2048
>>>>>Begin Spectral Data<<<<<
341.393	-13.47
341.776	-13.47
342.16	-13.47
342.543	-69.29
342.927	-37.43
343.31	-61.38
343.693	-73.13
344.077	-60.03
344.46	-72
344.843	-56.41
345.226	-33.59
345.61	-29.52
345.993	-13.7
346.376	-22.29
346.759	7.54
347.142	17.49
347.525	54.32
347.908	57.03
348.291	73.53
348.674	95.68
349.057	116.47
349.44	118.5
349.823	147.65
350.206	161.89
350.588	200.08
350.971	240.53
351.354	223.13
351.737	230.14
352.119	256.35
352.502	266.97
352.884	262.68
353.267	290.92
353.65	289.34
354.032	297.7
354.414	333.18
354.797	314.88
355.179	318.49
355.562	338.38
355.944	338.61
356.326	344.03
356.709	311.26
357.091	347.65
357.473	339.51
357.855	342.22
358.238	337.48
358.62	379.74
359.002	360.3
359.384	343.58
359.766	329.57
360.148	342.22
360.53	337.93
360.912	330.7
361.294	328.89
361.676	355.33
362.057	325.5
362.439	331.38
362.821	321.43
363.203	334.54
363.584	345.61
363.966	333.18
364.348	336.35
364.729	332.28
365.111	318.04
365.493	323.47
365.874	332.51
366.256	311.94
366.637	318.27
367.019	304.94
367.4	307.2
367.781	309.68
368.163	323.47
368.544	316.23
368.925	311.49
369.306	313.75
369.688	314.65
370.069	313.3
370.45	323.69
370.831	309.23
371.212	318.49
371.593	310.36
371.974	317.36
372.355	294.09
372.736	312.62
373.117	330.47
373.498	313.75
373.879	323.69
374.26	313.75
374.641	300.19
375.021	341.77
375.402	336.12
375.783	330.02
376.163	342
376.544	325.73
376.925	340.64
377.305	314.43
377.686	343.13
378.066	330.92
378.447	340.64
378.827	339.74
379.208	337.48
379.588	348.1
379.968	348.1
380.349	347.42
380.729	346.06
381.109	337.48
381.489	344.26
381.87	326.86
382.25	348.55
382.63	339.28
383.01	328.89
383.39	356.46
383.77	358.04
384.15	361.43
384.53	311.49
384.91	354.65
385.29	354.88
385.67	337.48
386.049	361.66
386.429	346.74
386.809	372.73
387.189	365.27
387.568	354.88
387.948	338.61
388.328	363.01
388.707	379.96
389.087	359.4
389.466	354.43
389.846	360.53
390.225	352.62
390.605	353.97
390.984	353.3
391.363	358.04
391.743	352.17
392.122	356.69
392.501	342.9
392.881	392.84
393.26	388.32
393.639	398.72
394.018	380.64
394.397	392.39
394.776	362.34
395.155	353.75
395.534	394.88
395.913	394.42
396.292	403.24
396.671	372.28
397.05	376.57
397.429	381.32
397.808	389
398.186	405.27
398.565	410.7
398.944	405.72
399.323	390.36
399.701	379.51
400.08	428.77
400.458	394.65
400.837	397.36
401.215	402.11
401.594	380.41
401.972	421.32
402.351	395.33
402.729	414.31
403.107	390.13
403.486	416.34
403.864	383.35
404.242	409.34
404.62	420.41
404.999	422.9
405.377	404.14
405.755	425.84
406.133	413.86
406.511	416.8
406.889	426.97
407.267	412.5
407.645	417.02
408.023	412.96
408.401	424.25
408.779	427.64
409.156	436.68
409.534	445.95
409.912	445.27
410.29	448.21
410.667	445.95
411.045	453.63
411.422	463.12
411.8	442.11
412.178	444.82
412.555	449.34
412.933	443.69
413.31	450.69
413.687	451.15
414.065	483.46
414.442	476.23
414.819	477.13
415.197	458.83
415.574	483.46
415.951	495.44
416.328	489.34
416.705	492.5
417.082	472.84
417.46	480.98
417.837	469
418.214	491.15
418.591	484.59
418.967	523.69
419.344	510.81
419.721	502.44
420.098	519.39
420.475	515.78
420.852	532.05
421.228	513.52
421.605	528.66
421.982	526.85
422.358	517.81
422.735	541.54
423.111	541.09
423.488	531.6
423.864	536.34
424.241	537.47
424.617	532.5
424.994	544.48
425.37	556.23
425.746	538.38
426.123	533.63
426.499	556.91
426.875	548.09
427.251	579.73
427.627	577.24
428.003	585.83
428.379	589.45
428.756	588.32
429.132	581.76
429.507	594.65
429.883	609.33
430.259	610.69
430.635	612.95
431.011	607.53
431.387	612.95
431.763	601.2
432.138	650.46
432.514	616.34
432.89	637.58
433.265	623.57
433.641	654.08
434.016	638.49
434.392	654.3
434.767	650.92
435.143	653.63
435.518	663.34
435.894	644.36
436.269	668.99
436.644	657.24
437.02	676.23
437.395	709.9
437.77	693.4
438.145	687.98
438.52	704.47
438.895	708.77
439.271	705.83
439.646	701.31
440.021	691.82
440.395	697.69
440.77	723.68
441.145	716.45
441.52	748.99
441.895	746.73
442.27	732.04
442.645	770.46
443.019	727.98
443.394	747.18
443.769	751.48
444.143	730.01
444.518	751.93
444.892	757.13
445.267	765.26
445.641	785.15
446.016	768.65
446.39	789.89
446.764	779.05
447.139	781.31
447.513	780.63
447.887	798.48
448.262	791.93
448.636	812.94
449.01	814.53
449.384	852.94
449.758	801.42
450.132	821.98
450.506	843.45
450.88	823.11
451.254	838.48
451.628	850.68
452.002	845.94
452.376	857.46
452.75	856.56
453.123	847.07
453.497	860.4
453.871	894.98
454.244	884.58
454.618	896.33
454.992	915.77
455.365	897.91
455.739	946.95
456.112	942.21
456.486	939.27
456.859	942.43
457.232	948.31
457.606	959.38
457.979	955.54
458.352	969.55
458.725	977.01
459.099	1016.78
459.472	1012.49
459.845	1015.43
460.218	1026.05
460.591	1043.9
460.964	1037.12
461.337	1080.28
461.71	1082.99
462.083	1086.38
462.456	1094.07
462.829	1086.61
463.201	1118.47
463.574	1117.34
463.947	1153.73
464.32	1183.33
464.692	1160.73
465.065	1192.14
465.438	1204.57
465.81	1216.32
466.183	1250.9
466.555	1235.53
466.928	1245.02
467.3	1262.42
467.672	1288.86
468.045	1318.24
468.417	1317.11
468.789	1319.82
469.161	1356.66
469.534	1379.71
469.906	1389.88
470.278	1409.09
470.65	1425.58
471.022	1466.03
471.394	1475.07
471.766	1538.58
472.138	1550.78
472.51	1562.08
472.882	1603.88
473.253	1579.48
473.625	1643.21
473.997	1692.47
474.369	1747.16
474.74	1755.07
475.112	1768.17
475.484	1805.24
475.855	1864.22
476.227	1872.8
476.598	1919.36
476.97	1974.27
477.341	2011.11
477.713	2065.57
478.084	2085.68
478.455	2157.09
478.827	2217.88
479.198	2277.54
479.569	2305.33
479.94	2367.71
480.311	2414.94
480.682	2508.04
481.053	2531.09
481.424	2615.16
481.795	2697.87
482.166	2750.07
482.537	2764.98
482.908	2884.98
483.279	2960.01
483.65	3027.8
484.021	3107.8
484.391	3193.22
484.762	3247.91
485.133	3301.69
485.503	3387.34
485.874	3540.33
486.244	3579.2
486.615	3645.86
486.985	3737.61
487.356	3786.2
487.726	3934.67
488.097	3992.75
488.467	4057.15
488.837	4178.96
489.207	4300.99
489.578	4387.99
489.948	4471.61
490.318	4537.37
490.688	4653.97
491.058	4743.24
491.428	4858.71
491.798	4854.19
492.168	5063.68
492.538	5136.45
492.908	5214.18
493.278	5366.05
493.648	5369.44
494.017	5499.83
494.387	5598.81
494.757	5705.47
495.126	5811.91
495.496	5888.07
495.866	5898.46
496.235	6068.17
496.605	6173.48
496.974	6176.65
497.344	6317.88
497.713	6418.22
498.082	6450.54
498.452	6579.57
498.821	6620.02
499.19	6682.62
499.559	6806.01
499.928	6837.19
500.298	7002.61
500.667	7057.98
501.036	7057.07
501.405	7118.77
501.774	7203.96
502.143	7290.06
502.512	7381.36
502.88	7518.53
503.249	7498.19
503.618	7555.82
503.987	7725.76
504.356	7778.19
504.724	7825.42
505.093	7906.77
505.462	7874.23
505.83	8024.73
506.199	8118.06
506.567	8265.4
506.936	8225.41
507.304	8374.1
507.672	8407.77
508.041	8463.59
508.409	8556.92
508.777	8578.39
509.145	8633.53
509.514	8687.54
509.882	8774.32
510.25	8821.55
510.618	8869.68
510.986	8885.05
511.354	9029.45
511.722	9092.95
512.09	9236.45
512.458	9254.53
512.826	9245.94
513.193	9349.9
513.561	9334.98
513.929	9449.1
514.297	9558.25
514.664	9570
515.032	9637.12
515.4	9702.43
515.767	9765.93
516.135	9777.23
516.502	9753.95
516.869	9912.14
517.237	10004.57
517.604	9988.75
517.972	10164.79
518.339	10050.67
518.706	10158.24
519.073	10262.64
519.44	10284.79
519.808	10399.13
520.175	10405.69
520.542	10543.76
520.909	10618.11
521.276	10519.81
521.643	10697.88
522.009	10755.96
522.376	10809.07
522.743	10869.63
523.11	10959.12
523.477	10989.4
523.843	11106.23
524.21	11204.08
524.577	11334.25
524.943	11350.29
525.31	11323.85
525.676	11514.36
526.043	11661.02
526.409	11604.98
526.776	11756.39
527.142	11737.63
527.508	11848.13
527.874	11948.02
528.241	11942.82
528.607	12030.73
528.973	12178.3
529.339	12069.82
529.705	12247.67
530.071	12340.33
530.437	12368.35
530.803	12478.63
531.169	12565.18
531.535	12517.04
531.901	12531.28
532.267	12644.95
532.632	12720.43
532.998	12712.74
533.364	12774.66
533.73	12842.23
534.095	13046.52
534.461	13006.97
534.826	13020.31
535.192	13200.64
535.557	13200.87
535.923	13300.3
536.288	13343.69
536.653	13409.22
537.019	13277.93
537.384	13423.23
537.749	13484.7
538.114	13543.68
538.479	13574.42
538.845	13651.03
539.21	13669.33
539.575	13762.66
539.94	13804.47
540.305	13847.86
540.67	13853.96
541.034	13907.97
541.399	14015.31
541.764	14041.3
542.129	14080.17
542.494	14095.76
542.858	14229.99
543.223	14155.42
543.587	14355.19
543.952	14326.04
544.316	14368.07
544.681	14436.99
545.045	14510.89
545.41	14613.26
545.774	14705.46
546.138	14681.05
546.503	14788.85
546.867	14746.14
547.231	14916.08
547.595	14912.69
547.959	14930.77
548.324	14887.6
548.688	14923.76
549.052	15084.66
549.416	15101.61
549.779	15148.16
550.143	15217.99
550.507	15273.13
550.871	15436.06
551.235	15314.48
551.599	15488.27
551.962	15510.19
552.326	15554.48
552.689	15623.85
553.053	15561.48
553.417	15612.78
553.78	15804.64
554.143	15769.61
554.507	15806.22
554.87	15940.68
555.234	16119.66
555.597	15908.14
555.96	15992.43
556.323	16053.22
556.686	16098.64
557.05	16304.74
557.413	16241.92
557.776	16304.29
558.139	16419.77
558.502	16365.76
558.865	16582.47
559.228	16674.45
559.59	16558.07
559.953	16653.88
560.316	16822.92
560.679	16794.45
561.041	16895.01
561.404	17050.26
561.767	17103.59
562.129	17068.56
562.492	17255
562.854	17184.94
563.217	17184.27
563.579	17286.86
563.941	17403.02
564.304	17419.51
564.666	17539.51
565.028	17650.02
565.39	17675.1
565.753	17727.3
566.115	17825.15
566.477	17847.07
566.839	17918.71
567.201	18010.91
567.563	18128.42
567.925	18191.02
568.287	18191.24
568.648	18223.11
569.01	18431.24
569.372	18490.22
569.734	18525.02
570.095	18619.93
570.457	18609.99
570.819	18734.73
571.18	18777.67
571.542	18887.27
571.903	18840.72
572.265	19031.45
572.626	19174.95
572.987	19111.9
573.349	19231.22
573.71	19327.03
574.071	19429.63
574.432	19505.56
574.794	19695.39
575.155	19682.51
575.516	19743.75
575.877	19751.88
576.238	19945.1
576.599	20106.22
576.96	20170.4
577.32	20262.15
577.681	20321.58
578.042	20532.88
578.403	20522.71
578.763	20688.58
579.124	20896.03
579.485	21076.14
579.845	21320.2
580.206	21420.54
580.566	21383.93
580.927	21440.2
581.287	21795.9
581.648	21828.21
582.008	22128.09
582.368	22234.75
582.728	22384.35
583.089	22479.49
583.449	22668.64
583.809	22843.55
584.169	23049.2
584.529	23220.94
584.889	23396.76
585.249	23515.4
585.609	23566.47
585.969	23908.38
586.329	24062.28
586.688	24339.11
587.048	24499.33
587.408	24619.55
587.768	24811.64
588.127	25063.83
588.487	25205.07
588.846	25543.37
589.206	25662.69
589.565	25793.53
589.925	26190.81
590.284	26221.09
590.643	26628.99
591.003	26917.34
591.362	27102.87
591.721	27183.78
592.08	27457.44
592.44	27722.97
592.799	27867.6
593.158	28139.46
593.517	28300.81
593.876	28562.72
594.235	28674.81
594.593	28948.48
594.952	29334.91
595.311	29365.41
595.67	29602.02
596.029	30065.96
596.387	30206.75
596.746	30421.21
597.104	30441.54
597.463	30623.23
597.822	30955.65
598.18	30949.33
598.538	31290.56
598.897	31685.58
599.255	31590.89
599.613	32232.46
599.972	32142.74
600.33	32396.75
600.688	32422.06
601.046	32633.13
601.404	32910.86
601.762	33052.1
602.12	33405.31
602.478	33473.78
602.836	33849.14
603.194	33805.07
603.552	33925.29
603.91	33947.21
604.268	34273.99
604.625	34366.64
604.983	34694.54
605.341	34585.39
605.698	34940.63
606.056	35089.33
606.413	35203.68
606.771	35336.33
607.128	35607.74
607.485	35551.92
607.843	35721.63
608.2	36011.12
608.557	36241.39
608.914	36138.12
609.272	36562.29
609.629	36626.69
609.986	36927.02
610.343	36790.53
610.7	37122.27
611.057	37173.8
611.414	37261.25
611.771	37376.96
612.127	37768.58
612.484	37737.85
612.841	37921.8
613.198	37872.31
613.554	37993.89
613.911	38302.81
614.267	38316.14
614.624	38315.01
614.98	38518.17
615.337	38826.63
615.693	38880.42
616.05	38794.54
616.406	39177.81
616.762	39060.75
617.118	39215.32
617.475	39100.07
617.831	39196.34
618.187	39472.72
618.543	39564.24
618.899	39747.97
619.255	39624.35
619.611	39887.85
619.967	39917.45
620.323	40240.38
620.678	39964.23
621.034	39980.95
621.39	40005.36
621.746	40095.98
622.101	40504.1
622.457	40286.03
622.812	40682.4
623.168	40500.71
623.523	40647.83
623.879	40732.12
624.234	40443.09
624.589	40787.94
624.945	40959.69
625.3	40802.4
625.655	40899.57
626.01	41016.86
626.365	41017.54
626.72	40987.48
627.075	40951.32
627.43	41044.66
627.785	40966.47
628.14	41133.24
628.495	41234.48
628.85	41249.17
629.205	41031.55
629.559	41379.34
629.914	41081.04
630.269	41293.69
630.623	41135.73
630.978	41167.36
631.332	41325.55
631.687	41282.39
632.041	41188.61
632.396	41322.16
632.75	41246.01
633.104	41154.93
633.459	41128.72
633.813	41161.04
634.167	41190.19
634.521	41299.34
634.875	41305.89
635.229	41299.11
635.583	41133.92
635.937	41180.92
636.291	41164.88
636.645	41169.62
636.999	41041.94
637.352	41238.32
637.706	41110.19
638.06	41251.66
638.413	41054.6
638.767	41075.84
639.121	41203.97
639.474	40855.96
639.828	40978.22
640.181	40998.33
640.534	41087.82
640.888	40958.1
641.241	40644.67
641.594	40921.27
641.947	40993.13
642.301	40774.61
642.654	41010.98
643.007	40833.14
643.36	40833.14
643.713	40753.36
644.066	40969.63
644.419	40669.07
644.771	40530.54
645.124	40150.89
645.477	40140.05
645.83	39828.87
646.182	39750.9
646.535	39569.44
646.888	39595.88
647.24	39499.61
647.593	39637.23
647.945	39562.66
648.298	39479.95
648.65	39446.28
649.002	39510.46
649.355	39519.05
649.707	39367.64
650.059	39628.87
650.411	40074.06
650.763	40085.13
651.115	40555.4
651.467	40502.3
651.819	40278.12
652.171	40320.61
652.523	40233.38
652.875	40251.68
653.227	40136.43
653.578	40407.61
653.93	40136.2
654.282	40014.4
654.633	40008.52
654.985	40058.92
655.337	40141.18
655.688	40074.51
656.039	40188.86
656.391	39906.38
656.742	39987.73
657.094	40077.68
657.445	40054.4
657.796	40144.34
658.147	40024.12
658.498	39976.43
658.849	40012.82
659.2	39921.75
659.551	39882.2
659.902	40071.35
660.253	40073.38
660.604	39942.54
660.955	39839.04
661.306	40018.02
661.656	39892.37
662.007	39872.26
662.358	39861.86
662.708	39834.74
663.059	39813.28
663.409	39676.1
663.76	39914.06
664.11	39829.55
664.461	40006.49
664.811	39862.31
665.161	39821.41
665.511	39691.24
665.862	39790.22
666.212	39911.8
666.562	39857.79
666.912	39723.79
667.262	39676.33
667.612	39824.57
667.962	39816.44
668.312	39731.92
668.662	39805.37
669.011	39763.56
669.361	39654.86
669.711	39789.32
670.06	39599.5
670.41	39626.16
670.76	39617.12
671.109	39638.59
671.459	39613.51
671.808	39524.7
672.157	39649.89
672.507	39393.4
672.856	39357.92
673.205	39529.89
673.554	39641.98
673.904	39387.3
674.253	39680.85
674.602	39658.03
674.951	39079.06
675.3	38806.3
675.649	39455.09
675.998	39422.1
676.346	39440.4
676.695	39491.7
677.044	39148.43
677.393	39305.72
677.741	39426.62
678.09	39307.07
678.438	39114.31
678.787	39290.35
679.135	39279.28
679.484	39057.14
679.832	39195.21
680.181	39078.61
680.529	39169.9
680.877	38986.63
681.225	38796.13
681.573	39073.18
681.922	38936.24
682.27	38807.2
682.618	38660.09
682.966	38731.5
683.314	38745.96
683.661	38712.06
684.009	38458.06
684.357	38555.23
684.705	38332.18
685.053	38508.22
685.4	38391.62
685.748	38188.23
686.095	38219.19
686.443	38094
686.79	37938.52
687.138	38123.38
687.485	38023.49
687.832	37917.51
688.18	37823.72
688.527	37823.72
688.874	37717.74
689.221	37686.55
689.568	37684.52
689.915	37527.23
690.262	37567.23
690.609	37373.34
690.956	37316.17
691.303	37258.09
691.65	37150.07
691.997	37222.38
692.344	36932
692.69	36832.79
693.037	36901.49
693.383	36546.47
693.73	36704.66
694.077	36516.64
694.423	36503.98
694.769	36398.9
695.116	36283.65
695.462	36296.08
695.808	36168.4
696.155	36269.19
696.501	35923.89
696.847	35938.12
697.193	35574.06
697.539	35854.06
697.885	35581.75
698.231	35484.8
698.577	35459.72
698.923	35566.83
699.269	35301.98
699.614	35152.15
699.96	34953.74
700.306	35073.74
700.651	34850.92
700.997	34758.72
701.342	34892.73
701.688	34869.22
702.033	34566.63
702.379	34553.3
702.724	34499.52
703.069	34498.39
703.415	34176.14
703.76	34170.71
704.105	34197.6
704.45	34237.83
704.795	33948.8
705.14	33903.83
705.485	33942.24
705.83	33668.35
706.175	33737.95
706.52	33750.84
706.865	33525.08
707.209	33521.01
707.554	33389.04
707.899	33358.53
708.243	33074.02
708.588	33216.84
708.932	32996.28
709.277	33023.85
709.621	32944.08
709.966	32805.32
710.31	32909.73
710.654	32510.64
710.998	32645.1
711.342	32674.93
711.687	32537.08
712.031	32366.24
712.375	32369.18
712.719	32514.71
713.063	32158.56
713.407	32268.16
713.75	32179.35
714.094	32213.02
714.438	31908.17
714.782	32024.78
715.125	31865.91
715.469	31978.9
715.812	31775.75
716.156	31637.9
716.499	31617.78
716.843	31684.45
717.186	31452.37
717.53	31594.28
717.873	31595.64
718.216	31519.93
718.559	31336.21
718.902	31121.07
719.246	31284.23
719.589	31145.25
719.932	31017.57
720.275	30938.48
720.617	30922.21
720.96	30812.38
721.303	30824.81
721.646	30808.31
721.989	30684.48
722.331	30776
722.674	30591.14
723.016	30710.69
723.359	30576.23
723.701	30775.77
724.044	30580.75
724.386	30322.68
724.729	30515.89
725.071	30422.56
725.413	30451.71
725.755	30354.99
726.097	30328.55
726.439	30042.01
726.782	30166.52
727.124	30294.88
727.465	30099.86
727.807	30002.69
728.149	30016.02
728.491	29915.46
728.833	30097.82
729.175	29792.52
729.516	29778.96
729.858	29732.86
730.199	29629.14
730.541	29558.86
730.882	29679.53
731.224	29715.91
731.565	29410.84
731.906	29462.13
732.248	29396.6
732.589	29444.51
732.93	29354.79
733.271	29301.69
733.612	29214.01
733.953	29241.8
734.294	29089.26
734.635	29147.79
734.976	29238.41
735.317	28934.01
735.658	28961.81
735.999	28882.26
736.339	28932.21
736.68	28971.53
737.021	28903.96
737.361	28735.6
737.702	28798.88
738.042	28745.32
738.383	28743.96
738.723	28665.32
739.063	28591.42
739.404	28689.27
739.744	28624.87
740.084	28431.43
740.424	28651.99
740.764	28458.32
741.104	28529.28
741.444	28379.23
741.784	28241.83
742.124	28454.93
742.464	28285.44
742.804	28269.17
743.143	28211.77
743.483	28143.3
743.823	28051.1
744.162	28016.52
744.502	28054.71
744.841	27906.02
745.181	28077.76
745.52	27877.09
745.86	27969.52
746.199	27863.31
746.538	27750.32
746.877	27888.84
747.216	27787.38
747.556	27674.16
747.895	27712.35
748.234	27720.03
748.573	27563.65
748.911	27481.85
749.25	27561.17
749.589	27461.06
749.928	27462.41
750.267	27402.3
750.605	27337.45
750.944	27363.89
751.283	27248.63
751.621	27315.3
751.96	27145.36
752.298	27138.58
752.636	27184.91
752.975	26969.55
753.313	26880.28
753.651	26954.4
753.989	26803.9
754.327	26784.01
754.666	26730
755.004	26688.2
755.342	26608.2
755.679	26634.19
756.017	26505.6
756.355	26584.92
756.693	26304.03
757.031	26464.7
757.368	26286.63
