Data from hue_350_FLMS001491_52.txt Node
Date: Mon Feb 06 15:38:12 GMT 2017
User: dcchb
Spectrometer: FLMS00149
Trigger mode: 0
Integration Time (sec): 2.000000E-2
Scans to average: 10
Electric dark correction enabled: true
Nonlinearity correction enabled: false
Boxcar width: 0
XAxis mode: Wavelengths
Number of Pixels in Spectrum: 2048
>>>>>Begin Spectral Data<<<<<
341.393	-29.46
341.776	-29.46
342.16	-29.46
342.543	-50.48
342.927	-64.49
343.31	-69.91
343.693	-87.31
344.077	-72.63
344.46	-62.46
344.843	-67.43
345.226	-33.3
345.61	-24.72
345.993	-5.28
346.376	2.4
346.759	8.73
347.142	20.93
347.525	47.15
347.908	56.18
348.291	75.85
348.674	91.21
349.057	120.59
349.44	117.43
349.823	146.8
350.206	163.3
350.588	198.78
350.971	205.33
351.354	222.06
351.737	258.44
352.119	229.74
352.502	251.66
352.884	282.17
353.267	281.49
353.65	302.28
354.032	288.95
354.414	291.21
354.797	309.51
355.179	315.39
355.562	317.2
355.944	309.51
356.326	345.67
356.709	339.12
357.091	354.03
357.473	358.55
357.855	352.9
358.238	335.73
358.62	344.54
359.002	345.22
359.384	319.68
359.766	346.57
360.148	337.53
360.53	342.05
360.912	327.36
361.294	325.56
361.676	327.36
362.057	333.92
362.439	333.47
362.821	334.14
363.203	323.52
363.584	314.26
363.966	314.71
364.348	324.43
364.729	327.14
365.111	310.19
365.493	312.45
365.874	320.58
366.256	338.21
366.637	297.99
367.019	291.88
367.4	321.71
367.781	326.46
368.163	312.45
368.544	309.06
368.925	308.83
369.306	311.55
369.688	309.29
370.069	305.67
370.45	321.04
370.831	291.66
371.212	307.25
371.593	301.38
371.974	313.81
372.355	315.39
372.736	312.22
373.117	299.34
373.498	323.07
373.879	292.11
374.26	328.27
374.641	323.52
375.021	317.65
375.402	326.46
375.783	347.7
376.163	314.94
376.544	335.95
376.925	330.3
377.305	334.37
377.686	311.32
378.066	307.48
378.447	328.04
378.827	297.76
379.208	319.91
379.588	320.58
379.968	321.04
380.349	323.52
380.729	316.74
381.109	313.13
381.489	331.66
381.87	324.43
382.25	331.43
382.63	351.09
383.01	334.82
383.39	316.07
383.77	344.76
384.15	333.24
384.53	327.14
384.91	341.15
385.29	359.45
385.67	337.08
386.049	357.65
386.429	344.09
386.809	349.28
387.189	336.18
387.568	366.23
387.948	337.76
388.328	330.08
388.707	329.4
389.087	349.96
389.466	339.57
389.846	342.05
390.225	352.45
390.605	338.21
390.984	373.69
391.363	358.32
391.743	351.54
392.122	371.43
392.501	357.65
392.881	352.67
393.26	364.2
393.639	352
394.018	364.2
394.397	367.14
394.776	367.82
395.155	355.16
395.534	374.37
395.913	343.86
396.292	353.13
396.671	353.58
397.05	377.08
397.429	361.49
397.808	370.53
398.186	371.43
398.565	370.3
398.944	373.69
399.323	354.26
399.701	396.29
400.08	358.1
400.458	373.24
400.837	376.63
401.215	413.69
401.594	354.26
401.972	390.19
402.351	376.63
402.729	399.23
403.107	391.77
403.486	410.75
403.864	404.42
404.242	409.4
404.62	399.23
404.999	401.26
405.377	417.76
405.755	386.12
406.133	392.45
406.511	388.83
406.889	394.71
407.267	411.2
407.645	410.3
408.023	420.47
408.401	411.43
408.779	411.2
409.156	428.15
409.534	429.73
409.912	427.02
410.29	421.15
410.667	434.25
411.045	440.36
411.422	428.15
411.8	444.88
412.178	446.23
412.555	437.87
412.933	447.59
413.31	445.1
413.687	458.89
414.065	458.66
414.442	438.1
414.819	483.97
415.197	475.83
415.574	475.16
415.951	497.76
416.328	491.65
416.705	462.95
417.082	479
417.46	478.09
417.837	493.69
418.214	500.24
418.591	503.63
418.967	502.05
419.344	501.82
419.721	511.31
420.098	502.27
420.475	509.73
420.852	495.5
421.228	505.21
421.605	537.08
421.982	525.78
422.358	514.03
422.735	530.75
423.111	519.45
423.488	516.96
423.864	533.69
424.241	565.55
424.617	528.26
424.994	554.48
425.37	538.88
425.746	538.66
426.123	571.65
426.499	568.49
426.875	575.04
427.251	572.78
427.627	584.08
428.003	575.27
428.379	585.44
428.756	581.37
429.132	590.18
429.507	589.96
429.883	584.98
430.259	605.1
430.635	601.26
431.011	619.56
431.387	635.38
431.763	626.57
432.138	622.95
432.514	632.67
432.89	627.7
433.265	645.77
433.641	645.32
434.016	659.78
434.392	661.59
434.767	662.72
435.143	651.42
435.518	660.01
435.894	654.14
436.269	673.12
436.644	686.9
437.02	706.79
437.395	667.47
437.77	719.44
438.145	712.66
438.52	729.84
438.895	728.94
439.271	721.48
439.646	737.07
440.021	718.09
440.395	749.95
440.77	725.32
441.145	723.74
441.52	752.66
441.895	750.18
442.27	745.66
442.645	774.13
443.019	772.55
443.394	753.57
443.769	762.61
444.143	778.2
444.518	780.91
444.892	771.19
445.267	768.03
445.641	773.91
446.016	769.16
446.39	798.54
446.764	783.62
447.139	784.08
447.513	787.92
447.887	769.61
448.262	805.32
448.636	793.57
449.01	803.51
449.384	809.16
449.758	807.13
450.132	841.02
450.506	826.33
450.88	819.55
451.254	824.53
451.628	833.57
452.002	836.73
452.376	850.74
452.75	849.84
453.123	844.64
453.497	855.71
453.871	881.02
454.244	891.42
454.618	888.71
454.992	919.89
455.365	882.15
455.739	906.33
456.112	925.99
456.486	940.91
456.859	911.76
457.232	957.63
457.606	945.2
457.979	926.9
458.352	949.49
458.725	955.82
459.099	961.47
459.472	970.51
459.845	987.01
460.218	987.46
460.591	987.01
460.964	1001.02
461.337	1000.34
461.71	1057.06
462.083	1037.18
462.456	1042.37
462.829	1035.82
463.201	1030.85
463.574	1070.4
463.947	1091.86
464.32	1093.45
464.692	1094.58
465.065	1100.9
465.438	1114.01
465.81	1132.31
466.183	1132.31
466.555	1148.81
466.928	1159.43
467.3	1172.99
467.672	1205.53
468.045	1225.19
468.417	1182.48
468.789	1231.75
469.161	1208.92
469.534	1255.7
469.906	1268.13
470.278	1278.07
470.65	1308.81
471.022	1315.59
471.394	1321.91
471.766	1325.53
472.138	1386.55
472.51	1387.68
472.882	1403.04
473.253	1429.03
473.625	1445.07
473.997	1417.05
474.369	1450.05
474.74	1485.53
475.112	1507.67
475.484	1525.75
475.855	1531.85
476.227	1560.78
476.598	1623.83
476.97	1628.35
477.341	1659.98
477.713	1690.72
478.084	1684.16
478.455	1708.8
478.827	1741.11
479.198	1777.04
479.569	1815.46
479.94	1818.62
480.311	1866.53
480.682	1906.98
481.053	1952.63
481.424	1971.39
481.795	1974.1
482.166	2010.26
482.537	2063.82
482.908	2082.35
483.279	2120.31
483.65	2190.37
484.021	2165.96
484.391	2218.84
484.762	2230.82
485.133	2253.19
485.503	2275.34
485.874	2360.53
486.244	2353.53
486.615	2427.87
486.985	2420.87
487.356	2481.43
487.726	2519.17
488.097	2536.12
488.467	2577.02
488.837	2654.08
489.207	2654.53
489.578	2676
489.948	2716
490.318	2713.29
490.688	2721.43
491.058	2796.9
491.428	2826.28
491.798	2840.97
492.168	2928.65
492.538	2888.43
492.908	2967.29
493.278	3022.21
493.648	2998.25
494.017	3045.26
494.387	3085.03
494.757	3086.61
495.126	3145.37
495.496	3110.34
495.866	3233.28
496.235	3179.94
496.605	3238.47
496.974	3261.52
497.344	3315.99
497.713	3246.38
498.082	3335.42
498.452	3394.63
498.821	3371.35
499.19	3362.54
499.559	3427.17
499.928	3402.54
500.298	3455.87
500.667	3495.19
501.036	3459.49
501.405	3555.08
501.774	3511.69
502.143	3550.33
502.512	3551.46
502.88	3602.76
503.249	3587.39
503.618	3612.93
503.987	3656.99
504.356	3666.03
504.724	3671.46
505.093	3709.42
505.462	3727.27
505.83	3686.37
506.199	3736.09
506.567	3793.26
506.936	3741.06
507.304	3833.94
507.672	3812.7
508.041	3812.7
508.409	3879.36
508.777	3847.72
509.145	3871.45
509.514	3913.71
509.882	3906.03
510.25	3925.69
510.618	3957.78
510.986	3920.49
511.354	3973.6
511.722	3973.6
512.09	4075.29
512.458	4027.83
512.826	4032.13
513.193	4059.47
513.561	4039.81
513.929	4088.4
514.297	4135.4
514.664	4118.23
515.032	4081.16
515.4	4126.13
515.767	4125
516.135	4166.81
516.502	4174.04
516.869	4215.62
517.237	4179.69
517.604	4177.88
517.972	4260.14
518.339	4258.79
518.706	4259.01
519.073	4255.62
519.44	4302.63
519.808	4270.54
520.175	4300.59
520.542	4386.69
520.909	4348.95
521.276	4330.65
521.643	4376.52
522.009	4411.78
522.376	4421.49
522.743	4418.1
523.11	4454.94
523.477	4513.02
523.843	4523.64
524.21	4552.79
524.577	4559.8
524.943	4543.3
525.31	4570.42
525.676	4590.3
526.043	4662.62
526.409	4626.69
526.776	4715.95
527.142	4705.33
527.508	4778.09
527.874	4813.57
528.241	4804.53
528.607	4812.44
528.973	4860.58
529.339	4815.38
529.705	4874.14
530.071	4922.27
530.437	4903.29
530.803	4935.38
531.169	4943.29
531.535	4985.32
531.901	4987.13
532.267	5009.73
532.632	5034.59
532.998	5023.29
533.364	5063.28
533.73	5101.93
534.095	5068.26
534.461	5163.4
534.826	5138.31
535.192	5157.97
535.557	5210.63
535.923	5232.32
536.288	5267.8
536.653	5269.83
537.019	5207.91
537.384	5272.54
537.749	5278.19
538.114	5345.54
538.479	5338.31
538.845	5383.5
539.21	5415.14
539.575	5410.17
539.94	5448.59
540.305	5475.03
540.67	5503.5
541.034	5418.08
541.399	5513.22
541.764	5580.79
542.129	5573.78
542.494	5544.4
542.858	5579.66
543.223	5639.31
543.587	5616.26
543.952	5647.68
544.316	5679.31
544.681	5674.34
545.045	5675.25
545.41	5738.3
545.774	5746.88
546.138	5764.96
546.503	5831.4
546.867	5838.41
547.231	5845.19
547.595	5854.22
547.959	5870.95
548.324	5901.45
548.688	5938.06
549.052	5926.31
549.416	5977.84
549.779	6005.63
550.143	6013.99
550.507	6043.15
550.871	6046.08
551.235	6054.45
551.599	6132.18
551.962	6133.77
552.326	6128.79
552.689	6189.36
553.053	6148.91
553.417	6171.28
553.78	6248.56
554.143	6197.04
554.507	6219.41
554.87	6268.9
555.234	6343.48
555.597	6277.94
555.96	6323.82
556.323	6348.9
556.686	6317.26
557.05	6344.38
557.413	6377.15
557.776	6397.26
558.139	6444.04
558.502	6487.65
558.865	6410.37
559.228	6502.12
559.59	6529.91
559.953	6508.22
560.316	6602.45
560.679	6581.21
561.041	6623.24
561.404	6674.09
561.767	6651.49
562.129	6637.25
562.492	6744.82
562.854	6693.07
563.217	6688.1
563.579	6760.19
563.941	6759.29
564.304	6790.7
564.666	6860.75
565.028	6823.01
565.39	6851.03
565.753	6929.45
566.115	6906.17
566.477	6932.84
566.839	6957.47
567.201	7002.89
567.563	7005.15
567.925	7026.4
568.287	7063.68
568.648	7063.46
569.01	7136.22
569.372	7182.78
569.734	7180.52
570.095	7223.68
570.457	7254.19
570.819	7248.54
571.18	7293.06
571.542	7358.37
571.903	7325.15
572.265	7354.3
572.626	7415.54
572.987	7501.64
573.349	7463
573.71	7548.64
574.071	7587.06
574.432	7642.2
574.794	7698.24
575.155	7780.95
575.516	7735.76
575.877	7856.66
576.238	7922.64
576.599	7983.43
576.96	8038.12
577.32	8073.6
577.681	8174.62
578.042	8203.32
578.403	8313.37
578.763	8412.58
579.124	8519.24
579.485	8587.94
579.845	8674.26
580.206	8752
580.566	8873.58
580.927	9002.84
581.287	9151.99
581.648	9249.62
582.008	9385.43
582.368	9444.41
582.728	9546.33
583.089	9747
583.449	9925.08
583.809	10126.88
584.169	10201.91
584.529	10357.61
584.889	10555.8
585.249	10763.93
585.609	10904.04
585.969	11149.68
586.329	11313.29
586.688	11498.6
587.048	11650.23
587.408	11916.66
587.768	12162.31
588.127	12442.07
588.487	12597.1
588.846	12851.55
589.206	12954.15
589.565	13299
589.925	13555.49
590.284	13797.97
590.643	14019.66
591.003	14362.93
591.362	14659.19
591.721	14911.84
592.08	15116.58
592.44	15464.82
592.799	15767.64
593.158	15958.59
593.517	16313.61
593.876	16549.99
594.235	16969.64
594.593	17178.45
594.952	17524.65
595.311	17739.11
595.67	18019.55
596.029	18409.83
596.387	18707.45
596.746	19026.31
597.104	19161.45
597.463	19512.62
597.822	19828.77
598.18	20151.25
598.538	20438.93
598.897	20766.15
599.255	21066.71
599.613	21599.35
599.972	21615.39
600.33	22052.44
600.688	22280.23
601.046	22551.64
601.404	22939.43
601.762	23162.7
602.12	23528.34
602.478	23783.92
602.836	24073.63
603.194	24221.43
603.552	24604.92
603.91	24764.69
604.268	25125.81
604.625	25317.44
604.983	25631.33
605.341	25796.98
605.698	26241.26
606.056	26464.3
606.413	26751.53
606.771	27055.48
607.128	27276.71
607.485	27390.61
607.843	27659.75
608.2	27949.01
608.557	28277.82
608.914	28408.43
609.272	28721.19
609.629	28967.06
609.986	29262.42
610.343	29208.41
610.7	29685.24
611.057	29948.28
611.414	29993.48
611.771	30127.03
612.127	30569.51
612.484	30745.1
612.841	30972.43
613.198	31040.91
613.554	31174.69
613.911	31569.25
614.267	31575.58
614.624	31832.98
614.98	31992.52
615.337	32384.15
615.693	32265.28
616.05	32438.61
616.406	32870.46
616.762	32826.4
617.118	32902.78
617.475	33017.35
617.831	33426.61
618.187	33547.06
618.543	33648.75
618.899	34006.93
619.255	33944.33
619.611	33969.87
619.967	34347.26
620.323	34479.46
620.678	34450.31
621.034	34558.1
621.39	34739.57
621.746	34673.13
622.101	35153.34
622.457	35004.42
622.812	35214.13
623.168	35388.36
623.523	35478.08
623.879	35561.47
624.234	35416.39
624.589	35605.98
624.945	35655.02
625.3	35820.89
625.655	35995.35
626.01	35870.38
626.365	36018.4
626.72	36064.96
627.075	36134.56
627.43	36293.88
627.785	36272.41
628.14	36413.87
628.495	36379.98
628.85	36542.01
629.205	36391.5
629.559	36777.71
629.914	36552.17
630.269	36718.05
630.623	36628.56
630.978	36582
631.332	36889.79
631.687	36907.19
632.041	36817.48
632.396	36925.05
632.75	36856.35
633.104	36834.65
633.459	36804.6
633.813	36833.07
634.167	36863.13
634.521	36706.29
634.875	36824.03
635.229	36912.17
635.583	36737.93
635.937	36836.91
636.291	36801.89
636.645	36895.44
636.999	36884.6
637.352	37006.85
637.706	36662.68
638.06	36850.7
638.413	36895.22
638.767	36721.66
639.121	36963.92
639.474	36760.76
639.828	36849.57
640.181	36835.1
640.534	36916.23
640.888	36837.82
641.241	36744.49
641.594	36840.75
641.947	36818.83
642.301	36789.68
642.654	36744.26
643.007	36739.97
643.36	36822.45
643.713	36755.78
644.066	36765.5
644.419	36674.88
644.771	36410.03
645.124	36057.5
645.477	36104.28
645.83	35836.71
646.182	35699.32
646.535	35769.6
646.888	35762.82
647.24	35596.04
647.593	35608.47
647.945	35685.3
648.298	35467.46
648.65	35535.7
649.002	35535.93
649.355	35560.56
649.707	35441.24
650.059	35643.27
650.411	36149.25
650.763	36098.18
651.115	36561.89
651.467	36516.7
651.819	36399.64
652.171	36378.39
652.523	36276.02
652.875	36367.55
653.227	36026.76
653.578	36333.2
653.93	36189.02
654.282	36231.96
654.633	35953.09
654.985	36094.56
655.337	36183.14
655.688	36141.56
656.039	36206.19
656.391	36032.87
656.742	35955.35
657.094	36027.44
657.445	36178.4
657.796	36034
658.147	36033.09
658.498	35947.67
658.849	36095.01
659.2	35984.05
659.551	35957.39
659.902	36150.38
660.253	36008.69
660.604	36150.38
660.955	36005.75
661.306	36078.29
661.656	35979.08
662.007	35946.09
662.358	35965.98
662.708	35960.55
663.059	35954.68
663.409	35824.06
663.76	36008.01
664.11	36003.71
664.461	35993.09
664.811	35944.51
665.161	35979.53
665.511	35829.03
665.862	35954.9
666.212	35955.81
666.562	36031.06
666.912	35815.7
667.262	35840.55
667.612	35882.14
667.962	35898.41
668.312	35815.02
668.662	35979.53
669.011	35914
669.361	35714.23
669.711	35781.57
670.06	35761.91
670.41	35753.55
670.76	35734.57
671.109	35860.67
671.459	35810.05
671.808	35741.57
672.157	35803.72
672.507	35620.9
672.856	35654.8
673.205	35612.54
673.554	35772.08
673.904	35670.16
674.253	35748.58
674.602	35714.68
674.951	35055.72
675.3	34963.74
675.649	35635.14
675.998	35290.06
676.346	35424.29
676.695	35657.96
677.044	35355.82
677.393	35437.18
677.741	35506.1
678.09	35396.5
678.438	35234.24
678.787	35513.78
679.135	35386.56
679.484	35041.03
679.832	35321.47
680.181	34944.31
680.529	35350.85
680.877	35086
681.225	35010.75
681.573	35154.25
681.922	35062.95
682.27	34877.64
682.618	35099.33
682.966	34772.56
683.314	34857.3
683.661	34726.01
684.009	34542.74
684.357	34584.54
684.705	34476.52
685.053	34667.25
685.4	34459.12
685.748	34267.94
686.095	34290.99
686.443	34253.03
686.79	34108.85
687.138	34313.36
687.485	34227.49
687.832	34066.14
688.18	34055.74
688.527	33956.54
688.874	33924.45
689.221	33933.03
689.568	33849.87
689.915	33719.48
690.262	33709.99
690.609	33526.94
690.956	33515.87
691.303	33444.91
691.65	33450.11
691.997	33407.62
692.344	33161.53
692.69	33197.46
693.037	33215.99
693.383	32843.12
693.73	33001.31
694.077	32873.63
694.423	32835.66
694.769	32748.66
695.116	32459.85
695.462	32655.55
695.808	32382.79
696.155	32436.35
696.501	32289.46
696.847	32260.99
697.193	31926.76
697.539	32084.72
697.885	31753.43
698.231	31882.69
698.577	31869.59
698.923	31664.85
699.269	31552.53
699.614	31376.04
699.96	31428.69
700.306	31588.24
700.651	31357.73
700.997	31223.73
701.342	31101.47
701.688	31157.74
702.033	30903.28
702.379	31118.19
702.724	30830.52
703.069	30883.85
703.415	30678.2
703.76	30555.04
704.105	30638.66
704.45	30535.84
704.795	30344.65
705.14	30351.66
705.485	30235.96
705.83	30185.11
706.175	30226.92
706.52	30130.2
706.865	29977.21
707.209	29887.94
707.554	29903.99
707.899	29961.61
708.243	29610.66
708.588	29710.09
708.932	29596.88
709.277	29561.85
709.621	29580.15
709.966	29384.45
710.31	29367.28
710.654	29154.85
710.998	29345.81
711.342	29218.81
711.687	29060.17
712.031	29057.23
712.375	28939.95
712.719	28884.58
713.063	28875.31
713.407	28971.36
713.75	28840.74
714.094	28848.87
714.438	28582.21
714.782	28680.29
715.125	28501.09
715.469	28534.08
715.812	28348.32
716.156	28257.7
716.499	28287.99
716.843	28359.4
717.186	28069.46
717.53	28224.71
717.873	28285.5
718.216	28095.9
718.559	28013.87
718.902	27772.52
719.246	28031.95
719.589	27818.62
719.932	27670.15
720.275	27761.67
720.617	27816.36
720.96	27643.26
721.303	27582.47
721.646	27589.47
721.989	27482.13
722.331	27557.16
722.674	27528
723.016	27504.5
723.359	27490.04
723.701	27508.57
724.044	27179.09
724.386	27157.85
724.729	27245.07
725.071	27244.85
725.413	27118.98
725.755	27020
726.097	26960.34
726.439	26775.26
726.782	26911.98
727.124	26920.79
727.465	26787.23
727.807	26865.2
728.149	26742.26
728.491	26692.32
728.833	26749.72
729.175	26557.86
729.516	26567.58
729.858	26470.63
730.199	26572.78
730.541	26405.77
730.882	26497.98
731.224	26569.16
731.565	26269.96
731.906	26230.64
732.248	26298.88
732.589	26197.87
732.93	26118.55
733.271	26092.34
733.612	26197.87
733.953	26159
734.294	25987.93
734.635	25957.42
734.976	26054.6
735.317	25801.04
735.658	25979.8
735.999	25912.45
736.339	25812.34
736.68	25877.65
737.021	25753.81
737.361	25707.04
737.702	25804.89
738.042	25735.74
738.383	25623.87
738.723	25709.97
739.063	25616.19
739.404	25639.69
739.744	25476.31
740.084	25383.88
740.424	25422.07
740.764	25368.29
741.104	25442.86
741.444	25254.17
741.784	25267.5
742.124	25319.02
742.464	25192.93
742.804	25143.43
743.143	25131.23
743.483	25180.04
743.823	24948.86
744.162	25030.22
744.502	25133.27
744.841	24905.93
745.181	25008.52
745.52	24914.06
745.86	24898.24
746.199	24907.28
746.538	24814.4
746.877	24873.39
747.216	24766.27
747.556	24782.54
747.895	24718.59
748.234	24627.06
748.573	24517.91
748.911	24613.28
749.25	24551.13
749.589	24388.88
749.928	24408.09
750.267	24415.77
750.605	24443.79
750.944	24272.05
751.283	24283.34
751.621	24226.85
751.96	24171.71
752.298	24163.8
752.636	24141.65
752.975	24013.75
753.313	23834.77
753.651	24077.47
753.989	23840.87
754.327	23957.25
754.666	23832.96
755.004	23784.83
755.342	23679.52
755.679	23627.77
756.017	23670.48
756.355	23638.16
756.693	23494.89
757.031	23626.64
757.368	23412.63
757.706	23359.08
758.044	23318.85
758.381	23339.41
758.719	23179.87
759.056	23279.76
759.394	23205.18
759.731	23036.82
760.068	23051.74
760.405	22932.42
760.743	22877.51
761.08	22810.16
761.417	22844.74
