Data from hue_26_FLMS001491_00022.txt Node
Date: Tue Feb 07 17:13:45 GMT 2017
User: dcchb
Spectrometer: FLMS00149
Trigger mode: 0
Integration Time (sec): 2.000000E-2
Scans to average: 10
Electric dark correction enabled: true
Nonlinearity correction enabled: false
Boxcar width: 0
XAxis mode: Wavelengths
Number of Pixels in Spectrum: 2048
>>>>>Begin Spectral Data<<<<<
341.393	-21.72
341.776	-21.72
342.16	-21.72
342.543	-77.54
342.927	-64.21
343.31	-57.43
343.693	-66.02
344.077	-61.72
344.46	-70.99
344.843	-47.03
345.226	-44.55
345.61	-44.55
345.993	-12.46
346.376	6.98
346.759	-2.97
347.142	21.67
347.525	53.76
347.908	49.69
348.291	71.16
348.674	93.53
349.057	110.93
349.44	107.54
349.823	138.27
350.206	182.34
350.588	207.2
350.971	192.96
351.354	223.02
351.737	233.41
352.119	236.35
352.502	258.04
352.884	307.53
353.267	291.72
353.65	288.1
354.032	312.28
354.414	305.5
354.797	308.44
355.179	311.15
355.562	324.93
355.944	319.06
356.326	329
356.709	338.95
357.091	317.93
357.473	344.37
357.855	328.1
358.238	341.88
358.62	352.73
359.002	338.95
359.384	333.3
359.766	334.2
360.148	328.78
360.53	340.53
360.912	328.55
361.294	322
361.676	338.04
362.057	320.87
362.439	327.19
362.821	341.66
363.203	333.75
363.584	310.92
363.966	327.42
364.348	315.44
364.729	319.96
365.111	302.56
365.493	332.62
365.874	321.55
366.256	341.43
366.637	308.44
367.019	314.99
367.4	312.05
367.781	313.41
368.163	307.08
368.544	322.68
368.925	280.87
369.306	311.83
369.688	345.95
370.069	319.06
370.45	326.52
370.831	310.92
371.212	311.15
371.593	303.24
371.974	298.95
372.355	318.61
372.736	305.95
373.117	326.97
373.498	308.89
373.879	308.44
374.26	313.64
374.641	313.41
375.021	340.75
375.402	317.7
375.783	306.63
376.163	336.91
376.544	323.13
376.925	331.71
377.305	332.39
377.686	320.87
378.066	336.69
378.447	324.48
378.827	340.3
379.208	349.34
379.588	330.81
379.968	324.48
380.349	347.99
380.729	335.78
381.109	355.44
381.489	336.91
381.87	344.37
382.25	335.78
382.63	329.91
383.01	322
383.39	327.65
383.77	334.2
384.15	340.08
384.53	345.27
384.91	345.05
385.29	369.68
385.67	346.86
386.049	354.99
386.429	354.09
386.809	356.57
387.189	354.09
387.568	365.84
387.948	368.55
388.328	363.58
388.707	376.23
389.087	365.39
389.466	346.18
389.846	357.48
390.225	363.58
390.605	343.47
390.984	379.17
391.363	378.27
391.743	366.74
392.122	352.5
392.501	352.73
392.881	386.18
393.26	366.29
393.639	382.33
394.018	376.01
394.397	366.29
394.776	370.58
395.155	383.69
395.534	395.22
395.913	379.4
396.292	385.5
396.671	373.52
397.05	385.72
397.429	385.72
397.808	391.37
398.186	383.24
398.565	387.53
398.944	380.75
399.323	394.76
399.701	395.44
400.08	385.95
400.458	376.23
400.837	383.24
401.215	434.08
401.594	401.77
401.972	416.68
402.351	385.5
402.729	408.77
403.107	407.42
403.486	413.75
403.864	427.76
404.242	414.88
404.62	407.42
404.999	420.98
405.377	406.97
405.755	419.85
406.133	432.5
406.511	436.57
406.889	437.25
407.267	421.2
407.645	441.99
408.023	458.72
408.401	414.88
408.779	448.55
409.156	450.81
409.534	436.12
409.912	430.69
410.29	447.19
410.667	461.43
411.045	436.57
411.422	441.99
411.8	450.13
412.178	442.22
412.555	479.51
412.933	464.82
413.31	474.31
413.687	459.17
414.065	485.83
414.442	478.6
414.819	482.22
415.197	469.56
415.574	477.93
415.951	480.19
416.328	482.22
416.705	483.35
417.082	496.23
417.46	494.87
417.837	507.3
418.214	487.19
418.591	525.83
418.967	511.37
419.344	518.6
419.721	506.17
420.098	496.46
420.475	505.27
420.852	524.48
421.228	513.86
421.605	506.4
421.982	541.65
422.358	536.91
422.735	522.44
423.111	535.78
423.488	531.71
423.864	539.17
424.241	535.55
424.617	552.95
424.994	567.87
425.37	554.08
425.746	511.82
426.123	542.1
426.499	552.95
426.875	564.02
427.251	576.45
427.627	574.87
428.003	579.39
428.379	580.97
428.756	574.42
429.132	581.65
429.507	603.8
429.883	572.61
430.259	590.46
430.635	605.83
431.011	614.19
431.387	593.18
431.763	620.52
432.138	635.21
432.514	636.79
432.89	613.06
433.265	648.99
433.641	649.67
434.016	645.15
434.392	646.06
434.767	650.35
435.143	675.21
435.518	661.88
435.894	674.76
436.269	696.22
436.644	679.5
437.02	687.64
437.395	683.12
437.77	687.86
438.145	701.2
438.52	705.49
438.895	714.98
439.271	716.56
439.646	710.69
440.021	721.31
440.395	713.17
440.77	733.06
441.145	749.78
441.52	754.3
441.895	733.96
442.27	764.02
442.645	767.41
443.019	744.36
443.394	745.71
443.769	792.49
444.143	759.05
444.518	776
444.892	765.38
445.267	787.75
445.641	790.23
446.016	796.79
446.39	800.63
446.764	790.01
447.139	797.46
447.513	821.42
447.887	791.82
448.262	800.18
448.636	822.55
449.01	799.95
449.384	828.65
449.758	820.97
450.132	842.21
450.506	837.92
450.88	839.5
451.254	835.43
451.628	844.7
452.002	869.1
452.376	855.54
452.75	866.62
453.123	863.9
453.497	893.96
453.871	897.12
454.244	908.42
454.618	931.92
454.992	935.09
455.365	908.42
455.739	927.18
456.112	929.44
456.486	940.29
456.859	945.94
457.232	977.35
457.606	994.52
457.979	995.65
458.352	1011.47
458.725	1011.92
459.099	1002.21
459.472	1000.85
459.845	1038.36
460.218	1053.5
460.591	1059.38
460.964	1074.29
461.337	1072.03
461.71	1079.04
462.083	1102.77
462.456	1134.86
462.829	1105.25
463.201	1120.62
463.574	1130.56
463.947	1129.43
464.32	1167.85
464.692	1156.1
465.065	1204.46
465.438	1182.09
465.81	1199.71
466.183	1210.56
466.555	1246.49
466.928	1260.5
467.3	1245.14
467.672	1288.53
468.045	1315.64
468.417	1294.85
468.789	1315.64
469.161	1323.33
469.534	1345.25
469.906	1373.95
470.278	1396.77
470.65	1390.44
471.022	1441.97
471.394	1458.46
471.766	1477
472.138	1519.03
472.51	1535.75
472.882	1544.34
473.253	1566.71
473.625	1574.62
473.997	1630.21
474.369	1619.36
474.74	1658.69
475.112	1678.12
475.484	1697.55
475.855	1730.77
476.227	1752.92
476.598	1807.16
476.97	1832.01
477.341	1884.44
477.713	1900.94
478.084	1939.13
478.455	1955.63
478.827	1973.93
479.198	2035.62
479.569	2052.35
479.94	2114.27
480.311	2138.67
480.682	2168.28
481.053	2259.12
481.424	2325.79
481.795	2306.58
482.166	2349.06
482.537	2424.77
482.908	2448.95
483.279	2506.35
483.65	2542.5
484.021	2585.21
484.391	2655.27
484.762	2674.7
485.133	2683.52
485.503	2735.95
485.874	2784.08
486.244	2853.46
486.615	2897.97
486.985	2964.87
487.356	3005.09
487.726	3060.91
488.097	3085.54
488.467	3158.98
488.837	3239.66
489.207	3230.62
489.578	3338.87
489.948	3322.14
490.318	3431.97
490.688	3420.67
491.058	3483.04
491.428	3541.35
491.798	3566.88
492.168	3615.24
492.538	3658.63
492.908	3742.25
493.278	3806.43
493.648	3767.56
494.017	3855.01
494.387	3955.8
494.757	3924.84
495.126	3996.02
495.496	4000.77
495.866	4032.86
496.235	4119.86
496.605	4148.11
496.974	4176.59
497.344	4208.45
497.713	4259.97
498.082	4199.18
498.452	4294.1
498.821	4345.85
499.19	4385.62
499.559	4385.62
499.928	4445.96
500.298	4492.51
500.667	4523.24
501.036	4520.3
501.405	4552.85
501.774	4573.18
502.143	4637.59
502.512	4630.81
502.88	4697.48
503.249	4725.5
503.618	4723.01
503.987	4744.03
504.356	4753.97
504.724	4807.3
505.093	4833.52
505.462	4876
505.83	4912.38
506.199	4948.77
506.567	4979.28
506.936	4994.87
507.304	5041.65
507.672	5075.54
508.041	5112.15
508.409	5061.99
508.777	5150.12
509.145	5196.22
509.514	5118.03
509.882	5268.99
510.25	5203.45
510.618	5266.27
510.986	5247.52
511.354	5236.44
511.722	5356.44
512.09	5423.78
512.458	5360.96
512.826	5419.94
513.193	5458.13
513.561	5444.57
513.929	5493.61
514.297	5535.42
514.664	5560.05
515.032	5588.98
515.4	5649.09
515.767	5616.32
516.135	5645.02
516.502	5636.21
516.869	5725.24
517.237	5730.22
517.604	5676.43
517.972	5810.67
518.339	5757.33
518.706	5755.07
519.073	5742.19
519.44	5835.52
519.808	5870.1
520.175	5875.75
520.542	5922.08
520.909	5960.94
521.276	5974.28
521.643	5947.61
522.009	5975.63
522.376	6059.7
522.743	6080.26
523.11	6161.39
523.477	6174.27
523.843	6205.91
524.21	6276.64
524.577	6309.86
524.943	6270.32
525.31	6325.68
525.676	6359.8
526.043	6379.24
526.409	6410.88
526.776	6451.1
527.142	6529.52
527.508	6543.75
527.874	6597.31
528.241	6546.69
528.607	6631.66
528.973	6612.45
529.339	6698.33
529.705	6687.71
530.071	6864.88
530.437	6768.38
530.803	6816.97
531.169	6889.06
531.535	6883.86
531.901	6891.77
532.267	6913.46
532.632	6988.04
532.998	7043.85
533.364	7019.9
533.73	7052.89
534.095	7128.6
534.461	7062.84
534.826	7242.04
535.192	7203.4
535.557	7249.72
535.923	7260.8
536.288	7294.02
536.653	7278.88
537.019	7265.77
537.384	7334.92
537.749	7352.77
538.114	7411.75
538.479	7383.51
538.845	7401.13
539.21	7400.91
539.575	7497.63
539.94	7445.65
540.305	7579.21
540.67	7538.76
541.034	7616.49
541.399	7602.03
541.764	7668.02
542.129	7767.9
542.494	7722.48
542.858	7801.8
543.223	7814.91
543.587	7792.31
543.952	7869.14
544.316	7886.77
544.681	7917.05
545.045	7929.93
545.41	8029.14
545.774	7978.07
546.138	8032.98
546.503	8072.98
546.867	8073.66
547.231	8216.48
547.595	8144.39
547.959	8119.08
548.324	8262.81
548.688	8207.89
549.052	8311.84
549.416	8263.26
549.779	8368.34
550.143	8329.92
550.507	8410.6
550.871	8404.95
551.235	8433.42
551.599	8566.98
551.962	8504.83
552.326	8564.94
552.689	8570.82
553.053	8545.74
553.417	8517.94
553.78	8616.92
554.143	8690.14
554.507	8678.39
554.87	8722.91
555.234	8741.21
555.597	8708.67
555.96	8812.85
556.323	8793.86
556.686	8798.38
557.05	8926.74
557.413	8910.25
557.776	8967.19
558.139	8991.15
558.502	8991.6
558.865	8977.14
559.228	9066.63
559.59	9061.65
559.953	9131.71
560.316	9204.02
560.679	9197.92
561.041	9194.76
561.404	9211.71
561.767	9336.9
562.129	9259.39
562.492	9384.81
562.854	9366.96
563.217	9344.58
563.579	9411.48
563.941	9439.05
564.304	9483.11
564.666	9500.29
565.028	9612.6
565.39	9522.43
565.753	9655.31
566.115	9703.22
566.477	9719.26
566.839	9721.07
567.201	9805.14
567.563	9795.65
567.925	9854.85
568.287	9853.95
568.648	9939.6
569.01	9943.67
569.372	9985.92
569.734	9978.47
570.095	10052.81
570.457	10086.71
570.819	10125.81
571.18	10139.37
571.542	10272.02
571.903	10304.33
572.265	10344.56
572.626	10355.41
572.987	10394.05
573.349	10495.74
573.71	10553.14
574.071	10548.39
574.432	10634.27
574.794	10712.01
575.155	10687.15
575.516	10757.88
575.877	10888.95
576.238	10991.55
576.599	11003.52
576.96	11056.4
577.32	11155.61
577.681	11241.03
578.042	11280.58
578.403	11461.14
578.763	11493.23
579.124	11641.25
579.485	11728.25
579.845	11886.44
580.206	11999.43
580.566	12051.18
580.927	12130.27
581.287	12363.94
581.648	12462.47
582.008	12616.14
582.368	12778.39
582.728	12896.81
583.089	13073.3
583.449	13147.65
583.809	13226.74
584.169	13532.72
584.529	13655.21
584.889	13884.8
585.249	14021.07
585.609	14165.47
585.969	14456.77
586.329	14676.87
586.688	14812.92
587.048	15051.55
587.408	15232.79
587.768	15438.44
588.127	15678.2
588.487	15934.92
588.846	16228.25
589.206	16332.2
589.565	16607.67
589.925	16988.23
590.284	17284.26
590.643	17474.09
591.003	17771.26
591.362	18011.93
591.721	18366.72
592.08	18611.46
592.44	18980.04
592.799	19084.44
593.158	19502.28
593.517	19675.16
593.876	19992.21
594.235	20377.97
594.593	20651.63
594.952	20903.15
595.311	21137.72
595.67	21423.82
596.029	21897.7
596.387	22234.87
596.746	22398.03
597.104	22677.57
597.463	22912.36
597.822	23531.56
598.18	23590.76
598.538	23841.38
598.897	24365.43
599.255	24380.57
599.613	24978.07
599.972	25072.08
600.33	25430.04
600.688	25639.3
601.046	25977.82
601.404	26439.28
601.762	26538.48
602.12	26983.67
602.478	27227.73
602.836	27485.35
603.194	27696.19
603.552	27886.7
603.91	28122.17
604.268	28635.6
604.625	28767.58
604.983	29067.23
605.341	29203.05
605.698	29758.51
606.056	29907.43
606.413	30108.56
606.771	30361.89
607.128	30633.74
607.485	30775.43
607.843	30976.33
608.2	31418.58
608.557	31663.55
608.914	31743.54
609.272	32228.05
609.629	32358.89
609.986	32706
610.343	32721.37
610.7	33192.09
611.057	33344.18
611.414	33498.07
611.771	33609.71
612.127	33848.12
612.484	34161.56
612.841	34430.93
613.198	34445.62
613.554	34696.46
613.911	34890.58
614.267	35258.71
614.624	35192.94
614.98	35394.97
615.337	35836.32
615.693	35820.95
616.05	35976.88
616.406	36312.46
616.762	36271.56
617.118	36490.99
617.475	36534.6
617.831	36723.98
618.187	36938.21
618.543	36963.07
618.899	37429.72
619.255	37395.6
619.611	37472.66
619.967	37710.84
620.323	37817.96
620.678	37924.62
621.034	38040.33
621.39	38118.74
621.746	38074.22
622.101	38763.47
622.457	38366.42
622.812	38537.94
623.168	38577.71
623.523	38860.87
623.879	38901.1
624.234	38832.85
624.589	39058.15
624.945	39137.93
625.3	39360.74
625.655	39281.42
626.01	39426.73
626.365	39441.87
626.72	39727.74
627.075	39638.93
627.43	39550.12
627.785	39641.64
628.14	39764.35
628.495	39887.06
628.85	40030.78
629.205	39844.35
629.559	40144.23
629.914	39942.65
630.269	40097.22
630.623	40073.27
630.978	40058.81
631.332	40239.14
631.687	40405.69
632.041	40191.01
632.396	40365.46
632.75	40231.91
633.104	40342.64
633.459	40081.86
633.813	40239.14
634.167	40279.14
634.521	40302.19
634.875	40371.79
635.229	40379.02
635.583	40303.54
635.937	40389.42
636.291	40249.76
636.645	40303.77
636.999	40278.46
637.352	40381.51
637.706	40184.9
638.06	40426.48
638.413	40349.42
638.767	40167.73
639.121	40413.6
639.474	40190.1
639.828	40299.03
640.181	40344.67
640.534	40308.06
640.888	40144
641.241	40018.81
641.594	40173.15
641.947	40195.53
642.301	40227.61
642.654	40266.48
643.007	40299.25
643.36	40151.91
643.713	40088.18
644.066	40229.65
644.419	40079.82
644.771	39852.48
645.124	39448.43
645.477	39384.02
645.83	39155.55
646.182	39052.28
646.535	38916.69
646.888	39230.58
647.24	38883.02
647.593	39152.39
647.945	39162.78
648.298	38897.71
648.65	38796.92
649.002	38859.74
649.355	38985.61
649.707	38899.97
650.059	39010.25
650.411	39540.18
650.763	39563.68
651.115	40012.03
651.467	39856.55
651.819	39824.69
652.171	39733.62
652.523	39678.02
652.875	39669.89
653.227	39481.42
653.578	39806.16
653.93	39832.6
654.282	39563.45
654.633	39538.59
654.985	39750.34
655.337	39758.93
655.688	39575.65
656.039	39697.91
656.391	39362.1
656.742	39516.22
657.094	39476
657.445	39626.73
657.796	39472.61
658.147	39462.66
658.498	39458.82
658.849	39544.24
659.2	39422.89
659.551	39490.91
659.902	39564.36
660.253	39375.43
660.604	39479.16
660.955	39158.94
661.306	39479.61
661.656	39387.18
662.007	39322.33
662.358	39535.88
662.708	39418.82
663.059	39353.06
663.409	39242.1
663.76	39461.31
664.11	39406.62
664.461	39568.65
664.811	39346.06
665.161	39372.5
665.511	39408.2
665.862	39381.08
666.212	39428.99
666.562	39503.11
666.912	39296.34
667.262	39227.64
667.612	39405.94
667.962	39261.54
668.312	39319.39
668.662	39381.31
669.011	39325.49
669.361	39322.78
669.711	39245.49
670.06	39250.47
670.41	39170.24
670.76	39078.49
671.109	39236.68
671.459	39191.94
671.808	39069.23
672.157	39254.08
672.507	38965.05
672.856	39080.98
673.205	39027.42
673.554	39150.58
673.904	39125.95
674.253	39064.93
674.602	39090.92
674.951	38551.73
675.3	38290.72
675.649	38985.39
675.998	39010.7
676.346	38835.56
676.695	39086.4
677.044	38830.14
677.393	38857.71
677.741	39017.93
678.09	38772.29
678.438	38727.99
678.787	38846.86
679.135	38690.71
679.484	38438.74
679.832	38850.48
680.181	38625.62
680.529	38654.1
680.877	38460.43
681.225	38420.66
681.573	38585.62
681.922	38417.27
682.27	38213.88
682.618	38353.77
682.966	38190.83
683.314	38408
683.661	38178.4
684.009	37952.87
684.357	37927.56
684.705	37944.28
685.053	37993.32
685.4	37977.73
685.748	37660.22
686.095	37812.99
686.443	37573.22
686.79	37528.48
687.138	37612.32
687.485	37732.99
687.832	37446.9
688.18	37544.75
688.527	37369.16
688.874	37294.36
689.221	37178.66
689.568	37162.84
689.915	36914.71
690.262	37034.7
690.609	36973.69
690.956	36641.72
691.303	36782.96
691.65	36542.29
691.997	36498.22
692.344	36281.73
692.69	36249.87
693.037	36425.91
693.383	36080.83
693.73	36231.11
694.077	35973.49
694.423	36016.2
694.769	35871.34
695.116	35771.69
695.462	35787.51
695.808	35639.71
696.155	35682.42
696.501	35606.72
696.847	35513.84
697.193	35290.8
697.539	35474.97
697.885	35119.05
698.231	35021.88
698.577	35084.02
698.923	34990.01
699.269	34786.4
699.614	34618.72
699.96	34619.4
700.306	34580.08
700.651	34521.78
700.997	34369.24
701.342	34302.8
701.688	34283.59
702.033	34125.85
702.379	34266.42
702.724	34130.6
703.069	34122.69
703.415	33666.43
703.76	33772.64
704.105	33853.77
704.45	33649.26
704.795	33408.81
705.14	33445.87
705.485	33353.67
705.83	33216.95
706.175	33238.19
706.52	33159.33
706.865	33004.08
707.209	33034.13
707.554	32885.21
707.899	32865.1
708.243	32712.78
708.588	32570.41
708.932	32536.52
709.277	32487.93
709.621	32541.49
709.966	32358.44
710.31	32302.4
710.654	32134.49
710.998	32198.9
711.342	32090.65
711.687	32117.77
712.031	31927.49
712.375	31821.73
712.719	31802.53
713.063	31872.35
713.407	31897.89
713.75	31703.54
714.094	31789.64
714.438	31649.54
714.782	31663.32
715.125	31515.53
715.469	31480.73
715.812	31413.16
716.156	31264.23
716.499	31199.38
716.843	31331.13
717.186	31030.34
717.53	31135.2
717.873	31153.05
718.216	30982.21
718.559	30882.1
718.902	30753.51
719.246	30793.06
719.589	30764.36
719.932	30579.28
720.275	30582.22
720.617	30451.83
720.96	30502.22
721.303	30564.37
721.646	30511.49
721.989	30170.03
722.331	30452.73
722.674	30280.31
723.016	30332.28
723.359	30200.76
723.701	30319.4
724.044	29989.69
724.386	29966.19
724.729	30097.26
725.071	29989.01
725.413	29939.75
725.755	29829.7
726.097	29792.86
726.439	29631.96
726.782	29671.51
727.124	29721.68
727.465	29558.52
727.807	29637.16
728.149	29564.39
728.491	29420.22
728.833	29496.6
729.175	29321.01
729.516	29374.34
729.858	29232.42
730.199	29260.22
730.541	29348.13
730.882	29252.99
731.224	29245.76
731.565	29101.35
731.906	29069.72
732.248	29167.11
732.589	28875.14
732.93	28800.57
733.271	28860.46
733.612	28881.7
733.953	28929.15
734.294	28695.94
734.635	28689.39
734.976	28733.23
735.317	28596.51
735.658	28689.16
735.999	28659.78
736.339	28627.69
736.68	28625.66
737.021	28424.54
737.361	28391.54
737.702	28387.47
738.042	28489.39
738.383	28434.03
738.723	28437.42
739.063	28304.54
739.404	28339.57
739.744	28212.34
740.084	28107.26
740.424	28147.48
740.764	28034.49
741.104	28172.79
741.444	27891.67
741.784	27947.03
742.124	27987.48
742.464	27860.93
742.804	27880.59
743.143	27847.38
743.483	27804.89
743.823	27644.22
744.162	27697.32
744.502	27772.8
744.841	27488.06
745.181	27751.33
745.52	27445.58
745.86	27597.21
746.199	27578.46
746.538	27538.91
746.877	27615.29
747.216	27474.73
747.556	27418.46
747.895	27433.6
748.234	27196.54
748.573	27250.55
748.911	27332.36
749.25	27173.49
749.589	27128.07
749.928	27196.32
750.267	27136.66
750.605	27030.9
750.944	26905.25
751.283	26849.66
751.621	26925.14
751.96	26765.6
752.298	26728.31
752.636	26770.34
752.975	26733.96
753.313	26573.28
753.651	26629.78
753.989	26552.04
754.327	26546.39
754.666	26401.99
755.004	26552.95
755.342	26458.26
755.679	26328.32
756.017	26259.62
756.355	26368.77
756.693	26101.66
757.031	26316.34
757.368	26001.77
757.706	25990.25
758.044	25885.62
758.381	25987.31
758.719	25871.16
759.056	25861.21
759.394	25764.04
759.731	25605.17
760.068	25622.35
