Data from hue_310_FLMS001491_69.txt Node
Date: Mon Feb 06 15:50:01 GMT 2017
User: dcchb
Spectrometer: FLMS00149
Trigger mode: 0
Integration Time (sec): 2.000000E-2
Scans to average: 10
Electric dark correction enabled: true
Nonlinearity correction enabled: false
Boxcar width: 0
XAxis mode: Wavelengths
Number of Pixels in Spectrum: 2048
>>>>>Begin Spectral Data<<<<<
341.393	-14.01
341.776	-14.01
342.16	-14.01
342.543	-62.6
342.927	-52.2
343.31	-59.43
343.693	-75.7
344.077	-75.7
344.46	-61.02
344.843	-47
345.226	-35.48
345.61	-46.33
345.993	-19.43
346.376	15.59
346.759	7.91
347.142	39.77
347.525	32.77
347.908	50.17
348.291	71.18
348.674	102.6
349.057	100.11
349.44	148.02
349.823	139.88
350.206	166.32
350.588	209.49
350.971	221.69
351.354	231.18
351.737	238.41
352.119	235.02
352.502	251.29
352.884	273.21
353.267	287.68
353.65	305.98
354.032	302.14
354.414	287
354.797	321.8
355.179	343.95
355.562	328.13
355.944	342.14
356.326	329.71
356.709	332.87
357.091	319.77
357.473	326.55
357.855	348.92
358.238	336.04
358.62	346.43
359.002	362.93
359.384	342.59
359.766	345.08
360.148	338.07
360.53	335.58
360.912	326.09
361.294	352.08
361.676	328.8
362.057	310.05
362.439	315.92
362.821	321.57
363.203	338.07
363.584	312.99
363.966	318.64
364.348	324.96
364.729	312.99
365.111	308.47
365.493	324.29
365.874	326.32
366.256	330.61
366.637	323.61
367.019	324.06
367.4	306.88
367.781	298.52
368.163	292.42
368.544	284.74
368.925	298.07
369.306	319.99
369.688	319.09
370.069	325.42
370.45	328.8
370.831	298.3
371.212	305.08
371.593	324.06
371.974	313.89
372.355	320.22
372.736	323.61
373.117	306.43
373.498	315.7
373.879	311.18
374.26	319.77
374.641	316.38
375.021	319.77
375.402	337.17
375.783	320.22
376.163	309.37
376.544	323.61
376.925	342.14
377.305	329.48
377.686	315.47
378.066	330.84
378.447	342.36
378.827	312.99
379.208	324.06
379.588	322.7
379.968	311.63
380.349	339.2
380.729	318.41
381.109	322.25
381.489	330.16
381.87	324.96
382.25	367.67
382.63	352.76
383.01	331.06
383.39	342.14
383.77	345.08
384.15	345.53
384.53	348.47
384.91	345.3
385.29	345.08
385.67	324.29
386.049	361.57
386.429	370.16
386.809	341.46
387.189	366.77
387.568	349.37
387.948	344.17
388.328	362.02
388.707	348.69
389.087	359.54
389.466	342.82
389.846	351.18
390.225	397.5
390.605	361.8
390.984	362.93
391.363	386.66
391.743	361.35
392.122	352.99
392.501	361.12
392.881	378.75
393.26	359.09
393.639	403.61
394.018	385.75
394.397	375.58
394.776	359.99
395.155	365.64
395.534	359.99
395.913	390.5
396.292	382.81
396.671	379.43
397.05	373.1
397.429	378.75
397.808	369.48
398.186	409.71
398.565	375.13
398.944	385.98
399.323	417.16
399.701	399.54
400.08	399.54
400.458	393.66
400.837	404.74
401.215	415.13
401.594	397.5
401.972	406.32
402.351	419.65
402.729	403.38
403.107	419.65
403.486	410.61
403.864	430.95
404.242	408.35
404.62	424.85
404.999	428.46
405.377	432.76
405.755	427.11
406.133	429.82
406.511	462.36
406.889	454.68
407.267	462.59
407.645	467.11
408.023	467.78
408.401	451.06
408.779	478.18
409.156	462.13
409.534	479.31
409.912	463.49
410.29	485.64
410.667	500.78
411.045	507.11
411.422	516.37
411.8	494.45
412.178	514.34
412.555	533.32
412.933	515.01
413.31	547.56
413.687	536.03
414.065	548.23
414.442	557.73
414.819	570.15
415.197	578.97
415.574	573.77
415.951	609.02
416.328	583.49
416.705	580.1
417.082	601.34
417.46	587.78
417.837	599.08
418.214	622.13
418.591	631.85
418.967	632.53
419.344	631.62
419.721	663.03
420.098	649.47
420.475	672.52
420.852	671.85
421.228	670.04
421.605	678.17
421.982	678.85
422.358	712.98
422.735	704.39
423.111	713.88
423.488	729.47
423.864	727.89
424.241	738.51
424.617	730.83
424.994	754.78
425.37	774.67
425.746	747.78
426.123	756.59
426.499	776.02
426.875	767.66
427.251	808.11
427.627	797.27
428.003	817.61
428.379	799.75
428.756	845.85
429.132	874.33
429.507	833.2
429.883	845.4
430.259	866.19
430.635	850.6
431.011	914.78
431.387	891.95
431.763	905.96
432.138	945.06
432.514	921.78
432.89	924.27
433.265	909.13
433.641	971.27
434.016	945.29
434.392	961.33
434.767	978.05
435.143	1006.98
435.518	1002.01
435.894	1014.66
436.269	1021.22
436.644	1046.53
437.02	1050.14
437.395	1048.79
437.77	1067.54
438.145	1054.44
438.52	1071.16
438.895	1089.91
439.271	1111.61
439.646	1110.03
440.021	1133.76
440.395	1110.03
440.77	1107.77
441.145	1145.05
441.52	1141.44
441.895	1146.86
442.27	1137.82
442.645	1141.44
443.019	1163.36
443.394	1165.85
443.769	1176.92
444.143	1161.1
444.518	1182.12
444.892	1198.84
445.267	1194.32
445.641	1223.47
446.016	1191.16
446.39	1264.37
446.764	1216.92
447.139	1200.19
447.513	1241.32
447.887	1233.41
448.262	1258.27
448.636	1226.41
449.01	1245.16
449.384	1237.48
449.758	1281.1
450.132	1261.21
450.506	1267.31
450.88	1260.53
451.254	1286.07
451.628	1275.45
452.002	1284.71
452.376	1293.53
452.75	1302.11
453.123	1307.76
453.497	1314.54
453.871	1323.58
454.244	1364.48
454.618	1351.83
454.992	1372.85
455.365	1376.24
455.739	1407.42
456.112	1408.1
456.486	1382.34
456.859	1402.45
457.232	1416.91
457.606	1430.02
457.979	1435.44
458.352	1454.65
458.725	1453.52
459.099	1502.56
459.472	1496.91
459.845	1490.58
460.218	1524.25
460.591	1521.99
460.964	1504.14
461.337	1561.54
461.71	1557.7
462.083	1567.64
462.456	1577.59
462.829	1574.87
463.201	1599.51
463.574	1597.25
463.947	1630.24
464.32	1618.04
464.692	1646.28
465.065	1660.52
465.438	1663.91
465.81	1681.54
466.183	1686.74
466.555	1705.04
466.928	1719.28
467.3	1749.78
467.672	1742.55
468.045	1777.13
468.417	1768.99
468.789	1787.75
469.161	1806.05
469.534	1793.17
469.906	1823.23
470.278	1837.01
470.65	1870.91
471.022	1896.45
471.394	1926.95
471.766	1904.81
472.138	1915.66
472.51	1957.91
472.882	1968.99
473.253	1992.26
473.625	2033.62
473.997	2042.88
474.369	2044.24
474.74	2039.27
475.112	2080.62
475.484	2096.89
475.855	2117.46
476.227	2144.58
476.598	2191.81
476.97	2173.5
477.341	2235.42
477.713	2228.42
478.084	2228.87
478.455	2274.52
478.827	2291.01
479.198	2326.72
479.569	2332.14
479.94	2361.97
480.311	2389.77
480.682	2471.12
481.053	2476.77
481.424	2511.35
481.795	2542.08
482.166	2574.17
482.537	2548.18
482.908	2593.6
483.279	2616.65
483.65	2651.46
484.021	2673.83
484.391	2682.19
484.762	2719.48
485.133	2761.51
485.503	2775.52
485.874	2837.89
486.244	2827.72
486.615	2858.91
486.985	2881.05
487.356	2933.48
487.726	2936.19
488.097	2958.11
488.467	3004.89
488.837	3032.01
489.207	3041.73
489.578	3087.83
489.948	3098.22
490.318	3121.05
490.688	3153.59
491.058	3148.84
491.428	3185.45
491.798	3188.39
492.168	3264.32
492.538	3278.56
492.908	3337.09
493.278	3324.21
493.648	3348.84
494.017	3401.49
494.387	3372.79
494.757	3441.49
495.126	3444.66
495.496	3457.54
495.866	3490.98
496.235	3471.77
496.605	3531.66
496.974	3535.27
497.344	3544.77
497.713	3567.14
498.082	3597.87
498.452	3644.42
498.821	3578.89
499.19	3606.23
499.559	3627.7
499.928	3660.47
500.298	3713.57
500.667	3701.6
501.036	3669.96
501.405	3715.83
501.774	3719.9
502.143	3722.16
502.512	3794.48
502.88	3809.17
503.249	3784.99
503.618	3810.75
503.987	3803.97
504.356	3831.31
504.724	3838.09
505.093	3819.56
505.462	3908.82
505.83	3898.88
506.199	3878.09
506.567	3930.97
506.936	3950.63
507.304	3949.5
507.672	3937.98
508.041	3989.27
508.409	4018.2
508.777	4032.21
509.145	4021.14
509.514	4014.81
509.882	4076.5
510.25	4044.87
510.618	4040.12
510.986	4068.82
511.354	4074.47
511.722	4071.76
512.09	4152.43
512.458	4135.71
512.826	4151.53
513.193	4159.66
513.561	4170.96
513.929	4179.55
514.297	4191.75
514.664	4199.21
515.032	4236.05
515.4	4231.3
515.767	4198.99
516.135	4263.16
516.502	4248.02
516.869	4274.01
517.237	4325.99
517.604	4312.43
517.972	4344.29
518.339	4354.91
518.706	4367.34
519.073	4356.95
519.44	4358.08
519.808	4414.8
520.175	4401.24
520.542	4424.97
520.909	4444.4
521.276	4426.55
521.643	4420.67
522.009	4496.15
522.376	4493.44
522.743	4498.64
523.11	4601.91
523.477	4581.35
523.843	4562.37
524.21	4605.98
524.577	4647.11
524.943	4629.93
525.31	4663.38
525.676	4674
526.043	4695.24
526.409	4738.41
526.776	4719.65
527.142	4731.63
527.508	4801.23
527.874	4882.58
528.241	4835.58
528.607	4821.12
528.973	4938.85
529.339	4887.56
529.705	4916.71
530.071	5003.48
530.437	5018.63
530.803	4983.6
531.169	5062.47
531.535	5043.26
531.901	5041.22
532.267	5102.24
532.632	5091.17
532.998	5112.86
533.364	5134.78
533.73	5123.26
534.095	5209.13
534.461	5199.41
534.826	5234.21
535.192	5298.17
535.557	5260.88
535.923	5276.02
536.288	5335.45
536.653	5316.02
537.019	5350.14
537.384	5368.9
537.749	5374.1
538.114	5343.59
538.479	5408.22
538.845	5417.71
539.21	5381.78
539.575	5465.84
539.94	5504.26
540.305	5574.99
540.67	5488.67
541.034	5558.95
541.399	5574.09
541.764	5605.28
542.129	5596.69
542.494	5671.72
542.858	5679.62
543.223	5694.31
543.587	5752.17
543.952	5710.81
544.316	5748.32
544.681	5805.05
545.045	5772.5
545.41	5888.21
545.774	5874.87
546.138	5858.15
546.503	5914.87
546.867	5881.65
547.231	5967.07
547.595	5991.03
547.959	5992.84
548.324	6016.34
548.688	6004.59
549.052	6054.08
549.416	6062.21
549.779	6070.8
550.143	6057.92
550.507	6154.87
550.871	6148.76
551.235	6153.51
551.599	6210.01
551.962	6255.2
552.326	6216.56
552.689	6244.81
553.053	6249.55
553.417	6241.87
553.78	6356.22
554.143	6335.88
554.507	6308.08
554.87	6347.4
555.234	6405.71
555.597	6379.72
555.96	6380.4
556.323	6456.33
556.686	6441.41
557.05	6466.04
557.413	6496.33
557.776	6526.16
558.139	6521.18
558.502	6456.78
558.865	6519.38
559.228	6592.14
559.59	6607.74
559.953	6659.03
560.316	6680.28
560.679	6693.61
561.041	6734.96
561.404	6701.74
561.767	6781.06
562.129	6755.08
562.492	6836.2
562.854	6780.61
563.217	6803.66
563.579	6791.91
563.941	6851.8
564.304	6873.04
564.666	6887.73
565.028	6922.98
565.39	6970.44
565.753	7036.43
566.115	6989.65
566.477	7047.72
566.839	7047.95
567.201	7134.28
567.563	7068.74
567.925	7145.57
568.287	7072.36
568.648	7120.72
569.01	7192.13
569.372	7280.49
569.734	7266.93
570.095	7290.43
570.457	7322.07
570.819	7391.44
571.18	7372.69
571.542	7369.3
571.903	7492.01
572.265	7497.88
572.626	7563.19
572.987	7501.5
573.349	7598.22
573.71	7649.52
574.071	7637.99
574.432	7696.52
574.794	7882.5
575.155	7903.97
575.516	7935.84
575.877	7957.3
576.238	8036.85
576.599	8185.1
576.96	8094.7
577.32	8238.2
577.681	8254.02
578.042	8348.93
578.403	8476.61
578.763	8539.66
579.124	8615.82
579.485	8738.98
579.845	8837.51
580.206	8904.17
580.566	8955.24
580.927	9093.09
581.287	9276.59
581.648	9323.14
582.008	9526.98
582.368	9577.83
582.728	9809.23
583.089	9906.86
583.449	10060.53
583.809	10270.24
584.169	10394.3
584.529	10542.32
584.889	10790.68
585.249	10938.24
585.609	11080.16
585.969	11327.39
586.329	11485.57
586.688	11736.64
587.048	11972.79
587.408	12143.18
587.768	12359
588.127	12528.94
588.487	12784.52
588.846	13044.4
589.206	13214.57
589.565	13535.92
589.925	13851.84
590.284	14100.19
590.643	14312.17
591.003	14604.59
591.362	14831.7
591.721	15119.15
592.08	15416.77
592.44	15702.64
592.799	15964.1
593.158	16200.48
593.517	16550.98
593.876	16845.43
594.235	17057.63
594.593	17351.63
594.952	17699.42
595.311	17947.1
595.67	18211.5
596.029	18594.54
596.387	18905.27
596.746	19272.04
597.104	19443.1
597.463	19742.98
597.822	20121.73
598.18	20320.14
598.538	20546.58
598.897	20980.92
599.255	21089.84
599.613	21701.8
599.972	21879.2
600.33	22188.34
600.688	22424.04
601.046	22809.8
601.404	23057.92
601.762	23289.78
602.12	23668.76
602.478	23929.99
602.836	24185.8
603.194	24332.02
603.552	24561.84
603.91	24931.55
604.268	25225.1
604.625	25475.26
604.983	25815.14
605.341	25881.58
605.698	26261.91
606.056	26540.09
606.413	26808.79
606.771	27041.55
607.128	27255.78
607.485	27351.15
607.843	27696.22
608.2	28000.39
608.557	28406.03
608.914	28394.73
609.272	28846.7
609.629	28975.28
609.986	29168.27
610.343	29258.67
610.7	29660.46
611.057	29889.61
611.414	29952.66
611.771	30243.72
612.127	30599.42
612.484	30610.27
612.841	30858.85
613.198	30943.59
613.554	31147.88
613.911	31402.56
614.267	31521.21
614.624	31848.2
614.98	31974.07
615.337	32185.82
615.693	32404.8
616.05	32394.85
616.406	32870.55
616.762	32812.47
617.118	32969.3
617.475	33006.36
617.831	33320.93
618.187	33406.81
618.543	33565.22
618.899	33893.35
619.255	33906.68
619.611	34010.18
619.967	34183.73
620.323	34224.64
620.678	34386.89
621.034	34298.08
621.39	34448.59
621.746	34468.25
622.101	35004.28
622.457	34793.89
622.812	35111.62
623.168	35229.58
623.523	35287.89
623.879	35581.44
624.234	35351.84
624.589	35547.09
624.945	35759.51
625.3	35648.1
625.655	35769.45
626.01	35874.76
626.365	36039.05
626.72	36133.97
627.075	36085.38
627.43	36175.09
627.785	36109.56
628.14	36317.92
628.495	36403.79
628.85	36370.57
629.205	36275.88
629.559	36655.31
629.914	36490.11
630.269	36554.07
630.623	36482.43
630.978	36474.3
631.332	36778.24
631.687	36886.94
632.041	36683.1
632.396	36806.49
632.75	36607.4
633.104	36876.54
633.459	36664.8
633.813	36783.21
634.167	36840.16
634.521	36687.17
634.875	36807.17
635.229	36965.36
635.583	36756.55
635.937	36813.72
636.291	36725.36
636.645	36901.4
636.999	36650.79
637.352	36978.69
637.706	36837.22
638.06	36922.19
638.413	36895.53
638.767	36710
639.121	36893.95
639.474	36619.6
639.828	36752.48
640.181	36879.26
640.534	36855.3
640.888	36760.16
641.241	36702.09
641.594	36717.23
641.947	36799.26
642.301	36674.97
642.654	36577.57
643.007	36803.1
643.36	36755.42
643.713	36719.71
644.066	36974.4
644.419	36615.31
644.771	36354.52
645.124	36169.22
645.477	36064.14
645.83	35997.92
646.182	35853.52
646.535	35728.1
646.888	35729.91
647.24	35691.04
647.593	35831.37
647.945	35640.42
648.298	35506.19
648.65	35640.64
649.002	35533.53
649.355	35802.22
649.707	35624.15
650.059	35718.38
650.411	36145.04
650.763	36011.03
651.115	36538.25
651.467	36613.5
651.819	36470.45
652.171	36337.58
652.523	36290.57
652.875	36342.32
653.227	36092.38
653.578	36453.28
653.93	36326.05
654.282	36174.19
654.633	36155.89
654.985	36199.5
655.337	36132.16
655.688	36395.43
656.039	36322.21
656.391	36177.13
656.742	36154.76
657.094	36225.94
657.445	36307.97
657.796	36188.43
658.147	36153.4
658.498	36123.34
658.849	36207.41
659.2	36179.16
659.551	36177.35
659.902	36135.1
660.253	36051.26
660.604	36206.73
660.955	35995.21
661.306	36107.07
661.656	36057.81
662.007	36101.65
662.358	36124.25
662.708	36161.76
663.059	36088.54
663.409	35754.09
663.76	36050.8
664.11	35992.5
664.461	36110.46
664.811	36018.04
665.161	36003.35
665.511	35875.89
665.862	35987.53
666.212	36176
666.562	35987.75
666.912	35954.31
667.262	35965.83
667.612	35903.69
667.962	35987.3
668.312	35992.27
668.662	36083.8
669.011	35940.07
669.361	35933.74
669.711	35834.31
670.06	35819.62
670.41	35916.34
670.76	35765.39
671.109	35959.28
671.459	35794.54
671.808	35795.89
672.157	35945.5
672.507	35710.93
672.856	35646.97
673.205	35670.47
673.554	35821.66
673.904	35678.61
674.253	35818.49
674.602	35714.54
674.951	35249.69
675.3	35102.81
675.649	35661.89
675.998	35601.1
676.346	35500.31
676.695	35712.28
677.044	35488.56
677.393	35620.31
677.741	35752.96
678.09	35540.99
678.438	35322.69
678.787	35626.18
679.135	35565.39
679.484	35450.59
679.832	35381.89
680.181	35268.23
680.529	35375.57
680.877	35293.31
681.225	35259.19
681.573	35483.36
681.922	35142.8
682.27	35059.42
682.618	35063.03
682.966	35049.7
683.314	35093.99
683.661	35040.21
684.009	34845.86
684.357	34841.34
684.705	34692.87
685.053	34775.81
685.4	34642.7
685.748	34607.9
686.095	34508.25
686.443	34455.37
686.79	34466.44
687.138	34481.81
687.485	34495.59
687.832	34205.88
688.18	34349.83
688.527	34310.96
688.874	34155.03
689.221	34060.35
689.568	34009.95
689.915	33883.4
690.262	33906.45
690.609	33767.25
690.956	33733.58
691.303	33644.09
691.65	33637.53
691.997	33576.52
692.344	33397.77
692.69	33417.43
693.037	33341.27
693.383	33197.32
693.73	33226.7
694.077	33111.67
694.423	33063.54
694.769	32843.66
695.116	32819.93
695.462	32742.87
695.808	32689.76
696.155	32751.46
696.501	32577
696.847	32421.97
697.193	32382.88
697.539	32401.86
697.885	32092.04
698.231	32035.77
698.577	32193.28
698.923	32112.83
699.269	31907.41
699.614	31701.99
699.96	31690.92
700.306	31739.28
700.651	31641.43
700.997	31480.98
701.342	31646.63
701.688	31514.2
702.033	31467.65
702.379	31414.09
702.724	31179.07
703.069	31266.75
703.415	30960.32
703.76	30987.43
704.105	30938.85
704.45	30897.49
704.795	30699.08
705.14	30602.36
705.485	30595.81
705.83	30543.83
706.175	30586.09
706.52	30328.69
706.865	30305.64
707.209	30303.84
707.554	30210.96
707.899	30269.49
708.243	30080.11
708.588	30180.22
708.932	29752.44
709.277	29784.75
709.621	29918.08
709.966	29586.79
710.31	29674.47
710.654	29473.8
710.998	29576.62
711.342	29522.84
711.687	29424.09
712.031	29289.17
712.375	29337.99
712.719	29271.32
713.063	29090.99
713.407	29307.93
713.75	29106.13
714.094	29135.05
714.438	28919.01
714.782	28908.39
715.125	28888.96
715.469	28829.52
715.812	28763.99
716.156	28642.41
716.499	28637.89
716.843	28650.32
717.186	28406.48
717.53	28607.38
717.873	28553.37
718.216	28485.13
718.559	28373.27
718.902	28082.2
719.246	28288.52
719.589	28097.79
719.932	27996.55
720.275	28002.43
720.617	28074.97
720.96	28067.28
721.303	28022.09
721.646	28006.27
721.989	27778.03
722.331	27906.84
722.674	27901.87
723.016	27870
723.359	27677.69
723.701	27809.21
724.044	27549.11
724.386	27403.35
724.729	27655.32
725.071	27559.28
725.413	27438.6
725.755	27448.77
726.097	27446.96
726.439	27119.96
726.782	27294.65
727.124	27232.96
727.465	27170.59
727.807	27069.57
728.149	27013.75
728.491	27010.14
728.833	26946.41
729.175	26872.97
729.516	26901.89
729.858	26799.75
730.199	26809.24
730.541	26712.74
730.882	26790.71
731.224	26776.7
731.565	26489.25
731.906	26654.67
732.248	26668.9
732.589	26533.31
732.93	26331.96
733.271	26375.8
733.612	26509.81
733.953	26512.3
734.294	26265.07
734.635	26252.19
734.976	26369.02
735.317	26192.31
735.658	26204.51
735.999	26183.72
736.339	26184.85
736.68	26219.2
737.021	26097.17
737.361	26072.76
737.702	26139.43
738.042	26006.32
738.383	26013.78
738.723	26033.21
739.063	25862.14
739.404	25910.73
739.744	25880.68
740.084	25751.41
740.424	25776.95
740.764	25738.76
741.104	25817.17
741.444	25708.25
741.784	25564.53
742.124	25591.19
742.464	25481.36
742.804	25418.54
743.143	25329.73
743.483	25334.93
743.823	25195.5
744.162	25232.1
744.502	25322.05
744.841	25232.78
745.181	25312.55
745.52	25100.81
745.86	25074.37
746.199	25145.55
746.538	25066.01
746.877	25126.12
747.216	25096.97
747.556	25010.87
747.895	25050.64
748.234	24840.48
748.573	24789.63
748.911	24840.93
749.25	24797.31
749.589	24715.28
749.928	24746.02
750.267	24704.44
750.605	24576.3
750.944	24618.56
751.283	24447.94
751.621	24524.1
751.96	24365.69
752.298	24372.47
752.636	24396.19
752.975	24187.61
753.313	24147.39
753.651	24386.48
753.989	24081.17
754.327	24046.6
754.666	23984.23
755.004	23986.71
755.342	23913.95
755.679	23917.79
756.017	23766.38
756.355	23746.27
756.693	23671.47
757.031	23756.44
757.368	23559.15
757.706	23562.09
758.044	23511.02
758.381	23576.33
758.719	23368.2
759.056	23481.19
759.394	23251.59
759.731	23137.47
