Data from hue_34_FLMS001491_00076.txt Node
Date: Tue Feb 07 17:26:07 GMT 2017
User: dcchb
Spectrometer: FLMS00149
Trigger mode: 0
Integration Time (sec): 2.000000E-2
Scans to average: 10
Electric dark correction enabled: true
Nonlinearity correction enabled: false
Boxcar width: 0
XAxis mode: Wavelengths
Number of Pixels in Spectrum: 2048
>>>>>Begin Spectral Data<<<<<
341.393	-6.26
341.776	-6.26
342.16	-6.26
342.543	-54.17
342.927	-61.62
343.31	-84.67
343.693	-93.26
344.077	-61.85
344.46	-70.66
344.843	-48.29
345.226	-47.39
345.61	-27.95
345.993	-14.84
346.376	13.63
346.759	34.65
347.142	20.64
347.525	45.49
347.908	79.62
348.291	65.15
348.674	97.92
349.057	91.82
349.44	142.67
349.823	133.4
350.206	174.53
350.588	202.55
350.971	228.54
351.354	239.84
351.737	257.92
352.119	241.87
352.502	256.79
352.884	271.02
353.267	297.46
353.65	303.57
354.032	312.38
354.414	325.71
354.797	318.03
355.179	327.29
355.562	344.92
355.944	333.17
356.326	344.02
356.709	339.04
357.091	348.76
357.473	353.28
357.855	330.01
358.238	357.58
358.62	358.25
359.002	358.93
359.384	329.1
359.766	332.72
360.148	342.21
360.53	338.59
360.912	354.86
361.294	346.95
361.676	352.38
362.057	350.34
362.439	340.4
362.821	347.63
363.203	327.97
363.584	347.41
363.966	350.8
364.348	332.27
364.729	323.9
365.111	327.97
365.493	348.08
365.874	339.5
366.256	307.18
366.637	321.42
367.019	306.28
367.4	347.86
367.781	333.85
368.163	347.18
368.544	313.51
368.925	331.14
369.306	323.9
369.688	330.01
370.069	324.13
370.45	341.98
370.831	333.17
371.212	339.04
371.593	333.17
371.974	338.14
372.355	324.81
372.736	328.65
373.117	318.03
373.498	328.65
373.879	313.96
374.26	312.83
374.641	363.68
375.021	337.46
375.402	352.15
375.783	326.16
376.163	355.32
376.544	344.47
376.925	345.15
377.305	338.82
377.686	338.59
378.066	331.36
378.447	315.54
378.827	341.98
379.208	339.27
379.588	340.63
379.968	348.54
380.349	355.99
380.729	334.53
381.109	349.21
381.489	360.29
381.87	358.93
382.25	342.21
382.63	339.04
383.01	344.02
383.39	361.87
383.77	338.82
384.15	374.52
384.53	362.55
384.91	345.6
385.29	350.57
385.67	360.74
386.049	353.73
386.429	353.51
386.809	370.68
387.189	352.15
387.568	374.75
387.948	341.3
388.328	362.09
388.707	379.5
389.087	363.45
389.466	370.23
389.846	379.72
390.225	374.52
390.605	403.22
390.984	375.43
391.363	377.69
391.743	378.82
392.122	362.09
392.501	387.41
392.881	384.69
393.26	379.04
393.639	406.16
394.018	384.47
394.397	384.02
394.776	385.15
395.155	401.64
395.534	384.69
395.913	384.92
396.292	401.64
396.671	395.77
397.05	405.03
397.429	399.83
397.808	403
398.186	388.76
398.565	371.13
398.944	402.55
399.323	389.21
399.701	398.03
400.08	412.49
400.458	387.86
400.837	423.56
401.215	410.68
401.594	405.94
401.972	398.25
402.351	423.56
402.729	424.69
403.107	422.66
403.486	422.43
403.864	445.71
404.242	426.27
404.62	417.01
404.999	444.35
405.377	438.48
405.755	448.65
406.133	408.42
406.511	433.73
406.889	446.61
407.267	426.5
407.645	441.41
408.023	470.11
408.401	453.17
408.779	465.37
409.156	471.47
409.534	452.26
409.912	458.59
410.29	475.31
410.667	451.58
411.045	469.21
411.422	497.46
411.8	497.68
412.178	474.63
412.555	466.27
412.933	489.78
413.31	475.76
413.687	487.06
414.065	486.16
414.442	480.06
414.819	496.33
415.197	501.75
415.574	510.57
415.951	504.24
416.328	509.21
416.705	517.8
417.082	502.43
417.46	503.79
417.837	544.92
418.214	513.73
418.591	537.46
418.967	515.76
419.344	522.99
419.721	530
420.098	540.85
420.475	530.45
420.852	511.02
421.228	550.56
421.605	545.59
421.982	574.29
422.358	561.64
422.735	569.1
423.111	548.76
423.488	550.11
423.864	557.8
424.241	603.9
424.617	556.89
424.994	551.24
425.37	586.5
425.746	590.56
426.123	587.4
426.499	581.98
426.875	598.92
427.251	606.16
427.627	604.35
428.003	591.69
428.379	631.47
428.756	639.6
429.132	635.31
429.507	618.36
429.883	632.37
430.259	640.73
430.635	655.42
431.011	643.9
431.387	645.48
431.763	671.24
432.138	666.04
432.514	674.63
432.89	674.18
433.265	702.88
433.641	678.47
434.016	692.03
434.392	690.9
434.767	705.81
435.143	713.27
435.518	711.46
435.894	744.01
436.269	708.53
436.644	732.48
437.02	725.7
437.395	747.17
437.77	762.76
438.145	771.8
438.52	754.18
438.895	756.89
439.271	771.58
439.646	775.19
440.021	778.13
440.395	778.58
440.77	791.01
441.145	773.84
441.52	799.6
441.895	788.3
442.27	808.18
442.645	809.99
443.019	830.33
443.394	803.44
443.769	793.27
444.143	812.7
444.518	867.84
444.892	841.18
445.267	837.11
445.641	852.93
446.016	847.73
446.39	849.99
446.764	849.31
447.139	842.31
447.513	869.2
447.887	846.15
448.262	856.77
448.636	882.76
449.01	892.02
449.384	915.3
449.758	899.93
450.132	885.7
450.506	909.65
450.88	908.3
451.254	897.9
451.628	934.28
452.002	916.43
452.376	933.15
452.75	951.01
453.123	958.92
453.497	965.69
453.871	965.69
454.244	960.5
454.618	984.45
454.992	976.54
455.365	995.52
455.739	1042.3
456.112	1022.19
456.486	1024.45
456.859	1052.02
457.232	1060.83
457.606	1061.74
457.979	1075.52
458.352	1072.81
458.725	1106.03
459.099	1094.73
459.472	1120.27
459.845	1129.08
460.218	1177.67
460.591	1138.35
460.964	1151.45
461.337	1203.43
461.71	1196.65
462.083	1214.5
462.456	1214.5
462.829	1197.78
463.201	1239.59
463.574	1259.7
463.947	1259.92
464.32	1282.97
464.692	1294.27
465.065	1325.69
465.438	1341.96
465.81	1351
466.183	1340.83
466.555	1363.2
466.928	1372.46
467.3	1408.4
467.672	1441.61
468.045	1459.24
468.417	1469.41
468.789	1452.01
469.161	1492.91
469.534	1526.58
469.906	1580.37
470.278	1582.4
470.65	1609.52
471.022	1619.46
471.394	1657.43
471.766	1662.63
472.138	1699.01
472.51	1740.36
472.882	1738.33
473.253	1798.44
473.625	1849.97
473.997	1869.85
474.369	1897.87
474.74	1931.09
475.112	1950.75
475.484	2008.61
475.855	2047.02
476.227	2077.53
476.598	2125.89
476.97	2206.34
477.341	2226.9
477.713	2274.81
478.084	2303.96
478.455	2389.39
478.827	2412.66
479.198	2485.43
479.569	2543.96
479.94	2588.48
480.311	2649.72
480.682	2724.97
481.053	2809.49
481.424	2896.04
481.795	2979.88
482.166	2992.31
482.537	3074.57
482.908	3165.64
483.279	3232.3
483.65	3278.4
484.021	3365.41
484.391	3463.93
484.762	3534.44
485.133	3586.42
485.503	3671.39
485.874	3820.08
486.244	3866.86
486.615	3934.43
486.985	4045.39
487.356	4130.58
487.726	4221.2
488.097	4352.27
488.467	4406.28
488.837	4497.13
489.207	4596.33
489.578	4688.53
489.948	4762.66
490.318	4921.52
490.688	5000.84
491.058	5054.63
491.428	5145.92
491.798	5243.55
492.168	5425.69
492.538	5411.91
492.908	5581.39
493.278	5643.99
493.648	5683.76
494.017	5791.78
494.387	5872.91
494.757	6020.48
495.126	6062.74
495.496	6187.48
495.866	6212.34
496.235	6338.21
496.605	6428.6
496.974	6487.13
497.344	6589.95
497.713	6700.91
498.082	6674.25
498.452	6819.33
498.821	6915.37
499.19	6957.4
499.559	7028.59
499.928	7093.44
500.298	7140.9
500.667	7279.43
501.036	7292.99
501.405	7490.72
501.774	7476.94
502.143	7556.93
502.512	7617.05
502.88	7703.14
503.249	7707.89
503.618	7744.73
503.987	7831.28
504.356	7934.78
504.724	7995.79
505.093	7998.28
505.462	8070.59
505.83	8228.55
506.199	8241.89
506.567	8352.85
506.936	8343.81
507.304	8447.31
507.672	8536.57
508.041	8535.67
508.409	8623.35
508.777	8749.9
509.145	8835.54
509.514	8843.45
509.882	8907.18
510.25	8976.78
510.618	8995.99
510.986	9038.48
511.354	9150.79
511.722	9153.73
512.09	9344.91
512.458	9270.11
512.826	9304.68
513.193	9407.28
513.561	9432.59
513.929	9531.8
514.297	9588.29
514.664	9643.66
515.032	9691.79
515.4	9793.26
515.767	9754.84
516.135	9849.3
516.502	9758.46
516.869	10072.8
517.237	10059.02
517.604	10035.74
517.972	10067.83
518.339	10189.18
518.706	10199.58
519.073	10255.17
519.44	10261.27
519.808	10435.73
520.175	10440.25
520.542	10503.52
520.909	10668.94
521.276	10637.31
521.643	10712.56
522.009	10748.71
522.376	10836.85
522.743	10880.91
523.11	10890.41
523.477	11043.85
523.843	11092.89
524.21	11188.48
524.577	11251.07
524.943	11282.49
525.31	11334.24
525.676	11437.96
526.043	11519.99
526.409	11538.07
526.776	11719.54
527.142	11674.34
527.508	11778.74
527.874	11906.65
528.241	11907.1
528.607	11915.01
528.973	12099.87
529.339	12060.09
529.705	12235.68
530.071	12299.86
530.437	12327.88
530.803	12474.77
531.169	12457.6
531.535	12416.24
531.901	12535.56
532.267	12554.32
532.632	12661.88
532.998	12715.22
533.364	12787.08
533.73	12844.48
534.095	12977.36
534.461	12950.46
534.826	12968.09
535.192	13102.55
535.557	13190.68
535.923	13167.86
536.288	13215.32
536.653	13247.63
537.019	13320.4
537.384	13360.62
537.749	13426.61
538.114	13436.1
538.479	13540.51
538.845	13557
539.21	13526.72
539.575	13653.5
539.94	13682.87
540.305	13769.43
540.67	13843.77
541.034	13802.19
541.399	13853.94
541.764	13971.45
542.129	13995.86
542.494	14053.03
542.858	14091
543.223	14117.44
543.587	14317.43
543.952	14301.84
544.316	14377.55
544.681	14378.22
545.045	14500.48
545.41	14550.2
545.774	14548.16
546.138	14592.91
546.503	14667.93
546.867	14675.39
547.231	14772.56
547.595	14867.25
547.959	14902.28
548.324	14945.89
548.688	14942.73
549.052	15037.64
549.416	15020.01
549.779	15018.43
550.143	15081.71
550.507	15233.12
550.871	15291.87
551.235	15202.16
551.599	15405.09
551.962	15412.09
552.326	15472.66
552.689	15576.16
553.053	15528.25
553.417	15634.69
553.78	15726.44
554.143	15771.86
554.507	15773.67
554.87	15773.67
555.234	16019.08
555.597	15923.04
555.96	15967.79
556.323	16018.63
556.686	16060.89
557.05	16167.33
557.413	16183.83
557.776	16269.02
558.139	16319.19
558.502	16430.37
558.865	16413.42
559.228	16520.77
559.59	16600.31
559.953	16595.11
560.316	16736.35
560.679	16823.58
561.041	16815.67
561.404	16926.18
561.767	16993.52
562.129	16948.55
562.492	17164.37
562.854	16987.65
563.217	17120.3
563.579	17161.65
563.941	17364.13
564.304	17359.84
564.666	17578.14
565.028	17563
565.39	17554.41
565.753	17682.32
566.115	17726.84
566.477	17835.99
566.839	17798.02
567.201	17910.33
567.563	17923.44
567.925	18151.23
568.287	18067.17
568.648	18148.52
569.01	18302.64
569.372	18258.8
569.734	18255.64
570.095	18513.71
570.457	18516.42
570.819	18569.75
571.18	18620.37
571.542	18726.13
571.903	18740.59
572.265	18939.91
572.626	18967.26
572.987	19109.85
573.349	19169.74
573.71	19215.38
574.071	19346.91
574.432	19323.63
574.794	19568.14
575.155	19564.53
575.516	19609.05
575.877	19801.58
576.238	19830.28
576.599	19934.69
576.96	20078.41
577.32	20176.04
577.681	20313.89
578.042	20412.42
578.403	20513.66
578.763	20722.92
579.124	20726.53
579.485	21041.55
579.845	21193.41
580.206	21335.33
580.566	21481.09
580.927	21605.15
581.287	21879.72
581.648	21883.56
582.008	22197.45
582.368	22254.85
582.728	22521.96
583.089	22654.39
583.449	22791.79
583.809	22946.36
584.169	23195.17
584.529	23426.35
584.889	23740.01
585.249	23796.73
585.609	23928.26
585.969	24419.09
586.329	24551.52
586.688	24698.4
587.048	24945.63
587.408	24951.96
587.768	25400.76
588.127	25591.94
588.487	25807.75
588.846	26223.79
589.206	26304.01
589.565	26562.54
589.925	26960.27
590.284	27111
590.643	27320.03
591.003	27602.73
591.362	27878.43
591.721	28094.02
592.08	28389.38
592.44	28711.86
592.799	28989.82
593.158	29070.72
593.517	29327.66
593.876	29657.14
594.235	29846.74
594.593	30144.14
594.952	30544.13
595.311	30567.63
595.67	30960.84
596.029	31309.3
596.387	31544.55
596.746	31701.16
597.104	31893.47
597.463	32017.99
597.822	32536.16
598.18	32613.45
598.538	32785.42
598.897	33256.6
599.255	33124.85
599.613	33867.2
599.972	33878.05
600.33	34141.77
600.688	34354.65
601.046	34627.86
601.404	34898.59
601.762	34899.04
602.12	35375.64
602.478	35425.13
602.836	35791.67
603.194	35688.85
603.552	35946.92
603.91	35993.47
604.268	36470.07
604.625	36521.37
604.983	36910.29
605.341	36910.29
605.698	37323.38
606.056	37326.77
606.413	37677.95
606.771	37829.81
607.128	38052.4
607.485	37934.44
607.843	38295.79
608.2	38582.33
608.557	38738.49
608.914	38744.59
609.272	39031.36
609.629	39274.97
609.986	39567.84
610.343	39346.61
610.7	39735.75
611.057	39832.92
611.414	39956.99
611.771	40084.89
612.127	40262.51
612.484	40572.34
612.841	40535.95
613.198	40740.47
613.554	40833.8
613.911	41003.74
614.267	41081.02
614.624	41302.94
614.98	41294.35
615.337	41602.14
615.693	41740.67
616.05	41781.57
616.406	42077.83
616.762	42048.91
617.118	42153.09
617.475	42146.99
617.831	42400.76
618.187	42492.06
618.543	42583.36
618.899	42844.59
619.255	42759.17
619.611	42866.29
619.967	43041.2
620.323	43167.3
620.678	43169.33
621.034	43135.21
621.39	43134.76
621.746	43367.29
622.101	43707.4
622.457	43395.77
622.812	43707.62
623.168	43642.54
623.523	43819.03
623.879	43812.03
624.234	43760.73
624.589	43880.72
624.945	44030.33
625.3	44177.67
625.655	44088.85
626.01	44093.15
626.365	44261.51
626.72	44269.42
627.075	44166.37
627.43	44218.79
627.785	44288.85
628.14	44435.29
628.495	44552.57
628.85	44491.78
629.205	44323.65
629.559	44754.37
629.914	44552.35
630.269	44595.06
630.623	44503.53
630.978	44412.01
631.332	44668.27
631.687	44626.92
632.041	44570.2
632.396	44653.81
632.75	44608.39
633.104	44736.52
633.459	44525.45
633.813	44560.03
634.167	44510.99
634.521	44593.25
634.875	44668.05
635.229	44612.68
635.583	44389.19
635.937	44376.08
636.291	44457.66
636.645	44485.91
636.999	44578.56
637.352	44657.88
637.706	44438.45
638.06	44574.27
638.413	44483.65
638.767	44438.22
639.121	44411.78
639.474	44237.78
639.828	44295.18
640.181	44309.64
640.534	44348.51
640.888	44317.78
641.241	44163.2
641.594	44359.36
641.947	44263.54
642.301	44351.67
642.654	44251.34
643.007	44278.91
643.36	44286.36
643.713	44155.07
644.066	44245.46
644.419	44045.24
644.771	43785.36
645.124	43384.47
645.477	43511.47
645.83	43195.32
646.182	43007.75
646.535	42930.47
646.888	43003.69
647.24	42881.88
647.593	43037.58
647.945	42902.22
648.298	42800.53
648.65	42752.62
649.002	42710.13
649.355	42836.23
649.707	42834.42
650.059	43026.51
650.411	43289.1
650.763	43468.08
651.115	43792.37
651.467	43674.63
651.819	43803.89
652.171	43599.83
652.523	43675.53
652.875	43517.34
653.227	43287.75
653.578	43635.99
653.93	43532.94
654.282	43527.51
654.633	43423.79
654.985	43463.33
655.337	43511.02
655.688	43434.86
656.039	43560.73
656.391	43284.36
656.742	43411.13
657.094	43335.65
657.445	43464.92
657.796	43359.16
658.147	43334.75
658.498	43157.13
658.849	43309.21
659.2	43308.54
659.551	43068.99
659.902	43360.06
660.253	43387.18
660.604	43318.48
660.955	43071.03
661.306	43332.72
661.656	43192.16
662.007	43233.74
662.358	43325.49
662.708	43332.04
663.059	43261.76
663.409	42885.72
663.76	43202.55
664.11	43227.86
664.461	43332.72
664.811	43090.24
665.161	43108.54
665.511	42989
665.862	43099.28
666.212	43169.33
666.562	43201.19
666.912	43144.92
667.262	42969.56
667.612	43168.65
667.962	43059.05
668.312	43022.44
668.662	43115.32
669.011	43099.5
669.361	43024.93
669.711	43135.89
670.06	43005.27
670.41	42837.36
670.76	42915.78
671.109	43076.68
671.459	43021.76
671.808	43012.95
672.157	42978.6
672.507	42748.78
672.856	42757.14
673.205	42801.21
673.554	42889.56
673.904	42657.48
674.253	42905.61
674.602	42726.4
674.951	42276.25
675.3	42017.27
675.649	42848.89
675.998	42759.85
676.346	42617.48
676.695	42800.3
677.044	42553.98
677.393	42709
677.741	42680.98
678.09	42620.19
678.438	42589.91
678.787	42593.53
679.135	42562.79
679.484	42324.61
679.832	42391.95
680.181	42306.08
680.529	42417.26
680.877	42198.74
681.225	42242.58
681.573	42449.58
681.922	42097.72
682.27	41939.08
682.618	42060.43
682.966	41859.31
683.314	42077.83
683.661	41896.14
684.009	41709.93
684.357	41646.43
684.705	41628.81
685.053	41636.94
685.4	41666.09
685.748	41371.19
686.095	41405.99
686.443	41293.9
686.79	41152.66
687.138	41344.75
687.485	41263.39
687.832	41205.54
688.18	41140.91
688.527	41013.23
688.874	40846
689.221	40930.52
689.568	40813.01
689.915	40729.85
690.262	40641.49
690.609	40638.55
690.956	40367.14
691.303	40469.06
691.65	40216.87
691.997	40236.3
692.344	40117.43
692.69	39876.08
693.037	39940.72
693.383	39646.26
693.73	39825.24
694.077	39589.09
694.423	39632.93
694.769	39401.07
695.116	39456.21
695.462	39404.46
695.808	39245.82
696.155	39361.75
696.501	38979.38
696.847	39035.88
697.193	38656.91
697.539	38957.92
697.885	38651.71
698.231	38524.03
698.577	38542.79
698.923	38443.81
699.269	38290.36
699.614	38113.87
699.96	38129.01
700.306	38227.54
700.651	37916.14
700.997	37852.18
701.342	37774.44
701.688	37749.36
702.033	37538.52
702.379	37579.65
702.724	37453.32
703.069	37510.5
703.415	37110.96
703.76	37220.56
704.105	37066.67
704.45	37057.63
704.795	36909.38
705.14	36660.35
705.485	36778.99
705.83	36487.47
706.175	36639.11
706.52	36475.27
706.865	36419.23
707.209	36313.01
707.554	36127.93
707.899	36371.32
708.243	36023.98
708.588	36066.01
708.932	35866.7
709.277	35823.08
709.621	35988.5
709.966	35696.08
710.31	35730.88
710.654	35404.56
710.998	35495.86
711.342	35428.52
711.687	35414.05
712.031	35228.3
712.375	35073.95
712.719	35140.16
713.063	35068.98
713.407	35209.54
713.75	34995.08
714.094	34916.89
714.438	34784.47
714.782	34716.9
715.125	34717.8
715.469	34805.26
715.812	34590.35
716.156	34334.31
716.499	34508.09
716.843	34513.06
717.186	34258.6
717.53	34339.96
717.873	34304.03
718.216	34278.72
718.559	33989.01
718.902	33874.21
719.246	33899.52
719.589	33902.23
719.932	33662.46
720.275	33677.6
720.617	33646.64
720.96	33604.84
721.303	33679.86
721.646	33410.72
721.989	33424.73
722.331	33530.94
722.674	33382.7
723.016	33449.36
723.359	33339.53
723.701	33380.89
724.044	33111.52
724.386	33080.56
724.729	33337.95
725.071	33064.29
725.413	33045.08
725.755	32903.61
726.097	32761.24
726.439	32722.15
726.782	32711.3
727.124	32854.57
727.465	32660
727.807	32606.44
728.149	32506.79
728.491	32477.41
728.833	32494.81
729.175	32418.43
729.516	32228.83
729.858	32202.61
730.199	32278.77
730.541	32220.24
730.882	32126.23
731.224	32215.04
731.565	31982.05
731.906	32035.61
732.248	32119.23
732.589	31938.21
732.93	31718.11
733.271	31787.03
733.612	31825.67
733.953	31819.35
734.294	31763.76
734.635	31674.72
734.976	31630.43
735.317	31534.83
735.658	31462.75
735.999	31528.96
736.339	31485.12
736.68	31508.39
737.021	31363.99
737.361	31262.98
737.702	31526.25
738.042	31280.38
738.383	31237.44
738.723	31252.81
739.063	31195.41
739.404	31133.72
739.744	31021.4
740.084	30937.34
740.424	30975.98
740.764	30808.98
741.104	31041.29
741.444	30756.1
741.784	30703.44
742.124	30707.29
742.464	30714.07
742.804	30533.96
743.143	30507.97
743.483	30651.47
743.823	30655.31
744.162	30490.34
744.502	30488.53
744.841	30445.82
745.181	30431.36
745.52	30338.93
745.86	30397.46
746.199	30221.42
746.538	30344.81
746.877	30360.85
747.216	30262.1
747.556	30028.43
747.895	30145.49
748.234	29930.81
748.573	29911.37
748.911	29901.21
749.25	29983.46
749.589	29775.78
749.928	29749.57
750.267	29801.55
750.605	29640.2
750.944	29745.73
751.283	29458.28
751.621	29559.29
751.96	29366.53
752.298	29400.43
752.636	29352.52
752.975	29319.75
753.313	29131.73
753.651	29323.14
753.989	29037.73
754.327	29135.8
754.666	28905.75
755.004	29017.84
755.342	28883.38
755.679	28846.54
756.017	28734.91
756.355	28756.38
756.693	28608.13
757.031	28686.55
