Data from hue_40_FLMS001491_19.txt Node
Date: Mon Feb 06 15:07:31 GMT 2017
User: dcchb
Spectrometer: FLMS00149
Trigger mode: 0
Integration Time (sec): 2.000000E-2
Scans to average: 10
Electric dark correction enabled: true
Nonlinearity correction enabled: false
Boxcar width: 0
XAxis mode: Wavelengths
Number of Pixels in Spectrum: 2048
>>>>>Begin Spectral Data<<<<<
341.393	-15.9
341.776	-15.9
342.16	-15.9
342.543	-59.97
342.927	-39.18
343.31	-56.13
343.693	-82.34
344.077	-56.58
344.46	-69.01
344.843	-46.86
345.226	-48.67
345.61	-30.14
345.993	-27.2
346.376	-13.87
346.759	5.11
347.142	46.92
347.525	44.21
347.908	48.5
348.291	70.87
348.674	91.21
349.057	123.98
349.44	123.3
349.823	134.37
350.206	144.09
350.588	196.75
350.971	199.68
351.354	234.94
351.737	243.98
352.119	266.57
352.502	257.54
352.884	278.33
353.267	267.48
353.65	267.48
354.032	303.41
354.414	299.57
354.797	315.61
355.179	329.62
355.562	304.31
355.944	330.3
356.326	359.45
356.709	332.79
357.091	338.21
357.473	359.91
357.855	350.41
358.238	345.22
358.62	337.99
359.002	319.91
359.384	337.53
359.766	340.47
360.148	341.6
360.53	345.44
360.912	332.34
361.294	333.24
361.676	333.69
362.057	354.48
362.439	318.55
362.821	319.23
363.203	345.22
363.584	339.12
363.966	320.81
364.348	327.59
364.729	327.36
365.111	321.94
365.493	316.29
365.874	318.32
366.256	316.07
366.637	328.04
367.019	305.44
367.4	337.53
367.781	320.13
368.163	339.79
368.544	309.29
368.925	302.28
369.306	321.04
369.688	300.02
370.069	292.56
370.45	298.89
370.831	311.77
371.212	329.62
371.593	339.34
371.974	305.44
372.355	315.84
372.736	305.67
373.117	321.04
373.498	315.39
373.879	319.23
374.26	321.04
374.641	333.69
375.021	316.97
375.402	318.1
375.783	324.88
376.163	328.49
376.544	324.2
376.925	316.74
377.305	316.74
377.686	310.42
378.066	327.59
378.447	332.56
378.827	348.15
379.208	322.39
379.588	330.08
379.968	328.04
380.349	336.86
380.729	349.74
381.109	337.08
381.489	331.21
381.87	334.14
382.25	341.38
382.63	321.49
383.01	333.92
383.39	332.79
383.77	343.86
384.15	361.04
384.53	328.95
384.91	353.35
385.29	363.52
385.67	365.33
386.049	337.08
386.429	352.22
386.809	338.21
387.189	339.34
387.568	351.09
387.948	351.54
388.328	325.78
388.707	336.4
389.087	360.58
389.466	358.55
389.846	354.26
390.225	363.3
390.605	388.15
390.984	352.45
391.363	369.62
391.743	379.34
392.122	375.05
392.501	377.53
392.881	382.28
393.26	368.95
393.639	364.65
394.018	366.46
394.397	365.78
394.776	389.74
395.155	380.7
395.534	381.15
395.913	389.96
396.292	371.43
396.671	366.23
397.05	370.08
397.429	379.34
397.808	385.44
398.186	399
398.565	404.2
398.944	372.33
399.323	415.05
399.701	399.23
400.08	371.43
400.458	388.38
400.837	401.26
401.215	397.64
401.594	401.71
401.972	395.84
402.351	395.16
402.729	420.92
403.107	416.63
403.486	430.64
403.864	410.53
404.242	407.14
404.62	413.92
404.999	406.01
405.377	429.06
405.755	414.37
406.133	409.85
406.511	415.5
406.889	451.2
407.267	427.7
407.645	431.09
408.023	455.72
408.401	434.48
408.779	420.92
409.156	438.77
409.534	452.56
409.912	455.04
410.29	436.74
410.667	447.36
411.045	442.84
411.422	451.2
411.8	441.49
412.178	476.51
412.555	467.47
412.933	453.46
413.31	459.34
413.687	470.41
414.065	446.23
414.442	487.59
414.819	493.24
415.197	494.37
415.574	478.09
415.951	491.2
416.328	495.5
416.705	508.15
417.082	501.15
417.46	494.82
417.837	510.41
418.214	509.73
418.591	505.66
418.967	504.31
419.344	494.59
419.721	506.34
420.098	501.82
420.475	504.31
420.852	525.78
421.228	525.1
421.605	506.34
421.982	526
422.358	531.65
422.735	522.39
423.111	532.78
423.488	525.1
423.864	511.77
424.241	526.46
424.617	543.63
424.994	556.28
425.37	566
425.746	547.25
426.123	542.05
426.499	563.29
426.875	564.65
427.251	559.45
427.627	574.82
428.003	586.11
428.379	596.06
428.756	590.63
429.132	584.53
429.507	601.03
429.883	606.9
430.259	587.92
430.635	608.26
431.011	622.27
431.387	620.69
431.763	629.05
432.138	624.98
432.514	625.21
432.89	635.15
433.265	655.27
433.641	686.9
434.016	648.26
434.392	685.55
434.767	673.12
435.143	642.61
435.518	678.32
435.894	685.09
436.269	675.6
436.644	692.55
437.02	696.17
437.395	692.33
437.77	683.51
438.145	711.08
438.52	736.17
438.895	717.86
439.271	709.73
439.646	714.47
440.021	727.35
440.395	741.82
440.77	715.15
441.145	759.67
441.52	756.28
441.895	758.31
442.27	773.45
442.645	758.09
443.019	777.3
443.394	750.18
443.769	773.91
444.143	777.3
444.518	787.47
444.892	783.17
445.267	787.69
445.641	777.52
446.016	798.76
446.39	806.45
446.764	820.91
447.139	830.85
447.513	841.25
447.887	805.09
448.262	827.69
448.636	834.02
449.01	803.96
449.384	831.08
449.758	852.55
450.132	832.44
450.506	876.73
450.88	853
451.254	851.64
451.628	856.84
452.002	853.9
452.376	894.58
452.75	910.17
453.123	887.12
453.497	921.25
453.871	900
454.244	894.36
454.618	926.44
454.992	918.99
455.365	906.33
455.739	963.28
456.112	981.36
456.486	972.77
456.859	970.96
457.232	989.72
457.606	993.34
457.979	998.53
458.352	1035.14
458.725	1031.07
459.099	1039.21
459.472	1034.01
459.845	1036.95
460.218	1088.02
460.591	1074.46
460.964	1097.06
461.337	1089.6
461.71	1130.96
462.083	1128.47
462.456	1156.27
462.829	1155.59
463.201	1162.14
463.574	1156.5
463.947	1178.19
464.32	1202.37
464.692	1214.12
465.065	1255.25
465.438	1236.04
465.81	1254.57
466.183	1260.22
466.555	1290.28
466.928	1331.86
467.3	1314.46
467.672	1332.76
468.045	1388.58
468.417	1401.23
468.789	1395.13
469.161	1435.58
469.534	1444.4
469.906	1490.72
470.278	1474.68
470.65	1502.7
471.022	1528.01
471.394	1585.86
471.766	1576.37
472.138	1632.64
472.51	1665.63
472.882	1706.09
473.253	1720.1
473.625	1719.64
473.997	1813.65
474.369	1828.79
474.74	1853.65
475.112	1901.56
475.484	1937.27
475.855	1981.56
476.227	2008.45
476.598	2044.38
476.97	2087.77
477.341	2160.08
477.713	2200.08
478.084	2207.31
478.455	2312.17
478.827	2363.92
479.198	2460.87
479.569	2470.58
479.94	2570.47
480.311	2590.13
480.682	2687.75
481.053	2757.13
481.424	2835.09
481.795	2870.8
482.166	2976.33
482.537	2995.54
482.908	3077.8
483.279	3186.72
483.65	3290.9
484.021	3417
484.391	3410
484.762	3508.75
485.133	3599.14
485.503	3649.99
485.874	3783.77
486.244	3840.72
486.615	3968.17
486.985	4057.66
487.356	4182.18
487.726	4278.67
488.097	4353.47
488.467	4414.04
488.837	4599.12
489.207	4668.04
489.578	4796.4
489.948	4865.1
490.318	4976.73
490.688	4995.26
491.058	5189.61
491.428	5338.98
491.798	5378.3
492.168	5550.05
492.538	5610.84
492.908	5673.66
493.278	5859.87
493.648	5879.31
494.017	6035.46
494.387	6139.87
494.757	6269.81
495.126	6361.1
495.496	6457.15
495.866	6525.17
496.235	6649.68
496.605	6753.86
496.974	6820.75
497.344	6963.12
497.713	7038.6
498.082	7145.94
498.452	7265.03
498.821	7357.24
499.19	7387.97
499.559	7489.44
499.928	7672.48
500.298	7712.71
500.667	7842.42
501.036	7815.3
501.405	7957.22
501.774	8013.49
502.143	8165.58
502.512	8254.61
502.88	8349.75
503.249	8384.78
503.618	8513.82
503.987	8599.24
504.356	8626.58
504.724	8728.73
505.093	8839.68
505.462	8858.89
505.83	8988.83
506.199	9030.64
506.567	9175.95
506.936	9204.87
507.304	9329.84
507.672	9345.66
508.041	9460.91
508.409	9517.41
508.777	9589.04
509.145	9794.69
509.514	9759.88
509.882	9910.16
510.25	9940.67
510.618	10027
510.986	9988.13
511.354	10229.93
511.722	10236.03
512.09	10341.56
512.458	10361.45
512.826	10450.71
513.193	10541.78
513.561	10593.76
513.929	10638.28
514.297	10709.24
514.664	10791.95
515.032	10867.2
515.4	10982
515.767	11065.84
516.135	11122.79
516.502	11049.34
516.869	11221.32
517.237	11218.6
517.604	11266.51
517.972	11512.38
518.339	11509.9
518.706	11541.53
519.073	11621.76
519.44	11727.74
519.808	11756.44
520.175	11859.72
520.542	12071.69
520.909	12040.95
521.276	11984.01
521.643	12168.86
522.009	12200.05
522.376	12347.61
522.743	12467.38
523.11	12503.99
523.477	12673.93
523.843	12629.87
524.21	12748.05
524.577	12902.85
524.943	12972
525.31	13039.8
525.676	13120.02
526.043	13253.58
526.409	13325.21
526.776	13434.59
527.142	13525.66
527.508	13536.96
527.874	13704.87
528.241	13703.51
528.607	13723.62
528.973	13854.01
529.339	13914.35
529.705	14062.6
530.071	14099.66
530.437	14255.36
530.803	14236.38
531.169	14423.04
531.535	14431.85
531.901	14468.24
532.267	14540.78
532.632	14606.99
532.998	14703.03
533.364	14759.3
533.73	14802.24
534.095	14952.97
534.461	14911.61
534.826	14985.51
535.192	15011.27
535.557	15175.56
535.923	15162.68
536.288	15272.73
536.653	15343.92
537.019	15314.54
537.384	15340.98
537.749	15524.7
538.114	15470.24
538.479	15547.08
538.845	15699.39
539.21	15687.19
539.575	15731.93
539.94	15760.63
540.305	15900.06
540.67	15957.01
541.034	16006.27
541.399	15995.88
541.764	16091.02
542.129	16180.51
542.494	16256.44
542.858	16260.73
543.223	16360.84
543.587	16536.66
543.952	16463.89
544.316	16469.99
544.681	16613.72
545.045	16557.45
545.41	16716.54
545.774	16791.11
546.138	16876.76
546.503	16851.68
546.867	16834.27
547.231	17059.58
547.595	17031.56
547.959	17108.17
548.324	17167.6
548.688	17211.89
549.052	17226.58
549.416	17284.21
549.779	17293.02
550.143	17419.57
550.507	17607.59
550.871	17558.78
551.235	17532.79
551.599	17713.12
551.962	17824.98
552.326	17787.92
552.689	17938.88
553.053	17804.87
553.417	17905.89
553.78	18191.08
554.143	18075.82
554.507	18134.35
554.87	18118.31
555.234	18429.71
555.597	18335.93
555.96	18381.13
556.323	18415.02
556.686	18527.56
557.05	18598.52
557.413	18670.84
557.776	18739.76
558.139	18865.63
558.502	18846.88
558.865	18912.19
559.228	19037.61
559.59	19081.9
559.953	19166.64
560.316	19341.78
560.679	19292.97
561.041	19437.14
561.404	19503.36
561.767	19597.82
562.129	19526.63
562.492	19719.62
562.854	19770.47
563.217	19786.29
563.579	19984.7
563.941	19961.42
564.304	20125.04
564.666	20228.31
565.028	20228.31
565.39	20282.55
565.753	20521.86
566.115	20435.76
566.477	20559.37
566.839	20660.16
567.201	20765.47
567.563	20701.97
567.925	21011.11
568.287	20855.64
568.648	20955.97
569.01	21130.21
569.372	21280.71
569.734	21113.48
570.095	21331.11
570.457	21400.93
570.819	21485.68
571.18	21503.08
571.542	21713.69
571.903	21705.56
572.265	21792.34
572.626	21909.17
572.987	21864.65
573.349	22104.19
573.71	22164.76
574.071	22169.95
574.432	22374.47
574.794	22507.57
575.155	22562.94
575.516	22496.05
575.877	22673.67
576.238	22890.61
576.599	22871.86
576.96	22979.65
577.32	23170.83
577.681	23245.41
578.042	23439.3
578.403	23415.57
578.763	23647.66
579.124	23702.34
579.485	23916.35
579.845	24048.55
580.206	24040.19
580.566	24119.06
580.927	24423.91
581.287	24526.95
581.648	24682.2
582.008	24750
582.368	24941.41
582.728	25133.72
583.089	25133.72
583.449	25453.48
583.809	25610.99
584.169	25689.86
584.529	25805.34
584.889	26119.23
585.249	26030.64
585.609	26213.01
585.969	26628.14
586.329	26695.71
586.688	26883.95
587.048	26912.43
587.408	27103.16
587.768	27405.07
588.127	27463.15
588.487	27707.66
588.846	27963.47
589.206	28024.72
589.565	28245.73
589.925	28537.92
590.284	28683.23
590.643	28894.3
591.003	29114.4
591.362	29387.84
591.721	29395.98
592.08	29674.16
592.44	29839.13
592.799	30066.02
593.158	30125
593.517	30280.93
593.876	30539
594.235	30668.94
594.593	30832.1
594.952	31162.71
595.311	31122.71
595.67	31371.97
596.029	31872.52
596.387	31918.17
596.746	32144.15
597.104	32286.07
597.463	32283.36
597.822	32740.98
598.18	32600.41
598.538	32821.88
598.897	33061.64
599.255	33033.4
599.613	33711.8
599.972	33581.41
600.33	33790.21
600.688	33865.24
601.046	33974.62
601.404	34380.03
601.762	34455.51
602.12	34729.85
602.478	34854.59
602.836	34953.8
603.194	34860.69
603.552	35078.31
603.91	35045.77
604.268	35341.13
604.625	35384.3
604.983	35656.6
605.341	35635.36
605.698	35806.88
606.056	36041
606.413	36040.55
606.771	36288.23
607.128	36505.85
607.485	36343.14
607.843	36570.03
608.2	36886.63
608.557	37051.6
608.914	36863.35
609.272	37167.53
609.629	37462.21
609.986	37606.38
610.343	37589.21
610.7	37876.43
611.057	37986.71
611.414	37927.28
611.771	38005.7
612.127	38304.22
612.484	38323.65
612.841	38453.14
613.198	38368.85
613.554	38500.82
613.911	38853.58
614.267	38892
614.624	38944.2
614.98	39055.61
615.337	39130.64
615.693	39130.64
616.05	39131.09
616.406	39571.76
616.762	39440.01
617.118	39433.45
617.475	39525.2
617.831	39744.18
618.187	39731.98
618.543	39898.08
618.899	39979.43
619.255	40068.69
619.611	40150.95
619.967	40360.89
620.323	40372.86
620.678	40282.02
621.034	40446.54
621.39	40364.73
621.746	40375.12
622.101	40734.66
622.457	40434.78
622.812	40641.33
623.168	40721.33
623.523	40834.1
623.879	40871.83
624.234	40628.23
624.589	40961.55
624.945	40951.38
625.3	41034.54
625.655	40950.93
626.01	40976.46
626.365	41084.71
626.72	41031.6
627.075	41077.93
627.43	41180.75
627.785	41232.5
628.14	41215.33
628.495	41284.03
628.85	41328.09
629.205	41101.89
629.559	41377.13
629.914	41144.14
630.269	41342.78
630.623	41258.27
630.978	41137.82
631.332	41418.94
631.687	41459.39
632.041	41071.6
632.396	41434.98
632.75	41081.55
633.104	41359.51
633.459	41132.85
633.813	41199.28
634.167	41260.98
634.521	41254.42
634.875	41187.08
635.229	41112.96
635.583	41033.86
635.937	41120.42
636.291	41002.23
636.645	41065.5
636.999	40912.51
637.352	41151.15
637.706	40982.57
638.06	41064.82
638.413	40962.23
638.767	40858.73
639.121	41042
639.474	40836.13
639.828	40808.79
640.181	40870.25
640.534	40953.19
640.888	40870.03
641.241	40647.89
641.594	40890.14
641.947	40984.83
642.301	40767.43
642.654	40829.35
643.007	40781.22
643.36	40775.11
643.713	40665.06
644.066	40807.2
644.419	40547.32
644.771	40335.8
645.124	40087
645.477	40059.43
645.83	39669.15
646.182	39538.08
646.535	39474.81
646.888	39466.9
647.24	39195.04
647.593	39524.3
647.945	39463.96
648.298	39300.8
648.65	39226
649.002	39192.78
649.355	39280.69
649.707	39286.34
650.059	39484.53
650.411	39852.88
650.763	39851.52
651.115	40327.22
651.467	40132.19
651.819	40078.41
652.171	40093.1
652.523	39981.24
652.875	40035.47
653.227	39986.66
653.578	40054.23
653.93	39980.33
654.282	39846.55
654.633	39716.39
654.985	39751.86
655.337	39844.29
655.688	39864.18
656.039	39953.89
656.391	39576.05
656.742	39753.22
657.094	39732.66
657.445	39779.21
657.796	39659.44
658.147	39640.23
658.498	39578.99
658.849	39711.41
659.2	39566.56
659.551	39595.03
659.902	39721.58
660.253	39578.31
660.604	39741.47
660.955	39472.78
661.306	39552.77
661.656	39626.67
662.007	39624.86
662.358	39609.72
662.708	39483.17
663.059	39519.55
663.409	39199.56
663.76	39591.42
664.11	39545.54
664.461	39543.28
664.811	39629.61
665.161	39655.37
665.511	39456.05
665.862	39435.71
666.212	39572.89
666.562	39547.12
666.912	39540.34
667.262	39475.49
667.612	39351.2
667.962	39405.66
668.312	39372.67
668.662	39602.04
669.011	39292.89
669.361	39338.77
669.711	39208.83
670.06	39201.37
670.41	39277.98
670.76	39100.13
671.109	39401.82
671.459	39358.43
671.808	39107.59
672.157	39255.38
672.507	39077.31
672.856	39086.57
673.205	39040.92
673.554	39222.61
673.904	38953.47
674.253	39177.64
674.602	39103.52
674.951	38527.26
675.3	38339.7
675.649	38997.08
675.998	38935.39
676.346	38967.25
676.695	39164.08
677.044	38932.45
677.393	38899.91
677.741	38945.33
678.09	38775.84
678.438	38797.09
678.787	38920.93
679.135	38895.39
679.484	38584.66
679.832	38805.45
680.181	38596.64
680.529	38603.19
680.877	38463.54
681.225	38495.17
681.573	38612.69
681.922	38355.52
682.27	38253.82
682.618	38373.82
682.966	38406.81
683.314	38437.32
683.661	38249.53
684.009	38142.64
684.357	38007.05
684.705	37928.86
685.053	38108.07
685.4	37895.64
685.748	37674.4
686.095	37721.86
686.443	37589.66
686.79	37569.1
687.138	37723.9
687.485	37655.87
687.832	37454.07
688.18	37419.72
688.527	37283.45
688.874	37186.28
689.221	37238.03
689.568	37071.26
689.915	37066.74
690.262	36934.99
690.609	36850.02
690.956	36757.14
691.303	36727.76
691.65	36505.17
691.997	36534.77
692.344	36304.95
692.69	36342.46
693.037	36324.38
693.383	36171.85
693.73	36226.31
694.077	35969.82
694.423	35919.2
694.769	35943.38
695.116	35818.18
695.462	35733.21
695.808	35632.65
696.155	35756.04
696.501	35369.83
696.847	35418.42
697.193	35267.24
697.539	35316.5
697.885	35053
698.231	34918.32
698.577	34993.57
698.923	34879
699.269	34665.44
699.614	34711.54
699.96	34627.71
700.306	34556.97
700.651	34409.86
700.997	34265.23
701.342	34307.94
701.688	34179.81
702.033	34081.96
702.379	33998.34
702.724	33906.37
703.069	33942.53
703.415	33694.85
703.76	33525.81
704.105	33656.21
704.45	33600.61
704.795	33372.15
705.14	33284.69
705.485	33245.59
705.83	33163.56
706.175	33213.96
706.52	33096.22
706.865	32993.85
707.209	33007.18
707.554	33015.32
707.899	32893.74
708.243	32712.28
708.588	32731.48
708.932	32400.19
709.277	32461.21
709.621	32436.58
709.966	32286.3
710.31	32394.32
710.654	32103.48
710.998	32101.22
711.342	32149.35
711.687	32070.48
712.031	31883.82
712.375	31813.54
712.719	31879.08
713.063	31722.47
713.407	31885.63
713.75	31694.9
714.094	31610.84
714.438	31548.46
714.782	31516.83
715.125	31283.39
715.469	31376.27
715.812	31176.95
716.156	31082.71
716.499	31088.59
716.843	31271.41
717.186	30945.54
717.53	31229.6
717.873	31034.35
718.216	30987.35
718.559	30732.21
718.902	30642.5
719.246	30600.01
719.589	30568.38
719.932	30548.94
720.275	30557.76
720.617	30372.22
720.96	30276.63
721.303	30332.23
721.646	30388.95
721.989	30261.04
722.331	30206.8
722.674	30092.23
723.016	30318.89
723.359	30118.67
723.701	30124.55
724.044	29928.17
724.386	29746.25
724.729	29938.56
725.071	29809.53
725.413	29800.26
725.755	29829.19
726.097	29615.86
726.439	29548.29
726.782	29558.23
727.124	29760.94
727.465	29634.16
727.807	29388.07
728.149	29480.04
728.491	29364.57
728.833	29382.87
729.175	29324.12
729.516	29207.28
729.858	29134.52
730.199	29153.05
730.541	29046.16
730.882	28917.35
731.224	29073.05
731.565	28804.13
731.906	28839.61
732.248	28952.83
732.589	28808.2
732.93	28700.18
733.271	28788.54
733.612	28694.75
733.953	28763
734.294	28682.1
734.635	28580.63
734.976	28671.03
735.317	28487.75
735.658	28609.33
735.999	28490.92
736.339	28408.66
736.68	28396.23
737.021	28320.75
737.361	28250.02
737.702	28273.97
738.042	28154.66
738.383	28089.57
738.723	28200.98
739.063	28145.16
739.404	28159.85
739.744	27960.08
740.084	27904.49
740.424	27972.06
740.764	28000.53
741.104	27949.69
741.444	27813.2
741.784	27731.62
742.124	27778.62
742.464	27702.69
742.804	27653.65
743.143	27524.16
743.483	27554.44
743.823	27453.88
744.162	27462.24
744.502	27492.53
744.841	27303.83
745.181	27392.19
745.52	27148.13
745.86	27318.74
746.199	27173.44
746.538	27162.82
746.877	27242.14
747.216	27214.79
747.556	27054.12
747.895	27078.98
748.234	26955.14
748.573	27025.42
748.911	26836.72
749.25	26887.57
749.589	26716.05
749.928	26704.75
750.267	26757.63
750.605	26669.27
750.944	26636.73
751.283	26500.69
751.621	26641.25
751.96	26331.65
752.298	26432.89
752.636	26411.65
752.975	26306.79
753.313	26196.97
753.651	26348.83
753.989	26204.42
754.327	26049.4
754.666	25919.69
755.004	26053.02
755.342	25924.88
755.679	26030.87
756.017	25865
756.355	25845.34
756.693	25715.4
757.031	25804.89
757.368	25614.83
757.706	25542.75
