Data from hue_320_FLMS001491_28.txt Node
Date: Mon Feb 06 15:46:59 GMT 2017
User: dcchb
Spectrometer: FLMS00149
Trigger mode: 0
Integration Time (sec): 2.000000E-2
Scans to average: 10
Electric dark correction enabled: true
Nonlinearity correction enabled: false
Boxcar width: 0
XAxis mode: Wavelengths
Number of Pixels in Spectrum: 2048
>>>>>Begin Spectral Data<<<<<
341.393	-0.18
341.776	-0.18
342.16	-0.18
342.543	-56
342.927	-57.36
343.31	-63.01
343.693	-65.04
344.077	-62.33
344.46	-54.65
344.843	-60.97
345.226	-54.87
345.61	-35.21
345.993	-26.4
346.376	-12.61
346.759	29.42
347.142	36.2
347.525	25.35
347.908	73.26
348.291	68.29
348.674	88.4
349.057	114.16
349.44	142.19
349.823	140.15
350.206	169.53
350.588	188.96
350.971	233.93
351.354	238.68
351.737	243.88
352.119	253.14
352.502	243.65
352.884	279.13
353.267	296.53
353.65	294.5
354.032	306.93
354.414	322.52
354.797	314.84
355.179	319.13
355.562	353.25
355.944	327.72
356.326	338.11
356.709	332.24
357.091	322.07
357.473	326.14
357.855	320.71
358.238	340.6
358.62	329.3
359.002	340.15
359.384	349.64
359.766	350.77
360.148	333.82
360.53	320.26
360.912	326.81
361.294	328.17
361.676	337.21
362.057	332.91
362.439	334.27
362.821	320.26
363.203	323.2
363.584	331.79
363.966	337.21
364.348	343.31
364.729	316.42
365.111	309.41
365.493	331.56
365.874	332.01
366.256	314.38
366.637	322.29
367.019	294.72
367.4	325.91
367.781	319.13
368.163	323.42
368.544	298.79
368.925	300.15
369.306	325.01
369.688	314.38
370.069	321.16
370.45	306.25
370.831	302.63
371.212	301.73
371.593	314.84
371.974	296.76
372.355	316.19
372.736	316.64
373.117	328.17
373.498	314.84
373.879	324.1
374.26	326.59
374.641	329.53
375.021	315.29
375.402	329.75
375.783	318
376.163	328.62
376.544	335.63
376.925	346.25
377.305	296.53
377.686	325.68
378.066	326.59
378.447	332.91
378.827	330.66
379.208	326.36
379.588	328.62
379.968	317.77
380.349	336.76
380.729	333.59
381.109	334.95
381.489	356.42
381.87	344.44
382.25	331.56
382.63	351.9
383.01	357.32
383.39	354.16
383.77	355.74
384.15	323.88
384.53	332.01
384.91	354.84
385.29	341.95
385.67	347.15
386.049	359.35
386.429	340.6
386.809	352.8
387.189	344.44
387.568	353.25
387.948	341.95
388.328	372.24
388.707	360.71
389.087	377.43
389.466	366.59
389.846	363.2
390.225	365.23
390.605	341.05
390.984	350.32
391.363	365.91
391.743	373.82
392.122	339.69
392.501	362.07
392.881	373.37
393.26	375.17
393.639	363.42
394.018	360.48
394.397	369.3
394.776	367.49
395.155	414.72
395.534	382.86
395.913	385.57
396.292	395.51
396.671	396.64
397.05	393.48
397.429	375.85
397.808	399.35
398.186	391.67
398.565	405
398.944	372.69
399.323	394.83
399.701	380.37
400.08	382.18
400.458	381.73
400.837	375.4
401.215	386.92
401.594	378.11
401.972	394.61
402.351	421.05
402.729	389.18
403.107	414.49
403.486	410.43
403.864	412.69
404.242	423.08
404.62	425.57
404.999	419.24
405.377	432.35
405.755	429.64
406.133	414.95
406.511	444.78
406.889	429.18
407.267	447.94
407.645	455.17
408.023	432.8
408.401	442.06
408.779	477.32
409.156	455.62
409.534	462.18
409.912	463.31
410.29	500.14
410.667	458.11
411.045	485.23
411.422	489.52
411.8	486.58
412.178	503.53
412.555	511.22
412.933	522.74
413.31	516.86
413.687	514.15
414.065	527.49
414.442	537.66
414.819	534.49
415.197	546.47
415.574	562.74
415.951	555.96
416.328	541.5
416.705	559.58
417.082	572.68
417.46	556.19
417.837	586.02
418.214	576.75
418.591	564.32
418.967	610.65
419.344	597.77
419.721	603.64
420.098	613.81
420.475	628.95
420.852	620.59
421.228	639.12
421.605	629.4
421.982	632.57
422.358	653.36
422.735	653.13
423.111	650.42
423.488	655.39
423.864	648.84
424.241	658.78
424.617	689.74
424.994	717.31
425.37	700.14
425.746	702.62
426.123	693.13
426.499	704.66
426.875	720.02
427.251	719.35
427.627	751.44
428.003	740.81
428.379	748.95
428.756	742.62
429.132	760.02
429.507	754.82
429.883	772.45
430.259	786.24
430.635	795.73
431.011	786.69
431.387	833.69
431.763	824.65
432.138	816.07
432.514	831.43
432.89	851.55
433.265	863.07
433.641	852.22
434.016	875.73
434.392	872.56
434.767	911.66
435.143	882.96
435.518	906.23
435.894	902.84
436.269	902.62
436.644	932.67
437.02	938.55
437.395	936.29
437.77	946.46
438.145	951.88
438.52	944.2
438.895	999.56
439.271	986.91
439.646	999.34
440.021	993.01
440.395	998.89
440.77	989.39
441.145	1024.87
441.52	1025.1
441.895	1029.62
442.27	1046.12
442.645	1026.46
443.019	1045.66
443.394	1057.19
443.769	1033.46
444.143	1045.66
444.518	1088.15
444.892	1072.33
445.267	1093.8
445.641	1061.03
446.016	1083.18
446.39	1074.59
446.764	1095.83
447.139	1071.88
447.513	1065.1
447.887	1091.09
448.262	1131.54
448.636	1094.02
449.01	1095.15
449.384	1088.6
449.758	1110.97
450.132	1138.09
450.506	1149.39
450.88	1136.28
451.254	1135.15
451.628	1150.52
452.002	1171.76
452.376	1153.91
452.75	1148.26
453.123	1154.81
453.497	1178.99
453.871	1173.34
454.244	1175.15
454.618	1219.22
454.992	1220.35
455.365	1217.19
455.739	1241.14
456.112	1234.59
456.486	1257.86
456.859	1242.5
457.232	1285.88
457.606	1290.4
457.979	1279.33
458.352	1270.52
458.725	1332.66
459.099	1297.64
459.472	1310.52
459.845	1341.25
460.218	1354.81
460.591	1356.62
460.964	1305.77
461.337	1363.4
461.71	1359.33
462.083	1376.96
462.456	1391.19
462.829	1388.48
463.201	1422.83
463.574	1421.47
463.947	1411.76
464.32	1461.47
464.692	1454.92
465.065	1462.6
465.438	1491.3
465.81	1504.18
466.183	1489.04
466.555	1515.93
466.928	1550.51
467.3	1526.56
467.672	1575.37
468.045	1525.88
468.417	1559.1
468.789	1573.33
469.161	1583.05
469.534	1605.42
469.906	1645.65
470.278	1615.14
470.65	1640
471.022	1681.58
471.394	1681.13
471.766	1700.34
472.138	1723.16
472.51	1757.51
472.882	1753.67
473.253	1769.71
473.625	1756.83
473.997	1768.58
474.369	1822.14
474.74	1832.99
475.112	1857.39
475.484	1885.19
475.855	1896.26
476.227	1901.69
476.598	1935.81
476.97	1935.13
477.341	2005.19
477.713	1991.18
478.084	2036.6
478.455	2056.94
478.827	2083.83
479.198	2136.26
479.569	2126.09
479.94	2179.65
480.311	2163.15
480.682	2218.74
481.053	2250.83
481.424	2263.49
481.795	2278.63
482.166	2280.21
482.537	2297.84
482.908	2349.13
483.279	2366.76
483.65	2414.67
484.021	2427.55
484.391	2447.44
484.762	2447.44
485.133	2490.82
485.503	2505.74
485.874	2562.01
486.244	2593.65
486.615	2612.18
486.985	2618.73
487.356	2644.27
487.726	2655.34
488.097	2700.54
488.467	2704.38
488.837	2748.9
489.207	2786.18
489.578	2831.15
489.948	2822.79
490.318	2829.8
490.688	2872.28
491.058	2894.43
491.428	2901.89
491.798	2959.74
492.168	2988.66
492.538	3006.74
492.908	3003.58
493.278	3093.75
493.648	3072.05
494.017	3051.49
494.387	3072.73
494.757	3121.99
495.126	3128.77
495.496	3185.95
495.866	3191.6
496.235	3185.5
496.605	3225.72
496.974	3227.08
497.344	3261.65
497.713	3270.24
498.082	3246.74
498.452	3296
498.821	3307.98
499.19	3339.84
499.559	3300.07
499.928	3335.32
500.298	3393.17
500.667	3372.16
501.036	3374.42
501.405	3388.2
501.774	3394.08
502.143	3438.6
502.512	3436.56
502.88	3461.42
503.249	3463.91
503.618	3512.49
503.987	3491.93
504.356	3509.78
504.724	3486.5
505.093	3572.15
505.462	3579.84
505.83	3559.04
506.199	3594.3
506.567	3663.67
506.936	3608.31
507.304	3647.4
507.672	3606.73
508.041	3689.21
508.409	3677.69
508.777	3642.21
509.145	3706.84
509.514	3675.43
509.882	3747.06
510.25	3733.28
510.618	3722.88
510.986	3744.12
511.354	3736.44
511.722	3765.37
512.09	3829.77
512.458	3843.78
512.826	3793.16
513.193	3798.59
513.561	3810.11
513.929	3882.2
514.297	3858.47
514.664	3861.41
515.032	3850.34
515.4	3882.2
515.767	3907.74
516.135	3929.43
516.502	3907.74
516.869	3925.14
517.237	3939.83
517.604	3950.67
517.972	3938.47
518.339	3980.28
518.706	4017.11
519.073	4019.6
519.44	3991.8
519.808	4007.62
520.175	4023.67
520.542	4054.85
520.909	4035.42
521.276	4075.42
521.643	4055.75
522.009	4074.96
522.376	4100.05
522.743	4116.32
523.11	4195.86
523.477	4202.64
523.843	4210.33
524.21	4192.47
524.577	4208.52
524.943	4241.96
525.31	4256.2
525.676	4303.21
526.043	4283.09
526.409	4317.89
526.776	4361.51
527.142	4362.19
527.508	4376.2
527.874	4402.64
528.241	4394.96
528.607	4425.46
528.973	4483.31
529.339	4408.74
529.705	4484.9
530.071	4544.78
530.437	4509.98
530.803	4538.68
531.169	4593.59
531.535	4605.57
531.901	4597.89
532.267	4599.02
532.632	4649.41
532.998	4668.85
533.364	4645.8
533.73	4711.56
534.095	4709.52
534.461	4748.17
534.826	4760.14
535.192	4776.41
535.557	4764.21
535.923	4795.4
536.288	4808.73
536.653	4822.06
537.019	4819.58
537.384	4862.51
537.749	4887.37
538.114	4932.34
538.479	4898.9
538.845	4924.21
539.21	4940.48
539.575	4987.71
539.94	5047.59
540.305	5040.36
540.67	5042.17
541.034	5076.97
541.399	5064.09
541.764	5070.42
542.129	5148.38
542.494	5113.35
542.858	5173.47
543.223	5182.73
543.587	5211.43
543.952	5241.49
544.316	5253.01
544.681	5229.28
545.045	5254.82
545.41	5302.95
545.774	5320.35
546.138	5338.43
546.503	5352.44
546.867	5406.23
547.231	5416.4
547.595	5426.57
547.959	5465.21
548.324	5434.93
548.688	5457.75
549.052	5454.36
549.416	5531.42
549.779	5506.56
550.143	5560.12
550.507	5587.69
550.871	5562.83
551.235	5590.4
551.599	5627.01
551.962	5603.28
552.326	5639.89
552.689	5705.43
553.053	5662.94
553.417	5663.85
553.78	5714.02
554.143	5725.54
554.507	5774.13
554.87	5766.67
555.234	5841.02
555.597	5808.7
555.96	5824.3
556.323	5817.74
556.686	5846.67
557.05	5841.7
557.413	5889.38
557.776	5921.24
558.139	5918.53
558.502	5935.03
558.865	6004.18
559.228	5982.26
559.59	5992.65
559.953	5975.25
560.316	6060.22
560.679	6021.35
561.041	6088.92
561.404	6106.1
561.767	6132.76
562.129	6132.54
562.492	6187.9
562.854	6208.01
563.217	6220.22
563.579	6200.33
563.941	6326.43
564.304	6202.14
564.666	6328.92
565.028	6310.61
565.39	6332.31
565.753	6352.42
566.115	6400.33
566.477	6404.39
566.839	6438.07
567.201	6426.09
567.563	6433.55
567.925	6440.55
568.287	6430.83
568.648	6492.75
569.01	6547.44
569.372	6549.25
569.734	6577.27
570.095	6645.97
570.457	6617.27
570.819	6705.18
571.18	6682.8
571.542	6734.55
571.903	6771.39
572.265	6814.33
572.626	6818.17
572.987	6858.17
573.349	6905.17
573.71	6882.12
574.071	6975.45
574.432	6995.79
574.794	7156.24
575.155	7103.13
575.516	7167.54
575.877	7294.99
576.238	7321.66
576.599	7356.69
576.96	7404.37
577.32	7407.76
577.681	7562.33
578.042	7587.64
578.403	7658.37
578.763	7743.12
579.124	7830.12
579.485	7972.49
579.845	8057.01
580.206	8107.85
580.566	8181.52
580.927	8320.28
581.287	8433.27
581.648	8547.84
582.008	8734.5
582.368	8805.01
582.728	8930.66
583.089	9087.04
583.449	9235.05
583.809	9359.34
584.169	9572.9
584.529	9726.57
584.889	9923.4
585.249	10063.73
585.609	10157.52
585.969	10456.04
586.329	10673.43
586.688	10763.15
587.048	10997.95
587.408	11236.36
587.768	11409.69
588.127	11681.77
588.487	11826.85
588.846	12183.9
589.206	12334.18
589.565	12545.02
589.925	12901.17
590.284	13102.75
590.643	13399.46
591.003	13640.81
591.362	13970.52
591.721	14189.27
592.08	14388.36
592.44	14798.98
592.799	15084.84
593.158	15227.66
593.517	15510.37
593.876	15881.88
594.235	16133.4
594.593	16384.7
594.952	16647.29
595.311	16924.12
595.67	17238.23
596.029	17674.61
596.387	18016.52
596.746	18266.68
597.104	18393.01
597.463	18823.5
597.822	19174.68
598.18	19316.82
598.538	19640.43
598.897	20002.91
599.255	20153.64
599.613	20682.21
599.972	20816.67
600.33	21026.83
600.688	21358.35
601.046	21748.62
601.404	22092.12
601.762	22283.52
602.12	22622.72
602.478	22883.73
602.836	23186.1
603.194	23326.21
603.552	23619.53
603.91	23834.9
604.268	24158.5
604.625	24224.26
604.983	24732.73
605.341	24866.51
605.698	25135.2
606.056	25551.91
606.413	25661.06
606.771	26047.49
607.128	26328.16
607.485	26478.44
607.843	26696.52
608.2	27004.53
608.557	27246.78
608.914	27372.43
609.272	27684.74
609.629	28006.54
609.986	28241.56
610.343	28345.29
610.7	28771.72
611.057	28828.44
611.414	29041.54
611.771	29214.87
612.127	29420.51
612.484	29712.71
612.841	29962.42
613.198	29856.66
613.554	30159.93
613.911	30530.09
614.267	30585.45
614.624	30700.93
614.98	31043.97
615.337	31209.84
615.693	31234.02
616.05	31433.11
616.406	31706.33
616.762	31814.12
617.118	32054.34
617.475	32122.14
617.831	32194
618.187	32457.27
618.543	32537.94
618.899	32879.86
619.255	32830.14
619.611	32956.24
619.967	33103.8
620.323	33239.85
620.678	33411.14
621.034	33347.87
621.39	33470.12
621.746	33507.86
622.101	34137.22
622.457	33901.07
622.812	33918.25
623.168	34082.54
623.523	34274.17
623.879	34334.96
624.234	34228.97
624.589	34518.23
624.945	34690.43
625.3	34794.61
625.655	34691.79
626.01	34865.79
626.365	34987.6
626.72	35071.44
627.075	35098.33
627.43	34996.41
627.785	35146.46
628.14	35275.27
628.495	35303.75
628.85	35388.94
629.205	35316.4
629.559	35586.9
629.914	35438.43
630.269	35518.88
630.623	35614.02
630.978	35508.71
631.332	35715.49
631.687	35781.25
632.041	35665.09
632.396	35984.18
632.75	35804.52
633.104	35885.43
633.459	35799.78
633.813	35631.2
634.167	35741.93
634.521	35716.62
634.875	35894.92
635.229	35819.44
635.583	35690.4
635.937	35728.59
636.291	35806.11
636.645	35746.67
636.999	35738.76
637.352	35905.31
637.706	35692.44
638.06	35814.69
638.413	35863.51
638.767	35767.92
639.121	35782.15
639.474	35795.26
639.828	35840.46
640.181	35872.77
640.534	35924.75
640.888	35921.13
641.241	35776.28
641.594	35753.9
641.947	35929.72
642.301	35653.34
642.654	35860.57
643.007	35815.82
643.36	35826.9
643.713	35629.39
644.066	35848.37
644.419	35686.11
644.771	35459.22
645.124	35206.12
645.477	35139.91
645.83	34925.23
646.182	34849.97
646.535	34785.12
646.888	34816.75
647.24	34606.59
647.593	34951.67
647.945	34856.3
648.298	34570.21
648.65	34588.29
649.002	34400.72
649.355	34668.96
649.707	34555.52
650.059	34730.43
650.411	35174.26
650.763	35126.35
651.115	35577.41
651.467	35381.48
651.819	35351.88
652.171	35373.35
652.523	35335.84
652.875	35407.92
653.227	35138.33
653.578	35491.76
653.93	35468.04
654.282	35296.29
654.633	35302.62
654.985	35220.13
655.337	35272.11
655.688	35293.8
656.039	35375.61
656.391	35175.16
656.742	34955.51
657.094	35152.34
657.445	35443.86
657.796	35113.47
658.147	35126.8
658.498	35286.8
658.849	35141.72
659.2	35138.78
659.551	35086.13
659.902	35312.79
660.253	35229.4
660.604	35223.52
660.955	35018.33
661.306	35088.84
661.656	35167.48
662.007	34956.19
662.358	35083.19
662.708	35125.22
663.059	35074.15
663.409	34857.66
663.76	35098.33
664.11	35277.98
664.461	34939.46
664.811	35140.36
665.161	34976.98
665.511	35073.7
665.862	35045.67
666.212	35061.95
666.562	35120.7
666.912	35001.83
667.262	34964.09
667.612	34918.22
667.962	35043.87
668.312	34962.29
668.662	35122.96
669.011	34999.8
669.361	34927.03
669.711	34877.09
670.06	34801.16
670.41	34819.69
670.76	34827.6
671.109	35008.39
671.459	34899.69
671.808	34908.95
672.157	34989.4
672.507	34811.78
672.856	34722.75
673.205	34886.36
673.554	34902.85
673.904	34759.81
674.253	34966.81
674.602	34930.65
674.951	34258.8
675.3	34165.02
675.649	34819.01
675.998	34725.01
676.346	34785.57
676.695	34750.99
677.044	34509.87
677.393	34645.01
677.741	34642.07
678.09	34544.9
678.438	34485.24
678.787	34635.29
679.135	34547.83
679.484	34324.11
679.832	34408.18
680.181	34289.54
680.529	34334.51
680.877	34318.24
681.225	34161.18
681.573	34520.72
681.922	34175.41
682.27	34158.01
682.618	34128.18
682.966	33968.87
683.314	34142.42
683.661	34027.4
684.009	33831.02
684.357	33924.35
684.705	33800.74
685.053	33807.52
685.4	33748.76
685.748	33543.79
686.095	33637.35
686.443	33511.93
686.79	33550.12
687.138	33556
687.485	33480.07
687.832	33324.14
688.18	33445.49
688.527	33208.21
688.874	33169.79
689.221	33112.84
689.568	32961.89
689.915	33001.66
690.262	33109.45
690.609	32731.84
690.956	32801.67
691.303	32816.81
691.65	32537.04
691.997	32596.93
692.344	32434.22
692.69	32428.12
693.037	32492.97
693.383	32116.94
693.73	32316.25
694.077	32070.16
694.423	31978.86
694.769	32054.79
695.116	31916.27
695.462	31951.29
695.808	31718.76
696.155	31876.94
696.501	31551.08
696.847	31612.32
697.193	31350.18
697.539	31531.87
697.885	31387.92
698.231	31197.41
698.577	31140.69
698.923	31003.75
699.269	31003.97
699.614	30879.23
699.96	30788.16
700.306	30895.05
700.651	30772.57
700.997	30702.96
701.342	30570.31
701.688	30419.36
702.033	30475.4
702.379	30380.94
702.724	30342.07
703.069	30347.72
703.415	30049.2
703.76	30002.42
704.105	30153.6
704.45	29919.48
704.795	29713.39
705.14	29681.75
705.485	29769.43
705.83	29669.77
706.175	29693.05
706.52	29637.68
706.865	29446.05
707.209	29489.21
707.554	29268.43
707.899	29399.95
708.243	29197.47
708.588	29266.84
708.932	28916.57
709.277	28951.82
709.621	29090.12
709.966	28853.52
710.31	28940.75
710.654	28638.61
710.998	28674.54
711.342	28613.75
711.687	28556.81
712.031	28411.95
712.375	28272.97
712.719	28388.45
713.063	28367.66
713.407	28368.79
713.75	28223.03
714.094	28244.95
714.438	28106.87
714.782	28072.52
715.125	27926.54
715.469	27963.6
715.812	27815.58
716.156	27732.87
716.499	27646.1
716.843	27732.42
717.186	27672.54
717.53	27862.13
717.873	27733.32
718.216	27608.81
718.559	27544.63
718.902	27388.47
719.246	27353.9
719.589	27293.79
719.932	27282.04
720.275	27146.67
720.617	27172.21
720.96	27143.28
721.303	27084.98
721.646	27096.96
721.989	26994.81
722.331	27065.09
722.674	27037.75
723.016	27032.55
723.359	26906.23
723.701	26858.77
724.044	26664.88
724.386	26553.92
724.729	26814.48
725.071	26691.32
725.413	26627.14
725.755	26715.27
726.097	26569.06
726.439	26369.07
726.782	26332.01
727.124	26438.67
727.465	26296.07
727.807	26390.08
728.149	26393.92
728.491	26134.5
728.833	26222.4
729.175	26123.42
729.516	25981.96
729.858	25971.34
730.199	26020.15
730.541	26005.91
730.882	25959.36
731.224	26167.49
731.565	25861.28
731.906	25785.81
732.248	25897.21
732.589	25698.12
732.93	25694.28
733.271	25699.03
733.612	25688.63
733.953	25681.18
734.294	25579.03
734.635	25415.19
734.976	25524.57
735.317	25329.32
735.658	25452.03
735.999	25431.01
736.339	25324.57
736.68	25441.41
737.021	25240.73
737.361	25191.47
737.702	25438.24
738.042	25312.37
738.383	25088.87
738.723	25313.73
739.063	25179.04
739.404	25127.97
739.744	25001.42
740.084	24922.78
740.424	25117.8
740.764	24858.37
741.104	25004.58
741.444	24887.07
741.784	24848.88
742.124	24750.58
742.464	24775.21
742.804	24771.14
743.143	24623.35
743.483	24699.96
743.823	24622.9
744.162	24585.84
744.502	24627.19
744.841	24538.38
745.181	24546.29
745.52	24440.3
745.86	24392.17
746.199	24439.4
746.538	24335.22
746.877	24374.77
747.216	24350.59
747.556	24320.31
747.895	24245.51
748.234	24048
748.573	24031.05
748.911	24104.04
749.25	23990.37
749.589	23956.47
749.928	24067.43
750.267	24057.71
750.605	24040.77
750.944	23882.13
751.283	23868.34
751.621	23941.11
751.96	23728.23
752.298	23675.8
752.636	23709.93
752.975	23585.18
753.313	23583.83
753.651	23529.59
753.989	23487.56
754.327	23495.24
754.666	23325.76
755.004	23335.93
755.342	23276.27
755.679	23361.01
756.017	23208.02
756.355	23145.2
756.693	23141.81
757.031	23175.48
757.368	22972.55
757.706	22899.78
758.044	22833.11
758.381	22861.81
758.719	22809.84
759.056	22878.31
759.394	22558.32
759.731	22518.32
760.068	22502.28
