Data from hue_340_FLMS001491_14.txt Node
Date: Mon Feb 06 15:42:21 GMT 2017
User: dcchb
Spectrometer: FLMS00149
Trigger mode: 0
Integration Time (sec): 2.000000E-2
Scans to average: 10
Electric dark correction enabled: true
Nonlinearity correction enabled: false
Boxcar width: 0
XAxis mode: Wavelengths
Number of Pixels in Spectrum: 2048
>>>>>Begin Spectral Data<<<<<
341.393	8.74
341.776	8.74
342.16	8.74
342.543	-63.35
342.927	-42.56
343.31	-92.27
343.693	-81.65
344.077	-76.45
344.46	-58.6
344.843	-48.66
345.226	-33.97
345.61	-19.05
345.993	-24.25
346.376	-3.69
346.759	23.21
347.142	12.13
347.525	47.16
347.908	50.55
348.291	103.43
348.674	91.9
349.057	110.21
349.44	128.74
349.823	116.99
350.206	143.43
350.588	183.65
350.971	199.7
351.354	236.08
351.737	217.78
352.119	237.21
352.502	254.16
352.884	267.04
353.267	283.09
353.65	279.02
354.032	294.16
354.414	308.4
354.797	312.92
355.179	322.63
355.562	332.12
355.944	291
356.326	326.7
356.709	327.83
357.091	335.51
357.473	343.2
357.855	321.05
358.238	336.64
358.62	338.9
359.002	346.13
359.384	368.96
359.766	336.87
360.148	310.88
360.53	336.87
360.912	334.61
361.294	322.41
361.676	322.18
362.057	334.61
362.439	316.98
362.821	319.69
363.203	316.08
363.584	315.18
363.966	307.72
364.348	328.51
364.729	309.75
365.111	308.17
365.493	300.03
365.874	323.99
366.256	311.56
366.637	340.26
367.019	296.87
367.4	301.39
367.781	336.64
368.163	325.8
368.544	308.85
368.925	294.38
369.306	289.87
369.688	323.54
370.069	325.8
370.45	325.12
370.831	336.87
371.212	312.69
371.593	312.01
371.974	327.38
372.355	323.99
372.736	305.01
373.117	301.62
373.498	314.27
373.879	322.86
374.26	328.06
374.641	312.24
375.021	310.2
375.402	300.26
375.783	326.25
376.163	321.95
376.544	335.06
376.925	332.58
377.305	309.98
377.686	316.76
378.066	321.73
378.447	333.03
378.827	333.25
379.208	328.06
379.588	349.52
379.968	338.68
380.349	315.18
380.729	325.12
381.109	323.99
381.489	338.23
381.87	317.66
382.25	319.92
382.63	344.33
383.01	347.04
383.39	336.42
383.77	345.23
384.15	319.24
384.53	344.55
384.91	333.25
385.29	350.88
385.67	325.8
386.049	338.9
386.429	341.39
386.809	344.1
387.189	346.13
387.568	333.71
387.948	343.42
388.328	362.18
388.707	349.3
389.087	359.92
389.466	337.1
389.846	366.25
390.225	374.16
390.605	345.91
390.984	356.98
391.363	345.46
391.743	348.85
392.122	366.7
392.501	352.01
392.881	342.75
393.26	377.77
393.639	356.76
394.018	370.09
394.397	355.63
394.776	363.08
395.155	360.15
395.534	378
395.913	376.19
396.292	372.35
396.671	386.36
397.05	384.55
397.429	372.8
397.808	393.59
398.186	376.87
398.565	395.85
398.944	406.25
399.323	387.26
399.701	375.96
400.08	375.51
400.458	372.35
400.837	396.3
401.215	400.37
401.594	404.44
401.972	383.2
402.351	376.42
402.729	387.94
403.107	388.85
403.486	388.39
403.864	395.4
404.242	399.24
404.62	420.48
404.999	398.56
405.377	431.56
405.755	396.98
406.133	415.96
406.511	409.18
406.889	407.38
407.267	419.13
407.645	414.61
408.023	427.71
408.401	418.68
408.779	429.07
409.156	410.99
409.534	448.96
409.912	462.97
410.29	446.7
410.667	433.14
411.045	436.53
411.422	460.48
411.8	448.73
412.178	464.1
412.555	486.02
412.933	494.15
413.31	499.58
413.687	461.39
414.065	471.1
414.442	481.27
414.819	485.79
415.197	489.18
415.574	507.26
415.951	478.79
416.328	508.62
416.705	513.14
417.082	531.67
417.46	532.12
417.837	519.46
418.214	537.54
418.591	545.23
418.967	547.49
419.344	539.12
419.721	540.93
420.098	525.11
420.475	567.82
420.852	545.45
421.228	571.21
421.605	568.5
421.982	558.11
422.358	553.81
422.735	566.69
423.111	587.26
423.488	570.08
423.864	607.37
424.241	600.59
424.617	607.15
424.994	608.05
425.37	613.47
425.746	592.23
426.123	591.33
426.499	617.09
426.875	617.09
427.251	631.1
427.627	627.26
428.003	666.13
428.379	648.05
428.756	653.02
429.132	647.82
429.507	649.18
429.883	655.28
430.259	678.56
430.635	681.49
431.011	713.81
431.387	701.38
431.763	712
432.138	700.25
432.514	689.18
432.89	700.7
433.265	741.6
433.641	717.65
434.016	732.34
434.392	753.58
434.767	731.89
435.143	750.87
435.518	776.18
435.894	753.36
436.269	797.2
436.644	782.73
437.02	788.38
437.395	789.51
437.77	809.4
438.145	809.63
438.52	817.31
438.895	818.89
439.271	833.81
439.646	831.09
440.021	817.54
440.395	830.42
440.77	843.07
441.145	847.14
441.52	848.72
441.895	838.55
442.27	865.67
442.645	890.75
443.019	874.93
443.394	876.97
443.769	895.95
444.143	885.78
444.518	910.19
444.892	897.08
445.267	898.44
445.641	912.22
446.016	871.54
446.39	921.71
446.764	889.4
447.139	901.83
447.513	898.44
447.887	948.15
448.262	935.72
448.636	915.16
449.01	928.72
449.384	929.62
449.758	956.29
450.132	956.97
450.506	984.54
450.88	972.79
451.254	959.9
451.628	965.1
452.002	983.86
452.376	975.04
452.75	981.15
453.123	1010.07
453.497	994.48
453.871	1015.5
454.244	1018.21
454.618	1019.11
454.992	1043.52
455.365	1020.24
455.739	1067.47
456.112	1070.86
456.486	1077.19
456.859	1081.71
457.232	1094.36
457.606	1101.82
457.979	1096.17
458.352	1095.95
458.725	1119.45
459.099	1137.53
459.472	1113.12
459.845	1137.75
460.218	1162.38
460.591	1180.46
460.964	1156.96
461.337	1194.7
461.71	1189.73
462.083	1218.2
462.456	1222.72
462.829	1213
463.201	1246.68
463.574	1245.09
463.947	1257.07
464.32	1282.61
464.692	1276.96
465.065	1289.84
465.438	1288.26
465.81	1334.58
466.183	1328.48
466.555	1351.76
466.928	1374.13
467.3	1338.65
467.672	1423.85
468.045	1417.29
468.417	1393.57
468.789	1450.51
469.161	1424.07
469.534	1438.54
469.906	1452.09
470.278	1464.75
470.65	1516.95
471.022	1525.76
471.394	1537.74
471.766	1597.63
472.138	1549.27
472.51	1591.75
472.882	1626.1
473.253	1629.72
473.625	1659.09
473.997	1656.83
474.369	1695.7
474.74	1695.25
475.112	1740.9
475.484	1746.32
475.855	1777.06
476.227	1803.27
476.598	1818.19
476.97	1861.35
477.341	1856.83
477.713	1913.55
478.084	1947.45
478.455	1977.96
478.827	1985.87
479.198	2039.42
479.569	2017.5
479.94	2108.8
480.311	2103.15
480.682	2154.45
481.053	2156.03
481.424	2220.66
481.795	2240.55
482.166	2276.25
482.537	2271.28
482.908	2343.6
483.279	2351.28
483.65	2395.12
484.021	2424.05
484.391	2428.57
484.762	2480.99
485.133	2503.82
485.503	2512.41
485.874	2537.49
486.244	2613.65
486.615	2664.94
486.985	2676.7
487.356	2729.8
487.726	2737.94
488.097	2815.9
488.467	2796.01
488.837	2859.74
489.207	2877.59
489.578	2926.63
489.948	2950.36
490.318	2989
490.688	3026.06
491.058	3058.61
491.428	3071.26
491.798	3070.36
492.168	3172.05
492.538	3142.67
492.908	3183.8
493.278	3228.32
493.648	3239.17
494.017	3254.31
494.387	3328.43
494.757	3311.03
495.126	3366.85
495.496	3352.84
495.866	3393.74
496.235	3424.7
496.605	3462.44
496.974	3460.63
497.344	3480.06
497.713	3525.03
498.082	3516.67
498.452	3565.03
498.821	3587.41
499.19	3599.83
499.559	3608.2
499.928	3674.18
500.298	3722.09
500.667	3718.48
501.036	3683.22
501.405	3704.24
501.774	3729.1
502.143	3784.01
502.512	3776.1
502.88	3804.8
503.249	3850
503.618	3825.59
503.987	3853.61
504.356	3848.64
504.724	3885.02
505.093	3895.19
505.462	3912.59
505.83	3892.71
506.199	3967.51
506.567	4024.46
506.936	4042.08
507.304	4024.46
507.672	4057.68
508.041	4057.45
508.409	4089.77
508.777	4047.05
509.145	4138.8
509.514	4152.59
509.882	4156.2
510.25	4174.51
510.618	4115.3
510.986	4170.22
511.354	4221.06
511.722	4217.67
512.09	4266.26
512.458	4218.35
512.826	4276.88
513.193	4236.43
513.561	4294.51
513.929	4308.74
514.297	4357.1
514.664	4381.74
515.032	4374.05
515.4	4380.61
515.767	4399.81
516.135	4446.59
516.502	4393.49
516.869	4437.78
517.237	4487.27
517.604	4463.31
517.972	4503.77
518.339	4512.13
518.706	4489.3
519.073	4534.73
519.44	4532.01
519.808	4547.15
520.175	4559.81
520.542	4630.99
520.909	4694.27
521.276	4643.2
521.643	4623.54
522.009	4690.43
522.376	4713.25
522.743	4720.03
523.11	4745.12
523.477	4751.67
523.843	4812.68
524.21	4826.92
524.577	4887.94
524.943	4856.07
525.31	4877.77
525.676	4931.33
526.043	4937.88
526.409	4932
526.776	4982.85
527.142	5018.1
527.508	5054.49
527.874	5077.08
528.241	5080.47
528.607	5092.9
528.973	5139.68
529.339	5123.86
529.705	5177.19
530.071	5253.12
530.437	5229.85
530.803	5277.08
531.169	5285.44
531.535	5290.86
531.901	5294.48
532.267	5299.9
532.632	5367.02
532.998	5360.47
533.364	5470.07
533.73	5449.96
534.095	5434.14
534.461	5461.25
534.826	5494.25
535.192	5543.74
535.557	5564.3
535.923	5590.74
536.288	5598.2
536.653	5604.98
537.019	5607.92
537.384	5586
537.749	5639.1
538.114	5708.03
538.479	5718.65
538.845	5717.97
539.21	5738.99
539.575	5761.36
539.94	5792.77
540.305	5830.51
540.67	5776.05
541.034	5815.14
541.399	5876.39
541.764	5896.72
542.129	5928.59
542.494	5950.96
542.858	5988.25
543.223	5983.95
543.587	6009.94
543.952	6040.45
544.316	6070.28
544.681	6062.82
545.045	6135.14
545.41	6155.47
545.774	6169.26
546.138	6181.46
546.503	6176.94
546.867	6236.6
547.231	6264.62
547.595	6304.4
547.959	6331.97
548.324	6322.48
548.688	6330.16
549.052	6404.28
549.416	6373.55
549.779	6408.12
550.143	6391.85
550.507	6412.19
550.871	6454
551.235	6498.74
551.599	6486.09
551.962	6605.86
552.326	6534.67
552.689	6623.26
553.053	6499.19
553.417	6580.55
553.78	6679.08
554.143	6624.39
554.507	6681.79
554.87	6699.64
555.234	6738.96
555.597	6695.57
555.96	6733.54
556.323	6804.95
556.686	6796.36
557.05	6783.25
557.413	6888.56
557.776	6820.99
558.139	6887.43
558.502	6916.36
558.865	6913.19
559.228	6975.11
559.59	6979.63
559.953	7007.43
560.316	7036.13
560.679	7018.5
561.041	7118.61
561.404	7110.7
561.767	7185.73
562.129	7105.05
562.492	7218.95
562.854	7233.64
563.217	7179.85
563.579	7193.86
563.941	7284.48
564.304	7320.19
564.666	7367.19
565.028	7336.46
565.39	7376.23
565.753	7390.47
566.115	7436.57
566.477	7445.61
566.839	7478.38
567.201	7502.78
567.563	7502.33
567.925	7546.4
568.287	7590.01
568.648	7595.89
569.01	7655.1
569.372	7722.44
569.734	7659.61
570.095	7714.3
570.457	7771.02
570.819	7791.59
571.18	7841.98
571.542	7818.93
571.903	7933.73
572.265	7943.22
572.626	8012.83
572.987	8020.28
573.349	8073.62
573.71	8123.11
574.071	8158.36
574.432	8210.33
574.794	8289.43
575.155	8306.6
575.516	8334.63
575.877	8416.43
576.238	8506.6
576.599	8538.69
576.96	8616.2
577.32	8706.37
577.681	8722.19
578.042	8839.7
578.403	8883.31
578.763	9020.94
579.124	9086.24
579.485	9161.95
579.845	9215.05
580.206	9327.37
580.566	9470.19
580.927	9516.97
581.287	9616.85
581.648	9740.92
582.008	9915.15
582.368	10020
582.728	10203.28
583.089	10252.99
583.449	10394.46
583.809	10595.58
584.169	10757.61
584.529	10848.01
584.889	11126.64
585.249	11260.88
585.609	11429.46
585.969	11561.66
586.329	11792.61
586.688	11958.26
587.048	12178.14
587.408	12399.15
587.768	12510.33
588.127	12875.07
588.487	13049.76
588.846	13271.67
589.206	13423.31
589.565	13629.18
589.925	14032.78
590.284	14168.37
590.643	14425.09
591.003	14629.15
591.362	14950.95
591.721	15179.87
592.08	15513.65
592.44	15792.51
592.799	16001.54
593.158	16241.31
593.517	16541.42
593.876	16865.47
594.235	17189.08
594.593	17356.54
594.952	17660.26
595.311	17925.11
595.67	18203.29
596.029	18630.17
596.387	18917.85
596.746	19232.87
597.104	19460.89
597.463	19667.89
597.822	20021.32
598.18	20223.58
598.538	20424.03
598.897	20849.55
599.255	20952.6
599.613	21489.76
599.972	21576.99
600.33	22049.75
600.688	22068.28
601.046	22489.96
601.404	22843.85
601.762	23051.07
602.12	23405.19
602.478	23600.21
602.836	23950.94
603.194	24072.52
603.552	24305.73
603.91	24540.98
604.268	24848.09
604.625	25002.44
604.983	25350.45
605.341	25538.69
605.698	25889.42
606.056	26166.02
606.413	26370.08
606.771	26636.52
607.128	26827.02
607.485	26813.01
607.843	27188.37
608.2	27559.43
608.557	27890.5
608.914	27909.48
609.272	28268.34
609.629	28534.32
609.986	28679.63
610.343	28696.12
610.7	29150.12
611.057	29258.82
611.414	29413.62
611.771	29652.94
612.127	29894.06
612.484	30129.31
612.841	30369.98
613.198	30296.76
613.554	30581.27
613.911	30832.11
614.267	31029.62
614.624	31126.57
614.98	31328.37
615.337	31503.06
615.693	31705.08
616.05	31750.51
616.406	32134.9
616.762	32170.38
617.118	32276.14
617.475	32318.63
617.831	32605.4
618.187	32725.4
618.543	32916.13
618.899	33187.31
619.255	33204.93
619.611	33316.57
619.967	33500.52
620.323	33727.86
620.678	33645.15
621.034	33840.62
621.39	33755.2
621.746	33846.27
622.101	34325.81
622.457	34070.45
622.812	34201.74
623.168	34438.8
623.523	34499.14
623.879	34663.2
624.234	34526.71
624.589	34703.2
624.945	34972.34
625.3	35105.45
625.655	35074.26
626.01	35192.9
626.365	35120.14
626.72	35273.58
627.075	35288.72
627.43	35312.67
627.785	35282.39
628.14	35537.75
628.495	35583.85
628.85	35649.61
629.205	35515.83
629.559	35848.7
629.914	35674.02
630.269	35854.81
630.623	35710.18
630.978	35727.13
631.332	35961.47
631.687	35947.68
632.041	35791.08
632.396	35995.37
632.75	35869.49
633.104	35914.47
633.459	35799.44
633.813	35943.62
634.167	36067.23
634.521	35903.84
634.875	35985.65
635.229	35987.91
635.583	35911.3
635.937	35971.19
636.291	35904.3
636.645	35918.98
636.999	35966.89
637.352	36032.65
637.706	35914.69
638.06	36078.75
638.413	35925.76
638.767	35864.3
639.121	36019.1
639.474	35822.26
639.828	35943.84
640.181	35963.5
640.534	36051.18
640.888	35880.34
641.241	35693.45
641.594	35888.93
641.947	35910.17
642.301	35864.07
642.654	35946.33
643.007	35907.23
643.36	35869.27
643.713	35876.27
644.066	36001.92
644.419	35893
644.771	35570.52
645.124	35233.58
645.477	35249.62
645.83	35037.65
646.182	34904.32
646.535	34939.12
646.888	34974.6
647.24	34716.08
647.593	34875.62
647.945	34853.02
648.298	34776.87
648.65	34747.49
649.002	34620.04
649.355	34791.1
649.707	34669.98
650.059	34945
650.411	35326.68
650.763	35316.06
651.115	35775.26
651.467	35691.87
651.819	35514.93
652.171	35521.71
652.523	35463.4
652.875	35446.91
653.227	35379.79
653.578	35590.18
653.93	35503.63
654.282	35327.59
654.633	35271.77
654.985	35400.58
655.337	35470.64
655.688	35339.34
656.039	35476.96
656.391	35220.7
656.742	35312
657.094	35233.35
657.445	35392.9
657.796	35374.14
658.147	35115.62
658.498	35159.23
658.849	35316.29
659.2	35151.77
659.551	35111.1
659.902	35439.22
660.253	35181.83
660.604	35291.2
660.955	35089.4
661.306	35327.81
661.656	35222.96
662.007	35172.34
662.358	35163.75
662.708	35229.06
663.059	35178.67
663.409	35060.7
663.76	35278.78
664.11	35282.84
664.461	35221.6
664.811	35193.81
665.161	35160.36
665.511	35054.83
665.862	35119.46
666.212	35215.05
666.562	35281.49
666.912	35208.27
667.262	35197.65
667.612	35004.88
667.962	35161.49
668.312	35053.92
668.662	35272.45
669.011	35017.99
669.361	35120.59
669.711	35076.07
670.06	34922.63
670.41	35019.57
670.76	35050.53
671.109	35088.5
671.459	34957.88
671.808	35032.23
672.157	35003.53
672.507	34888.73
672.856	34927.6
673.205	34916.3
673.554	34968.95
673.904	34910.42
674.253	35015.51
674.602	34843.76
674.951	34388.18
675.3	34286.71
675.649	34753.82
675.998	34731.45
676.346	34760.37
676.695	34930.54
677.044	34606.48
677.393	34702.29
677.741	34716.53
678.09	34681.5
678.438	34653.48
678.787	34647.38
679.135	34551.34
679.484	34371.91
679.832	34533.03
680.181	34324.68
680.529	34583.88
680.877	34345.47
681.225	34350.66
681.573	34601.73
681.922	34367.39
682.27	34188.18
682.618	34248.07
682.966	34228.18
683.314	34251.46
683.661	34129.2
684.009	34061.63
684.357	33896.67
684.705	33829.1
685.053	34005.36
685.4	33864.35
685.748	33611.02
686.095	33747.06
686.443	33558.6
686.79	33493.96
687.138	33591.14
687.485	33556.34
687.832	33456.68
688.18	33614.64
688.527	33339.39
688.874	33232.05
689.221	33234.31
689.568	33166.51
689.915	33045.39
690.262	33133.52
690.609	32985.95
690.956	32829.57
691.303	32828.22
691.65	32785.96
691.997	32734.66
692.344	32582.35
692.69	32502.58
693.037	32442.92
693.383	32269.36
693.73	32317.27
694.077	32110.72
694.423	32107.33
694.769	32081.57
695.116	31978.98
695.462	31847.23
695.808	31888.58
696.155	32038.63
696.501	31778.75
696.847	31626.67
697.193	31396.17
697.539	31576.27
697.885	31302.38
698.231	31280.46
698.577	31235.72
698.923	31212.67
699.269	30984.43
699.614	30899.23
699.96	30821.94
700.306	30929.51
700.651	30757.99
700.997	30669.86
701.342	30570.2
701.688	30613.59
702.033	30403.65
702.379	30452.91
702.724	30258.12
703.069	30383.31
703.415	29899.03
703.76	30173.83
704.105	30054.28
704.45	29989.2
704.795	29748.3
705.14	29854.74
705.485	29811.12
705.83	29548.76
706.175	29722.54
706.52	29564.8
706.865	29438.48
707.209	29330.68
707.554	29316.67
707.899	29492.94
708.243	29278.71
708.588	29271.02
708.932	28972.05
709.277	28982.67
709.621	28978.83
709.966	28808.66
710.31	28900.86
710.654	28633.53
710.998	28665.39
711.342	28734.54
711.687	28585.62
712.031	28505.39
712.375	28446.64
712.719	28471.5
713.063	28443.25
713.407	28514.43
713.75	28332.74
714.094	28228.57
714.438	28142.24
714.782	28190.15
715.125	28071.73
715.469	27972.53
715.812	27821.8
716.156	27862.93
716.499	27742.48
716.843	27842.59
717.186	27678.3
717.53	27751.06
717.873	27771.18
718.216	27702.03
718.559	27583.16
718.902	27407.34
719.246	27589.94
719.589	27422.71
719.932	27276.73
720.275	27204.19
720.617	27220.91
720.96	27219.78
721.303	27170.51
721.646	27204.41
721.989	26970.97
722.331	27055.49
722.674	26946.79
723.016	27070.86
723.359	26918.32
723.701	26965.77
724.044	26864.53
724.386	26701.83
724.729	26723.75
725.071	26666.12
725.413	26703.63
725.755	26645.56
726.097	26560.13
726.439	26410.76
726.782	26468.16
727.124	26541.38
727.465	26402.17
727.807	26393.81
728.149	26313.81
728.491	26172.12
728.833	26326.02
729.175	26191.78
729.516	26047.61
729.858	26058
730.199	26049.64
730.541	26032.01
730.882	25955.41
731.224	26032.92
731.565	25871.34
731.906	25934.39
732.248	25824.79
732.589	25827.72
732.93	25726.48
733.271	25707.05
733.612	25695.52
733.953	25715.19
734.294	25521.52
734.635	25465.47
734.976	25611.23
735.317	25564
735.658	25493.95
735.999	25410.11
736.339	25351.81
736.68	25460.73
737.021	25375.99
737.361	25170.12
737.702	25313.16
738.042	25265.25
738.383	25186.39
738.723	25271.36
739.063	25140.96
739.404	25171.24
739.744	25165.82
740.084	25067.29
740.424	25067.07
740.764	24931.7
741.104	25079.04
741.444	24892.61
741.784	24833.17
742.124	24929.22
742.464	24810.35
742.804	24769.22
743.143	24777.36
743.483	24700.07
743.823	24622.11
744.162	24619.85
744.502	24644.25
744.841	24467.76
745.181	24590.02
745.52	24458.27
745.86	24456.46
746.199	24385.28
746.538	24340.31
746.877	24428.21
747.216	24343.24
747.556	24350.7
747.895	24253.3
748.234	24151.38
748.573	24010.82
748.911	24098.5
749.25	24143.25
749.589	23989.36
749.928	24118.39
750.267	24093.76
750.605	23938.06
750.944	23976.93
751.283	23790.94
751.621	23874.1
751.96	23711.85
752.298	23834.78
752.636	23788.91
752.975	23749.81
753.313	23545.3
753.651	23618.97
753.989	23531.74
754.327	23511.18
754.666	23463.49
755.004	23338.75
755.342	23420.1
755.679	23357.96
756.017	23322.93
756.355	23242.71
756.693	23252.43
757.031	23245.42
757.368	22948.25
757.706	23066.89
758.044	22888.37
758.381	22984.86
758.719	22753.46
759.056	22863.06
759.394	22821.93
759.731	22638.2
760.068	22574.25
760.405	22402.73
760.743	22418.32
761.08	22525.21
