Data from hue_10_FLMS001491_10.txt Node
Date: Mon Feb 06 15:31:20 GMT 2017
User: dcchb
Spectrometer: FLMS00149
Trigger mode: 0
Integration Time (sec): 2.000000E-2
Scans to average: 10
Electric dark correction enabled: true
Nonlinearity correction enabled: false
Boxcar width: 0
XAxis mode: Wavelengths
Number of Pixels in Spectrum: 2048
>>>>>Begin Spectral Data<<<<<
341.393	-7.15
341.776	-7.15
342.16	-7.15
342.543	-62.06
342.927	-63.19
343.31	-57.99
343.693	-67.48
344.077	-70.42
344.46	-71.78
344.843	-57.09
345.226	-39.69
345.61	-20.71
345.993	-43.53
346.376	-2.18
346.759	17.71
347.142	32.4
347.525	47.09
347.908	68.11
348.291	56.81
348.674	94.55
349.057	114.21
349.44	129.57
349.823	126.86
350.206	146.3
350.588	204.83
350.971	189.46
351.354	196.69
351.737	222.23
352.119	264.71
352.502	254.77
352.884	264.03
353.267	291.83
353.65	290.02
354.032	298.16
354.414	296.8
354.797	308.1
355.179	301.32
355.562	310.36
355.944	308.55
356.326	323.69
356.709	340.19
357.091	348.78
357.473	328.44
357.855	328.44
358.238	347.19
358.62	336.12
359.002	325.5
359.384	326.86
359.766	346.29
360.148	347.19
360.53	332.28
360.912	341.77
361.294	339.96
361.676	307.2
362.057	332.96
362.439	336.8
362.821	306.74
363.203	314.43
363.584	311.26
363.966	333.86
364.348	304.48
364.729	306.52
365.111	310.36
365.493	332.05
365.874	327.31
366.256	325.73
366.637	297.48
367.019	324.37
367.4	311.49
367.781	304.94
368.163	302.9
368.544	303.58
368.925	312.62
369.306	311.71
369.688	306.29
370.069	299.74
370.45	303.35
370.831	283.24
371.212	297.7
371.593	305.84
371.974	314.65
372.355	309.91
372.736	311.71
373.117	315.56
373.498	309.91
373.879	299.51
374.26	309
374.641	296.8
375.021	303.81
375.402	322.79
375.783	314.2
376.163	306.52
376.544	301.09
376.925	316.46
377.305	325.73
377.686	312.84
378.066	303.58
378.447	316.01
378.827	337.7
379.208	322.56
379.588	322.79
379.968	316.91
380.349	318.72
380.729	320.75
381.109	325.27
381.489	327.99
381.87	327.53
382.25	324.82
382.63	336.8
383.01	332.51
383.39	340.41
383.77	321.43
384.15	337.7
384.53	327.53
384.91	345.61
385.29	334.77
385.67	337.7
386.049	347.87
386.429	337.25
386.809	332.28
387.189	355.56
387.568	338.38
387.948	344.26
388.328	346.52
388.707	352.62
389.087	329.57
389.466	338.15
389.846	340.87
390.225	342.45
390.605	350.13
390.984	356.69
391.363	374.99
391.743	357.59
392.122	352.84
392.501	374.76
392.881	363.47
393.26	377.48
393.639	374.76
394.018	371.6
394.397	374.99
394.776	357.14
395.155	368.66
395.534	371.83
395.913	366.18
396.292	377.48
396.671	356.91
397.05	370.24
397.429	375.22
397.808	363.01
398.186	396.68
398.565	373.41
398.944	353.97
399.323	364.14
399.701	366.4
400.08	389.23
400.458	409.57
400.837	396.01
401.215	396.23
401.594	365.27
401.972	383.58
402.351	401.66
402.729	414.99
403.107	380.41
403.486	386.52
403.864	390.81
404.242	389.45
404.62	393.29
404.999	394.88
405.377	394.42
405.755	400.3
406.133	404.14
406.511	402.79
406.889	392.62
407.267	403.92
407.645	435.55
408.023	420.86
408.401	425.16
408.779	428.55
409.156	426.74
409.534	411.83
409.912	434.2
410.29	447.98
410.667	438.72
411.045	435.55
411.422	437.36
411.8	422.22
412.178	437.59
412.555	456.8
412.933	446.4
413.31	462.67
413.687	436.46
414.065	425.38
414.442	459.73
414.819	438.04
415.197	445.95
415.574	450.69
415.951	449.34
416.328	453.86
416.705	456.8
417.082	466.51
417.46	476.68
417.837	469.68
418.214	462.45
418.591	487.08
418.967	476.46
419.344	473.97
419.721	467.42
420.098	469.68
420.475	490.92
420.852	511.94
421.228	489.56
421.605	495.89
421.982	486.63
422.358	497.25
422.735	488.66
423.111	512.16
423.488	532.05
423.864	511.03
424.241	508.32
424.617	524.36
424.994	505.83
425.37	512.84
425.746	518.04
426.123	523.01
426.499	534.99
426.875	527.75
427.251	529.56
427.627	538.83
428.003	564.59
428.379	558.04
428.756	543.35
429.132	567.75
429.507	550.8
429.883	565.27
430.259	577.02
430.635	574.76
431.011	568.88
431.387	587.19
431.763	605.04
432.138	574.53
432.514	598.04
432.89	595.55
433.265	612.5
433.641	600.52
434.016	624.93
434.392	621.31
434.767	635.32
435.143	623.35
435.518	632.38
435.894	650.01
436.269	640.97
436.644	634.42
437.02	666.06
437.395	680.97
437.77	643.46
438.145	648.2
438.52	684.36
438.895	686.85
439.271	670.12
439.646	681.2
440.021	693.63
440.395	693.4
440.77	689.56
441.145	687.3
441.52	713.06
441.895	717.81
442.27	691.82
442.645	706.96
443.019	706.28
443.394	718.26
443.769	704.7
444.143	710.57
444.518	720.29
444.892	708.77
445.267	705.6
445.641	726.39
446.016	734.3
446.39	742.66
446.764	741.31
447.139	732.49
447.513	742.66
447.887	746.51
448.262	732.49
448.636	772.04
449.01	758.48
449.384	761.87
449.758	773.85
450.132	786.96
450.506	761.42
450.88	797.35
451.254	805.94
451.628	792.83
452.002	792.15
452.376	808.65
452.75	814.53
453.123	812.49
453.497	813.4
453.871	799.61
454.244	818.14
454.618	837.8
454.992	832.83
455.365	843.68
455.739	857.24
456.112	891.81
456.486	858.14
456.859	852.27
457.232	890
457.606	899.72
457.979	914.19
458.352	929.55
458.725	915.99
459.099	927.29
459.472	937.24
459.845	943.34
460.218	961.42
460.591	959.83
460.964	989.66
461.337	994.63
461.71	993.96
462.083	1019.94
462.456	1004.35
462.829	1005.93
463.201	1040.51
463.574	1031.92
463.947	1049.77
464.32	1060.4
464.692	1069.66
465.065	1067.85
465.438	1104.91
465.81	1103.11
466.183	1129.77
466.555	1128.64
466.928	1144.24
467.3	1139.26
467.672	1160.96
468.045	1166.16
468.417	1182.43
468.789	1168.19
469.161	1214.06
469.534	1218.58
469.906	1232.59
470.278	1259.03
470.65	1276.44
471.022	1299.03
471.394	1313.95
471.766	1316.43
472.138	1342.65
472.51	1383.33
472.882	1354.17
473.253	1397.34
473.625	1420.16
473.997	1484.11
474.369	1483.66
474.74	1460.39
475.112	1499.93
475.484	1540.16
475.855	1525.47
476.227	1535.41
476.598	1589.65
476.97	1592.13
477.341	1663.54
477.713	1644.11
478.084	1687.72
478.455	1728.4
478.827	1725.01
479.198	1796.42
479.569	1803.88
479.94	1858.57
480.311	1874.39
480.682	1917.77
481.053	1948.06
481.424	1994.38
481.795	1985.57
482.166	2043.87
482.537	2078.45
482.908	2103.76
483.279	2121.84
483.65	2196.86
484.021	2231.66
484.391	2297.43
484.762	2306.01
485.133	2301.95
485.503	2352.11
485.874	2362.51
486.244	2432.56
486.615	2473.24
486.985	2478.44
487.356	2538.32
487.726	2573.8
488.097	2653.57
488.467	2660.81
488.837	2738.32
489.207	2771.76
489.578	2776.96
489.948	2819.22
490.318	2870.29
490.688	2861.7
491.058	2954.13
491.428	2950.97
491.798	3019.44
492.168	3081.36
492.538	3073.45
492.908	3113.22
493.278	3142.6
493.648	3181.7
494.017	3207.91
494.387	3245.88
494.757	3262.6
495.126	3345.08
495.496	3355.7
495.866	3388.02
496.235	3425.08
496.605	3426.66
496.974	3508.02
497.344	3493.78
497.713	3493.55
498.082	3556.83
498.452	3569.93
498.821	3642.47
499.19	3654.23
499.559	3694
499.928	3691.51
500.298	3695.35
500.667	3754.79
501.036	3730.16
501.405	3808.35
501.774	3790.72
502.143	3822.81
502.512	3869.36
502.88	3859.64
503.249	3861.23
503.618	3889.93
503.987	3885.18
504.356	3954.11
504.724	3959.98
505.093	4024.84
505.462	4023.71
505.83	4006.08
506.199	4059.41
506.567	4102.12
506.936	4108
507.304	4122.46
507.672	4166.75
508.041	4202.46
508.409	4168.34
508.777	4220.99
509.145	4235.45
509.514	4226.64
509.882	4286.07
510.25	4289.01
510.618	4335.56
510.986	4329.46
511.354	4373.53
511.722	4397.26
512.09	4410.36
512.458	4420.31
512.826	4429.12
513.193	4439.52
513.561	4491.94
513.929	4487.42
514.297	4550.93
514.664	4593.41
515.032	4557.71
515.4	4580.3
515.767	4632.05
516.135	4623.01
516.502	4637.7
516.869	4662.34
517.237	4681.32
517.604	4654.65
517.972	4701.66
518.339	4762.45
518.706	4764.03
519.073	4764.93
519.44	4783.46
519.808	4795.44
520.175	4810.13
520.542	4873.18
520.909	4905.27
521.276	4917.47
521.643	4840.18
522.009	4947.53
522.376	4985.26
522.743	4990.24
523.11	5035.88
523.477	5046.05
523.843	5105.94
524.21	5117.24
524.577	5190.23
524.943	5198.82
525.31	5155.88
525.676	5217.12
526.043	5219.61
526.409	5274.52
526.776	5336.67
527.142	5324.92
527.508	5317.01
527.874	5374.41
528.241	5385.93
528.607	5447.63
528.973	5470
529.339	5489.66
529.705	5506.61
530.071	5566.94
530.437	5580.28
530.803	5597.9
531.169	5623.89
531.535	5619.82
531.901	5614.17
532.267	5727.62
532.632	5748.86
532.998	5728.3
533.364	5813.27
533.73	5739.14
534.095	5832.02
534.461	5847.16
534.826	5885.13
535.192	5908.4
535.557	5898.91
535.923	5925.35
536.288	5953.15
536.653	6029.53
537.019	5947.5
537.384	6006.25
537.749	6026.14
538.114	6129.19
538.479	6092.13
538.845	6099.59
539.21	6112.24
539.575	6187.04
539.94	6137.1
540.305	6219.13
540.67	6172.58
541.034	6291.44
541.399	6250.32
541.764	6242.18
542.129	6323.08
542.494	6368.96
542.858	6346.36
543.223	6356.75
543.587	6389.97
543.952	6430.88
544.316	6445.79
544.681	6487.37
545.045	6481.5
545.41	6586.58
545.774	6597.43
546.138	6563.3
546.503	6635.62
546.867	6646.69
547.231	6704.54
547.595	6709.74
547.959	6751.32
548.324	6742.05
548.688	6761.26
549.052	6803.97
549.416	6794.26
549.779	6831.77
550.143	6894.59
550.507	6834.26
550.871	6910.19
551.235	6974.36
551.599	6987.02
551.962	6912.22
552.326	7002.61
552.689	7037.19
553.053	7064.08
553.417	7034.48
553.78	7129.84
554.143	7123.29
554.507	7204.42
554.87	7188.37
555.234	7213
555.597	7211.87
555.96	7252.32
556.323	7257.97
556.686	7280.57
557.05	7294.36
557.413	7276.73
557.776	7333
558.139	7339.55
558.502	7416.39
558.865	7391.98
559.228	7443.5
559.59	7472.66
559.953	7467.91
560.316	7581.35
560.679	7523.28
561.041	7591.52
561.404	7589.94
561.767	7706.32
562.129	7620.45
562.492	7714.46
562.854	7712.42
563.217	7651.41
563.579	7765.76
563.941	7787
564.304	7824.96
564.666	7956.26
565.028	7888.01
565.39	7863.83
565.753	7958.07
566.115	7964.85
566.477	8037.61
566.839	8027.44
567.201	8043.49
567.563	8066.77
567.925	8136.59
568.287	8175.01
568.648	8177.27
569.01	8201.45
569.372	8255.91
569.734	8268.57
570.095	8318.28
570.457	8355.57
570.819	8399.41
571.18	8399.86
571.542	8489.81
571.903	8479.18
572.265	8541.56
572.626	8565.74
572.987	8662.46
573.349	8642.34
573.71	8682.12
574.071	8773.41
574.432	8791.27
574.794	8840.98
575.155	8876.46
575.516	8919.17
575.877	8908.33
576.238	9035.55
576.599	9065.16
576.96	9192.16
577.32	9195.55
577.681	9290.01
578.042	9459.72
578.403	9433.06
578.763	9555.54
579.124	9548.76
579.485	9641.19
579.845	9786.95
580.206	9875.53
580.566	9976.55
580.927	10075.75
581.287	10209.31
581.648	10332.02
582.008	10391.22
582.368	10467.61
582.728	10632.12
583.089	10875.05
583.449	10932.45
583.809	11044.09
584.169	11195.04
584.529	11388.49
584.889	11634.36
585.249	11736.5
585.609	11853.78
585.969	12085.87
586.329	12205.41
586.688	12422.36
587.048	12627.32
587.408	12806.08
587.768	12922.46
588.127	13194.09
588.487	13400.64
588.846	13637.01
589.206	13878.59
589.565	14025.93
589.925	14341.18
590.284	14552.02
590.643	14782.75
591.003	15125.11
591.362	15341.15
591.721	15667.47
592.08	15796.96
592.44	16169.38
592.799	16441.91
593.158	16572.98
593.517	16865.63
593.876	17290.7
594.235	17509.23
594.593	17791.03
594.952	18069.44
595.311	18280.51
595.67	18510.33
596.029	18905.12
596.387	19240.26
596.746	19590.3
597.104	19687.7
597.463	20001.82
597.822	20437.29
598.18	20640.67
598.538	20819.42
598.897	21185.06
599.255	21338.51
599.613	21984.59
599.972	22081.76
600.33	22389.55
600.688	22582.54
601.046	22943.89
601.404	23306.14
601.762	23451.45
602.12	23763.53
602.478	24193.35
602.836	24439.44
603.194	24484.41
603.552	24837.85
603.91	25049.6
604.268	25369.81
604.625	25568.68
604.983	25904.04
605.341	26070.13
605.698	26449.78
606.056	26731.13
606.413	27037.79
606.771	27249.99
607.128	27515.97
607.485	27548.06
607.843	27873.02
608.2	28270.98
608.557	28480.01
608.914	28645.21
609.272	28919.32
609.629	29222.37
609.986	29555.92
610.343	29645.18
610.7	30021.22
611.057	30176.69
611.414	30357.93
611.771	30599.73
612.127	30819.39
612.484	30973.96
612.841	31232.26
613.198	31286.04
613.554	31497.56
613.911	31880.6
614.267	32008.06
614.624	32213.48
614.98	32465.22
615.337	32644.88
615.693	32591.32
616.05	32799.22
616.406	33209.38
616.762	33125.09
617.118	33353.78
617.475	33492.09
617.831	33737.73
618.187	33896.82
618.543	33989.7
618.899	34165.97
619.255	34226.3
619.611	34501.55
619.967	34590.59
620.323	34836.46
620.678	34769.79
621.034	34858.83
621.39	35060.41
621.746	35035.55
622.101	35555.76
622.457	35344.01
622.812	35497.46
623.168	35725.93
623.523	35741.29
623.879	35980.38
624.234	35758.01
624.589	35962.75
624.945	36083.88
625.3	36115.75
625.655	36291.11
626.01	36309.64
626.365	36386.25
626.72	36435.74
627.075	36555.28
627.43	36587.6
627.785	36529.75
628.14	36903.75
628.495	36719.12
628.85	36833.47
629.205	36701.49
629.559	37145.55
629.914	36770.42
630.269	37103.29
630.623	36898.78
630.978	36877.76
631.332	37044.31
631.687	37245.66
632.041	37105.32
632.396	37293.79
632.75	37116.62
633.104	37339.67
633.459	37295.38
633.813	37282.27
634.167	37228.94
634.521	37131.99
634.875	37273.23
635.229	37427.8
635.583	37108.04
635.937	37288.82
636.291	37276.17
636.645	37376.05
636.999	37106.91
637.352	37452.66
637.706	37222.16
638.06	37367.01
638.413	37461.47
638.767	37250.63
639.121	37410.17
639.474	37086.57
639.828	37153.01
640.181	37379.21
640.534	37180.12
640.888	37162.95
641.241	37134.93
641.594	37194.14
641.947	37291.99
642.301	37167.92
642.654	37220.12
643.007	37152.33
643.36	37254.47
643.713	37188.71
644.066	37152.1
644.419	36991.88
644.771	36839.79
645.124	36537.43
645.477	36367.49
645.83	36329.98
646.182	36134.28
646.535	36074.39
646.888	36128.4
647.24	35942.19
647.593	36147.16
647.945	36085.46
648.298	36016.09
648.65	35974.96
649.002	35901.97
649.355	36055.86
649.707	36015.86
650.059	36143.54
650.411	36532.01
650.763	36523.19
651.115	36933.35
651.467	36805.44
651.819	36820.81
652.171	36716.63
652.523	36766.8
652.875	36649.29
653.227	36558.67
653.578	36801.15
653.93	36698.1
654.282	36630.99
654.633	36497.43
654.985	36611.78
655.337	36677.31
655.688	36504.66
656.039	36815.39
656.391	36357.77
656.742	36582.4
657.094	36516.41
657.445	36659.46
657.796	36445.68
658.147	36519.35
658.498	36468.28
658.849	36512.12
659.2	36457.66
659.551	36397.32
659.902	36476.41
660.253	36458.34
660.604	36659.46
660.955	36312.8
661.306	36567.94
661.656	36487.03
662.007	36329.75
662.358	36362.74
662.708	36308.51
663.059	36372.91
663.409	36223.09
663.76	36457.43
664.11	36401.16
664.461	36393.03
664.811	36210.66
665.161	36396.42
665.511	36161.85
665.862	36420.37
666.212	36560.71
666.562	36349.64
666.912	36375.17
667.262	36334.72
667.612	36229.87
667.962	36448.84
668.312	36350.54
668.662	36416.98
669.011	36227.38
669.361	36207.95
669.711	36288.4
670.06	36220.83
670.41	36168.4
670.76	36276.19
671.109	36288.62
671.459	36180.38
671.808	36162.75
672.157	36120.04
672.507	35985.81
672.856	36041.62
673.205	36021.74
673.554	36198.23
673.904	35965.24
674.253	36317.32
674.602	36043.2
674.951	35510.79
675.3	35348.08
675.649	35978.57
675.998	35928.86
676.346	36008.4
676.695	36036.43
677.044	35841.4
677.393	36013.15
677.741	35945.81
678.09	35832.36
678.438	35769.77
678.787	35818.58
679.135	35845.47
679.484	35552.37
679.832	35759.37
680.181	35430.11
680.529	35686.6
680.877	35591.47
681.225	35533.84
681.573	35652.25
681.922	35426.27
682.27	35412.26
682.618	35298.59
682.966	35343.34
683.314	35274.86
683.661	35333.17
684.009	35039.39
684.357	35095.43
684.705	34881.88
685.053	35055.43
685.4	35007.07
685.748	34798.49
686.095	34672.17
686.443	34607.99
686.79	34641.21
687.138	34823.8
687.485	34713.07
687.832	34589.68
688.18	34724.37
688.527	34263.14
688.874	34330.93
689.221	34264.72
689.568	34281.22
689.915	34134.1
690.262	34225.17
690.609	33954.45
690.956	33918.97
691.303	33944.5
691.65	33822.92
691.997	33810.95
692.344	33540.45
692.69	33540.9
693.037	33581.12
693.383	33270.62
693.73	33456.15
694.077	33192.21
694.423	33156.95
694.769	33031.08
695.116	32999.9
695.462	32887.58
695.808	32850.52
696.155	32924.42
696.501	32612.56
696.847	32713.12
697.193	32454.6
697.539	32533.01
697.885	32451.66
698.231	32295.05
698.577	32253.02
698.923	32163.98
699.269	32038.34
699.614	31984.1
699.96	31854.84
700.306	31751.79
700.651	31869.53
700.997	31691.68
701.342	31643.55
701.688	31637.22
702.033	31506.6
702.379	31360.16
702.724	31166.27
703.069	31411.01
703.415	31030.68
703.76	30992.04
704.105	31013.51
704.45	31016.9
704.795	30819.16
705.14	30720.86
705.485	30677.7
705.83	30604.7
706.175	30604.03
706.52	30572.39
706.865	30495.78
707.209	30321.32
707.554	30207.43
707.899	30504.37
708.243	30190.48
708.588	30228.22
708.932	29931.5
709.277	29916.36
709.621	30018.73
709.966	29741
710.31	29875.23
710.654	29656.71
710.998	29630.27
711.342	29630.04
711.687	29584.39
712.031	29472.76
712.375	29309.6
712.719	29345.3
713.063	29350.73
713.407	29290.61
713.75	29194.35
714.094	29186.44
714.438	28983.05
714.782	29088.59
715.125	28946.22
715.469	29040.45
715.812	28827.35
716.156	28638.2
716.499	28584.64
716.843	28703.96
717.186	28638.43
717.53	28612.67
717.873	28691.99
718.216	28518.43
718.559	28479.11
718.902	28188.27
719.246	28310.07
719.589	28218.1
719.932	28063.75
720.275	28015.85
720.617	28073.24
720.96	28060.14
721.303	28013.59
721.646	28034.6
721.989	27748.06
722.331	27931.78
722.674	27815.85
723.016	27878
723.359	27788.96
723.701	27797.32
724.044	27545.58
724.386	27449.53
724.729	27740.82
725.071	27495.18
725.413	27420.83
725.755	27521.17
726.097	27391
726.439	27272.14
726.782	27308.52
727.124	27327.73
727.465	27257.67
727.807	27202.31
728.149	27098.58
728.491	26953.73
728.833	27133.16
729.175	27056.55
729.516	27001.41
729.858	26884.12
730.199	26922.54
730.541	26845.48
730.882	26806.84
731.224	26922.54
731.565	26746.95
731.906	26728.65
732.248	26622.44
732.589	26691.81
732.93	26437.36
733.271	26535.21
733.612	26558.03
733.953	26545.6
734.294	26315.33
734.635	26203.92
734.976	26437.13
735.317	26226.06
735.658	26230.58
735.999	26246.17
736.339	26056.57
736.68	26260.41
737.021	26113.3
737.361	25974.32
737.702	26069.91
738.042	26057.03
738.383	26018.61
738.723	26079.17
739.063	25882.57
739.404	25975.22
739.744	25734.32
740.084	25824.72
740.424	25771.61
740.764	25823.36
741.104	25860.87
741.444	25721.44
741.784	25653.2
742.124	25671.27
742.464	25638.96
742.804	25591.28
743.143	25497.95
743.483	25496.36
743.823	25385.41
744.162	25348.8
744.502	25489.81
744.841	25330.72
745.181	25401.9
745.52	25339.08
745.86	25186.99
746.199	25239.65
746.538	25057.28
746.877	25173.43
747.216	25191.06
747.556	25050.5
747.895	24997.85
748.234	24938.41
748.573	24951.97
748.911	24852.09
749.25	24919.2
749.589	24801.24
749.928	24893.44
750.267	24888.7
750.605	24648.48
750.944	24621.36
751.283	24605.09
751.621	24730.06
751.96	24605.09
752.298	24510.85
752.636	24625.43
752.975	24438.76
753.313	24373.46
753.651	24563.73
753.989	24204.19
754.327	24220.24
754.666	24217.3
755.004	24237.87
755.342	24250.75
755.679	24193.57
756.017	24092.78
756.355	24029.28
756.693	23973.24
757.031	23996.29
757.368	23837.65
757.706	23780.25
758.044	23814.37
758.381	23780.93
758.719	23702.96
759.056	23628.39
759.394	23669.29
759.731	23434.04
760.068	23419.13
760.405	23366.48
760.743	23208.29
761.08	23262.3
