Data from hue_40_FLMS001491_64.txt Node
Date: Mon Feb 06 15:08:16 GMT 2017
User: dcchb
Spectrometer: FLMS00149
Trigger mode: 0
Integration Time (sec): 2.000000E-2
Scans to average: 10
Electric dark correction enabled: true
Nonlinearity correction enabled: false
Boxcar width: 0
XAxis mode: Wavelengths
Number of Pixels in Spectrum: 2048
>>>>>Begin Spectral Data<<<<<
341.393	-16.92
341.776	-16.92
342.16	-16.92
342.543	-66.64
342.927	-69.57
343.31	-61.67
343.693	-66.41
344.077	-78.84
344.46	-30.48
344.843	-60.76
345.226	-51.5
345.61	-14.89
345.993	-39.07
346.376	5.23
346.759	9.97
347.142	26.92
347.525	38.22
347.908	74.6
348.291	61.27
348.674	83.19
349.057	104.21
349.44	120.03
349.823	143.75
350.206	179.01
350.588	212.68
350.971	191.89
351.354	199.35
351.737	217.2
352.119	259.91
352.502	264.88
352.884	279.57
353.267	280.25
353.65	287.03
354.032	318.21
354.414	316.18
354.797	316.4
355.179	313.01
355.562	327.48
355.944	323.86
356.326	325.67
356.709	318.89
357.091	345.33
357.473	336.29
357.855	336.06
358.238	341.49
358.62	359.79
359.002	350.08
359.384	330.87
359.766	352.34
360.148	353.24
360.53	347.59
360.912	351.43
361.294	350.08
361.676	329.74
362.057	356.86
362.439	332.67
362.821	324.54
363.203	325.22
363.584	335.39
363.966	344.2
364.348	334.93
364.729	332.9
365.111	317.99
365.493	306.91
365.874	321.83
366.256	332.45
366.637	318.66
367.019	304.43
367.4	331.54
367.781	322.73
368.163	298.33
368.544	303.52
368.925	314.37
369.306	333.35
369.688	310.3
370.069	348.95
370.45	325.22
370.831	317.31
371.212	342.17
371.593	318.89
371.974	341.04
372.355	320.02
372.736	343.97
373.117	320.02
373.498	307.59
373.879	332.9
374.26	317.31
374.641	329.74
375.021	354.14
375.402	321.38
375.783	341.04
376.163	336.52
376.544	345.78
376.925	333.35
377.305	350.3
377.686	339.91
378.066	321.6
378.447	325.44
378.827	326.57
379.208	341.26
379.588	342.84
379.968	353.24
380.349	331.77
380.729	336.52
381.109	348.49
381.489	336.74
381.87	334.03
382.25	346.23
382.63	355.95
383.01	370.87
383.39	361.37
383.77	354.14
384.15	355.05
384.53	364.54
384.91	364.99
385.29	360.92
385.67	359.34
386.049	356.4
386.429	376.74
386.809	373.58
387.189	347.14
387.568	365.22
387.948	372.9
388.328	373.58
388.707	379.45
389.087	368.61
389.466	359.34
389.846	380.81
390.225	377.42
390.605	363.63
390.984	356.63
391.363	381.04
391.743	411.32
392.122	372.67
392.501	366.8
392.881	398.44
393.26	361.83
393.639	382.17
394.018	376.52
394.397	400.7
394.776	407.48
395.155	399.11
395.534	398.66
395.913	386.91
396.292	393.69
396.671	406.35
397.05	401.37
397.429	394.14
397.808	368.83
398.186	398.44
398.565	417.64
398.944	395.5
399.323	396.85
399.701	396.63
400.08	418.55
400.458	406.35
400.837	433.46
401.215	426.23
401.594	410.19
401.972	396.63
402.351	425.78
402.729	431.88
403.107	439.11
403.486	424.2
403.864	456.51
404.242	409.96
404.62	440.47
404.999	437.76
405.377	421.03
405.755	418.77
406.133	457.64
406.511	449.73
406.889	472.56
407.267	443.63
407.645	460.58
408.023	470.07
408.401	457.19
408.779	464.87
409.156	459.68
409.534	468.49
409.912	477.3
410.29	476.4
410.667	468.94
411.045	464.42
411.422	453.58
411.8	488.15
412.178	484.99
412.555	487.25
412.933	514.14
413.31	498.09
413.687	514.82
414.065	495.16
414.442	506.46
414.819	506.68
415.197	522.27
415.574	538.55
415.951	526.79
416.328	511.65
416.705	526.34
417.082	530.18
417.46	557.98
417.837	535.38
418.214	546
418.591	532.22
418.967	538.09
419.344	561.82
419.721	564.08
420.098	562.73
420.475	590.3
420.852	550.97
421.228	569.5
421.605	562.95
421.982	563.4
422.358	571.09
422.735	596.62
423.111	586.45
423.488	589.17
423.864	581.03
424.241	587.13
424.617	594.81
424.994	599.56
425.37	592.56
425.746	593.46
426.123	626.23
426.499	608.6
426.875	635.72
427.251	633.46
427.627	648.82
428.003	639.56
428.379	659.45
428.756	654.25
429.132	652.89
429.507	656.06
429.883	670.29
430.259	663.06
430.635	688.37
431.011	666.23
431.387	673.68
431.763	695.83
432.138	699.67
432.514	716.85
432.89	715.04
433.265	717.98
433.641	726.56
434.016	738.31
434.392	735.6
434.767	758.43
435.143	747.13
435.518	752.78
435.894	746
436.269	762.49
436.644	761.59
437.02	759.1
437.395	770.63
437.77	812.21
438.145	787.8
438.52	806.33
438.895	801.36
439.271	797.07
439.646	824.41
440.021	810.85
440.395	838.65
440.77	803.17
441.145	809.95
441.52	846.56
441.895	846.11
442.27	846.11
442.645	859.89
443.019	861.02
443.394	886.78
443.769	842.27
444.143	853.34
444.518	871.64
444.892	894.92
445.267	885.65
445.641	901.93
446.016	898.76
446.39	900.8
446.764	912.77
447.139	889.27
447.513	895.37
447.887	932.66
448.262	913.22
448.636	949.38
449.01	937.18
449.384	932.66
449.758	967.23
450.132	942.15
450.506	948.93
450.88	973.11
451.254	981.92
451.628	985.09
452.002	978.31
452.376	1022.6
452.75	1011.53
453.123	1003.39
453.497	1036.39
453.871	1065.54
454.244	1053.11
454.618	1064.41
454.992	1061.02
455.365	1074.58
455.739	1088.14
456.112	1090.85
456.486	1113.9
456.859	1093.33
457.232	1149.6
457.606	1150.05
457.979	1152.54
458.352	1163.61
458.725	1157.29
459.099	1178.08
459.472	1212.43
459.845	1242.26
460.218	1246.55
460.591	1212.88
460.964	1239.77
461.337	1275.47
461.71	1288.58
462.083	1311.63
462.456	1318.64
462.829	1300.11
463.201	1299.2
463.574	1364.06
463.947	1378.98
464.32	1403.16
464.692	1404.51
465.065	1426.88
465.438	1436.15
465.81	1443.38
466.183	1465.98
466.555	1502.14
466.928	1512.53
467.3	1539.42
467.672	1552.76
468.045	1578.97
468.417	1584.62
468.789	1629.59
469.161	1653.32
469.534	1674.79
469.906	1704.84
470.278	1736.25
470.65	1749.13
471.022	1769.02
471.394	1825.97
471.766	1825.97
472.138	1838.17
472.51	1940.99
472.882	1935.34
473.253	1988
473.625	2033.2
473.997	2055.79
474.369	2085.85
474.74	2134.89
475.112	2155.23
475.484	2195.22
475.855	2258.73
476.227	2296.69
476.598	2375.78
476.97	2429.12
477.341	2479.96
477.713	2532.84
478.084	2545.05
478.455	2676.57
478.827	2663.46
479.198	2760.41
479.569	2766.51
479.94	2890.12
480.311	2969.22
480.682	3021.87
481.053	3130.57
481.424	3204.01
481.795	3292.37
482.166	3352.26
482.537	3438.58
482.908	3535.08
483.279	3566.26
483.65	3706.37
484.021	3780.95
484.391	3860.49
484.762	3930.77
485.133	4011.9
485.503	4075.85
485.874	4215.06
486.244	4321.72
486.615	4452.11
486.985	4540.25
487.356	4656.18
487.726	4721.49
488.097	4895.27
488.467	4930.75
488.837	5072.21
489.207	5163.06
489.578	5306.56
489.948	5445.31
490.318	5480.56
490.688	5642.14
491.058	5738.41
491.428	5810.5
491.798	5974.56
492.168	6144.73
492.538	6210.71
492.908	6292.29
493.278	6444.83
493.648	6519.63
494.017	6665.84
494.387	6772.28
494.757	6839.62
495.126	6975.21
495.496	7021.54
495.866	7229.89
496.235	7238.26
496.605	7424.92
496.974	7469.89
497.344	7609.77
497.713	7707.4
498.082	7803.66
498.452	7974.96
498.821	8024.22
499.19	8036.43
499.559	8244.11
499.928	8318
500.298	8424.89
500.667	8552.12
501.036	8612.91
501.405	8752.11
501.774	8788.05
502.143	8883.41
502.512	8926.8
502.88	9094.7
503.249	9109.85
503.618	9149.62
503.987	9333.12
504.356	9360.01
504.724	9477.29
505.093	9535.37
505.462	9647.01
505.83	9736.5
506.199	9790.05
506.567	9938.52
506.936	9952.99
507.304	10070.5
507.672	10150.72
508.041	10263.49
508.409	10397.04
508.777	10435.01
509.145	10571.05
509.514	10563.59
509.882	10638.17
510.25	10722.01
510.618	10837.26
510.986	10873.87
511.354	10940.98
511.722	11096.46
512.09	11226.4
512.458	11157.7
512.826	11331.93
513.193	11386.85
513.561	11467.52
513.929	11556.33
514.297	11674.3
514.664	11723.79
515.032	11849.89
515.4	11921.97
515.767	11907.51
516.135	12051.01
516.502	12011.92
516.869	12211.01
517.237	12244.23
517.604	12288.52
517.972	12481.06
518.339	12558.12
518.706	12490.1
519.073	12570.55
519.44	12677.21
519.808	12862.51
520.175	12821.61
520.542	13033.81
520.909	13117.65
521.276	13202.62
521.643	13216.86
522.009	13250.3
522.376	13316.51
522.743	13527.13
523.11	13548.6
523.477	13650.06
523.843	13798.99
524.21	13886.89
524.577	14015.7
524.943	14011.41
525.31	14173.67
525.676	14235.81
526.043	14428.58
526.409	14407.79
526.776	14582.92
527.142	14619.53
527.508	14703.37
527.874	14873.54
528.241	14796.48
528.607	14904.27
528.973	15056.36
529.339	15024.04
529.705	15207.09
530.071	15362.79
530.437	15424.03
530.803	15493.41
531.169	15623.8
531.535	15568.66
531.901	15693.63
532.267	15764.13
532.632	15892.72
532.998	15871.48
533.364	15863.11
533.73	16018.82
534.095	16165.25
534.461	16274.63
534.826	16366.38
535.192	16348.07
535.557	16485.7
535.923	16542.19
536.288	16584.9
536.653	16716.88
537.019	16609.76
537.384	16696.99
537.749	16822.86
538.114	16927.72
538.479	16941.28
538.845	17013.37
539.21	17007.49
539.575	17118.45
539.94	17190.76
540.305	17343.75
540.67	17235.51
541.034	17358.67
541.399	17466.46
541.764	17537.87
542.129	17623.29
542.494	17750.97
542.858	17729.96
543.223	17728.38
543.587	17867.36
543.952	17833.91
544.316	17956.39
544.681	17986.45
545.045	18076.84
545.41	18229.83
545.774	18236.38
546.138	18276.61
546.503	18300.11
546.867	18395.93
547.231	18488.13
547.595	18600.9
547.959	18626.88
548.324	18646.54
548.688	18700.33
549.052	18802.25
549.416	18850.15
549.779	18910.04
550.143	18942.36
550.507	19087.44
550.871	19151.84
551.235	19166.98
551.599	19228.9
551.962	19258.05
552.326	19344.15
552.689	19509.12
553.053	19372.63
553.417	19530.14
553.78	19684.71
554.143	19610.59
554.507	19818.72
554.87	19821.65
555.234	20054.87
555.597	19951.59
555.96	20058.03
556.323	20084.92
556.686	20157.01
557.05	20331.92
557.413	20354.75
557.776	20373.05
558.139	20505.93
558.502	20600.39
558.865	20616.66
559.228	20709.77
559.59	20794.28
559.953	20786.6
560.316	21004.45
560.679	21045.12
561.041	21171.45
561.404	21327.83
561.767	21462.06
562.129	21317.89
562.492	21581.83
562.854	21430.2
563.217	21573.47
563.579	21639.91
563.941	21844.2
564.304	21766.24
564.666	22049.62
565.028	21943.18
565.39	22045.78
565.753	22254.58
566.115	22319.67
566.477	22303.62
566.839	22436.73
567.201	22561.92
567.563	22574.58
567.925	22725.08
568.287	22797.85
568.648	22796.04
569.01	22947.67
569.372	23069.25
569.734	23113.54
570.095	23213.66
570.457	23132.3
570.819	23343.14
571.18	23329.13
571.542	23623.36
571.903	23591.05
572.265	23727.31
572.626	23811.38
572.987	23795.79
573.349	23937.03
573.71	24096.12
574.071	24210.24
574.432	24309.45
574.794	24513.96
575.155	24453.4
575.516	24613.62
575.877	24707.85
576.238	24798.25
576.599	24869.66
576.96	24911.92
577.32	25082.31
577.681	25190.33
578.042	25294.28
578.403	25483.2
578.763	25546.25
579.124	25788.73
579.485	25895.84
579.845	26109.17
580.206	26144.2
580.566	26353.01
580.927	26284.31
581.287	26637.29
581.648	26661.7
582.008	26923.84
582.368	26894.46
582.728	27158.64
583.089	27155.25
583.449	27308.46
583.809	27658.74
584.169	27742.8
584.529	27830.71
584.889	28126.29
585.249	28154.32
585.609	28281.77
585.969	28572.61
586.329	28721.76
586.688	28965.59
587.048	29082.43
587.408	29025.03
587.768	29378.24
588.127	29494.39
588.487	29660.72
588.846	30025.45
589.206	30046.47
589.565	30314.49
589.925	30584.31
590.284	30599.22
590.643	30896.84
591.003	31032.66
591.362	31366.66
591.721	31420.67
592.08	31585.86
592.44	31878.51
592.799	32018.62
593.158	32162.8
593.517	32358.27
593.876	32672.16
594.235	32590.36
594.593	32850.92
594.952	33010.46
595.311	33157.8
595.67	33262.2
596.029	33698.13
596.387	33769.54
596.746	34019.25
597.104	34071.45
597.463	34151.45
597.822	34483.64
598.18	34495.62
598.538	34743.07
598.897	35070.52
599.255	34823.29
599.613	35544.63
599.972	35428.93
600.33	35637.06
600.688	35685.64
601.046	35952.08
601.404	36200.21
601.762	36214.44
602.12	36448.11
602.478	36626.18
602.836	36640.42
603.194	36690.14
603.552	36785.28
603.91	36793.64
604.268	37173.29
604.625	37283.34
604.983	37489.44
605.341	37282.44
605.698	37706.16
606.056	37755.87
606.413	37767.4
606.771	37901.4
607.128	38213.03
607.485	38120.16
607.843	38266.82
608.2	38565.79
608.557	38717.43
608.914	38681.95
609.272	38971.43
609.629	39066.8
609.986	39214.82
610.343	39224.31
610.7	39529.38
611.057	39696.61
611.414	39674.24
611.771	39761.02
612.127	39961.24
612.484	40015.93
612.841	40079.43
613.198	39974.12
613.554	40131.85
613.911	40464.05
614.267	40501.34
614.624	40487.33
614.98	40671.5
615.337	40875.34
615.693	40953.53
616.05	40911.49
616.406	41174.99
616.762	41132.51
617.118	41020.87
617.475	41325.27
617.831	41386.74
618.187	41566.84
618.543	41735.88
618.899	41840.96
619.255	41706.5
619.611	41814.52
619.967	41993.95
620.323	42039.37
620.678	42009.77
621.034	41932.03
621.39	42012.03
621.746	42006.38
622.101	42363.21
622.457	42181.97
622.812	42294.28
623.168	42394.39
623.523	42401.63
623.879	42572.24
624.234	42413.15
624.589	42455.64
624.945	42560.04
625.3	42839.13
625.655	42616.31
626.01	42776.08
626.365	42684.56
626.72	42818.56
627.075	42715.97
627.43	42837.09
627.785	42670.54
628.14	42785.34
628.495	42793.71
628.85	42930.65
629.205	42736.53
629.559	42994.6
629.914	42927.49
630.269	43002.51
630.623	42762.07
630.978	42925.68
631.332	43021.95
631.687	43065.79
632.041	42896.08
632.396	42984.66
632.75	42931.55
633.104	42873.03
633.459	42743.76
633.813	42831.22
634.167	42833.03
634.521	42772.69
634.875	42865.12
635.229	42708.51
635.583	42596.87
635.937	42651.56
636.291	42686.59
636.645	42742.86
636.999	42792.8
637.352	42804.78
637.706	42624.67
638.06	42645.69
638.413	42569.3
638.767	42555.97
639.121	42579.02
639.474	42334.51
639.828	42494.73
640.181	42444.56
640.534	42461.96
640.888	42411.79
641.241	42233.72
641.594	42202.99
641.947	42308.52
642.301	42320.95
642.654	42276.66
643.007	42257.45
643.36	42240.05
643.713	42167.51
644.066	42411.12
644.419	41998.7
644.771	41922.54
645.124	41581.31
645.477	41512.16
645.83	41226.06
646.182	41064.03
646.535	41029.23
646.888	41071.49
647.24	40869.01
647.593	40954.88
647.945	40984.26
648.298	40777.04
648.65	40723.48
649.002	40730.26
649.355	40776.13
649.707	40830.59
650.059	40927.09
650.411	41398.49
650.763	41427.87
651.115	41817.01
651.467	41624.24
651.819	41625.37
652.171	41678.71
652.523	41537.69
652.875	41577.92
653.227	41379.28
653.578	41625.37
653.93	41578.14
654.282	41394.19
654.633	41293.63
654.985	41420.86
655.337	41414.53
655.688	41429.22
656.039	41529.33
656.391	41134.99
656.742	41263.35
657.094	41308.55
657.445	41444.59
657.796	41231.03
658.147	41205.5
658.498	41140.64
658.849	41242.11
659.2	41276.23
659.551	41078.95
659.902	41301.77
660.253	41231.49
660.604	41231.26
660.955	41075.11
661.306	41326.63
661.656	41079.17
662.007	41125.95
662.358	41097.48
662.708	41058.61
663.059	41091.6
663.409	40766.64
663.76	41185.16
664.11	41143.35
664.461	41031.49
664.811	41058.84
665.161	40939.29
665.511	40967.09
665.862	40914.88
666.212	41041.66
666.562	40887.09
666.912	40973.41
667.262	40904.26
667.612	40959.63
667.962	41001.66
668.312	40829.46
668.662	41123.92
669.011	41019.97
669.361	40813.87
669.711	40956.69
670.06	40912.17
670.41	40807.09
670.76	40784.27
671.109	40934.32
671.459	40826.3
671.808	40725.74
672.157	40770.26
672.507	40484.84
672.856	40570.71
673.205	40730.71
673.554	40751.5
673.904	40638.06
674.253	40676.7
674.602	40522.35
674.951	39996.49
675.3	39926.66
675.649	40531.39
675.998	40522.35
676.346	40644.38
676.695	40662.01
677.044	40253.89
677.393	40452.98
677.741	40434.67
678.09	40466.53
678.438	40326.65
678.787	40325.97
679.135	40332.53
679.484	40100.67
679.832	40284.39
680.181	39912.2
680.529	40226.09
680.877	39998.07
681.225	39961.69
681.573	40280.33
681.922	39889.6
682.27	39711.75
682.618	39886.89
682.966	39663.62
683.314	39747.01
683.661	39653.22
684.009	39467.69
684.357	39549.04
684.705	39433.79
685.053	39337.3
685.4	39233.57
685.748	39187.7
686.095	39185.44
686.443	38998.78
686.79	39051.2
687.138	39091.66
687.485	39067.7
687.832	38904.54
688.18	38961.26
688.527	38818.89
688.874	38785.45
689.221	38645.57
689.568	38551.56
689.915	38491.45
690.262	38471.79
690.609	38433.14
690.956	38327.38
691.303	38275.41
691.65	38053.26
691.997	37992.02
692.344	37826.83
692.69	37856.21
693.037	37747.51
693.383	37464.35
693.73	37676.55
694.077	37419.16
694.423	37385.94
694.769	37294.87
695.116	37257.81
695.462	37107.75
695.808	36911.15
696.155	37070.24
696.501	36894.43
696.847	36809
697.193	36550.93
697.539	36793.64
697.885	36404.95
698.231	36264.16
698.577	36322.91
698.923	36319.53
699.269	36118.4
699.614	35942.36
699.96	35857.16
700.306	35928.35
700.651	35913.89
700.997	35632.76
701.342	35622.14
701.688	35568.36
702.033	35468.02
702.379	35411.07
702.724	35247.69
703.069	35378.99
703.415	34923.63
703.76	34961.14
704.105	35064.64
704.45	34978.77
704.795	34656.97
705.14	34751.88
705.485	34718.89
705.83	34362.06
706.175	34572.23
706.52	34452.23
706.865	34336.3
707.209	34246.13
707.554	34218.11
707.899	34127.49
708.243	34083.43
708.588	33966.14
708.932	33796.65
709.277	33673.72
709.621	33798.46
709.966	33537
710.31	33597.34
710.654	33422.65
710.998	33497.9
711.342	33384.24
711.687	33347.85
712.031	33122.1
712.375	33142.89
712.719	33193.96
713.063	33044.36
713.407	33172.94
713.75	32972.72
714.094	32896.11
714.438	32799.39
714.782	32768.43
715.125	32632.62
715.469	32658.83
715.812	32476.24
716.156	32386.07
716.499	32390.81
716.843	32402.79
717.186	32255.68
717.53	32393.3
717.873	32318.95
718.216	32144.72
718.559	32185.4
718.902	31870.38
719.246	32090.03
719.589	31880.32
719.932	31726.88
720.275	31772.3
720.617	31592.19
720.96	31640.33
721.303	31541.8
721.646	31698.4
721.989	31508.8
722.331	31410.05
722.674	31422.25
723.016	31410.5
723.359	31464.96
723.701	31490.73
724.044	31174.12
724.386	30985.43
724.729	31169.83
725.071	31083.05
725.413	31064.52
725.755	30918.99
726.097	30866.79
726.439	30616.62
726.782	30733.46
727.124	30869.95
727.465	30677.19
727.807	30604.65
728.149	30513.58
728.491	30370.3
728.833	30602.39
729.175	30386.8
729.516	30311.32
729.858	30302.96
730.199	30275.16
730.541	30282.62
730.882	30179.12
731.224	30185.45
731.565	30095.73
731.906	30022.52
732.248	30053.7
732.589	30024.1
732.93	29874.72
733.271	29944.78
733.612	29816.65
733.953	29864.78
734.294	29748.4
734.635	29605.35
734.976	29759.92
735.317	29542.53
735.658	29693.71
735.999	29687.61
736.339	29518.12
736.68	29603.77
737.021	29468.18
737.361	29444.68
737.702	29472.47
738.042	29436.54
738.383	29321.97
738.723	29307.73
739.063	29204.68
739.404	29387.28
739.744	29278.81
740.084	29068.64
740.424	29181.41
740.764	28980.74
741.104	29027.29
741.444	28894.41
741.784	28803.79
742.124	28889.21
742.464	28808.08
742.804	28753.17
743.143	28740.97
743.483	28773.28
743.823	28587.07
744.162	28569.45
744.502	28512.72
744.841	28401.99
745.181	28528.54
745.52	28371.94
745.86	28364.93
746.199	28335.55
746.538	28243.58
746.877	28291.71
747.216	28308.21
747.556	28165.39
747.895	28218.5
748.234	28046.75
748.573	27994.32
748.911	27925.4
749.25	27984.38
749.589	27805.85
749.928	27945.28
750.267	27877.04
750.605	27774.89
750.944	27672.29
751.283	27541.45
751.621	27732.18
751.96	27488.57
752.298	27422.58
752.636	27538.29
752.975	27342.13
753.313	27301.23
753.651	27405.64
753.989	27201.35
754.327	27128.13
754.666	27066.44
755.004	27003.39
755.342	27101.91
755.679	27051.07
756.017	26866.21
756.355	27047.45
