Data from hue_34_FLMS001491_00041.txt Node
Date: Tue Feb 07 17:25:39 GMT 2017
User: dcchb
Spectrometer: FLMS00149
Trigger mode: 0
Integration Time (sec): 2.000000E-2
Scans to average: 10
Electric dark correction enabled: true
Nonlinearity correction enabled: false
Boxcar width: 0
XAxis mode: Wavelengths
Number of Pixels in Spectrum: 2048
>>>>>Begin Spectral Data<<<<<
341.393	-11.79
341.776	-11.79
342.16	-11.79
342.543	-34.39
342.927	-71.23
343.31	-78.68
343.693	-66.03
344.077	-69.19
344.46	-35.52
344.843	-43.21
345.226	-46.59
345.61	-36.65
345.993	-15.86
346.376	-4.34
346.759	5.61
347.142	16
347.525	47.87
347.908	48.32
348.291	80.63
348.674	92.84
349.057	104.81
349.44	110.01
349.823	152.27
350.206	154.3
350.588	196.79
350.971	199.27
351.354	229.33
351.737	222.1
352.119	254.41
352.502	278.59
352.884	275.43
353.267	297.58
353.65	294.19
354.032	340.97
354.414	311.14
354.797	325.15
355.179	348.2
355.562	357.24
355.944	336.45
356.326	350.91
356.709	334.86
357.091	350.46
357.473	361.53
357.855	361.08
358.238	363.56
358.62	371.7
359.002	348.88
359.384	344.36
359.766	333.51
360.148	341.64
360.53	341.64
360.912	351.13
361.294	339.84
361.676	345.94
362.057	345.49
362.439	338.03
362.821	314.98
363.203	340.97
363.584	328.99
363.966	316.79
364.348	340.74
364.729	349.78
365.111	328.76
365.493	332.6
365.874	335.54
366.256	347.07
366.637	321.31
367.019	317.92
367.4	308.65
367.781	317.46
368.163	323.34
368.544	326.28
368.925	322.66
369.306	317.69
369.688	333.96
370.069	324.24
370.45	310.23
370.831	356.56
371.212	321.53
371.593	337.12
371.974	331.7
372.355	320.4
372.736	335.54
373.117	325.37
373.498	312.94
373.879	321.31
374.26	331.47
374.641	304.36
375.021	313.17
375.402	341.64
375.783	336.22
376.163	326.05
376.544	338.48
376.925	327.18
377.305	341.87
377.686	326.05
378.066	347.52
378.447	341.42
378.827	347.29
379.208	328.08
379.588	343
379.968	344.13
380.349	349.33
380.729	364.02
381.109	335.09
381.489	355.2
381.87	346.39
382.25	350.91
382.63	371.25
383.01	364.69
383.39	346.16
383.77	352.26
384.15	366.28
384.53	377.12
384.91	359.27
385.29	385.03
385.67	379.61
386.049	363.11
386.429	372.38
386.809	361.08
387.189	362.89
387.568	352.04
387.948	361.3
388.328	369.67
388.707	377.35
389.087	356.33
389.466	371.93
389.846	386.84
390.225	383.22
390.605	371.02
390.984	380.29
391.363	360.85
391.743	398.82
392.122	365.6
392.501	391.59
392.881	395.2
393.26	383.9
393.639	397.91
394.018	375.77
394.397	358.14
394.776	374.64
395.155	386.84
395.534	385.71
395.913	373.73
396.292	401.08
396.671	394.98
397.05	406.27
397.429	386.84
397.808	403.56
398.186	394.98
398.565	416.9
398.944	401.75
399.323	424.13
399.701	413.73
400.08	415.54
400.458	413.28
400.837	421.19
401.215	397.69
401.594	428.19
401.972	437.01
402.351	411.25
402.729	436.56
403.107	395.2
403.486	421.42
403.864	416.67
404.242	428.87
404.62	425.48
404.999	425.94
405.377	442.88
405.755	431.36
406.133	432.94
406.511	451.02
406.889	430.45
407.267	445.14
407.645	443.11
408.023	460.51
408.401	445.37
408.779	450.12
409.156	463.9
409.534	475.65
409.912	489.44
410.29	453.28
410.667	456.89
411.045	465.71
411.422	461.19
411.8	466.61
412.178	489.89
412.555	468.42
412.933	462.32
413.31	479.72
413.687	495.31
414.065	498.48
414.442	505.48
414.819	511.58
415.197	521.07
415.574	505.26
415.951	491.02
416.328	535.76
416.705	530.79
417.082	540.73
417.46	541.64
417.837	531.02
418.214	527.4
418.591	540.73
418.967	548.42
419.344	514.07
419.721	566.5
420.098	543.45
420.475	568.3
420.852	543.67
421.228	553.84
421.605	565.14
421.982	543.9
422.358	554.07
422.735	560.85
423.111	551.36
423.488	589.32
423.864	564.24
424.241	578.25
424.617	584.58
424.994	589.09
425.37	586.16
425.746	592.48
426.123	600.85
426.499	606.27
426.875	581.64
427.251	619.83
427.627	618.92
428.003	624.12
428.379	619.15
428.756	614.63
429.132	622.09
429.507	642.2
429.883	630.45
430.259	636.1
430.635	659.15
431.011	626.61
431.387	623.9
431.763	673.39
432.138	670
432.514	669.09
432.89	686.72
433.265	699.6
433.641	693.5
434.016	701.18
434.392	705.48
434.767	698.47
435.143	729.43
435.518	721.29
435.894	705.02
436.269	738.92
436.644	729.2
437.02	731.46
437.395	744.12
437.77	713.16
438.145	773.27
438.52	751.58
438.895	767.62
439.271	759.49
439.646	776.89
440.021	775.76
440.395	764.68
440.77	777.34
441.145	793.38
441.52	811.46
441.895	799.03
442.27	814.4
442.645	822.53
443.019	810.33
443.394	820.95
443.769	830.22
444.143	819.15
444.518	840.16
444.892	851.23
445.267	859.82
445.641	853.49
446.016	841.29
446.39	845.36
446.764	858.92
447.139	846.26
447.513	859.82
447.887	883.55
448.262	880.39
448.636	914.06
449.01	899.37
449.384	902.08
449.758	911.35
450.132	925.13
450.506	907.28
450.88	935.3
451.254	920.61
451.628	937.56
452.002	928.29
452.376	928.97
452.75	965.13
453.123	946.15
453.497	967.62
453.871	996.77
454.244	995.64
454.618	1020.04
454.992	1020.5
455.365	1024.56
455.739	1043.55
456.112	1023.43
456.486	1010.33
456.859	1054.39
457.232	1099.59
457.606	1066.14
457.979	1075.64
458.352	1092.81
458.725	1103.88
459.099	1128.06
459.472	1163.32
459.845	1153.37
460.218	1160.38
460.591	1160.38
460.964	1163.77
461.337	1189.76
461.71	1205.58
462.083	1200.83
462.456	1263.88
462.829	1222.98
463.201	1267.04
463.574	1281.73
463.947	1302.52
464.32	1305.01
464.692	1322.18
465.065	1330.54
465.438	1330.77
465.81	1368.28
466.183	1358.57
466.555	1404.67
466.928	1394.5
467.3	1433.14
467.672	1481.5
468.045	1472.24
468.417	1506.13
468.789	1492.57
469.161	1500.94
469.534	1547.49
469.906	1568.28
470.278	1564.21
470.65	1601.72
471.022	1630.88
471.394	1676.98
471.766	1700.48
472.138	1729.18
472.51	1774.37
472.882	1794.94
473.253	1786.13
473.625	1860.7
473.997	1857.08
474.369	1929.85
474.74	1892.56
475.112	1970.53
475.484	2017.08
475.855	2034.71
476.227	2078.1
476.598	2159.22
476.97	2188.15
477.341	2236.06
477.713	2254.14
478.084	2288.49
478.455	2413
478.827	2436.05
479.198	2504.07
479.569	2509.04
479.94	2616.16
480.311	2674.92
480.682	2734.12
481.053	2824.29
481.424	2800.79
481.795	2892.54
482.166	2989.03
482.537	3053.89
482.908	3119.2
483.279	3194.45
483.65	3256.82
484.021	3346.99
484.391	3417.72
484.762	3484.39
485.133	3539.98
485.503	3676.47
485.874	3721.89
486.244	3795.56
486.615	3888.44
486.985	3962.57
487.356	4071.71
487.726	4119.4
488.097	4232.84
488.467	4303.12
488.837	4425.15
489.207	4541.99
489.578	4583.11
489.948	4668.08
490.318	4764.8
490.688	4841.86
491.058	4961.86
491.428	5038.7
491.798	5091.8
492.168	5281.17
492.538	5329.54
492.908	5428.74
493.278	5528.4
493.648	5503.77
494.017	5658.34
494.387	5738.34
494.757	5863.76
495.126	5982.4
495.496	5978.11
495.866	6050.42
496.235	6180.13
496.605	6222.17
496.974	6290.19
497.344	6360.47
497.713	6409.51
498.082	6581.71
498.452	6624.87
498.821	6688.82
499.19	6669.16
499.559	6819.67
499.928	6958.42
500.298	6982.15
500.667	7060.79
501.036	7089.26
501.405	7171.29
501.774	7219.43
502.143	7338.97
502.512	7383.49
502.88	7461.68
503.249	7478.63
503.618	7608.12
503.987	7554.11
504.356	7659.19
504.724	7748.45
505.093	7797.49
505.462	7878.17
505.83	7918.62
506.199	8038.16
506.567	8075.23
506.936	8069.8
507.304	8192.96
507.672	8251.49
508.041	8319.51
508.409	8368.78
508.777	8464.59
509.145	8531.03
509.514	8533.29
509.882	8596.34
510.25	8681.54
510.618	8726.28
510.986	8688.54
511.354	8827.75
511.722	8886.5
512.09	8960.4
512.458	9003.79
512.826	9072.94
513.193	9110
513.561	9163.33
513.929	9229.32
514.297	9289.43
514.664	9346.15
515.032	9373.5
515.4	9467.05
515.767	9507.96
516.135	9522.19
516.502	9530.55
516.869	9662.75
517.237	9669.76
517.604	9685.13
517.972	9773.94
518.339	9862.75
518.706	9837.89
519.073	9937.32
519.44	9990.88
519.808	10110.2
520.175	10057.77
520.542	10147.26
520.909	10187.49
521.276	10217.54
521.643	10283.53
522.009	10416.41
522.376	10354.94
522.743	10562.62
523.11	10623.86
523.477	10683.52
523.843	10767.13
524.21	10823.63
524.577	10908.82
524.943	10927.35
525.31	11001.48
525.676	11093
526.043	11143.17
526.409	11197.86
526.776	11248.02
527.142	11386.55
527.508	11411.41
527.874	11476.04
528.241	11516.72
528.607	11545.87
528.973	11657.96
529.339	11694.79
529.705	11774.79
530.071	11892.75
530.437	11886.65
530.803	11981.79
531.169	12016.36
531.535	12040.77
531.901	12114.22
532.267	12112.63
532.632	12194.67
532.998	12291.39
533.364	12364.15
533.73	12436.47
534.095	12554.43
534.461	12584.26
534.826	12554.2
535.192	12685.5
535.557	12751.94
535.923	12725.72
536.288	12779.28
536.653	12904.25
537.019	12828.77
537.384	12855.21
537.749	13025.38
538.114	12984.7
538.479	13063.34
538.845	13085.26
539.21	13140.18
539.575	13180.63
539.94	13224.92
540.305	13275.99
540.67	13298.37
541.034	13412.03
541.399	13468.3
541.764	13476.21
542.129	13594.63
542.494	13543.1
542.858	13656.77
543.223	13653.84
543.587	13713.5
543.952	13855.64
544.316	13820.84
544.681	13869.88
545.045	13912.81
545.41	14033.03
545.774	14004.11
546.138	14042.98
546.503	14172.92
546.867	14143.99
547.231	14275.74
547.595	14275.51
547.959	14360.71
548.324	14354.61
548.688	14429.18
549.052	14489.52
549.416	14538.11
549.779	14484.77
550.143	14565.45
550.507	14708.05
550.871	14759.12
551.235	14687.48
551.599	14847.93
551.962	14885.44
552.326	14891.54
552.689	14999.79
553.053	15081.82
553.417	15014.93
553.78	15199.11
554.143	15202.27
554.507	15204.76
554.87	15251.76
555.234	15377.63
555.597	15336.96
555.96	15406.33
556.323	15356.62
556.686	15440
557.05	15562.94
557.413	15624.41
557.776	15721.58
558.139	15792.08
558.502	15742.37
558.865	15780.79
559.228	15911.4
559.59	16022.81
559.953	15959.09
560.316	16178.74
560.679	16100.78
561.041	16317.95
561.404	16296.48
561.767	16393.65
562.129	16380.77
562.492	16476.36
562.854	16594.55
563.217	16462.35
563.579	16647.88
563.941	16732.63
564.304	16813.3
564.666	16884.94
565.028	16902.34
565.39	16909.12
565.753	16952.73
566.115	17114.99
566.477	17114.99
566.839	17142.11
567.201	17231.14
567.563	17291.48
567.925	17365.6
568.287	17468.2
568.648	17428.43
569.01	17557.91
569.372	17658.93
569.734	17619.83
570.095	17684.92
570.457	17826.38
570.819	17907.51
571.18	17957.23
571.542	18058.92
571.903	17939.15
572.265	18236.99
572.626	18206.71
572.987	18223.89
573.349	18345.69
573.71	18427.5
574.071	18609.41
574.432	18682.18
574.794	18913.36
575.155	18831.1
575.516	18887.82
575.877	18909.52
576.238	19066.8
576.599	19303.4
576.96	19290.98
577.32	19396.96
577.681	19576.62
578.042	19654.13
578.403	19789.04
578.763	19854.58
579.124	20093.21
579.485	20339.54
579.845	20379.08
580.206	20402.13
580.566	20640.32
580.927	20750.6
581.287	21025.17
581.648	21017.48
582.008	21323.69
582.368	21297.7
582.728	21578.15
583.089	21765.49
583.449	21928.87
583.809	22135.19
584.169	22311.01
584.529	22445.24
584.889	22832.8
585.249	22923.87
585.609	23023.31
585.969	23380.36
586.329	23479.79
586.688	23732.67
587.048	23939.44
587.408	24171.53
587.768	24330.84
588.127	24611.97
588.487	24785.97
588.846	25115.23
589.206	25155.23
589.565	25444.03
589.925	25792.73
590.284	25970.8
590.643	26315.88
591.003	26561.75
591.362	26845.13
591.721	27077.44
592.08	27333.93
592.44	27574.6
592.799	27677.65
593.158	27896.17
593.517	28216.16
593.876	28525.08
594.235	28620.22
594.593	29057.95
594.952	29271.5
595.311	29331.39
595.67	29685.73
596.029	30028.09
596.387	30302.21
596.746	30597.8
597.104	30694.74
597.463	30900.39
597.822	31325.69
598.18	31439.81
598.538	31499.69
598.897	32058.1
599.255	31850.65
599.613	32457.86
599.972	32640.68
600.33	32778.76
600.688	32898.53
601.046	33204.96
601.404	33461.45
601.762	33579.19
602.12	33947.99
602.478	34173.3
602.836	34328.32
603.194	34437.24
603.552	34783.68
603.91	34799.04
604.268	35116.32
604.625	35184.57
604.983	35410.55
605.341	35422.98
605.698	35941.84
606.056	36075.17
606.413	36140.93
606.771	36428.6
607.128	36724.42
607.485	36582.05
607.843	36713.57
608.2	37091.19
608.557	37287.56
608.914	37211.41
609.272	37576.6
609.629	37853.88
609.986	37981.78
610.343	37910.83
610.7	38384.71
611.057	38590.81
611.414	38584.48
611.771	38736.79
612.127	38820.86
612.484	38865.38
612.841	39247.74
613.198	39163.9
613.554	39394.4
613.911	39649.76
614.267	39598.24
614.624	39759.36
614.98	39894.28
615.337	40188.73
615.693	40282.97
616.05	40328.16
616.406	40550.3
616.762	40522.96
617.118	40636.63
617.475	40670.98
617.831	40917.98
618.187	40961.37
618.543	41082.04
618.899	41377.17
619.255	41221.25
619.611	41435.25
619.967	41598.86
620.323	41628.92
620.678	41604.06
621.034	41519.77
621.39	41569.26
621.746	41596.38
622.101	42182.8
622.457	41878.4
622.812	42082.01
623.168	42246.3
623.523	42187.1
623.879	42393.87
624.234	42109.13
624.589	42374.89
624.945	42424.38
625.3	42539.86
625.655	42445.4
626.01	42564.04
626.365	42783.24
626.72	42572.85
627.075	42682.23
627.43	42757.03
627.785	42567.2
628.14	42779.4
628.495	42926.06
628.85	42780.75
629.205	42783.47
629.559	43042.44
629.914	42825.05
630.269	42943.46
630.623	42839.28
630.978	42807.19
631.332	42959.73
631.687	43145.04
632.041	42947.75
632.396	43141.65
632.75	42838.38
633.104	43064.59
633.459	42887.87
633.813	42898.72
634.167	42920.19
634.521	43023.46
634.875	42972.61
635.229	42934.87
635.583	42724.48
635.937	42877.02
636.291	42857.14
636.645	42748.44
636.999	42780.3
637.352	42990.24
637.706	42676.35
638.06	42863.01
638.413	42735.78
638.767	42768.32
639.121	42785.73
639.474	42611.04
639.828	42810.13
640.181	42808.55
640.534	42724.48
640.888	42582.57
641.241	42416.7
641.594	42561.32
641.947	42595.22
642.301	42600.87
642.654	42583.92
643.007	42531.04
643.36	42554.54
643.713	42550.93
644.066	42576.92
644.419	42379.41
644.771	42304.38
645.124	41694.45
645.477	41810.16
645.83	41575.36
646.182	41418.08
646.535	41292.66
646.888	41384.63
647.24	41081.36
647.593	41496.49
647.945	41168.37
648.298	41083.62
648.65	41073.91
649.002	40970.63
649.355	41276.61
649.707	41200.23
650.059	41301.7
650.411	41858.74
650.763	41815.36
651.115	42302.35
651.467	42013.77
651.819	42004.5
652.171	41973.32
652.523	41918.63
652.875	41984.16
653.227	41811.06
653.578	42104.61
653.93	41988.23
654.282	41775.13
654.633	41727.67
654.985	41745.75
655.337	41881.34
655.688	41825.52
656.039	41987.55
656.391	41610.16
656.742	41678.64
657.094	41678.41
657.445	41828.24
657.796	41660.56
658.147	41689.26
658.498	41709.6
658.849	41786.88
659.2	41587.56
659.551	41616.26
659.902	41693.32
660.253	41469.38
660.604	41597.06
660.955	41403.16
661.306	41665.08
661.656	41564.06
662.007	41445.42
662.358	41527.45
662.708	41621.69
663.059	41425.31
663.409	41267.35
663.76	41490.39
664.11	41517.06
664.461	41579.43
664.811	41393.67
665.161	41497.4
665.511	41470.05
665.862	41455.59
666.212	41604.97
666.562	41477.06
666.912	41397.74
667.262	41262.83
667.612	41348.93
667.962	41270.51
668.312	41293.56
668.662	41482.71
669.011	41312.77
669.361	41242.72
669.711	41405.65
670.06	41195.03
670.41	41165.2
670.76	41329.72
671.109	41378.53
671.459	41193.68
671.808	41282.49
672.157	41252.88
672.507	41066.45
672.856	41126.33
673.205	41144.19
673.554	41260.79
673.904	41078.2
674.253	41404.74
674.602	41300.57
674.951	40464.43
675.3	40346.24
675.649	40900.35
675.998	40970.63
676.346	40914.14
676.695	41073.91
677.044	40909.39
677.393	40862.39
677.741	41003.85
678.09	40766.12
678.438	40827.36
678.787	40897.41
679.135	40795.27
679.484	40652.22
679.832	40651.09
680.181	40431.21
680.529	40619.23
680.877	40426.24
681.225	40315.28
681.573	40642.28
681.922	40479.12
682.27	40286.36
682.618	40167.94
682.966	40113.71
683.314	40287.49
683.661	40169.75
684.009	39966.14
684.357	39922.98
684.705	39833.26
685.053	39920.49
685.4	39770.21
685.748	39635.53
686.095	39617.67
686.443	39562.08
686.79	39592.81
687.138	39624
687.485	39530.22
687.832	39437.79
688.18	39426.72
688.527	39239.38
688.874	39303.56
689.221	39277.57
689.568	39044.81
689.915	39115.31
690.262	39106.5
690.609	38816.34
690.956	38776.57
691.303	38608.21
691.65	38561.88
691.997	38521.2
692.344	38440.75
692.69	38245.73
693.037	38343.36
693.383	38063.82
693.73	38101.55
694.077	37989.24
694.423	37834.22
694.769	37853.43
695.116	37690.04
695.462	37649.59
695.808	37594.68
696.155	37628.57
696.501	37366.21
696.847	37360.78
697.193	37027.46
697.539	37172.54
697.885	36974.58
698.231	36880.57
698.577	36914.02
698.923	36839.44
699.269	36579.79
699.614	36408.49
699.96	36422.28
700.306	36336.86
700.651	36348.61
700.997	36063.19
701.342	36065
701.688	36006.92
702.033	35950.2
702.379	35823.2
702.724	35651.9
703.069	35799.47
703.415	35320.84
703.76	35488.74
704.105	35462.08
704.45	35414.39
704.795	35185.93
705.14	35090.33
705.485	35063.67
705.83	35011.01
706.175	34982.99
706.52	34970.79
706.865	34732.38
707.209	34770.79
707.554	34615.54
707.899	34623
708.243	34403.8
708.588	34368.55
708.932	34257.81
709.277	34189.79
709.621	34230.47
709.966	33903.7
710.31	34070.7
710.654	33851.04
710.998	33844.72
711.342	33829.58
711.687	33698.73
712.031	33592.29
712.375	33565.63
712.719	33588.45
713.063	33579.64
713.407	33579.64
713.75	33409.02
714.094	33221.46
714.438	33235.47
714.782	33164.51
715.125	33101.91
715.469	33232.08
715.812	32988.02
716.156	32822.82
716.499	32951.86
716.843	32939.88
717.186	32641.59
717.53	32835.93
717.873	32758.64
718.216	32573.79
718.559	32561.14
718.902	32264.19
719.246	32406.34
719.589	32302.61
719.932	32074.59
720.275	32185.33
720.617	32207.02
720.96	32047.02
721.303	32087.7
721.646	32118.66
721.989	31744.43
722.331	31881.15
722.674	31873.7
723.016	31881.38
723.359	31757.09
723.701	31705.56
724.044	31778.56
724.386	31493.59
724.729	31684.55
725.071	31604.78
725.413	31563.42
725.755	31506.02
726.097	31306.71
726.439	31183.32
726.782	31189.42
727.124	31369.53
727.465	31116.65
727.807	31162.53
728.149	30987.84
728.491	30991.69
728.833	31161.62
729.175	30816.1
729.516	30854.06
729.858	30798.24
730.199	30774.74
730.541	30643.22
730.882	30672.82
731.224	30748.98
731.565	30514.64
731.906	30570.91
732.248	30501.08
732.589	30478.48
732.93	30219.5
733.271	30393.28
733.612	30319.39
733.953	30308.77
734.294	30282.33
734.635	30127.08
734.976	30284.59
735.317	29919.85
735.658	30006.17
735.999	30009.79
736.339	29985.61
736.68	30138.83
737.021	29994.88
737.361	29873.52
737.702	29966.4
738.042	29881.88
738.383	29765.28
738.723	29789.46
739.063	29781.55
739.404	29872.84
739.744	29716.01
740.084	29553.98
740.424	29573.19
740.764	29474.66
741.104	29652.51
741.444	29438.96
741.784	29346.76
742.124	29459.75
742.464	29348.56
742.804	29223.6
743.143	29204.84
743.483	29172.52
743.823	28970.72
744.162	29117.61
744.502	29127.33
744.841	29047.33
745.181	29061.11
745.52	28915.81
745.86	28904.73
746.199	28964.39
746.538	28958.29
746.877	28750.84
747.216	28783.61
747.556	28687.79
747.895	28675.81
748.234	28565.08
748.573	28603.05
748.911	28480.56
749.25	28578.19
749.589	28449.15
749.928	28425.88
750.267	28443.28
750.605	28437.18
750.944	28346.56
751.283	28182.95
751.621	28205.32
751.96	28000.13
752.298	28104.76
752.636	28045.77
752.975	28004.19
753.313	27871.99
753.651	27958.09
753.989	27801.71
754.327	27913.12
754.666	27718.1
755.004	27779.79
755.342	27753.8
755.679	27653.24
756.017	27594.94
756.355	27555.84
756.693	27474.04
757.031	27387.03
757.368	27261.16
