Data from hue_10_FLMS001491_36.txt Node
Date: Mon Feb 06 15:31:49 GMT 2017
User: dcchb
Spectrometer: FLMS00149
Trigger mode: 0
Integration Time (sec): 2.000000E-2
Scans to average: 10
Electric dark correction enabled: true
Nonlinearity correction enabled: false
Boxcar width: 0
XAxis mode: Wavelengths
Number of Pixels in Spectrum: 2048
>>>>>Begin Spectral Data<<<<<
341.393	-5.23
341.776	-5.23
342.16	-5.23
342.543	-68.73
342.927	-89.07
343.31	-80.93
343.693	-55.39
344.077	-59.91
344.46	-62.63
344.843	-42.06
345.226	-38.9
345.61	-39.12
345.993	-0.93
346.376	7.43
346.759	7.66
347.142	34.77
347.525	23.47
347.908	54.43
348.291	60.99
348.674	83.59
349.057	107.54
349.44	117.93
349.823	140.53
350.206	168.33
350.588	184.37
350.971	201.32
351.354	212.4
351.737	231.83
352.119	254.2
352.502	265.95
352.884	244.71
353.267	248.78
353.65	286.29
354.032	271.6
354.414	299.62
354.797	289.91
355.179	309.34
355.562	293.75
355.944	307.99
356.326	328.78
356.709	327.65
357.091	320.42
357.473	345.05
357.855	328.55
358.238	353.86
358.62	345.95
359.002	341.21
359.384	349.12
359.766	339.17
360.148	331.26
360.53	315.9
360.912	341.88
361.294	309.79
361.676	342.56
362.057	342.56
362.439	314.31
362.821	309.34
363.203	323.58
363.584	296.24
363.966	310.02
364.348	312.28
364.729	314.09
365.111	326.74
365.493	309.79
365.874	325.39
366.256	310.02
366.637	308.66
367.019	296.91
367.4	303.24
367.781	309.79
368.163	277.93
368.544	287.87
368.925	289.91
369.306	300.53
369.688	300.75
370.069	297.82
370.45	318.83
370.831	300.98
371.212	305.73
371.593	298.72
371.974	318.16
372.355	298.95
372.736	291.49
373.117	310.25
373.498	302.79
373.879	281.32
374.26	289.68
374.641	316.35
375.021	315.67
375.402	299.62
375.783	297.37
376.163	323.35
376.544	319.51
376.925	304.6
377.305	316.8
377.686	328.55
378.066	306.18
378.447	303.92
378.827	340.08
379.208	313.41
379.588	312.51
379.968	320.19
380.349	316.35
380.729	325.84
381.109	307.31
381.489	318.38
381.87	334.2
382.25	326.06
382.63	319.29
383.01	335.78
383.39	305.95
383.77	328.1
384.15	329.91
384.53	335.33
384.91	335.78
385.29	335.33
385.67	322
386.049	347.99
386.429	320.19
386.809	322.9
387.189	360.41
387.568	334.88
387.948	346.63
388.328	347.53
388.707	347.31
389.087	334.2
389.466	357.7
389.846	341.43
390.225	332.39
390.605	358.61
390.984	347.99
391.363	351.37
391.743	352.28
392.122	358.61
392.501	371.94
392.881	357.48
393.26	354.31
393.639	348.44
394.018	354.54
394.397	355.67
394.776	363.13
395.155	354.76
395.534	352.73
395.913	349.12
396.292	354.99
396.671	358.15
397.05	351.37
397.429	378.49
397.808	354.09
398.186	365.16
398.565	353.41
398.944	389.11
399.323	362.67
399.701	383.24
400.08	369.68
400.458	378.49
400.837	361.32
401.215	392.96
401.594	369.91
401.972	384.14
402.351	380.3
402.729	369.68
403.107	377.14
403.486	394.31
403.864	385.72
404.242	394.09
404.62	397.93
404.999	376.01
405.377	380.07
405.755	374.2
406.133	383.24
406.511	413.29
406.889	393.86
407.267	387.98
407.645	386.63
408.023	417.14
408.401	403.58
408.779	400.87
409.156	388.44
409.534	412.39
409.912	401.32
410.29	404.71
410.667	427.08
411.045	427.31
411.422	433.18
411.8	420.75
412.178	423.69
412.555	420.98
412.933	437.47
413.31	434.54
413.687	449.23
414.065	436.34
414.442	442.9
414.819	436.8
415.197	443.12
415.574	446.29
415.951	461.43
416.328	466.63
416.705	458.04
417.082	459.85
417.46	481.09
417.837	449.9
418.214	465.95
418.591	473.63
418.967	492.84
419.344	481.99
419.721	457.81
420.098	475.44
420.475	456.46
420.852	465.95
421.228	470.47
421.605	479.51
421.982	458.94
422.358	500.07
422.735	487.87
423.111	512.27
423.488	496.23
423.864	514.53
424.241	486.96
424.617	518.83
424.994	552.73
425.37	527.19
425.746	531.03
426.123	521.09
426.499	500.98
426.875	522.22
427.251	519.28
427.627	542.1
428.003	525.16
428.379	529.45
428.756	551.6
429.132	551.37
429.507	561.76
429.883	546.4
430.259	548.88
430.635	538.94
431.011	547.08
431.387	576.68
431.763	575.55
432.138	587.07
432.514	592.95
432.89	572.16
433.265	572.39
433.641	618.71
434.016	598.83
434.392	614.19
434.767	581.65
435.143	603.12
435.518	608.77
435.894	628.2
436.269	631.14
436.644	651.03
437.02	631.82
437.395	658.94
437.77	661.42
438.145	657.36
438.52	631.59
438.895	659.62
439.271	661.88
439.646	678.6
440.021	656.68
440.395	688.54
440.77	692.38
441.145	693.51
441.52	696.22
441.895	664.81
442.27	699.61
442.645	731.03
443.019	684.7
443.394	698.03
443.769	719.5
444.143	699.61
444.518	706.39
444.892	703.46
445.267	713.63
445.641	701.65
446.016	740.74
446.39	724.25
446.764	723.34
447.139	703.23
447.513	744.36
447.887	730.35
448.262	728.77
448.636	748.88
449.01	765.38
449.384	764.47
449.758	777.35
450.132	740.74
450.506	754.08
450.88	775.54
451.254	764.25
451.628	765.38
452.002	787.97
452.376	787.75
452.75	784.81
453.123	802.89
453.497	790.91
453.871	792.49
454.244	804.24
454.618	797.46
454.992	816.67
455.365	828.42
455.739	823.68
456.112	855.32
456.486	840.4
456.859	847.41
457.232	874.75
457.606	859.61
457.979	888.08
458.352	887.41
458.725	888.99
459.099	898.03
459.472	948.65
459.845	930.57
460.218	935.77
460.591	918.37
460.964	933.73
461.337	945.94
461.71	959.04
462.083	978.03
462.456	962.66
462.829	967.4
463.201	999.04
463.574	990
463.947	1012.37
464.32	1032.04
464.692	1044.24
465.065	1040.62
465.438	1069.32
465.81	1071.36
466.183	1080.17
466.555	1093.28
466.928	1104.58
467.3	1100.06
467.672	1126.5
468.045	1130.79
468.417	1133.28
468.789	1150.68
469.161	1158.81
469.534	1192.93
469.906	1195.87
470.278	1209.43
470.65	1223.44
471.022	1250.79
471.394	1270.67
471.766	1262.54
472.138	1281.07
472.51	1301.18
472.882	1343.67
473.253	1331.24
473.625	1364.68
473.997	1386.15
474.369	1371.46
474.74	1444
475.112	1449.65
475.484	1460.72
475.855	1508.41
476.227	1509.54
476.598	1552.25
476.97	1546.82
477.341	1571.91
477.713	1584.11
478.084	1654.17
478.455	1654.62
478.827	1683.77
479.198	1722.64
479.569	1761.96
479.94	1803.99
480.311	1809.19
480.682	1813.94
481.053	1881.73
481.424	1925.8
481.795	1947.27
482.166	1978.68
482.537	1978.22
482.908	2010.09
483.279	2069.75
483.65	2110.88
484.021	2136.64
484.391	2179.12
484.762	2228.39
485.133	2241.72
485.503	2267.03
485.874	2339.57
486.244	2329.63
486.615	2352.45
486.985	2433.58
487.356	2476.52
487.726	2501.83
488.097	2545.89
488.467	2543.41
488.837	2647.59
489.207	2639.45
489.578	2696.4
489.948	2727.58
490.318	2764.87
490.688	2779.11
491.058	2850.97
491.428	2876.51
491.798	2893.23
492.168	2939.1
492.538	3000.57
492.908	2996.5
493.278	3066.78
493.648	3064.52
494.017	3109.49
494.387	3154.92
494.757	3190.85
495.126	3226.55
495.496	3242.37
495.866	3252.99
496.235	3309.49
496.605	3345.87
496.974	3336.16
497.344	3372.99
497.713	3414.8
498.082	3438.98
498.452	3456.83
498.821	3473.78
499.19	3514.46
499.559	3553.32
499.928	3536.83
500.298	3562.36
500.667	3607.79
501.036	3625.87
501.405	3660.67
501.774	3642.14
502.143	3705.64
502.512	3702.02
502.88	3761.91
503.249	3716.94
503.618	3745.64
503.987	3852.3
504.356	3832.41
504.724	3854.33
505.093	3862.47
505.462	3885.29
505.83	3856.37
506.199	3953.99
506.567	3948.12
506.936	3987.44
507.304	4015.69
507.672	4048.9
508.041	4064.27
508.409	4063.59
508.777	4057.04
509.145	4107.43
509.514	4132.52
509.882	4132.74
510.25	4122.12
510.618	4155.57
510.986	4189.69
511.354	4235.34
511.722	4238.28
512.09	4247.54
512.458	4274.89
512.826	4315.56
513.193	4290.25
513.561	4310.82
513.929	4329.12
514.297	4342.68
514.664	4389.01
515.032	4405.73
515.4	4480.98
515.767	4450.48
516.135	4463.13
516.502	4460.87
516.869	4510.59
517.237	4557.37
517.604	4494.09
517.972	4565.95
518.339	4570.02
518.706	4600.53
519.073	4598.27
519.44	4596.24
519.808	4649.34
520.175	4593.3
520.542	4681.2
520.909	4713.97
521.276	4664.48
521.643	4739.96
522.009	4732.05
522.376	4789.45
522.743	4770.47
523.11	4812.73
523.477	4893.4
523.843	4919.62
524.21	4944.93
524.577	5002.1
524.943	4972.5
525.31	5023.79
525.676	5051.36
526.043	5065.38
526.409	5074.64
526.776	5125.94
527.142	5087.52
527.508	5115.77
527.874	5172.72
528.241	5153.73
528.607	5205.26
528.973	5245.03
529.339	5209.1
529.705	5269.89
530.071	5333.62
530.437	5308.53
530.803	5389.89
531.169	5425.59
531.535	5396.89
531.901	5439.83
532.267	5463.1
532.632	5482.09
532.998	5516.21
533.364	5520.5
533.73	5552.37
534.095	5583.33
534.461	5624.91
534.826	5648.64
535.192	5700.61
535.557	5695.64
535.923	5708.52
536.288	5760.05
536.653	5751.23
537.019	5756.2
537.384	5823.77
537.749	5830.33
538.114	5773.83
538.479	5820.84
538.845	5851.34
539.21	5857.67
539.575	5950.78
539.94	5948.97
540.305	5942.41
540.67	5987.38
541.034	6023.77
541.399	6054.95
541.764	6020.83
542.129	6073.71
542.494	6090.66
542.858	6140.38
543.223	6128.4
543.587	6202.07
543.952	6166.82
544.316	6200.26
544.681	6211.79
545.045	6246.81
545.41	6253.37
545.774	6280.94
546.138	6289.52
546.503	6379.24
546.867	6350.77
547.231	6462.4
547.595	6413.14
547.959	6418.79
548.324	6528.84
548.688	6496.07
549.052	6513.02
549.416	6539.01
549.779	6562.96
550.143	6619.23
550.507	6610.42
550.871	6635.5
551.235	6628.05
551.599	6677.99
551.962	6691.1
552.326	6725.22
552.689	6732.68
553.053	6684.54
553.417	6732.68
553.78	6796.18
554.143	6777.87
554.507	6827.59
554.87	6854.71
555.234	6894.03
555.597	6902.39
555.96	6880.02
556.323	6907.81
556.686	6934.7
557.05	6970.86
557.413	6984.87
557.776	7071.88
558.139	7052.89
558.502	7083.63
558.865	7096.96
559.228	7184.19
559.59	7163.4
559.953	7160.91
560.316	7259.89
560.679	7258.09
561.041	7261.48
561.404	7329.27
561.767	7315.71
562.129	7318.88
562.492	7389.61
562.854	7372.66
563.217	7428.03
563.579	7415.14
563.941	7491.3
564.304	7561.58
564.666	7575.59
565.028	7586.66
565.39	7602.26
565.753	7604.97
566.115	7617.17
566.477	7651.07
566.839	7684.06
567.201	7711.63
567.563	7709.83
567.925	7854
568.287	7825.08
568.648	7713.89
569.01	7883.38
569.372	7919.09
569.734	7917.28
570.095	7912.53
570.457	7948.01
570.819	8011.51
571.18	8037.5
571.542	8097.61
571.903	8061
572.265	8175.8
572.626	8260.55
572.987	8197.72
573.349	8333.31
573.71	8406.53
574.071	8386.87
574.432	8475.23
574.794	8555.23
575.155	8543.93
575.516	8535.79
575.877	8660.08
576.238	8676.81
576.599	8684.49
576.96	8775.33
577.32	8851.26
577.681	8862.56
578.042	9014.2
578.403	9085.83
578.763	9139.39
579.124	9207.64
579.485	9361.08
579.845	9448.54
580.206	9493.51
580.566	9578.7
580.927	9681.3
581.287	9801.07
581.648	9877.23
582.008	10037.45
582.368	10109.08
582.728	10259.59
583.089	10428.4
583.449	10510.88
583.809	10690.31
584.169	10870.19
584.529	10977.31
584.889	11181.6
585.249	11322.16
585.609	11387.24
585.969	11624.3
586.329	11852.77
586.688	12010.73
587.048	12208.01
587.408	12429.02
587.768	12622.92
588.127	12827.88
588.487	13053.87
588.846	13326.63
589.206	13405.04
589.565	13654.08
589.925	13902.43
590.284	14149.43
590.643	14532.47
591.003	14686.14
591.362	14974.95
591.721	15152.57
592.08	15482.28
592.44	15778.09
592.799	16020.34
593.158	16249.04
593.517	16454.23
593.876	16802.47
594.235	17001.11
594.593	17280.65
594.952	17652.16
595.311	17718.38
595.67	18178.25
596.029	18514.06
596.387	18909.53
596.746	19046.25
597.104	19313.36
597.463	19600.81
597.822	19907.24
598.18	20188.37
598.538	20379.77
598.897	20903.38
599.255	20830.38
599.613	21518.05
599.972	21656.13
600.33	21951.03
600.688	22166.62
601.046	22390.57
601.404	22958.46
601.762	23042.3
602.12	23372.01
602.478	23732.46
602.836	23870.08
603.194	24091.99
603.552	24474.36
603.91	24581.92
604.268	24987.56
604.625	25068.47
604.983	25452.64
605.341	25532.18
605.698	25934.66
606.056	26224.37
606.413	26455.55
606.771	26784.8
607.128	27055.76
607.485	27093.27
607.843	27416.88
608.2	27842.18
608.557	28020.03
608.914	28114.94
609.272	28494.59
609.629	28723.96
609.986	29071.07
610.343	29114.01
610.7	29418.18
611.057	29665.63
611.414	29753.99
611.771	29880.32
612.127	30186.97
612.484	30507.87
612.841	30611.37
613.198	30662.67
613.554	30962.55
613.911	31318.24
614.267	31332.03
614.624	31415.19
614.98	31831.68
615.337	31979.24
615.693	32097.88
616.05	32201.61
616.406	32556.63
616.762	32628.94
617.118	32619.91
617.475	32878.88
617.831	32950.74
618.187	33205.2
618.543	33350.06
618.899	33662.14
619.255	33656.94
619.611	33731.29
619.967	33931.06
620.323	34303.7
620.678	34122.24
621.034	34204.95
621.39	34249.01
621.746	34380.08
622.101	34874.08
622.457	34651.94
622.812	34805.38
623.168	34967.19
623.523	35165.37
623.879	35252.6
624.234	35001.76
624.589	35349.55
624.945	35407.18
625.3	35430.9
625.655	35578.7
626.01	35576.44
626.365	35856.88
626.72	35635.64
627.075	35764.23
627.43	35848.75
627.785	35905.47
628.14	36002.19
628.495	36107.95
628.85	36154.95
629.205	36008.52
629.559	36403.31
629.914	36199.92
630.269	36368.06
630.623	36187.95
630.978	36185.69
631.332	36347.94
631.687	36530.76
632.041	36486.47
632.396	36690.31
632.75	36342.07
633.104	36510.88
633.459	36409.41
633.813	36375.29
634.167	36535.73
634.521	36595.62
634.875	36525.34
635.229	36478.11
635.583	36272.01
635.937	36455.28
636.291	36613.47
636.645	36477.66
636.999	36417.55
637.352	36597.65
637.706	36406.02
638.06	36635.62
638.413	36509.97
638.767	36510.42
639.121	36527.15
639.474	36396.98
639.828	36472.01
640.181	36508.62
640.534	36380.26
640.888	36432.91
641.241	36354.5
641.594	36428.62
641.947	36590.2
642.301	36426.13
642.654	36504.77
643.007	36485.11
643.36	36430.65
643.713	36357.89
644.066	36493.25
644.419	36290.09
644.771	36034.5
645.124	35762.65
645.477	35742.08
645.83	35608.3
646.182	35405.59
646.535	35376.67
646.888	35469.77
647.24	35150.69
647.593	35349.1
647.945	35270
648.298	35176.9
648.65	35256.22
649.002	35064.36
649.355	35251.02
649.707	35201.31
650.059	35284.24
650.411	35693.72
650.763	35766.94
651.115	36258
651.467	36082.19
651.819	36106.14
652.171	35931.68
652.523	35892.14
652.875	35989.76
653.227	35701.86
653.578	35995.86
653.93	35986.82
654.282	35917.45
654.633	35729.43
654.985	35862.08
655.337	35914.06
655.688	35852.14
656.039	36018.46
656.391	35734.4
656.742	35635.64
657.094	35768.07
657.445	35723.1
657.796	35762.87
658.147	35742.08
658.498	35678.36
658.849	35776.88
659.2	35736.66
659.551	35686.49
659.902	35787.51
660.253	35625.02
660.604	35677
660.955	35586.15
661.306	35677.9
661.656	35529.21
662.007	35594.97
662.358	35508.87
662.708	35633.84
663.059	35625.02
663.409	35439.27
663.76	35768.97
664.11	35608.75
664.461	35601.75
664.811	35550.68
665.161	35589.09
665.511	35490.34
665.862	35692.82
666.212	35764.91
666.562	35658.7
666.912	35665.93
667.262	35440.4
667.612	35640.84
667.962	35572.37
668.312	35548.42
668.662	35611.46
669.011	35522.2
669.361	35561.97
669.711	35416.22
670.06	35470.68
670.41	35435.65
670.76	35430.68
671.109	35572.37
671.459	35484.69
671.808	35382.09
672.157	35396.33
672.507	35225.71
672.856	35237.24
673.205	35258.48
673.554	35315.88
673.904	35215.32
674.253	35305.03
674.602	35251.25
674.951	34694.2
675.3	34572.85
675.649	35171.93
675.998	35016.9
676.346	35097.35
676.695	35289.89
677.044	34864.14
677.393	35040.41
677.741	35190.46
678.09	35091.25
678.438	34983.91
678.787	34965.38
679.135	35101.65
679.484	34665.95
679.832	34963.8
680.181	34877.25
680.529	34755.89
680.877	34741.66
681.225	34675.9
681.573	34990.92
681.922	34653.07
682.27	34589.8
682.618	34510.25
682.966	34451.04
683.314	34533.53
683.661	34514.77
684.009	34387.54
684.357	34280.65
684.705	34217.38
685.053	34169.92
685.4	34156.36
685.748	34038.17
686.095	34084.5
686.443	33919.98
686.79	33936.25
687.138	33939.19
687.485	33985.74
687.832	33608.35
688.18	33779.87
688.527	33563.61
688.874	33562.25
689.221	33593.66
689.568	33473.44
689.915	33318.64
690.262	33359.32
690.609	33274.13
690.956	33018.09
691.303	33087.46
691.65	33091.31
691.997	32955.26
692.344	32778.32
692.69	32799.34
693.037	32839.33
693.383	32577.42
693.73	32679.79
694.077	32460.14
694.423	32410.19
694.769	32287.71
695.116	32194.61
695.462	32198.67
695.808	32088.85
696.155	32231.89
696.501	31787.16
696.847	31991.9
697.193	31584
697.539	31780.83
697.885	31575.86
698.231	31463.55
698.577	31471.69
698.923	31442.53
699.269	31236.44
699.614	31172.03
699.96	31153.95
700.306	31112.83
700.651	30898.82
700.997	30872.15
701.342	30779.5
701.688	30745.83
702.033	30664.02
702.379	30663.35
702.724	30595.55
703.069	30604.82
703.415	30275.33
703.76	30266.52
704.105	30287.76
704.45	30089.35
704.795	30065.85
705.14	30029.92
705.485	30036.02
705.83	29828.57
706.175	29923.25
706.52	29676.48
706.865	29749.92
707.209	29672.86
707.554	29596.26
707.899	29663.6
708.243	29346.32
708.588	29424.51
708.932	29148.81
709.277	29193.1
709.621	29257.28
709.966	28932.54
710.31	29136.61
710.654	28845.31
710.998	28903.39
711.342	28911.3
711.687	28858.2
712.031	28698.2
712.375	28660.01
712.719	28651.65
713.063	28440.35
713.407	28704.3
713.75	28396.97
714.094	28374.59
714.438	28439
714.782	28459.79
715.125	28197.42
715.469	28219.34
715.812	28123.75
716.156	27819.35
716.499	27989.74
716.843	27938.67
717.186	27853.7
717.53	27934.83
717.873	27936.86
718.216	27867.49
718.559	27686.25
718.902	27650.54
719.246	27645.57
719.589	27602.86
719.932	27416.2
720.275	27427.95
720.617	27378.91
720.96	27325.35
721.303	27379.36
721.646	27429.08
721.989	27200.16
722.331	27289.65
722.674	27225.02
723.016	27176.66
723.359	27156.09
723.701	27067.51
724.044	27013.5
724.386	26891.69
724.729	26920.85
725.071	26983.9
725.413	26819.61
725.755	26680.63
726.097	26774.41
726.439	26611.02
726.782	26611.7
727.124	26595.66
727.465	26473.63
727.807	26498.94
728.149	26464.13
728.491	26411.93
728.833	26393.18
729.175	26295.33
729.516	26312.95
729.858	26235.89
730.199	26252.61
730.541	26194.99
730.882	26185.72
731.224	26204.71
731.565	25957.71
731.906	25951.83
732.248	26074.54
732.589	25790.25
732.93	25795.68
733.271	25792.51
733.612	25908.67
733.953	25829.12
734.294	25759.52
734.635	25731.05
734.976	25741.22
735.317	25664.16
735.658	25690.6
735.999	25639.75
736.339	25584.84
736.68	25610.37
737.021	25531.05
737.361	25321.79
737.702	25571.05
738.042	25455.57
738.383	25395.46
738.723	25436.14
739.063	25296.93
739.404	25280.44
739.744	25208.35
740.084	25307.55
740.424	25203.15
740.764	25158.63
741.104	25254.45
741.444	25061.91
741.784	24985.53
742.124	25075.47
742.464	24897.62
742.804	24882.93
743.143	24833.44
743.483	24915.25
743.823	24807.23
744.162	24729.04
744.502	24793.22
744.841	24758.19
745.181	24832.77
745.52	24710.28
745.86	24691.3
746.199	24598.87
746.538	24540.8
746.877	24661.7
747.216	24709.83
747.556	24506.22
747.895	24585.99
748.234	24444.53
748.573	24310.52
748.911	24469.61
749.25	24341.03
749.589	24309.84
749.928	24235.49
750.267	24312.55
750.605	24186.68
750.944	24113.24
751.283	24050.64
751.621	24189.62
751.96	23884.99
752.298	24004.99
752.636	24037.08
752.975	23826.01
753.313	23780.59
753.651	23901.94
753.989	23758.44
754.327	23642.06
754.666	23706.24
755.004	23641.16
755.342	23716.64
755.679	23640.93
756.017	23496.76
756.355	23486.13
756.693	23428.06
757.031	23485.23
757.368	23329.98
757.706	23266.25
758.044	23111
758.381	23294.5
758.719	23130.89
759.056	23179.7
759.394	22993.27
759.731	22953.04
760.068	22857
760.405	22787.85
760.743	22774.29
761.08	22841.41
761.417	22642.31
