Data from hue_170_FLMS001491_00095.txt Node
Date: Tue Feb 07 16:49:31 GMT 2017
User: dcchb
Spectrometer: FLMS00149
Trigger mode: 0
Integration Time (sec): 2.000000E-2
Scans to average: 10
Electric dark correction enabled: true
Nonlinearity correction enabled: false
Boxcar width: 0
XAxis mode: Wavelengths
Number of Pixels in Spectrum: 2048
>>>>>Begin Spectral Data<<<<<
341.393	-19.11
341.776	-19.11
342.16	-19.11
342.543	-63.18
342.927	-46.91
343.31	-69.96
343.693	-86
344.077	-60.92
344.46	-45.78
344.843	-51.43
345.226	-40.8
345.61	-34.48
345.993	-8.04
346.376	-8.94
346.759	5.75
347.142	14.34
347.525	43.49
347.908	63.6
348.291	80.32
348.674	70.15
349.057	128.68
349.44	113.32
349.823	129.14
350.206	165.07
350.588	202.58
350.971	212.3
351.354	216.59
351.737	253.2
352.119	242.13
352.502	232.41
352.884	282.8
353.267	296.81
353.65	274.22
354.032	299.75
354.414	297.04
354.797	330.71
355.179	333.65
355.562	330.71
355.944	304.27
356.326	318.28
356.709	313.76
357.091	336.36
357.473	351.73
357.855	368.45
358.238	340.65
358.62	344.27
359.002	332.52
359.384	339.07
359.766	330.94
360.148	338.62
360.53	342.69
360.912	340.88
361.294	323.93
361.676	340.43
362.057	313.99
362.439	332.07
362.821	332.52
363.203	302.92
363.584	338.62
363.966	323.93
364.348	333.42
364.729	297.49
365.111	345.63
365.493	343.59
365.874	321.9
366.256	303.82
366.637	319.86
367.019	323.93
367.4	309.02
367.781	300.43
368.163	309.47
368.544	301.79
368.925	299.75
369.306	328.68
369.688	321.22
370.069	318.73
370.45	298.62
370.831	310.6
371.212	290.49
371.593	284.61
371.974	320.32
372.355	321.45
372.736	326.64
373.117	297.94
373.498	339.07
373.879	299.98
374.26	307.89
374.641	322.12
375.021	329.81
375.402	313.08
375.783	323.03
376.163	321.9
376.544	341.78
376.925	311.96
377.305	325.29
377.686	320.32
378.066	348.11
378.447	329.58
378.827	339.3
379.208	321.67
379.588	322.12
379.968	342.69
380.349	342.01
380.729	333.88
381.109	340.88
381.489	314.89
381.87	340.43
382.25	352.18
382.63	340.43
383.01	340.65
383.39	338.17
383.77	337.49
384.15	352.63
384.53	360.99
384.91	353.31
385.29	352.86
385.67	370.94
386.049	360.99
386.429	337.72
386.809	343.37
387.189	351.28
387.568	342.01
387.948	356.47
388.328	343.82
388.707	348.11
389.087	357.15
389.466	360.32
389.846	364.84
390.225	365.51
390.605	350.82
390.984	360.09
391.363	353.76
391.743	368.9
392.122	372.74
392.501	360.54
392.881	394.44
393.26	384.27
393.639	371.84
394.018	379.3
394.397	376.59
394.776	369.13
395.155	386.08
395.534	373.2
395.913	389.92
396.292	350.82
396.671	384.04
397.05	400.77
397.429	406.19
397.808	383.14
398.186	390.6
398.565	379.98
398.944	382.01
399.323	382.69
399.701	404.61
400.08	419.52
400.458	404.61
400.837	397.38
401.215	389.47
401.594	396.25
401.972	405.96
402.351	414.78
402.729	418.17
403.107	425.85
403.486	418.17
403.864	418.39
404.242	424.49
404.62	431.27
404.999	426.3
405.377	424.49
405.755	410.71
406.133	432.63
406.511	413.42
406.889	450.26
407.267	438.28
407.645	443.7
408.023	442.8
408.401	453.42
408.779	451.84
409.156	461.56
409.534	485.28
409.912	458.62
410.29	478.28
410.667	485.06
411.045	447.32
411.422	470.14
411.8	464.95
412.178	494.78
412.555	498.62
412.933	491.39
413.31	524.15
413.687	513.98
414.065	510.14
414.442	544.27
414.819	513.76
415.197	524.6
415.574	544.94
415.951	521.67
416.328	570.25
416.705	530.03
417.082	565.51
417.46	574.32
417.837	569.8
418.214	559.18
418.591	569.58
418.967	564.83
419.344	598.5
419.721	603.02
420.098	585.17
420.475	590.82
420.852	604.83
421.228	617.26
421.605	593.53
421.982	625.17
422.358	643.02
422.735	643.92
423.111	621.78
423.488	643.25
423.864	658.84
424.241	634.43
424.617	660.87
424.994	697.48
425.37	662.68
425.746	699.74
426.123	693.87
426.499	699.29
426.875	713.53
427.251	708.33
427.627	725.96
428.003	722.34
428.379	730.93
428.756	720.53
429.132	749.46
429.507	749.01
429.883	752.62
430.259	775.22
430.635	767.99
431.011	774.54
431.387	793.52
431.763	840.98
432.138	811.38
432.514	842.11
432.89	823.13
433.265	826.52
433.641	810.7
434.016	836.69
434.392	863.35
434.767	891.37
435.143	892.05
435.518	902.67
435.894	904.48
436.269	926.4
436.644	929.34
437.02	912.62
437.395	937.48
437.77	949.23
438.145	977.25
438.52	968.21
438.895	1002.56
439.271	1007.76
439.646	1025.38
440.021	1015.89
440.395	1023.12
440.77	1043.46
441.145	1035.78
441.52	1054.31
441.895	1064.7
442.27	1078.94
442.645	1096.79
443.019	1083.23
443.394	1090.92
443.769	1115.1
444.143	1092.95
444.518	1136.79
444.892	1138.6
445.267	1161.2
445.641	1178.6
446.016	1157.13
446.39	1172.5
446.764	1205.04
447.139	1187.41
447.513	1201.2
447.887	1216.56
448.262	1195.77
448.636	1179.73
449.01	1227.64
449.384	1245.26
449.758	1248.43
450.132	1253.85
450.506	1255.89
450.88	1286.84
451.254	1267.41
451.628	1310.57
452.002	1327.3
452.376	1328.65
452.75	1364.81
453.123	1341.98
453.497	1388.08
453.871	1383.34
454.244	1412.49
454.618	1441.87
454.992	1421.76
455.365	1457.24
455.739	1473.73
456.112	1499.49
456.486	1501.3
456.859	1532.04
457.232	1548.31
457.606	1556.89
457.979	1558.93
458.352	1589.66
458.725	1646.84
459.099	1604.12
459.472	1709.43
459.845	1690
460.218	1692.94
460.591	1713.27
460.964	1692.26
461.337	1768.87
461.71	1793.72
462.083	1823.78
462.456	1832.82
462.829	1847.73
463.201	1879.82
463.574	1896.55
463.947	1907.62
464.32	1972.02
464.692	1971.35
465.065	1977.9
465.438	2028.52
465.81	2066.94
466.183	2090.67
466.555	2112.81
466.928	2155.97
467.3	2149.19
467.672	2202.98
468.045	2247.5
468.417	2294.05
468.789	2275.07
469.161	2337.66
469.534	2369.3
469.906	2449.3
470.278	2465.12
470.65	2503.31
471.022	2556.64
471.394	2589.86
471.766	2664.89
472.138	2690.88
472.51	2766.58
472.882	2799.8
473.253	2812
473.625	2892.68
473.997	2973.81
474.369	3009.06
474.74	3069.62
475.112	3142.62
475.484	3217.42
475.855	3305.1
476.227	3276.17
476.598	3424.42
476.97	3498.99
477.341	3582.15
477.713	3655.82
478.084	3669.38
478.455	3814.24
478.827	3865.53
479.198	3994.8
479.569	4016.26
479.94	4167.9
480.311	4233.66
480.682	4344.39
481.053	4489.7
481.424	4525.18
481.795	4638.17
482.166	4750.71
482.537	4836.13
482.908	4967.88
483.279	5074.99
483.65	5178.72
484.021	5315.21
484.391	5397.7
484.762	5464.81
485.133	5600.86
485.503	5720.17
485.874	5789.33
486.244	5903.67
486.615	6072.48
486.985	6230.9
487.356	6384.11
487.726	6407.61
488.097	6529.64
488.467	6679.47
488.837	6783.65
489.207	6931.89
489.578	7069.29
489.948	7188.16
490.318	7375.5
490.688	7457.08
491.058	7531.88
491.428	7724.87
491.798	7869.27
492.168	7973.45
492.538	8013.45
492.908	8122.37
493.278	8278.75
493.648	8324.17
494.017	8586.99
494.387	8618.63
494.757	8683.03
495.126	8858.17
495.496	8954.89
495.866	9028.79
496.235	9100.42
496.605	9220.87
496.974	9258.16
497.344	9362.11
497.713	9499.28
498.082	9633.74
498.452	9701.76
498.821	9699.73
499.19	9781.76
499.559	9914.87
499.928	10007.52
500.298	10107.86
500.667	10113.51
501.036	10151.24
501.405	10347.62
501.774	10277.57
502.143	10353.27
502.512	10445.02
502.88	10501.97
503.249	10528.18
503.618	10654.28
503.987	10677.78
504.356	10715.3
504.724	10830.32
505.093	10843.88
505.462	10871.23
505.83	10974.27
506.199	11003.2
506.567	11129.52
506.936	11152.12
507.304	11257.43
507.672	11341.04
508.041	11367.94
508.409	11402.06
508.777	11540.81
509.145	11512.11
509.514	11541.26
509.882	11670.3
510.25	11662.17
510.618	11637.08
510.986	11708.04
511.354	11781.94
511.722	11836.62
512.09	11982.16
512.458	11909.39
512.826	11963.85
513.193	11981.03
513.561	12018.31
513.929	12080.01
514.297	12115.26
514.664	12212.89
515.032	12119.78
515.4	12281.58
515.767	12303.96
516.135	12308.7
516.502	12213.56
516.869	12449.04
517.237	12438.19
517.604	12351.41
517.972	12422.6
518.339	12525.87
518.706	12485.19
519.073	12498.08
519.44	12531.75
519.808	12640.9
520.175	12542.37
520.542	12649.71
520.909	12632.31
521.276	12572.2
521.643	12804.73
522.009	12783.94
522.376	12848.12
522.743	12829.82
523.11	12846.31
523.477	12928.12
523.843	12968.57
524.21	13013.09
524.577	12993.88
524.943	12937.61
525.31	13038.17
525.676	13073.2
526.043	13124.05
526.409	13114.33
526.776	13176.7
527.142	13115.23
527.508	13132.86
527.874	13205.85
528.241	13166.76
528.607	13131.05
528.973	13239.52
529.339	13153.65
529.705	13266.64
530.071	13279.52
530.437	13284.04
530.803	13272.29
531.169	13258.96
531.535	13262.12
531.901	13194.33
532.267	13170.37
532.632	13192.29
532.998	13218.51
533.364	13147.1
533.73	13147.55
534.095	13189.58
534.461	13209.92
534.826	13181.67
535.192	13177.38
535.557	13147.32
535.923	13069.36
536.288	13037.5
536.653	13052.41
537.019	12948.68
537.384	12995.01
537.749	12948.01
538.114	12904.39
538.479	12857.39
538.845	12963.6
539.21	12769.71
539.575	12762.02
539.94	12766.99
540.305	12774.9
540.67	12636.83
541.034	12800.44
541.399	12653.55
541.764	12621.24
542.129	12574.68
542.494	12518.19
542.858	12455.14
543.223	12441.81
543.587	12471.86
543.952	12347.12
544.316	12383.28
544.681	12291.3
545.045	12246.1
545.41	12339.66
545.774	12231.64
546.138	12249.72
546.503	12103.06
546.867	12089.05
547.231	12173.34
547.595	12140.8
547.959	12084.75
548.324	12041.59
548.688	11987.58
549.052	11878.2
549.416	11867.13
549.779	11875.72
550.143	11817.87
550.507	11887.92
550.871	11776.29
551.235	11743.07
551.599	11800.69
551.962	11691.54
552.326	11648.38
552.689	11661.49
553.053	11565.67
553.417	11549.4
553.78	11646.35
554.143	11521.6
554.507	11557.54
554.87	11487.48
555.234	11577.2
555.597	11478.44
555.96	11477.99
556.323	11478.89
556.686	11386.92
557.05	11397.31
557.413	11385.11
557.776	11294.49
558.139	11330.65
558.502	11334.49
558.865	11344.89
559.228	11398.9
559.59	11345.34
559.953	11355.96
560.316	11391.66
560.679	11330.87
561.041	11383.98
561.404	11320.93
561.767	11328.39
562.129	11251.1
562.492	11301.5
562.854	11278.67
563.217	11273.93
563.579	11292.91
563.941	11360.7
564.304	11300.37
564.666	11347.82
565.028	11401.16
565.39	11279.12
565.753	11312.57
566.115	11426.92
566.477	11367.03
566.839	11392.12
567.201	11414.04
567.563	11399.12
567.925	11448.61
568.287	11343.08
568.648	11381.49
569.01	11454.71
569.372	11416.52
569.734	11370.42
570.095	11411.32
570.457	11427.14
570.819	11385.11
571.18	11416.97
571.542	11363.42
571.903	11409.74
572.265	11412.45
572.626	11442.74
572.987	11490.64
573.349	11417.65
573.71	11484.54
574.071	11472.34
574.432	11479.8
574.794	11602.05
575.155	11531.32
575.516	11453.81
575.877	11518.44
576.238	11548.72
576.599	11509.85
576.96	11527.71
577.32	11508.72
577.681	11563.86
578.042	11561.38
578.403	11517.31
578.763	11542.62
579.124	11546.24
579.485	11489.06
579.845	11518.67
580.206	11464.66
580.566	11530.87
580.927	11456.07
581.287	11484.77
581.648	11521.83
582.008	11556.63
582.368	11509.17
582.728	11436.18
583.089	11478.44
583.449	11438.22
583.809	11442.06
584.169	11482.51
584.529	11393.7
584.889	11458.1
585.249	11446.35
585.609	11375.39
585.969	11436.86
586.329	11359.35
586.688	11483.64
587.048	11402.51
587.408	11384.88
587.768	11388.27
588.127	11354.15
588.487	11356.41
588.846	11351.44
589.206	11318.9
589.565	11270.31
589.925	11331.55
590.284	11216.08
590.643	11283.19
591.003	11324.55
591.362	11222.85
591.721	11284.32
592.08	11294.27
592.44	11299.01
592.799	11307.6
593.158	11224.66
593.517	11269.18
593.876	11259.92
594.235	11233.93
594.593	11230.31
594.952	11207.04
595.311	11139.47
595.67	11229.63
596.029	11245
596.387	11242.29
596.746	11213.59
597.104	11185.34
597.463	11169.75
597.822	11207.94
598.18	11189.64
598.538	11162.97
598.897	11215.4
599.255	11144.66
599.613	11287.26
599.972	11197.09
600.33	11167.94
600.688	11158.9
601.046	11174.49
601.404	11189.86
601.762	11153.03
602.12	11167.94
602.478	11156.87
602.836	11148.73
603.194	11081.39
603.552	11177.88
603.91	11113.03
604.268	11134.04
604.625	11028.74
604.983	11164.55
605.341	11098.34
605.698	11095.63
606.056	11144.44
606.413	11110.77
606.771	11147.15
607.128	11118.22
607.485	11085.91
607.843	11145.34
608.2	11166.13
608.557	11218.33
608.914	11182.18
609.272	11184.66
609.629	11290.2
609.986	11254.27
610.343	11108.06
610.7	11255.62
611.057	11194.61
611.414	11139.02
611.771	11195.74
612.127	11294.49
612.484	11179.47
612.841	11177.21
613.198	11200.71
613.554	11257.66
613.911	11260.59
614.267	11259.24
614.624	11251.78
614.98	11287.49
615.337	11328.16
615.693	11277.09
616.05	11307.37
616.406	11346.24
616.762	11369.52
617.118	11242.29
617.475	11368.84
617.831	11369.97
618.187	11361.83
618.543	11353.25
618.899	11433.02
619.255	11385.79
619.611	11372.23
619.967	11343.08
620.323	11471.66
620.678	11351.66
621.034	11320.71
621.39	11372.91
621.746	11346.92
622.101	11456.75
622.457	11372.91
622.812	11457.65
623.168	11397.09
623.523	11405.9
623.879	11471.89
624.234	11398.67
624.589	11475.28
624.945	11477.31
625.3	11401.83
625.655	11477.76
626.01	11422.4
626.365	11415.17
626.72	11347.37
627.075	11353.92
627.43	11346.24
627.785	11320.03
628.14	11386.47
628.495	11394.83
628.85	11301.72
629.205	11329.29
629.559	11342.4
629.914	11259.46
630.269	11305.11
630.623	11249.07
630.978	11284.77
631.332	11264.89
631.687	11351.44
632.041	11218.11
632.396	11240.71
632.75	11241.84
633.104	11277.54
633.459	11224.44
633.813	11181.95
634.167	11181.95
634.521	11208.62
634.875	11285.45
635.229	11209.07
635.583	11167.94
635.937	11098.11
636.291	11112.8
636.645	11190.99
636.999	11119.13
637.352	11144.21
637.706	11008.4
638.06	11123.2
638.413	11030.54
638.767	10961.17
639.121	11026.25
639.474	10960.94
639.828	11012.92
640.181	10949.64
640.534	10921.17
640.888	10976.76
641.241	10904.22
641.594	10922.07
641.947	10946.93
642.301	10928.17
642.654	10913.71
643.007	10956.19
643.36	10837.33
643.713	10859.25
644.066	10858.57
644.419	10832.36
644.771	10779.25
645.124	10666.26
645.477	10643.89
645.83	10522.31
646.182	10563.21
646.535	10522.08
646.888	10613.38
647.24	10563.89
647.593	10636.43
647.945	10526.6
648.298	10506.94
648.65	10460.39
649.002	10461.07
649.355	10501.52
649.707	10497.45
650.059	10611.8
650.411	10693.83
650.763	10687.5
651.115	10805.69
651.467	10739.93
651.819	10780.38
652.171	10848.18
652.523	10724.79
652.875	10764.34
653.227	10711.23
653.578	10779.7
653.93	10727.05
654.282	10717.33
654.633	10688.86
654.985	10738.12
655.337	10722.98
655.688	10777.67
656.039	10831.45
656.391	10734.51
656.742	10729.31
657.094	10764.11
657.445	10769.99
657.796	10771.12
658.147	10737.22
658.498	10769.31
658.849	10851.79
659.2	10786.26
659.551	10789.19
659.902	10824.67
660.253	10821.74
660.604	10846.14
660.955	10795.3
661.306	10870.55
661.656	10798.23
662.007	10808.63
662.358	10869.87
662.708	10814.5
663.059	10856.99
663.409	10804.56
663.76	10837.55
664.11	10840.27
664.461	10896.54
664.811	10913.26
665.161	10907.16
665.511	10804.11
665.862	10802.75
666.212	10877.78
666.562	10852.92
666.912	10844.33
667.262	10902.86
667.612	10864.45
667.962	10935.18
668.312	10869.87
668.662	10922.3
669.011	10839.59
669.361	10853.6
669.711	10870.1
670.06	10853.37
670.41	10836.88
670.76	10849.98
671.109	10859.7
671.459	10844.11
671.808	10798.91
672.157	10785.58
672.507	10816.31
672.856	10819.7
673.205	10805.01
673.554	10745.35
673.904	10751
674.253	10785.8
674.602	10775.86
674.951	10620.61
675.3	10621.06
675.649	10730.21
675.998	10731.57
676.346	10752.81
676.695	10776.09
677.044	10667.84
677.393	10703.32
677.741	10696.09
678.09	10733.38
678.438	10569.54
678.787	10661.51
679.135	10630.33
679.484	10585.13
679.832	10625.81
680.181	10550.56
680.529	10539.03
680.877	10507.39
681.225	10501.52
681.573	10543.1
681.922	10419.94
682.27	10435.3
682.618	10435.3
682.966	10383.78
683.314	10447.73
683.661	10410.45
684.009	10372.03
684.357	10348.08
684.705	10317.57
685.053	10310.11
685.4	10328.87
685.748	10240.28
686.095	10270.11
686.443	10235.08
686.79	10134.52
687.138	10195.31
687.485	10182.43
687.832	10143.33
688.18	10130
688.527	10082.55
688.874	10061.53
689.221	10020.17
689.568	10010.01
689.915	9967.07
690.262	9967.52
690.609	9905.83
690.956	9847.3
691.303	9864.7
691.65	9852.04
691.997	9812.95
692.344	9778.6
692.69	9736.79
693.037	9640.3
693.383	9670.81
693.73	9653.86
694.077	9587.42
694.423	9557.81
694.769	9560.3
695.116	9580.64
695.462	9532.28
695.808	9454.54
696.155	9463.35
696.501	9375.67
696.847	9337.25
697.193	9317.14
697.539	9250.93
697.885	9182
698.231	9151.27
698.577	9198.5
698.923	9206.41
699.269	9054.78
699.614	9086.87
699.96	9033.31
700.306	8980.2
700.651	8993.76
700.997	8931.62
701.342	8887.32
701.688	8882.13
702.033	8841
702.379	8813.43
702.724	8756.03
703.069	8788.34
703.415	8710.83
703.76	8617.5
704.105	8685.75
704.45	8649.59
704.795	8634.67
705.14	8586.99
705.485	8591.29
705.83	8549.48
706.175	8544.96
706.52	8542.25
706.865	8475.13
707.209	8446.43
707.554	8422.48
707.899	8403.49
708.243	8346.09
708.588	8336.6
708.932	8283.04
709.277	8306.32
709.621	8335.92
709.966	8229.26
710.31	8223.61
710.654	8190.84
710.998	8154.01
711.342	8164.63
711.687	8148.13
712.031	8076.04
712.375	8057.74
712.719	8113.11
713.063	8076.27
713.407	8035.82
713.75	7980
714.094	8013.22
714.438	7973.45
714.782	7962.83
715.125	7905.88
715.469	7960.34
715.812	7922.15
716.156	7897.74
716.499	7865.88
716.843	7902.26
717.186	7818.42
717.53	7889.61
717.873	7914.02
718.216	7860.23
718.559	7839.21
718.902	7759.22
719.246	7767.8
719.589	7789.05
719.932	7773.23
720.275	7805.77
720.617	7753.79
720.96	7736.62
721.303	7692.33
721.646	7648.94
721.989	7705.21
722.331	7677.19
722.674	7671.99
723.016	7683.51
723.359	7622.95
723.701	7720.12
724.044	7670.41
724.386	7566.45
724.729	7576.17
725.071	7621.82
725.413	7610.29
725.755	7590.18
726.097	7595.61
726.439	7482.16
726.782	7523.29
727.124	7571.88
727.465	7561.48
727.807	7574.14
728.149	7577.3
728.491	7566
728.833	7632.89
729.175	7548.37
729.516	7543.63
729.858	7549.5
730.199	7578.2
730.541	7550.18
730.882	7562.39
731.224	7559.45
731.565	7534.82
731.906	7490.98
732.248	7493.01
732.589	7538.21
732.93	7525.32
733.271	7495.5
733.612	7543.4
733.953	7554.93
734.294	7545.66
734.635	7471.77
734.976	7493.01
735.317	7508.83
735.658	7535.27
735.999	7588.15
736.339	7454.82
736.68	7557.87
737.021	7582.05
737.361	7529.62
737.702	7529.39
738.042	7561.26
738.383	7561.26
738.723	7589.28
739.063	7571.43
739.404	7637.86
739.744	7632.89
740.084	7528.71
740.424	7637.86
740.764	7638.99
741.104	7617.75
741.444	7703.17
741.784	7649.62
742.124	7703.17
742.464	7749.95
742.804	7749.73
743.143	7753.79
743.483	7794.47
743.823	7844.64
744.162	7841.7
744.502	7864.52
744.841	7891.64
745.181	7928.93
745.52	7968.7
745.86	7973.67
746.199	8047.57
746.538	8064.75
746.877	8086.44
747.216	8229.71
747.556	8203.5
747.895	8212.76
748.234	8305.64
748.573	8314.46
748.911	8367.11
749.25	8481.91
749.589	8517.84
749.928	8533.43
750.267	8708.8
750.605	8709.93
750.944	8824.5
751.283	8839.19
751.621	8920.77
751.96	8991.05
752.298	9067.88
752.636	9181.78
752.975	9240.31
753.313	9318.5
753.651	9482.56
753.989	9535.89
754.327	9553.97
754.666	9777.92
755.004	9956.45
755.342	10018.14
755.679	10106.05
756.017	10263.56
756.355	10414.06
756.693	10507.39
757.031	10715.75
757.368	10804.79
757.706	10921.39
758.044	11051.56
758.381	11210.65
758.719	11311.21
759.056	11493.36
759.394	11721.15
