Data from hue_340_FLMS001491_66.txt Node
Date: Mon Feb 06 15:43:26 GMT 2017
User: dcchb
Spectrometer: FLMS00149
Trigger mode: 0
Integration Time (sec): 2.000000E-2
Scans to average: 10
Electric dark correction enabled: true
Nonlinearity correction enabled: false
Boxcar width: 0
XAxis mode: Wavelengths
Number of Pixels in Spectrum: 2048
>>>>>Begin Spectral Data<<<<<
341.393	-25.75
341.776	-25.75
342.16	-25.75
342.543	-57.61
342.927	-73.43
343.31	-65.29
343.693	-78.18
344.077	-56.71
344.46	-28.91
344.843	-46.09
345.226	-62.81
345.61	-37.72
345.993	-12.41
346.376	-1.12
346.759	0.69
347.142	14.93
347.525	44.08
347.908	56.28
348.291	80.24
348.674	82.27
349.057	110.75
349.44	126.34
349.823	140.35
350.206	164.08
350.588	186
350.971	209.05
351.354	209.95
351.737	209.5
352.119	237.52
352.502	256.73
352.884	284.98
353.267	262.61
353.65	286.79
354.032	298.54
354.414	296.73
354.797	299.44
355.179	327.69
355.562	313.9
355.944	341.7
356.326	325.43
356.709	314.81
357.091	340.12
357.473	331.98
357.855	336.28
358.238	347.8
358.62	338.54
359.002	328.59
359.384	357.52
359.766	354.58
360.148	331.3
360.53	337.18
360.912	327.46
361.294	324.53
361.676	338.31
362.057	332.43
362.439	314.58
362.821	346.45
363.203	327.69
363.584	313.45
363.966	318.65
364.348	300.35
364.729	303.28
365.111	304.64
365.493	300.35
365.874	310.74
366.256	319.33
366.637	308.25
367.019	310.74
367.4	317.29
367.781	313
368.163	294.47
368.544	311.42
368.925	301.02
369.306	290.63
369.688	301.48
370.069	320.68
370.45	308.25
370.831	322.27
371.212	288.37
371.593	300.35
371.974	301.25
372.355	294.92
372.736	332.89
373.117	320.23
373.498	305.09
373.879	304.64
374.26	303.51
374.641	310.74
375.021	314.81
375.402	310.51
375.783	297.18
376.163	329.27
376.544	331.76
376.925	336.28
377.305	298.99
377.686	315.71
378.066	338.54
378.447	319.33
378.827	316.84
379.208	313.68
379.588	312.55
379.968	312.55
380.349	337.86
380.729	334.24
381.109	331.76
381.489	331.3
381.87	350.97
382.25	342.83
382.63	317.75
383.01	327.01
383.39	337.41
383.77	331.98
384.15	317.75
384.53	337.18
384.91	360.68
385.29	329.27
385.67	321.36
386.049	334.24
386.429	326.79
386.809	333.56
387.189	334.24
387.568	332.21
387.948	334.92
388.328	355.49
388.707	352.77
389.087	341.7
389.466	363.17
389.846	369.04
390.225	358.42
390.605	355.03
390.984	355.71
391.363	361.59
391.743	342.15
392.122	375.37
392.501	359.1
392.881	354.13
393.26	341.47
393.639	348.25
394.018	335.82
394.397	350.06
394.776	367.69
395.155	371.98
395.534	376.05
395.913	358.42
396.292	384.64
396.671	346.22
397.05	360.91
397.429	390.96
397.808	371.08
398.186	373.79
398.565	381.92
398.944	357.07
399.323	368.59
399.701	385.99
400.08	384.86
400.458	367.69
400.837	372.21
401.215	390.29
401.594	388.25
401.972	366.56
402.351	380.34
402.729	396.39
403.107	399.1
403.486	412.21
403.864	416.05
404.242	396.16
404.62	395.94
404.999	395.48
405.377	399.78
405.755	415.37
406.133	389.61
406.511	419.21
406.889	419.44
407.267	405.88
407.645	431.87
408.023	436.16
408.401	416.05
408.779	424.41
409.156	425.99
409.534	437.52
409.912	428.7
410.29	454.47
410.667	446.56
411.045	451.08
411.422	452.43
411.8	440.45
412.178	453.56
412.555	459.44
412.933	461.02
413.31	484.3
413.687	475.48
414.065	472.77
414.442	481.81
414.819	493.56
415.197	490.4
415.574	486.78
415.951	492.66
416.328	498.08
416.705	498.31
417.082	502.37
417.46	529.04
417.837	511.41
418.214	515.03
418.591	523.39
418.967	526.55
419.344	546.67
419.721	529.49
420.098	527.68
420.475	540.34
420.852	548.93
421.228	566.55
421.605	573.11
421.982	551.64
422.358	558.64
422.735	595.93
423.111	556.38
423.488	593.44
423.864	567.23
424.241	586.21
424.617	609.72
424.994	585.08
425.37	599.09
425.746	593.67
426.123	592.99
426.499	600.68
426.875	613.56
427.251	607.68
427.627	627.79
428.003	614.91
428.379	631.64
428.756	649.94
429.132	638.64
429.507	651.3
429.883	651.07
430.259	682.93
430.635	661.01
431.011	658.3
431.387	673.67
431.763	690.17
432.138	673.22
432.514	698.75
432.89	721.8
433.265	712.09
433.641	730.16
434.016	728.81
434.392	727.9
434.767	747.79
435.143	725.42
435.518	740.11
435.894	748.02
436.269	766.1
436.644	771.52
437.02	767.9
437.395	775.36
437.77	788.47
438.145	797.96
438.52	790.05
438.895	791.18
439.271	805.87
439.646	826.43
440.021	814.23
440.395	804.51
440.77	842.25
441.145	802.7
441.52	827.11
441.895	848.58
442.27	856.71
442.645	829.37
443.019	851.52
443.394	847.22
443.769	857.39
444.143	864.85
444.518	868.69
444.892	854
445.267	852.87
445.641	863.04
446.016	896.04
446.39	865.75
446.764	870.27
447.139	871.4
447.513	882.02
447.887	890.61
448.262	904.85
448.636	890.84
449.01	894.91
449.384	889.71
449.758	923.38
450.132	923.38
450.506	933.55
450.88	938.29
451.254	930.84
451.628	915.7
452.002	959.08
452.376	915.92
452.75	921.35
453.123	957.96
453.497	968.8
453.871	969.71
454.244	997.5
454.618	982.81
454.992	1016.48
455.365	965.19
455.739	1013.32
456.112	1030.04
456.486	1040.89
456.859	1037.95
457.232	1046.99
457.606	1050.16
457.979	1040.89
458.352	1080.66
458.725	1081.57
459.099	1091.51
459.472	1077.27
459.845	1079.53
460.218	1122.24
460.591	1112.75
460.964	1112.53
461.337	1140.1
461.71	1152.53
462.083	1169.7
462.456	1143.71
462.829	1161.57
463.201	1157.72
463.574	1185.29
463.947	1221.45
464.32	1225.29
464.692	1205.18
465.065	1225.52
465.438	1249.02
465.81	1253.99
466.183	1270.72
466.555	1292.86
466.928	1286.99
467.3	1272.3
467.672	1339.41
468.045	1328.57
468.417	1346.87
468.789	1351.17
469.161	1386.64
469.534	1382.8
469.906	1408.34
470.278	1408.11
470.65	1433.65
471.022	1412.41
471.394	1449.69
471.766	1456.7
472.138	1484.04
472.51	1512.52
472.882	1524.04
473.253	1538.96
473.625	1538.28
473.997	1590.03
474.369	1573.31
474.74	1612.63
475.112	1639.75
475.484	1651.72
475.855	1683.59
476.227	1701.66
476.598	1739.63
476.97	1751.38
477.341	1761.55
477.713	1775.56
478.084	1773.75
478.455	1827.54
478.827	1865.05
479.198	1894.65
479.569	1909.12
479.94	1966.52
480.311	1946.86
480.682	2016.68
481.053	2029.79
481.424	2069.79
481.795	2090.81
482.166	2089
482.537	2103.46
482.908	2133.07
483.279	2176.68
483.65	2215.78
484.021	2262.55
484.391	2267.53
484.762	2312.04
485.133	2322.66
485.503	2365.38
485.874	2416
486.244	2466.62
486.615	2437.92
486.985	2495.77
487.356	2554.3
487.726	2509.1
488.097	2585.93
488.467	2585.03
488.837	2643.56
489.207	2659.38
489.578	2747.06
489.948	2709.1
490.318	2785.03
490.688	2770.79
491.058	2768.08
491.428	2855.53
491.798	2843.1
492.168	2904.57
492.538	2959.03
492.908	2960.39
493.278	3015.53
493.648	2978.69
494.017	3043.55
494.387	3054.17
494.757	3040.61
495.126	3109.31
495.496	3087.39
495.866	3122.87
496.235	3157.67
496.605	3184.11
496.974	3177.11
497.344	3234.51
497.713	3259.82
498.082	3285.8
498.452	3283.54
498.821	3335.75
499.19	3312.7
499.559	3369.42
499.928	3352.69
500.298	3345.46
500.667	3387.95
501.036	3403.54
501.405	3421.17
501.774	3454.16
502.143	3454.39
502.512	3464.56
502.88	3515.85
503.249	3522.86
503.618	3505.23
503.987	3570.09
504.356	3597.66
504.724	3580.03
505.093	3601.73
505.462	3642.4
505.83	3600.15
506.199	3648.51
506.567	3697.32
506.936	3680.37
507.304	3726.24
507.672	3734.15
508.041	3707.26
508.409	3746.13
508.777	3713.81
509.145	3811.21
509.514	3781.38
509.882	3805.79
510.25	3766.47
510.618	3883.75
510.986	3828.84
511.354	3866.81
511.722	3862.51
512.09	3912.23
512.458	3884.43
512.826	3902.51
513.193	3911.32
513.561	3975.95
513.929	3935.96
514.297	4012.34
514.664	3981.15
515.032	4000.13
515.4	4004.43
515.767	4050.76
516.135	4052.11
516.502	4070.42
516.869	4072.22
517.237	4077.2
517.604	4084.43
517.972	4139.34
518.339	4133.24
518.706	4126.69
519.073	4140.47
519.44	4149.51
519.808	4204.65
520.175	4178.66
520.542	4169.85
520.909	4250.98
521.276	4184.76
521.643	4258.21
522.009	4220.47
522.376	4268.6
522.743	4291.65
523.11	4318.54
523.477	4377.53
523.843	4361.93
524.21	4329.84
524.577	4465.43
524.943	4435.83
525.31	4437.64
525.676	4461.37
526.043	4482.38
526.409	4558.54
526.776	4558.31
527.142	4566.9
527.508	4606.45
527.874	4617.97
528.241	4635.6
528.607	4666.56
528.973	4695.71
529.339	4705.2
529.705	4732.32
530.071	4746.78
530.437	4779.32
530.803	4808.48
531.169	4831.07
531.535	4805.31
531.901	4809.61
532.267	4841.02
532.632	4913.11
532.998	4908.59
533.364	4917.17
533.73	4929.6
534.095	4936.38
534.461	4990.84
534.826	5015.7
535.192	5057.51
535.557	5113.55
535.923	5072.88
536.288	5075.13
536.653	5117.62
537.019	5112.2
537.384	5108.13
537.749	5151.74
538.114	5099.99
538.479	5172.31
538.845	5194.23
539.21	5238.07
539.575	5233.1
539.94	5249.37
540.305	5285.75
540.67	5290.5
541.034	5325.98
541.399	5360.55
541.764	5351.06
542.129	5423.37
542.494	5414.56
542.858	5421.57
543.223	5448.01
543.587	5488.46
543.952	5461.79
544.316	5476.93
544.681	5474.22
545.045	5525.74
545.41	5579.98
545.774	5632.18
546.138	5619.75
546.503	5641.45
546.867	5684.84
547.231	5725.29
547.595	5679.19
547.959	5691.62
548.324	5722.12
548.688	5758.05
549.052	5823.82
549.416	5809.35
549.779	5786.08
550.143	5794.44
550.507	5880.31
550.871	5876.92
551.235	5893.87
551.599	5981.1
551.962	5937.49
552.326	5973.64
552.689	6006.41
553.053	5954.89
553.417	5980.42
553.78	6051.15
554.143	6069.91
554.507	6086.18
554.87	6140.19
555.234	6156.91
555.597	6096.35
555.96	6106.97
556.323	6193.75
556.686	6173.19
557.05	6234.2
557.413	6229
557.776	6251.15
558.139	6249.34
558.502	6293.63
558.865	6267.87
559.228	6301.32
559.59	6344.25
559.953	6299.51
560.316	6397.81
560.679	6375.44
561.041	6442.56
561.404	6449.56
561.767	6528.2
562.129	6502.22
562.492	6508.77
562.854	6576.11
563.217	6533.4
563.579	6613.85
563.941	6639.16
564.304	6643.68
564.666	6672.83
565.028	6646.85
565.39	6626.28
565.753	6712.83
566.115	6734.07
566.477	6750.57
566.839	6800.74
567.201	6862.66
567.563	6806.16
567.925	6842.77
568.287	6873.73
568.648	6915.09
569.01	6939.72
569.372	7013.39
569.734	6974.29
570.095	7005.93
570.457	7047.51
570.819	7074.18
571.18	7102.2
571.542	7134.97
571.903	7172.03
572.265	7254.51
572.626	7214.97
572.987	7220.62
573.349	7318.92
573.71	7414.28
574.071	7361.18
574.432	7405.92
574.794	7548.97
575.155	7566.59
575.516	7612.92
575.877	7633.26
576.238	7686.82
576.599	7789.19
576.96	7847.27
577.32	7908.51
577.681	7973.59
578.042	8060.59
578.403	8011.78
578.763	8122.29
579.124	8219.01
579.485	8379.68
579.845	8393.24
580.206	8520.47
580.566	8604.99
580.927	8734.47
581.287	8811.31
581.648	8906.45
582.008	9033
582.368	9131.75
582.728	9249.49
583.089	9426.43
583.449	9565.41
583.809	9716.14
584.169	9809.47
584.529	9936.48
584.889	10228.67
585.249	10332.17
585.609	10471.15
585.969	10703.91
586.329	10876.79
586.688	11059.61
587.048	11226.61
587.408	11406.27
587.768	11573.72
588.127	11804.45
588.487	11965.12
588.846	12308.84
589.206	12450.99
589.565	12753.58
589.925	12992.89
590.284	13184.3
590.643	13505.65
591.003	13780.22
591.362	13946.09
591.721	14275.57
592.08	14433.31
592.44	14789.23
592.799	15029.22
593.158	15286.17
593.517	15539.94
593.876	15758.47
594.235	16038.01
594.593	16320.94
594.952	16583.31
595.311	16829.18
595.67	17169.05
596.029	17630.96
596.387	17733.11
596.746	18195.02
597.104	18311.62
597.463	18647.89
597.822	18884.26
598.18	19006.29
598.538	19383.46
598.897	19854.86
599.255	19831.13
599.613	20505.92
599.972	20573.94
600.33	20875.17
600.688	21118.78
601.046	21610.29
601.404	21801.93
601.762	21927.8
602.12	22325.53
602.478	22570.72
602.836	22847.32
603.194	22962.35
603.552	23358.72
603.91	23565.5
604.268	23923.9
604.625	24055.43
604.983	24399.82
605.341	24440.95
605.698	24883.88
606.056	25152.8
606.413	25316.18
606.771	25620.81
607.128	25927.02
607.485	25985.09
607.843	26201.36
608.2	26544.85
608.557	26905.52
608.914	26995.91
609.272	27339.63
609.629	27514.32
609.986	27791.15
610.343	27988.43
610.7	28274.3
611.057	28375.77
611.414	28577.12
611.771	28826.37
612.127	29076.09
612.484	29222.07
612.841	29574.83
613.198	29563.53
613.554	29688.27
613.911	29992.9
614.267	30220.01
614.624	30246.68
614.98	30470.63
615.337	30785.19
615.693	30870.39
616.05	30851.63
616.406	31217.05
616.762	31364.16
617.118	31521.67
617.475	31602.35
617.831	31746.75
618.187	31940.19
618.543	32027.42
618.899	32235.32
619.255	32336.11
619.611	32409.33
619.967	32679.15
620.323	32795.54
620.678	32753.96
621.034	32873.5
621.39	33014.06
621.746	33027.85
622.101	33554.61
622.457	33296.09
622.812	33507.38
623.168	33654.04
623.523	33720.71
623.879	33967.03
624.234	33828.05
624.589	33908.95
624.945	34073.02
625.3	34173.35
625.655	34312.56
626.01	34371.09
626.365	34490.63
626.72	34447.47
627.075	34461.93
627.43	34565.88
627.785	34667.13
628.14	34673.68
628.495	34755.48
628.85	34688.82
629.205	34792.55
629.559	35015.59
629.914	34858.31
630.269	34872.77
630.623	34822.6
630.978	34931.07
631.332	35058.3
631.687	35186.43
632.041	35051.3
632.396	35235.92
632.75	35109.37
633.104	35163.84
633.459	35055.82
633.813	35058.75
634.167	35243.83
634.521	35230.5
634.875	35341.46
635.229	35291.06
635.583	35208.13
635.937	35217.85
636.291	35151.86
636.645	35235.7
636.999	35182.37
637.352	35258.97
637.706	35148.47
638.06	35308.69
638.413	35151.18
638.767	35323.83
639.121	35243.61
639.474	35086.55
639.828	35118.64
640.181	35183.72
640.534	35239.09
640.888	35122.25
641.241	35101.24
641.594	35140.79
641.947	35211.74
642.301	35267.56
642.654	35325.86
643.007	35106.21
643.36	35212.42
643.713	35103.5
644.066	35224.4
644.419	35133.1
644.771	34895.14
645.124	34529.28
645.477	34609.73
645.83	34307.13
646.182	34381.26
646.535	34060.14
646.888	34246.8
647.24	34139.23
647.593	34249.06
647.945	34084.77
648.298	33996.18
648.65	33991.44
649.002	34063.53
649.355	34103.75
649.707	33976.07
650.059	34077.31
650.411	34623.51
650.763	34666.45
651.115	34896.27
651.467	34874.13
651.819	34771.76
652.171	34755.03
652.523	34808.59
652.875	34657.63
653.227	34731.3
653.578	34797.74
653.93	34728.37
654.282	34402.27
654.633	34489.73
654.985	34640.69
655.337	34588.94
655.688	34612.66
656.039	34708.03
656.391	34437.53
656.742	34568.6
657.094	34517.52
657.445	34542.83
657.796	34512.33
658.147	34353.46
658.498	34553.46
658.849	34480.46
659.2	34477.07
659.551	34381.03
659.902	34553.46
660.253	34459.22
660.604	34470.29
660.955	34381.26
661.306	34476.85
661.656	34434.59
662.007	34474.59
662.358	34403.86
662.708	34343.97
663.059	34403.63
663.409	34163.64
663.76	34437.53
664.11	34366.12
664.461	34423.74
664.811	34333.8
665.161	34344.87
665.511	34317.53
665.862	34325.44
666.212	34420.13
666.562	34545.32
666.912	34405.21
667.262	34242.5
667.612	34346.46
667.962	34371.77
668.312	34375.83
668.662	34462.38
669.011	34305.1
669.361	34290.19
669.711	34266.91
670.06	34256.97
670.41	34298.55
670.76	34238.66
671.109	34407.02
671.459	34276.63
671.808	34095.39
672.157	34223.07
672.507	33984.43
672.856	33976.52
673.205	34106.69
673.554	34266.91
673.904	34080.7
674.253	34265.78
674.602	34124.99
674.951	33590.54
675.3	33573.37
675.649	34009.52
675.998	33871.21
676.346	34018.78
676.695	34063.98
677.044	33965.45
677.393	33947.37
677.741	34074.82
678.09	33797.32
678.438	33762.06
678.787	33919.12
679.135	33894.49
679.484	33666.02
679.832	33908.73
680.181	33626.02
680.529	33668.73
680.877	33624.21
681.225	33631.67
681.573	33708.73
681.922	33557.55
682.27	33519.58
682.618	33430.77
682.966	33401.17
683.314	33388.74
683.661	33263.32
684.009	33122.99
684.357	33083.66
684.705	33123.89
685.053	33129.54
685.4	33103.78
685.748	32913.95
686.095	33013.38
686.443	32778.59
686.79	32857
687.138	32901.07
687.485	32853.84
687.832	32643.68
688.18	32705.59
688.527	32532.72
688.874	32610.46
689.221	32501.98
689.568	32311.25
689.915	32320.97
690.262	32403.68
690.609	32179.96
690.956	31998.04
691.303	32041.43
691.65	31881.44
691.997	31984.71
692.344	31820.87
692.69	31760.76
693.037	31782
693.383	31444.84
693.73	31575.68
694.077	31324.16
694.423	31475.8
694.769	31264.05
695.116	31272.19
695.462	31226.76
695.808	31234.67
696.155	31233.32
696.501	30974.79
696.847	31000.1
697.193	30801.92
697.539	30966.66
697.885	30777.28
698.231	30587.01
698.577	30610.51
698.923	30507.46
699.269	30376.39
699.614	30181.14
699.96	30165.55
700.306	30168.26
700.651	29997.19
700.997	29913.8
701.342	29997.19
701.688	29868.16
702.033	29873.35
702.379	29641.95
702.724	29701.38
703.069	29720.36
703.415	29302.29
703.76	29309.53
704.105	29447.15
704.45	29340.71
704.795	29199.47
705.14	29107.95
705.485	29001.29
705.83	28937.33
706.175	29149.08
706.52	28918.58
706.865	28846.26
707.209	28734.17
707.554	28723.55
707.899	28815.75
708.243	28518.13
708.588	28466.61
708.932	28460.96
709.277	28382.32
709.621	28322.66
709.966	28152.04
710.31	28309.33
710.654	28006.74
710.998	28164.02
711.342	28135.32
711.687	27927.19
712.031	27871.37
712.375	27740.98
712.719	27733.3
713.063	27766.52
713.407	27817.14
713.75	27686.97
714.094	27604.26
714.438	27464.38
714.782	27672.05
715.125	27445.39
715.469	27571.94
715.812	27295.57
716.156	27197.72
716.499	27231.39
716.843	27162.92
717.186	27046.31
717.53	27199.07
717.873	27082.47
718.216	27110.26
718.559	26945.07
718.902	26823.72
719.246	26868.91
719.589	26713.21
719.932	26640.9
720.275	26557.06
720.617	26592.76
720.96	26528.81
721.303	26516.61
721.646	26527.68
721.989	26346.21
722.331	26515.48
722.674	26295.14
723.016	26430.96
723.359	26348.25
723.701	26290.4
724.044	26015.38
724.386	25998.65
724.729	26138.08
725.071	26069.16
725.413	26035.94
725.755	25918.65
726.097	25817.64
726.439	25760.92
726.782	25830.3
727.124	25903.97
727.465	25771.31
727.807	25776.51
728.149	25668.27
728.491	25711.88
728.833	25650.64
729.175	25564.54
729.516	25456.07
729.858	25604.54
730.199	25480.7
730.541	25530.42
730.882	25379.23
731.224	25478.89
731.565	25282.74
731.906	25233.47
732.248	25339.91
732.589	25179.01
732.93	25108.73
733.271	25086.59
733.612	25091.56
733.953	25007.49
734.294	25054.5
734.635	24925.46
734.976	25050.2
735.317	24950.77
735.658	24866.48
735.999	24895.86
736.339	24794.16
736.68	24918
737.021	24675.07
737.361	24694.51
737.702	24763.88
738.042	24619.25
738.383	24625.58
738.723	24645.69
739.063	24490.67
739.404	24584
739.744	24583.55
740.084	24373.84
740.424	24369.54
740.764	24459.26
741.104	24476.88
741.444	24214.97
741.784	24221.3
742.124	24231.47
742.464	24243.22
742.804	24233.73
743.143	24111.7
743.483	24237.34
743.823	24005.94
744.162	23974.98
744.502	24066.5
744.841	23950.34
745.181	24120.96
745.52	23842.78
745.86	23932.27
746.199	23871.25
746.538	23846.84
746.877	23960.97
747.216	23842.33
747.556	23710.8
747.895	23727.98
748.234	23689.79
748.573	23614.31
748.911	23592.16
749.25	23534.99
749.589	23447.08
749.928	23545.38
750.267	23443.69
750.605	23482.79
750.944	23318.72
751.283	23297.03
751.621	23453.63
751.96	23230.14
752.298	23151.95
752.636	23122.57
752.975	23005.96
753.313	22922.35
753.651	22944.72
753.989	22897.04
754.327	22835.8
754.666	22768.23
755.004	22870.37
755.342	22826.76
755.679	22764.84
756.017	22692.07
756.355	22655.92
756.693	22540.66
757.031	22580.21
757.368	22376.6
757.706	22404.85
758.044	22251.63
758.381	22380.22
758.719	22252.31
759.056	22201.24
759.394	22238.98
759.731	22041.92
760.068	22084.63
760.405	21998.08
