Data from hue_40_FLMS001491_59.txt Node
Date: Mon Feb 06 15:08:07 GMT 2017
User: dcchb
Spectrometer: FLMS00149
Trigger mode: 0
Integration Time (sec): 2.000000E-2
Scans to average: 10
Electric dark correction enabled: true
Nonlinearity correction enabled: false
Boxcar width: 0
XAxis mode: Wavelengths
Number of Pixels in Spectrum: 2048
>>>>>Begin Spectral Data<<<<<
341.393	3.87
341.776	3.87
342.16	3.87
342.543	-77.03
342.927	-82.68
343.31	-65.73
343.693	-80.2
344.077	-64.83
344.46	-66.18
344.843	-48.56
345.226	-46.3
345.61	-25.06
345.993	-26.64
346.376	-7.43
346.759	15.85
347.142	11.33
347.525	34.6
347.908	66.02
348.291	89.29
348.674	104.88
349.057	108.95
349.44	137.2
349.823	142.17
350.206	150.53
350.588	211.77
350.971	211.77
351.354	206.58
351.737	240.02
352.119	264.2
352.502	247.71
352.884	275.95
353.267	289.96
353.65	273.69
354.032	309.4
354.414	321.38
354.797	291.32
355.179	306.91
355.562	314.82
355.944	327.48
356.326	322.05
356.709	327.7
357.091	326.8
357.473	339.68
357.855	345.56
358.238	343.97
358.62	353.69
359.002	341.49
359.384	331.54
359.766	345.56
360.148	362.05
360.53	359.57
360.912	324.77
361.294	326.35
361.676	322.05
362.057	348.04
362.439	316.18
362.821	322.28
363.203	332.9
363.584	317.76
363.966	325.9
364.348	317.53
364.729	327.25
365.111	313.69
365.493	327.7
365.874	338.32
366.256	318.21
366.637	332.45
367.019	325.67
367.4	321.6
367.781	317.76
368.163	327.03
368.544	305.1
368.925	318.44
369.306	326.57
369.688	318.89
370.069	294.94
370.45	315.05
370.831	323.64
371.212	312.79
371.593	320.02
371.974	309.62
372.355	317.53
372.736	333.8
373.117	319.79
373.498	347.36
373.879	338.55
374.26	339.45
374.641	312.56
375.021	322.73
375.402	319.79
375.783	333.13
376.163	338.1
376.544	343.3
376.925	327.25
377.305	344.43
377.686	322.96
378.066	321.83
378.447	303.98
378.827	317.31
379.208	338.1
379.588	329.96
379.968	331.54
380.349	350.53
380.729	337.19
381.109	329.96
381.489	340.81
381.87	324.31
382.25	345.78
382.63	323.64
383.01	327.48
383.39	344.65
383.77	329.51
384.15	337.65
384.53	340.58
384.91	378.1
385.29	355.5
385.67	347.82
386.049	342.84
386.429	353.24
386.809	381.04
387.189	372
387.568	367.7
387.948	374.26
388.328	355.73
388.707	371.09
389.087	353.24
389.466	362.5
389.846	352.11
390.225	394.14
390.605	373.13
390.984	355.95
391.363	383.07
391.743	362.05
392.122	374.03
392.501	385.1
392.881	389.85
393.26	385.55
393.639	381.94
394.018	375.84
394.397	383.07
394.776	365.89
395.155	373.35
395.534	382.39
395.913	375.39
396.292	390.3
396.671	409.73
397.05	400.02
397.429	405.89
397.808	397.53
398.186	397.08
398.565	408.61
398.944	402.73
399.323	395.05
399.701	400.92
400.08	408.15
400.458	401.15
400.837	402.28
401.215	416.74
401.594	406.8
401.972	416.51
402.351	401.6
402.729	407.7
403.107	381.94
403.486	419.9
403.864	423.97
404.242	435.95
404.62	418.1
404.999	430.3
405.377	430.3
405.755	419
406.133	435.05
406.511	427.14
406.889	424.65
407.267	423.07
407.645	441.15
408.023	437.76
408.401	470.75
408.779	452.45
409.156	445.89
409.534	435.95
409.912	468.72
410.29	450.64
410.667	451.99
411.045	457.64
411.422	468.72
411.8	484.99
412.178	472.11
412.555	474.59
412.933	481.6
413.31	503.74
413.687	485.44
414.065	494.7
414.442	513.91
414.819	484.31
415.197	501.26
415.574	495.83
415.951	509.17
416.328	497.42
416.705	528.38
417.082	513.69
417.46	525.89
417.837	530.41
418.214	519.56
418.591	531.54
418.967	506.68
419.344	513.01
419.721	537.19
420.098	523.63
420.475	540.35
420.852	530.41
421.228	546.45
421.605	559.79
421.982	537.19
422.358	558.88
422.735	546.45
423.111	559.11
423.488	539.22
423.864	560.24
424.241	568.37
424.617	569.5
424.994	566.12
425.37	557.08
425.746	563.4
426.123	594.81
426.499	593.23
426.875	588.04
427.251	595.27
427.627	605.21
428.003	578.54
428.379	600.24
428.756	602.5
429.132	595.94
429.507	618.32
429.883	622.16
430.259	628.94
430.635	651.76
431.011	640.46
431.387	652.21
431.763	659.45
432.138	652.21
432.514	650.41
432.89	674.13
433.265	704.42
433.641	684.53
434.016	677.52
434.392	708.26
434.767	689.5
435.143	700.57
435.518	722.04
435.894	700.12
436.269	737.86
436.644	717.98
437.02	737.86
437.395	722.27
437.77	738.77
438.145	748.48
438.52	743.74
438.895	763.17
439.271	757.97
439.646	759.33
440.021	764.08
440.395	788.48
440.77	776.28
441.145	770.18
441.52	809.5
441.895	805.43
442.27	791.42
442.645	807.69
443.019	817.41
443.394	800.23
443.769	812.66
444.143	809.95
444.518	808.14
444.892	816.5
445.267	827.13
445.641	850.63
446.016	831.87
446.39	814.92
446.764	830.74
447.139	879.78
447.513	861.25
447.887	869.61
448.262	878.88
448.636	843.85
449.01	878.65
449.384	877.75
449.758	869.16
450.132	895.82
450.506	911.87
450.88	887.01
451.254	894.02
451.628	923.39
452.002	899.21
452.376	909.83
452.75	959.55
453.123	955.03
453.497	940.79
453.871	947.12
454.244	979.21
454.618	1001.36
454.992	981.47
455.365	995.48
455.739	998.87
456.112	1010.85
456.486	1023.5
456.859	1030.96
457.232	1074.12
457.606	1050.4
457.979	1052.43
458.352	1061.02
458.725	1082.49
459.099	1109.15
459.472	1131.07
459.845	1145.76
460.218	1112.54
460.591	1125.65
460.964	1133.33
461.337	1188.25
461.71	1221.24
462.083	1200.45
462.456	1219.43
462.829	1233.67
463.201	1208.81
463.574	1230.96
463.947	1224.4
464.32	1276.15
464.692	1289.26
465.065	1312.31
465.438	1306.43
465.81	1348.69
466.183	1341.46
466.555	1384.62
466.928	1379.2
467.3	1397.51
467.672	1417.17
468.045	1437.5
468.417	1465.75
468.789	1507.11
469.161	1498.29
469.534	1545.3
469.906	1557.05
470.278	1578.74
470.65	1627.78
471.022	1620.32
471.394	1696.71
471.766	1697.61
472.138	1705.75
472.51	1723.6
472.882	1795.01
473.253	1809.7
473.625	1856.48
473.997	1919.98
474.369	1956.59
474.74	1969.47
475.112	1994.55
475.484	2066.64
475.855	2111.84
476.227	2105.51
476.598	2211.72
476.97	2203.59
477.341	2297.82
477.713	2344.6
478.084	2388.67
478.455	2445.84
478.827	2486.29
479.198	2566.97
479.569	2587.76
479.94	2730.8
480.311	2742.33
480.682	2839.73
481.053	2928.76
481.424	2983.23
481.795	3063.68
482.166	3131.25
482.537	3212.37
482.908	3324.91
483.279	3339.83
483.65	3408.75
484.021	3561.29
484.391	3624.79
484.762	3688.29
485.133	3735.3
485.503	3839.48
485.874	3999.7
486.244	4100.26
486.615	4194.27
486.985	4264.32
487.356	4367.82
487.726	4469.29
488.097	4629.29
488.467	4713.8
488.837	4830.18
489.207	4925.32
489.578	5044.64
489.948	5173.68
490.318	5292.77
490.688	5323.96
491.058	5459.09
491.428	5579.54
491.798	5653.21
492.168	5863.15
492.538	5862.92
492.908	6018.4
493.278	6124.39
493.648	6209.81
494.017	6351.27
494.387	6512.4
494.757	6585.39
495.126	6712.17
495.496	6770.7
495.866	6867.19
496.235	6984.7
496.605	7174.53
496.974	7213.4
497.344	7339.72
497.713	7457.69
498.082	7566.16
498.452	7662.43
498.821	7753.27
499.19	7762.08
499.559	7899.03
499.928	8064.9
500.298	8104.45
500.667	8189.42
501.036	8243.2
501.405	8388.28
501.774	8435.96
502.143	8604.55
502.512	8598.67
502.88	8767.03
503.249	8813.36
503.618	8972.45
503.987	8965.67
504.356	9040.47
504.724	9152.78
505.093	9252.44
505.462	9309.61
505.83	9383.28
506.199	9505.32
506.567	9675.93
506.936	9719.77
507.304	9737.63
507.672	9859.2
508.041	9968.58
508.409	9997.96
508.777	10149.37
509.145	10158.86
509.514	10205.18
509.882	10336.93
510.25	10351.39
510.618	10499.64
510.986	10525.85
511.354	10640.43
511.722	10802.68
512.09	10835
512.458	10924.94
512.826	11065.27
513.193	11084.93
513.561	11117.48
513.929	11187.3
514.297	11327.19
514.664	11466.39
515.032	11438.37
515.4	11524.02
515.767	11582.55
516.135	11634.98
516.502	11680.4
516.869	11808.76
517.237	11890.56
517.604	11901.64
517.972	11989.09
518.339	12164
518.706	12092.82
519.073	12176.66
519.44	12364.9
519.808	12420.04
520.175	12457.33
520.542	12630.2
520.909	12662.52
521.276	12758.79
521.643	12804.44
522.009	12883.53
522.376	12929.18
522.743	13030.42
523.11	13099.8
523.477	13279.23
523.843	13367.13
524.21	13488.26
524.577	13502.72
524.943	13584.3
525.31	13632.21
525.676	13793.56
526.043	13839.89
526.409	13851.64
526.776	14130.5
527.142	14116.04
527.508	14222.93
527.874	14311.29
528.241	14389.93
528.607	14453.66
528.973	14563.26
529.339	14565.29
529.705	14762.13
530.071	14833.31
530.437	14906.08
530.803	15044.38
531.169	15119.18
531.535	15054.55
531.901	15120.31
532.267	15196.01
532.632	15339.74
532.998	15366.86
533.364	15482.11
533.73	15442.33
534.095	15638.94
534.461	15717.58
534.826	15774.98
535.192	15812.72
535.557	15977.01
535.923	15928.42
536.288	16066.27
536.653	16116.67
537.019	16124.35
537.384	16258.81
537.749	16278.47
538.114	16331.35
538.479	16292.26
538.845	16478.69
539.21	16445.7
539.575	16475.08
539.94	16537.22
540.305	16694.05
540.67	16759.14
541.034	16843.88
541.399	16888.4
541.764	16967.94
542.129	16912.8
542.494	17023.08
542.858	17138.33
543.223	17146.7
543.587	17290.65
543.952	17197.77
544.316	17424.43
544.681	17360.7
545.045	17454.03
545.41	17567.25
545.774	17597.08
546.138	17598.89
546.503	17710.07
546.867	17676.63
547.231	17941.93
547.595	17892.44
547.959	17928.14
548.324	17985.09
548.688	18044.75
549.052	18207.46
549.416	18229.38
549.779	18282.26
550.143	18330.39
550.507	18416.95
550.871	18489.26
551.235	18512.08
551.599	18617.62
551.962	18580.33
552.326	18719.54
552.689	18840.89
553.053	18694.9
553.417	18788.01
553.78	19033.43
554.143	18971.73
554.507	19074.1
554.87	19065.97
555.234	19362.01
555.597	19127.21
555.96	19243.82
556.323	19433.19
556.686	19450.14
557.05	19526.52
557.413	19557.48
557.776	19618.04
558.139	19766.06
558.502	19807.19
558.865	19894.42
559.228	19992.95
559.59	19986.62
559.953	19985.04
560.316	20195.43
560.679	20246.95
561.041	20432.03
561.404	20369.66
561.767	20602.65
562.129	20518.81
562.492	20702.99
562.854	20710.22
563.217	20695.98
563.579	20881.74
563.941	21012.81
564.304	20977.1
564.666	21079.7
565.028	21141.17
565.39	21286.02
565.753	21328.73
566.115	21471.33
566.477	21572.79
566.839	21574.15
567.201	21723.98
567.563	21706.35
567.925	21912.22
568.287	21900.24
568.648	21956.74
569.01	22126.68
569.372	22204.64
569.734	22135.72
570.095	22301.59
570.457	22439.21
570.819	22513.11
571.18	22461.58
571.542	22658.42
571.903	22772.31
572.265	22958.29
572.626	22889.6
572.987	22998.52
573.349	23247.78
573.71	23138.18
574.071	23138.4
574.432	23327.32
574.794	23619.07
575.155	23529.13
575.516	23601.67
575.877	23760.08
576.238	23816.58
576.599	23933.64
576.96	24051.37
577.32	24078.94
577.681	24216.57
578.042	24410.91
578.403	24468.76
578.763	24758.93
579.124	24752.15
579.485	25006.6
579.845	25148.29
580.206	25304
580.566	25440.72
580.927	25438.91
581.287	25762.51
581.648	25776.3
582.008	25936.97
582.368	26038.44
582.728	26297.87
583.089	26332.9
583.449	26410.86
583.809	26776.05
584.169	26908.93
584.529	27002.71
584.889	27277.96
585.249	27340.33
585.609	27495.12
585.969	27693.31
586.329	27924.72
586.688	28219.63
587.048	28196.57
587.408	28280.19
587.768	28499.17
588.127	28738.03
588.487	28855.31
588.846	29169.66
589.206	29266.15
589.565	29484.45
589.925	29871.56
590.284	29831.56
590.643	30115.62
591.003	30328.5
591.362	30513.35
591.721	30621.82
592.08	30815.94
592.44	31116.05
592.799	31313.1
593.158	31402.59
593.517	31704.51
593.876	31841.22
594.235	31906.76
594.593	32173.87
594.952	32370.7
595.311	32438.5
595.67	32723.24
596.029	33010.46
596.387	33148.54
596.746	33395.31
597.104	33433.27
597.463	33474.63
597.822	33846.14
598.18	33795.52
598.538	34011.34
598.897	34367.71
599.255	34316.87
599.613	35029.84
599.972	34903.07
600.33	35176.05
600.688	35085.21
601.046	35357.97
601.404	35668.92
601.762	35744.17
602.12	36078.63
602.478	36092.64
602.836	36305.97
603.194	36179.87
603.552	36391.39
603.91	36359.3
604.268	36682.23
604.625	36741.44
604.983	36954.08
605.341	36912.5
605.698	37211.25
606.056	37241.99
606.413	37429.1
606.771	37600.62
607.128	37703.44
607.485	37761.3
607.843	37703.44
608.2	38150.66
608.557	38357.44
608.914	38202.41
609.272	38566.7
609.629	38679.92
609.986	38889.4
610.343	38747.94
610.7	39137.3
611.057	39290.07
611.414	39220.92
611.771	39226.34
612.127	39575.94
612.484	39567.35
612.841	39882.6
613.198	39694.8
613.554	39807.8
613.911	39998.75
614.267	40239.65
614.624	40175.24
614.98	40352.64
615.337	40570.03
615.693	40574.33
616.05	40539.08
616.406	40760.31
616.762	40702.46
617.118	40761.89
617.475	40902
617.831	41102.45
618.187	41121.43
618.543	41270.13
618.899	41416.79
619.255	41457.47
619.611	41431.48
619.967	41582.66
620.323	41782.88
620.678	41537.24
621.034	41639.39
621.39	41664.7
621.746	41589.22
622.101	42123.67
622.457	41774.07
622.812	41981.52
623.168	42130.67
623.523	42262.65
623.879	42237.11
624.234	41904.69
624.589	42203.66
624.945	42335.86
625.3	42420.61
625.655	42336.77
626.01	42449.08
626.365	42484.33
626.72	42518.23
627.075	42544.45
627.43	42460.15
627.785	42610.21
628.14	42519.36
628.495	42503.54
628.85	42533.15
629.205	42544.9
629.559	42723.2
629.914	42606.37
630.269	42683.43
630.623	42621.51
630.978	42616.31
631.332	42886.36
631.687	42817.43
632.041	42565.01
632.396	42775.4
632.75	42588.29
633.104	42663.31
633.459	42540.38
633.813	42409.31
634.167	42444.34
634.521	42650.21
634.875	42572.24
635.229	42435.07
635.583	42389.42
635.937	42377.22
636.291	42419.03
636.645	42484.33
636.999	42395.75
637.352	42377.9
637.706	42194.4
638.06	42372.7
638.413	42344.45
638.767	42281.63
639.121	42370.67
639.474	42204.57
639.828	42239.37
640.181	42274.17
640.534	42158.69
640.888	42126.38
641.241	41956.21
641.594	42141.97
641.947	42246.15
642.301	42000.05
642.654	42097.45
643.007	42140.84
643.36	42037.12
643.713	41996.21
644.066	42168.86
644.419	41752.38
644.771	41637.58
645.124	41183.35
645.477	41240.98
645.83	40999.85
646.182	40833.53
646.535	40754.44
646.888	40766.87
647.24	40606.87
647.593	40803.93
647.945	40739.3
648.298	40677.38
648.65	40585.85
649.002	40402.58
649.355	40645.51
649.707	40512.18
650.059	40666.76
650.411	41064.26
650.763	41200.07
651.115	41571.14
651.467	41541.31
651.819	41425.61
652.171	41321.2
652.523	41257.7
652.875	41210.7
653.227	41192.17
653.578	41272.84
653.93	41268.32
654.282	41156.01
654.633	41028.55
654.985	41170.92
655.337	41072.39
655.688	41162.11
656.039	41209.11
656.391	40885.28
656.742	40949.23
657.094	41072.85
657.445	41147.19
657.796	41114.43
658.147	41017.25
658.498	41015.22
658.849	41067.2
659.2	40932.74
659.551	40786.53
659.902	40989.91
660.253	41069.23
660.604	41116.24
660.955	40652.52
661.306	41018.61
661.656	40977.93
662.007	40977.26
662.358	40923.25
662.708	40880.76
663.059	40922.57
663.409	40674.66
663.76	40982.91
664.11	40761.67
664.461	40829.46
664.811	40935
665.161	40826.07
665.511	40549.92
665.862	40816.36
666.212	40756.24
666.562	40824.72
666.912	40759.86
667.262	40685.74
667.612	40717.83
667.962	40803.7
668.312	40577.04
668.662	40873.53
669.011	40778.84
669.361	40668.11
669.711	40598.73
670.06	40614.78
670.41	40534.33
670.76	40515.8
671.109	40677.6
671.459	40725.06
671.808	40527.1
672.157	40599.19
672.507	40326.88
672.856	40335.69
673.205	40467.66
673.554	40652.52
673.904	40323.49
674.253	40577.27
674.602	40502.24
674.951	39991.52
675.3	39724.18
675.649	40386.54
675.998	40317.61
676.346	40377.72
676.695	40476.48
677.044	40139.09
677.393	40288.91
677.741	40392.86
678.09	40097.28
678.438	40243.04
678.787	40153.32
679.135	40243.72
679.484	39976.6
679.832	40173.89
680.181	39730.73
680.529	39907.23
680.877	39888.92
681.225	39916.27
681.573	40011.41
681.922	39772.09
682.27	39740
682.618	39890.5
682.966	39580.91
683.314	39680.57
683.661	39639.66
684.009	39273.35
684.357	39371.87
684.705	39264.76
685.053	39237.87
685.4	39207.36
685.748	39055.27
686.095	39041.71
686.443	38912.68
686.79	38815.96
687.138	38919.23
687.485	38921.49
687.832	38777.99
688.18	38909.29
688.527	38596.08
688.874	38608.73
689.221	38360.6
689.568	38444.22
689.915	38406.48
690.262	38224.56
690.609	38125.81
690.956	38145.92
691.303	38107.73
691.65	37823.21
691.997	37906.6
692.344	37503.67
692.69	37460.29
693.037	37677
693.383	37306.62
693.73	37465.48
694.077	37294.64
694.423	37197.24
694.769	36990.47
695.116	36958.15
695.462	37088.09
695.808	36937.59
696.155	36960.19
696.501	36755.22
696.847	36660.99
697.193	36332.41
697.539	36641.78
697.885	36366.3
698.231	36229.13
698.577	36220.09
698.923	36149.13
699.269	35941.23
699.614	35854.45
699.96	35830.5
700.306	35642.71
700.651	35512.09
700.997	35412.66
701.342	35431.86
701.688	35433.9
702.033	35211.53
702.379	35286.56
702.724	35203.17
703.069	35250.17
703.415	34786.68
703.76	34789.17
704.105	34879.11
704.45	34965.66
704.795	34571.1
705.14	34533.58
705.485	34537.2
705.83	34296.08
706.175	34445
706.52	34265.79
706.865	34175.63
707.209	34141.73
707.554	33955.07
707.899	34124.33
708.243	33955.29
708.588	33733.38
708.932	33655.19
709.277	33646.38
709.621	33626.04
709.966	33456.32
710.31	33572.93
710.654	33310.79
710.998	33241.87
711.342	33222.43
711.687	33200.74
712.031	33000.52
712.375	32943.34
712.719	33017.47
713.063	32856.79
713.407	32959.61
713.75	32758.26
714.094	32664.03
714.438	32669.45
714.782	32672.39
715.125	32436.24
715.469	32583.13
715.812	32323.7
716.156	32147.88
716.499	32200.54
716.843	32308.78
717.186	32025.85
717.53	32211.38
717.873	32253.64
718.216	32081.9
718.559	31850.04
718.902	31694.56
719.246	31766.42
719.589	31738.18
719.932	31569.37
720.275	31565.75
720.617	31546.09
720.96	31480.56
721.303	31411.63
721.646	31435.59
721.989	31261.81
722.331	31363.5
722.674	31265.42
723.016	31171.86
723.359	31169.83
723.701	31259.55
724.044	30979.55
724.386	30899.33
724.729	30965.77
725.071	30835.6
725.413	30893.45
725.755	30896.62
726.097	30765.77
726.439	30581.15
726.782	30668.37
727.124	30694.36
727.465	30574.82
727.807	30482.62
728.149	30436.97
728.491	30256.86
728.833	30432.45
729.175	30400.13
729.516	30281.94
729.858	30225.22
730.199	30256.41
730.541	30145
730.882	30140.25
731.224	30189.29
731.565	29938.22
731.906	29977.09
732.248	30044.66
732.589	29827.04
732.93	29716.08
733.271	29657.78
733.612	29906.13
733.953	29727.38
734.294	29706.14
734.635	29513.6
734.976	29681.73
735.317	29419.59
735.658	29392.25
735.999	29451.01
736.339	29470.67
736.68	29431.12
737.021	29308.64
737.361	29272.03
737.702	29350.44
738.042	29253.27
738.383	29244.68
738.723	29218.24
739.063	29102.09
739.404	29072.94
739.744	28952.26
740.084	28960.4
740.424	28923.56
740.764	28790.46
741.104	28969.44
741.444	28894.86
741.784	28618.26
742.124	28753.17
742.464	28719.95
742.804	28662.55
743.143	28689.9
743.483	28565.15
743.823	28299.17
744.162	28385.04
744.502	28376.46
744.841	28358.15
745.181	28452.16
745.52	28278.61
745.86	28264.14
746.199	28138.5
746.538	28036.35
746.877	28194.32
747.216	28214.43
747.556	27962.68
747.895	28091.94
748.234	27899.18
748.573	27947.09
748.911	27874.55
749.25	27750.94
749.589	27650.83
749.928	27755.91
750.267	27858.05
750.605	27702.58
750.944	27542.35
751.283	27621.22
751.621	27641.79
751.96	27424.39
752.298	27372.87
752.636	27401.34
752.975	27299.65
753.313	27302.14
753.651	27437.72
753.989	27135.81
754.327	27153.66
754.666	26930.17
755.004	26992.99
755.342	27008.58
755.679	26964.29
756.017	26775.82
756.355	26831.19
756.693	26847.91
757.031	26772.21
757.368	26579.67
