Data from hue_20_FLMS001491_32.txt Node
Date: Mon Feb 06 15:33:58 GMT 2017
User: dcchb
Spectrometer: FLMS00149
Trigger mode: 0
Integration Time (sec): 2.000000E-2
Scans to average: 10
Electric dark correction enabled: true
Nonlinearity correction enabled: false
Boxcar width: 0
XAxis mode: Wavelengths
Number of Pixels in Spectrum: 2048
>>>>>Begin Spectral Data<<<<<
341.393	-13.05
341.776	-13.05
342.16	-13.05
342.543	-46.95
342.927	-68.42
343.31	-65.7
343.693	-93.73
344.077	-60.51
344.46	-65.93
344.843	-40.17
345.226	-41.3
345.61	-40.17
345.993	-15.31
346.376	-20.28
346.759	31.69
347.142	32.6
347.525	31.02
347.908	51.81
348.291	100.39
348.674	97.91
349.057	97.68
349.44	145.14
349.823	139.49
350.206	167.51
350.588	207.96
350.971	203.21
351.354	212.03
351.737	247.73
352.119	257.68
352.502	272.59
352.884	271.24
353.267	277.56
353.65	300.16
354.032	299.48
354.414	327.51
354.797	312.82
355.179	313.49
355.562	342.87
355.944	332.7
356.326	338.13
356.709	367.73
357.091	346.94
357.473	342.19
357.855	344.23
358.238	341.52
358.62	359.37
359.002	354.62
359.384	348.3
359.766	335.41
360.148	339.26
360.53	340.84
360.912	335.19
361.294	341.06
361.676	327.96
362.057	325.7
362.439	334.96
362.821	323.21
363.203	326.15
363.584	340.61
363.966	326.15
364.348	332.48
364.729	333.61
365.111	336.54
365.493	312.82
365.874	319.82
366.256	304.46
366.637	326.15
367.019	323.44
367.4	320.73
367.781	318.92
368.163	305.81
368.544	311.69
368.925	291.57
369.306	314.62
369.688	301.74
370.069	330.9
370.45	311.69
370.831	328.18
371.212	311.91
371.593	305.36
371.974	313.27
372.355	331.8
372.736	309.43
373.117	316.88
373.498	335.64
373.879	312.82
374.26	320.5
374.641	312.59
375.021	322.31
375.402	351.46
375.783	348.3
376.163	327.05
376.544	346.49
376.925	326.6
377.305	333.16
377.686	326.83
378.066	331.12
378.447	324.79
378.827	340.84
379.208	328.64
379.588	305.81
379.968	324.34
380.349	315.3
380.729	313.04
381.109	326.6
381.489	334.74
381.87	361.18
382.25	332.7
382.63	316.21
383.01	340.61
383.39	330.67
383.77	330.9
384.15	326.6
384.53	305.59
384.91	327.96
385.29	355.08
385.67	345.36
386.049	362.08
386.429	360.05
386.809	352.59
387.189	348.3
387.568	347.17
387.948	346.49
388.328	347.17
388.707	355.3
389.087	344.23
389.466	367.73
389.846	357.79
390.225	353.49
390.605	346.26
390.984	346.94
391.363	358.01
391.743	351.23
392.122	351.69
392.501	374.51
392.881	363.44
393.26	364.79
393.639	376.77
394.018	370.44
394.397	380.16
394.776	368.18
395.155	366.37
395.534	372.48
395.913	357.11
396.292	391.01
396.671	388.75
397.05	387.62
397.429	358.69
397.808	366.6
398.186	374.28
398.565	366.6
398.944	379.71
399.323	382.19
399.701	388.52
400.08	404.34
400.458	381.97
400.837	394.17
401.215	391.23
401.594	391.68
401.972	374.06
402.351	392.36
402.729	384
403.107	395.75
403.486	399.37
403.864	400.72
404.242	392.36
404.62	392.81
404.999	392.14
405.377	398.24
405.755	408.18
406.133	429.65
406.511	409.99
406.889	409.54
407.267	409.31
407.645	397.33
408.023	424.45
408.401	402.76
408.779	413.6
409.156	428.97
409.534	436.88
409.912	426.26
410.29	416.77
410.667	438.92
411.045	447.28
411.422	417.45
411.8	445.24
412.178	418.8
412.555	471.46
412.933	453.38
413.31	453.15
413.687	454.96
414.065	454.06
414.442	469.42
414.819	474.39
415.197	461.74
415.574	449.54
415.951	482.53
416.328	473.49
416.705	455.64
417.082	461.74
417.46	472.59
417.837	471
418.214	473.04
418.591	473.94
418.967	484.11
419.344	487.28
419.721	484.11
420.098	463.1
420.475	497.44
420.852	480.95
421.228	491.12
421.605	486.15
421.982	496.77
422.358	501.29
422.735	491.12
423.111	504.22
423.488	512.81
423.864	503.32
424.241	509.2
424.617	528.63
424.994	518.01
425.37	522.75
425.746	506.94
426.123	496.54
426.499	520.49
426.875	511
427.251	518.69
427.627	543.32
428.003	538.8
428.379	527.95
428.756	522.53
429.132	574.28
429.507	567.95
429.883	566.6
430.259	557.56
430.635	553.71
431.011	566.14
431.387	579.48
431.763	578.12
432.138	576.99
432.514	578.35
432.89	590.55
433.265	585.35
433.641	609.98
434.016	598.68
434.392	598.91
434.767	603.66
435.143	620.83
435.518	600.04
435.894	612.47
436.269	631
436.644	618.8
437.02	638.46
437.395	626.03
437.77	627.84
438.145	673.49
438.52	657.89
438.895	654.95
439.271	649.3
439.646	655.86
440.021	663.32
440.395	661.51
440.77	655.41
441.145	660.83
441.52	694.73
441.895	666.48
442.27	673.26
442.645	689.08
443.019	685.01
443.394	702.18
443.769	696.54
444.143	707.83
444.518	696.08
444.892	693.82
445.267	713.26
445.641	725.24
446.016	717.55
446.39	715.07
446.764	720.04
447.139	696.76
447.513	725.91
447.887	726.37
448.262	720.94
448.636	747.83
449.01	740.15
449.384	733.14
449.758	722.3
450.132	752.13
450.506	739.92
450.88	764.78
451.254	748.29
451.628	739.7
452.002	789.19
452.376	791
452.75	789.64
453.123	793.48
453.497	810.2
453.871	793.26
454.244	809.07
454.618	831
454.992	823.09
455.365	828.28
455.739	823.31
456.112	866.25
456.486	855.18
456.859	848.85
457.232	894.04
457.606	852.69
457.979	852.01
458.352	888.17
458.725	896.98
459.099	916.42
459.472	913.93
459.845	917.55
460.218	927.26
460.591	947.83
460.964	934.72
461.337	935.17
461.71	972.69
462.083	956.64
462.456	979.92
462.829	984.21
463.201	985.57
463.574	987.6
463.947	1026.7
464.32	1026.02
464.692	1045.45
465.065	1028.73
465.438	1063.53
465.81	1080.71
466.183	1079.58
466.555	1089.07
466.928	1099.01
467.3	1120.48
467.672	1130.65
468.045	1130.87
468.417	1151.89
468.789	1189.86
469.161	1164.09
469.534	1203.19
469.906	1202.06
470.278	1225.79
470.65	1216.07
471.022	1214.94
471.394	1254.49
471.766	1286.12
472.138	1292
472.51	1323.41
472.882	1361.6
473.253	1356.86
473.625	1366.57
473.997	1386.01
474.369	1399.79
474.74	1426.91
475.112	1456.74
475.484	1486.57
475.855	1522.95
476.227	1512.79
476.598	1538.1
476.97	1564.54
477.341	1601.82
477.713	1640.24
478.084	1680.24
478.455	1682.27
478.827	1690.86
479.198	1759.56
479.569	1756.39
479.94	1805.88
480.311	1851.76
480.682	1874.81
481.053	1894.92
481.424	1962.04
481.795	1969.27
482.166	1988.03
482.537	2042.71
482.908	2049.27
483.279	2109.38
483.65	2120.9
484.021	2182.15
484.391	2213.56
484.762	2242.48
485.133	2272.77
485.503	2275.02
485.874	2378.53
486.244	2339.2
486.615	2442.7
486.985	2426.43
487.356	2512.08
487.726	2516.37
488.097	2567.22
488.467	2589.59
488.837	2637.5
489.207	2690.38
489.578	2724.73
489.948	2768.57
490.318	2809.7
490.688	2812.19
491.058	2868.46
491.428	2942.35
491.798	2959.75
492.168	2971.96
492.538	2966.76
492.908	3061.9
493.278	3088.34
493.648	3076.36
494.017	3130.6
494.387	3142.35
494.757	3186.19
495.126	3261.67
495.496	3256.47
495.866	3287.88
496.235	3298.5
496.605	3330.59
496.974	3332.62
497.344	3399.74
497.713	3426.63
498.082	3455.11
498.452	3487.65
498.821	3512.73
499.19	3530.59
499.559	3557.93
499.928	3595.89
500.298	3604.71
500.667	3606.97
501.036	3634.09
501.405	3680.41
501.774	3679.06
502.143	3729
502.512	3724.25
502.88	3780.52
503.249	3757.92
503.618	3829.56
503.987	3788.66
504.356	3855.32
504.724	3881.31
505.093	3873.17
505.462	3872.27
505.83	3959.27
506.199	3945.49
506.567	3952.95
506.936	3968.31
507.304	4021.87
507.672	4032.04
508.041	4066.62
508.409	4070.23
508.777	4093.06
509.145	4169.89
509.514	4121.08
509.882	4155.43
510.25	4162.43
510.618	4199.95
510.986	4196.56
511.354	4224.8
511.722	4256.89
512.09	4281.75
512.458	4256.67
512.826	4294.63
513.193	4288.08
513.561	4320.85
513.929	4329.89
514.297	4401.97
514.664	4380.51
515.032	4405.14
515.4	4444.46
515.767	4484.68
516.135	4481.75
516.502	4440.84
516.869	4513.16
517.237	4564.91
517.604	4518.81
517.972	4524.91
518.339	4551.8
518.706	4592.03
519.073	4617.56
519.44	4605.36
519.808	4618.47
520.175	4569.88
520.542	4643.1
520.909	4664.34
521.276	4696.2
521.643	4732.36
522.009	4752.7
522.376	4776.2
522.743	4764.45
523.11	4872.7
523.477	4839.48
523.843	4876.76
524.21	4922.86
524.577	4946.59
524.943	4938.46
525.31	4929.87
525.676	5031.34
526.043	5016.2
526.409	5064.56
526.776	5118.79
527.142	5178.9
527.508	5106.36
527.874	5180.49
528.241	5175.06
528.607	5250.54
528.973	5213.93
529.339	5248.28
529.705	5290.31
530.071	5311.56
530.437	5392.68
530.803	5317.66
531.169	5407.37
531.535	5397.65
531.901	5445.34
532.267	5461.83
532.632	5496.64
532.998	5529.85
533.364	5540.25
533.73	5590.87
534.095	5601.04
534.461	5597.42
534.826	5616.63
535.192	5648.95
535.557	5712.45
535.923	5699.34
536.288	5720.13
536.653	5724.88
537.019	5755.61
537.384	5770.07
537.749	5800.36
538.114	5806.68
538.479	5829.96
538.845	5832.22
539.21	5778.66
539.575	5845.1
539.94	5910.41
540.305	5971.88
540.67	5951.76
541.034	5983.85
541.399	5996.28
541.764	6005.77
542.129	6034.7
542.494	6085.77
542.858	6077.41
543.223	6093.68
543.587	6173.91
543.952	6184.53
544.316	6174.36
544.681	6199.22
545.045	6198.76
545.41	6323.51
545.774	6252.77
546.138	6304.3
546.503	6356.05
546.867	6335.26
547.231	6437.63
547.595	6402.6
547.959	6410.96
548.324	6455.03
548.688	6456.61
549.052	6481.69
549.416	6507.68
549.779	6502.03
550.143	6539.55
550.507	6618.41
550.871	6628.13
551.235	6611.41
551.599	6627.45
551.962	6659.99
552.326	6672.88
552.689	6710.16
553.053	6652.08
553.417	6700.67
553.78	6794.45
554.143	6776.83
554.507	6812.31
554.87	6763.27
555.234	6926.2
555.597	6834.45
555.96	6877.62
556.323	6948.57
556.686	6897.95
557.05	6903.83
557.413	6972.53
557.776	7035.35
558.139	6995.8
558.502	7049.14
558.865	7090.72
559.228	7106.54
559.59	7115.12
559.953	7209.81
560.316	7209.58
560.679	7213.2
561.041	7235.57
561.404	7297.49
561.767	7292.07
562.129	7249.36
562.492	7323.48
562.854	7324.84
563.217	7361.67
563.579	7390.82
563.941	7435.12
564.304	7491.84
564.666	7426.3
565.028	7481.67
565.39	7532.74
565.753	7554.43
566.115	7563.25
566.477	7631.04
566.839	7593.08
567.201	7690.93
567.563	7654.77
567.925	7777.48
568.287	7730.7
568.648	7737.03
569.01	7795.78
569.372	7854.31
569.734	7866.52
570.095	7906.29
570.457	7963.69
570.819	7927.53
571.18	8012.5
571.542	8046.17
571.903	8085.49
572.265	8141.54
572.626	8219.95
572.987	8170.92
573.349	8264.7
573.71	8315.77
574.071	8294.53
574.432	8369.55
574.794	8430.12
575.155	8462.21
575.516	8464.47
575.877	8534.75
576.238	8543.79
576.599	8722.31
576.96	8699.04
577.32	8776.32
577.681	8903.33
578.042	8876.66
578.403	8980.84
578.763	9055.86
579.124	9125.01
579.485	9227.38
579.845	9292.92
580.206	9466.47
580.566	9507.15
580.927	9585.12
581.287	9699.24
581.648	9820.14
582.008	9885.9
582.368	10037.08
582.728	10125.67
583.089	10230.97
583.449	10406.34
583.809	10553
584.169	10692.66
584.529	10850.39
584.889	11126.54
585.249	11196.15
585.609	11296.48
585.969	11520.88
586.329	11711.39
586.688	11885.39
587.048	12001.1
587.408	12254.65
587.768	12442.67
588.127	12736.44
588.487	12845.59
588.846	13162.65
589.206	13215.75
589.565	13586.14
589.925	13784.1
590.284	13985.23
590.643	14260.25
591.003	14550.63
591.362	14740.23
591.721	14971.87
592.08	15298.64
592.44	15581.57
592.799	15902.24
593.158	16097.03
593.517	16297.71
593.876	16679.84
594.235	16916.9
594.593	17116.67
594.952	17548.52
595.311	17732.25
595.67	18039.58
596.029	18401.15
596.387	18743.97
596.746	19021.25
597.104	19191.87
597.463	19434.12
597.822	19809.48
598.18	19994.11
598.538	20359.3
598.897	20717.48
599.255	20812.16
599.613	21472.94
599.972	21595.65
600.33	21912.25
600.688	22044.67
601.046	22454.61
601.404	22809.85
601.762	22958.55
602.12	23328.03
602.478	23669.26
602.836	23898.41
603.194	24109.48
603.552	24393.77
603.91	24598.73
604.268	24988.33
604.625	25099.28
604.983	25459.27
605.341	25532.27
605.698	25953.5
606.056	26266.71
606.413	26471.9
606.771	26804.1
607.128	27069.4
607.485	27117.31
607.843	27436.4
608.2	27742.83
608.557	28055.14
608.914	28145.31
609.272	28515.69
609.629	28772.86
609.986	29079.97
610.343	29054.21
610.7	29540.52
611.057	29665.49
611.414	29763.57
611.771	30056.67
612.127	30232.93
612.484	30438.8
612.841	30727.16
613.198	30941.62
613.554	31023.65
613.911	31303.19
614.267	31533.01
614.624	31600.36
614.98	31835.83
615.337	32180.23
615.693	32217.74
616.05	32210.96
616.406	32611.85
616.762	32626.09
617.118	32721.23
617.475	33008.68
617.831	33220.2
618.187	33428.78
618.543	33615.9
618.899	33842.33
619.255	33895.21
619.611	33904.02
619.967	34131.14
620.323	34346.05
620.678	34330.91
621.034	34399.38
621.39	34606.83
621.746	34596.66
622.101	35147.15
622.457	34887.5
622.812	34961.85
623.168	35163.2
623.523	35372.46
623.879	35530.2
624.234	35344.89
624.589	35450.88
624.945	35777.42
625.3	35839.79
625.655	35820.58
626.01	35988.26
626.365	36019.45
626.72	36028.94
627.075	36116.39
627.43	36142.38
627.785	36251.08
628.14	36351.19
628.495	36527.01
628.85	36458.76
629.205	36392.55
629.559	36680.45
629.914	36674.8
630.269	36720.22
630.623	36665.99
630.978	36654.01
631.332	36948.92
631.687	37049.03
632.041	36798.41
632.396	36997.05
632.75	36999.99
633.104	36927.67
633.459	36855.36
633.813	36819.43
634.167	36896.71
634.521	36980.1
634.875	37048.12
635.229	36869.37
635.583	36748.47
635.937	36890.39
636.291	36887.45
636.645	36983.94
636.999	36750.28
637.352	37066.65
637.706	36818.3
638.06	37147.33
638.413	37009.03
638.767	36895.13
639.121	36991.4
639.474	36855.13
639.828	36888.13
640.181	36976.26
640.534	36972.64
640.888	36988.24
641.241	36688.36
641.594	36917.96
641.947	36973.1
642.301	36893.32
642.654	36876.6
643.007	36960.89
643.36	36872.31
643.713	36880.22
644.066	36941.68
644.419	36750.5
644.771	36554.35
645.124	36231.42
645.477	36127.02
645.83	35903.75
646.182	35906.01
646.535	35816.74
646.888	35894.48
647.24	35709.85
647.593	35954.82
647.945	35816.06
648.298	35626.01
648.65	35591.44
649.002	35623.75
649.355	35657.65
649.707	35649.29
650.059	35892.45
650.411	36245.43
650.763	36251.53
651.115	36578.08
651.467	36461.7
651.819	36594.8
652.171	36483.62
652.523	36374.02
652.875	36396.39
653.227	36362.94
653.578	36634.12
653.93	36273.68
654.282	36286.11
654.633	36261.25
654.985	36240.69
655.337	36367.46
655.688	36437.52
656.039	36492.2
656.391	36126.79
656.742	36292.44
657.094	36151.65
657.445	36477.97
657.796	36267.58
658.147	36275.71
658.498	36247.24
658.849	36399.33
659.2	36260.8
659.551	36176.73
659.902	36344.19
660.253	36068.94
660.604	36354.13
660.955	36082.95
661.306	36207.92
661.656	36129.73
662.007	36182.38
662.358	36166.11
662.708	36206.34
663.059	36194.59
663.409	35902.62
663.76	36152.78
664.11	36146
664.461	36128.6
664.811	36092.67
665.161	36107.36
665.511	36082.5
665.862	36141.48
666.212	36115.72
666.562	36162.27
666.912	36195.94
667.262	36054.02
667.612	35913.01
667.962	36147.35
668.312	36072.33
668.662	36078.43
669.011	36094.93
669.361	36023.97
669.711	35984.42
670.06	35930.41
670.41	35932.67
670.76	35866.46
671.109	36042.72
671.459	35937.19
671.808	35934.93
672.157	35917.98
672.507	35790.08
672.856	35781.71
673.205	35756.63
673.554	35851.54
673.904	35764.99
674.253	35953.01
674.602	35873.01
674.951	35275.06
675.3	35213.59
675.649	35785.78
675.998	35718.89
676.346	35775.61
676.695	35832.56
677.044	35574.49
677.393	35731.32
677.741	35673.02
678.09	35589.86
678.438	35466.47
678.787	35606.8
679.135	35485
679.484	35369.52
679.832	35531.55
680.181	35404.78
680.529	35399.13
680.877	35337.66
681.225	35368.39
681.573	35460.14
681.922	35066.25
682.27	35013.37
682.618	35176.76
682.966	35111.68
683.314	35218.79
683.661	35105.35
684.009	34887.73
684.357	34765.24
684.705	34672.59
685.053	34710.78
685.4	34735.19
685.748	34530.9
686.095	34580.16
686.443	34374.75
686.79	34478.92
687.138	34559.15
687.485	34572.25
687.832	34393.28
688.18	34287.52
688.527	34114.64
688.874	34221.53
689.221	34068.09
689.568	34031.25
689.915	33900.63
690.262	33939.28
690.609	33876.23
690.956	33717.59
691.303	33748.55
691.65	33577.93
691.997	33565.73
692.344	33344.72
692.69	33385.39
693.037	33443.24
693.383	33109.24
693.73	33378.39
694.077	33000.32
694.423	33183.14
694.769	32970.49
695.116	32805.3
695.462	32758.97
695.808	32789.02
696.155	32802.81
696.501	32544.51
696.847	32503.16
697.193	32260
697.539	32466.77
697.885	32208.25
698.231	32057.74
698.577	32055.48
698.923	32036.05
699.269	31785.21
699.614	31688.94
699.96	31624.08
700.306	31652.78
700.651	31627.47
700.997	31554.26
701.342	31361.04
701.688	31405.11
702.033	31325.33
702.379	31216.86
702.724	31269.74
703.069	31151.33
703.415	30932.58
703.76	30846.7
704.105	30872.92
704.45	30872.92
704.795	30647.16
705.14	30529.2
705.485	30490.55
705.83	30419.14
706.175	30517.9
706.52	30357.9
706.865	30225.48
707.209	30154.97
707.554	30019.61
707.899	30126.95
708.243	29963.34
708.588	29976.67
708.932	29866.84
709.277	29767.18
709.621	29705.04
709.966	29539.39
710.31	29634.08
710.654	29337.82
710.998	29533.97
711.342	29440.86
711.687	29447.64
712.031	29281.77
712.375	29221.89
712.719	29148.67
713.063	29064.83
713.407	29224.15
713.75	28987.09
714.094	29072.29
714.438	28846.76
714.782	28953.65
715.125	28774.89
715.469	28809.47
715.812	28678.85
716.156	28564.96
716.499	28710.71
716.843	28665.74
717.186	28376.49
717.53	28472.08
717.873	28464.39
718.216	28362.25
718.559	28239.99
718.902	28042.71
719.246	28142.82
719.589	28058.3
719.932	27976.72
720.275	28028.7
720.617	27994.57
720.96	27864.41
721.303	27979.89
721.646	27870.06
721.989	27618.54
722.331	27745.09
722.674	27642.95
723.016	27722.72
723.359	27592.78
723.701	27746.67
724.044	27413.57
724.386	27450.41
724.729	27451.76
725.071	27403.4
725.413	27469.62
725.755	27255.39
726.097	27229.62
726.439	27012.91
726.782	27035.28
727.124	27288.6
727.465	26978.56
727.807	27020.36
728.149	26918.44
728.491	26925.9
728.833	26979.01
729.175	26797.09
729.516	26768.39
729.858	26751.44
730.199	26782.18
730.541	26717.09
730.882	26653.14
731.224	26661.95
731.565	26473.71
731.906	26624.67
732.248	26587.83
732.589	26431
732.93	26480.72
733.271	26447.72
733.612	26431
733.953	26431.9
734.294	26289.76
734.635	26291.79
734.976	26261.74
735.317	26150.1
735.658	26234.17
735.999	26196.43
736.339	26148.52
736.68	26170.67
737.021	25985.81
737.361	25924.8
737.702	25989.2
738.042	25967.28
738.383	25878.25
738.723	25962.99
739.063	25860.62
739.404	25813.84
739.744	25651.13
740.084	25755.76
740.424	25694.3
740.764	25611.81
741.104	25709.89
741.444	25449.1
741.784	25472.83
742.124	25525.04
742.464	25454.75
742.804	25364.14
743.143	25339.05
743.483	25405.94
743.823	25285.72
744.162	25216.57
744.502	25222.22
744.841	25162.56
745.181	25260.41
745.52	25106.97
745.86	25117.81
746.199	25152.16
746.538	25054.09
746.877	25094.54
747.216	25119.17
747.556	25011.6
747.895	25073.3
748.234	24895.45
748.573	24932.73
748.911	24917.37
749.25	24851.38
749.589	24636.47
749.928	24753.3
750.267	24783.59
750.605	24682.35
750.944	24658.17
751.283	24527.77
751.621	24595.79
751.96	24494.78
752.298	24470.37
752.636	24420.88
752.975	24268.12
753.313	24237.39
753.651	24440.09
753.989	24174.11
754.327	24245.29
754.666	24132.98
755.004	24167.78
755.342	24165.52
755.679	24075.58
756.017	23985.87
756.355	24063.38
756.693	23833.55
757.031	23922.59
757.368	23772.31
757.706	23864.51
758.044	23772.99
758.381	23802.37
758.719	23655.25
759.056	23547.46
759.394	23551.98
759.731	23353.79
760.068	23357.86
760.405	23249.61
760.743	23218.43
761.08	23203.06
761.417	23081.26
