Data from hue_310_FLMS001491_85.txt Node
Date: Mon Feb 06 15:50:20 GMT 2017
User: dcchb
Spectrometer: FLMS00149
Trigger mode: 0
Integration Time (sec): 2.000000E-2
Scans to average: 10
Electric dark correction enabled: true
Nonlinearity correction enabled: false
Boxcar width: 0
XAxis mode: Wavelengths
Number of Pixels in Spectrum: 2048
>>>>>Begin Spectral Data<<<<<
341.393	-10.89
341.776	-10.89
342.16	-10.89
342.543	-71
342.927	-72.81
343.31	-59.02
343.693	-84.33
344.077	-56.31
344.46	-35.97
344.843	-45.46
345.226	-56.09
345.61	-41.85
345.993	-31
346.376	-8.63
346.759	11.93
347.142	17.36
347.525	28.88
347.908	63.23
348.291	74.53
348.674	94.42
349.057	128.32
349.44	117.69
349.823	135.32
350.206	156.34
350.588	208.09
350.971	215.77
351.354	211.48
351.737	240.63
352.119	242.21
352.502	245.37
352.884	281.31
353.267	283.11
353.65	286.5
354.032	315.2
354.414	308.42
354.797	294.87
355.179	323.79
355.562	336.45
355.944	328.76
356.326	355.65
356.709	344.36
357.091	342.77
357.473	334.64
357.855	333.96
358.238	347.07
358.62	326.95
359.002	345.49
359.384	338.71
359.766	345.49
360.148	338.71
360.53	332.15
360.912	335.54
361.294	338.71
361.676	331.7
362.057	339.61
362.439	326.5
362.821	312.49
363.203	326.28
363.584	330.57
363.966	332.83
364.348	320.18
364.729	319.5
365.111	310.01
365.493	317.92
365.874	324.02
366.256	309.33
366.637	311.81
367.019	333.73
367.4	322.21
367.781	313.62
368.163	295.32
368.544	321.53
368.925	311.81
369.306	312.49
369.688	300.74
370.069	309.78
370.45	309.33
370.831	322.44
371.212	311.81
371.593	314.98
371.974	307.07
372.355	336.45
372.736	323.56
373.117	334.86
373.498	287.86
373.879	297.58
374.26	332.83
374.641	300.51
375.021	308.2
375.402	323.11
375.783	322.21
376.163	324.24
376.544	335.09
376.925	354.3
377.305	329.67
377.686	345.03
378.066	339.61
378.447	321.31
378.827	339.16
379.208	331.93
379.588	332.15
379.968	321.76
380.349	331.47
380.729	331.25
381.109	356.78
381.489	325.37
381.87	351.59
382.25	307.75
382.63	346.16
383.01	329.21
383.39	329.44
383.77	339.38
384.15	344.13
384.53	327.18
384.91	335.77
385.29	354.98
385.67	337.35
386.049	343.68
386.429	370.12
386.809	353.85
387.189	356.78
387.568	340.51
387.948	359.95
388.328	361.98
388.707	356.33
389.087	359.95
389.466	358.82
389.846	360.17
390.225	357.69
390.605	375.54
390.984	356.33
391.363	390.91
391.743	377.57
392.122	366.73
392.501	383.45
392.881	391.59
393.26	372.6
393.639	386.61
394.018	388.2
394.397	371.93
394.776	369.67
395.155	385.48
395.534	414.18
395.913	397.69
396.292	392.26
396.671	384.58
397.05	405.6
397.429	407.86
397.808	399.72
398.186	394.07
398.565	402.43
398.944	405.6
399.323	415.31
399.701	385.03
400.08	398.14
400.458	392.94
400.837	407.18
401.215	423.22
401.594	420.06
401.972	410.57
402.351	437.46
402.729	423.45
403.107	407.63
403.486	443.11
403.864	451.92
404.242	447.18
404.62	444.01
404.999	442.43
405.377	423.45
405.755	441.08
406.133	451.47
406.511	459.15
406.889	459.83
407.267	460.28
407.645	466.61
408.023	472.71
408.401	473.62
408.779	483.11
409.156	476.56
409.534	498.48
409.912	499.61
410.29	504.35
410.667	540.96
411.045	514.75
411.422	529.66
411.8	527.4
412.178	536.21
412.555	569.43
412.933	559.72
413.31	580.06
413.687	553.62
414.065	557.23
414.442	556.55
414.819	593.61
415.197	597
415.574	626.83
415.951	621.41
416.328	621.86
416.705	625.48
417.082	634.07
417.46	658.92
417.837	633.39
418.214	684.23
418.591	675.19
418.967	690.79
419.344	672.48
419.721	701.63
420.098	703.89
420.475	712.26
420.852	719.71
421.228	706.83
421.605	752.25
421.982	747.28
422.358	740.73
422.735	752.71
423.111	757
423.488	785.7
423.864	757.45
424.241	791.35
424.617	800.16
424.994	792.03
425.37	804.68
425.746	821.4
426.123	815.3
426.499	852.59
426.875	854.85
427.251	855.3
427.627	870.67
428.003	886.26
428.379	893.72
428.756	895.98
429.132	918.13
429.507	950.89
429.883	926.94
430.259	928.97
430.635	935.3
431.011	956.09
431.387	987.05
431.763	995.64
432.138	1000.61
432.514	1002.19
432.89	1013.04
433.265	1032.7
433.641	1037.22
434.016	1041.96
434.392	1076.09
434.767	1079.48
435.143	1088.52
435.518	1098.23
435.894	1139.14
436.269	1129.42
436.644	1135.52
437.02	1144.56
437.395	1164.67
437.77	1189.08
438.145	1160.15
438.52	1204.22
438.895	1205.8
439.271	1230.66
439.646	1224.33
440.021	1234.73
440.395	1230.66
440.77	1232.02
441.145	1242.86
441.52	1276.99
441.895	1248.74
442.27	1290.09
442.645	1286.48
443.019	1300.71
443.394	1276.53
443.769	1309.98
444.143	1330.77
444.518	1314.27
444.892	1342.75
445.267	1332.13
445.641	1309.08
446.016	1331.45
446.39	1355.85
446.764	1348.62
447.139	1347.49
447.513	1361.96
447.887	1352.24
448.262	1368.74
448.636	1357.89
449.01	1375.97
449.384	1374.61
449.758	1409.19
450.132	1402.63
450.506	1410.09
450.88	1405.8
451.254	1405.8
451.628	1406.25
452.002	1416.19
452.376	1429.07
452.75	1453.93
453.123	1476.08
453.497	1468.62
453.871	1447.6
454.244	1521.5
454.618	1507.71
454.992	1517.21
455.365	1523.53
455.739	1550.2
456.112	1562.18
456.486	1577.09
456.859	1520.14
457.232	1579.13
457.606	1587.94
457.979	1606.7
458.352	1647.6
458.725	1613.47
459.099	1656.86
459.472	1657.99
459.845	1665
460.218	1699.57
460.591	1687.14
460.964	1701.16
461.337	1713.36
461.71	1742.28
462.083	1772.79
462.456	1774.83
462.829	1767.59
463.201	1782.28
463.574	1791.55
463.947	1812.11
464.32	1825.45
464.692	1841.72
465.065	1885.56
465.438	1874.71
465.81	1886.24
466.183	1910.42
466.555	1939.79
466.928	1935.73
467.3	1937.31
467.672	1963.97
468.045	1987.93
468.417	1991.77
468.789	1997.65
469.161	2031.77
469.534	2093.91
469.906	2114.03
470.278	2107.02
470.65	2119.45
471.022	2143.86
471.394	2221.14
471.766	2159.67
472.138	2187.47
472.51	2284.19
472.882	2271.31
473.253	2276.06
473.625	2289.84
473.997	2306.79
474.369	2344.08
474.74	2375.26
475.112	2387.24
475.484	2418.88
475.855	2449.61
476.227	2442.83
476.598	2512.89
476.97	2474.92
477.341	2566.9
477.713	2586.33
478.084	2609.15
478.455	2651.64
478.827	2648.48
479.198	2696.16
479.569	2669.72
479.94	2770.73
480.311	2787.23
480.682	2845.98
481.053	2889.15
481.424	2919.43
481.795	2920.11
482.166	2968.92
482.537	2969.37
482.908	3047.34
483.279	3013.89
483.65	3113.1
484.021	3156.94
484.391	3158.07
484.762	3155.81
485.133	3149.48
485.503	3171.85
485.874	3250.04
486.244	3306.31
486.615	3323.26
486.985	3367.55
487.356	3412.75
487.726	3454.56
488.097	3465.63
488.467	3476.02
488.837	3540.88
489.207	3586.08
489.578	3599.86
489.948	3605.06
490.318	3658.17
490.688	3676.7
491.058	3733.64
491.428	3786.52
491.798	3817.48
492.168	3828.11
492.538	3829.24
492.908	3874.66
493.278	3954.2
493.648	3932.06
494.017	3991.72
494.387	4018.16
494.757	4004.6
495.126	4076.46
495.496	4051.83
495.866	4097.48
496.235	4133.41
496.605	4118.04
496.974	4159.62
497.344	4163.01
497.713	4189
498.082	4244.59
498.452	4279.62
498.821	4240.52
499.19	4272.84
499.559	4302.9
499.928	4318.94
500.298	4307.41
500.667	4352.84
501.036	4343.35
501.405	4411.37
501.774	4397.58
502.143	4428.54
502.512	4445.49
502.88	4480.29
503.249	4483.91
503.618	4483.91
503.987	4506.51
504.356	4542.44
504.724	4574.3
505.093	4571.59
505.462	4551.25
505.83	4618.37
506.199	4618.82
506.567	4700.62
506.936	4681.64
507.304	4673.28
507.672	4698.14
508.041	4729.32
508.409	4755.99
508.777	4780.4
509.145	4800.06
509.514	4751.25
509.882	4829.44
510.25	4820.17
510.618	4874.86
510.986	4859.72
511.354	4897
511.722	4876.44
512.09	4970.45
512.458	4944.01
512.826	4959.15
513.193	4961.86
513.561	4982.43
513.929	5031.24
514.297	5073.27
514.664	5031.69
515.032	5062.2
515.4	5111.69
515.767	5085.02
516.135	5136.55
516.502	5088.41
516.869	5137.22
517.237	5127.05
517.604	5156.88
517.972	5217.9
518.339	5171.35
518.706	5193.04
519.073	5211.35
519.44	5248.41
519.808	5295.19
520.175	5283.21
520.542	5330.66
520.909	5362.3
521.276	5307.16
521.643	5391.23
522.009	5430.32
522.376	5387.84
522.743	5427.84
523.11	5467.84
523.477	5515.52
523.843	5533.6
524.21	5536.54
524.577	5583.99
524.943	5613.37
525.31	5640.26
525.676	5681.62
526.043	5732.69
526.409	5708.96
526.776	5768.62
527.142	5758
527.508	5817.21
527.874	5851.33
528.241	5863.98
528.607	5921.38
528.973	5961.38
529.339	5908.73
529.705	5970.65
530.071	6001.16
530.437	6008.84
530.803	6082.28
531.169	6068.72
531.535	6060.82
531.901	6108.95
532.267	6122.51
532.632	6193.24
532.998	6199.57
533.364	6252.45
533.73	6268.49
534.095	6276.63
534.461	6360.24
534.826	6347.81
535.192	6310.07
535.557	6427.81
535.923	6373.35
536.288	6424.65
536.653	6504.19
537.019	6419.22
537.384	6530.18
537.749	6507.13
538.114	6577.64
538.479	6585.55
538.845	6627.81
539.21	6627.13
539.575	6621.48
539.94	6632.33
540.305	6742.15
540.67	6712.32
541.034	6749.61
541.399	6774.02
541.764	6795.26
542.129	6839.55
542.494	6902.83
542.858	6888.36
543.223	6889.95
543.587	6921.81
543.952	6991.86
544.316	7031.19
544.681	7038.19
545.045	7067.34
545.41	7145.08
545.774	7112.54
546.138	7128.36
546.503	7163.16
546.867	7134.46
547.231	7219.65
547.595	7228.24
547.959	7300.78
548.324	7310.05
548.688	7322.93
549.052	7369.26
549.416	7301.91
549.779	7348.92
550.143	7342.36
550.507	7441.34
550.871	7467.56
551.235	7441.12
551.599	7439.54
551.962	7533.09
552.326	7531.06
552.689	7607.44
553.053	7554.79
553.417	7570.61
553.78	7648.57
554.143	7612.19
554.507	7716.14
554.87	7703.71
555.234	7753.65
555.597	7690.38
555.96	7764.5
556.323	7860.77
556.686	7762.92
557.05	7847.43
557.413	7856.25
557.776	7897.6
558.139	7871.39
558.502	7935.57
558.865	7981.67
559.228	8018.73
559.59	8028.9
559.953	8055.57
560.316	8129.69
560.679	8059.41
561.041	8118.39
561.404	8202.23
561.767	8191.61
562.129	8160.87
562.492	8238.61
562.854	8309.12
563.217	8232.74
563.579	8292.85
563.941	8357.25
564.304	8325.84
564.666	8417.82
565.028	8431.37
565.39	8412.17
565.753	8493.97
566.115	8474.09
566.477	8562.9
566.839	8541.43
567.201	8565.83
567.563	8614.87
567.925	8671.82
568.287	8674.08
568.648	8750.46
569.01	8801.76
569.372	8834.98
569.734	8753.17
570.095	8800.4
570.457	8898.25
570.819	8851.93
571.18	8959.04
571.542	8970.8
571.903	9025.26
572.265	9020.96
572.626	9147.74
572.987	9121.75
573.349	9200.39
573.71	9271.58
574.071	9377.79
574.432	9384.12
574.794	9480.61
575.155	9466.6
575.516	9539.37
575.877	9618.24
576.238	9632.25
576.599	9713.83
576.96	9818
577.32	9890.55
577.681	10007.6
578.042	10105.23
578.403	10162.63
578.763	10255.96
579.124	10370.53
579.485	10536.63
579.845	10600.81
580.206	10720.81
580.566	10835.38
580.927	10969.16
581.287	11083.73
581.648	11207.57
582.008	11328.93
582.368	11516.94
582.728	11645.3
583.089	11882.13
583.449	11962.13
583.809	12214.78
584.169	12344.49
584.529	12477.14
584.889	12730.7
585.249	12887.3
585.609	13026.73
585.969	13389.89
586.329	13600.28
586.688	13782.65
587.048	14052.7
587.408	14233.71
587.768	14450.43
588.127	14813.81
588.487	14908.72
588.846	15372.89
589.206	15488.59
589.565	15717.51
589.925	16157.05
590.284	16298.74
590.643	16715.9
591.003	16968.78
591.362	17276.57
591.721	17394.98
592.08	17809.43
592.44	18141.85
592.799	18453.71
593.158	18585.46
593.517	19005.79
593.876	19329.17
594.235	19557.41
594.593	19836.27
594.952	20247.56
595.311	20472.64
595.67	20779.52
596.029	21240.3
596.387	21610.69
596.746	21926.39
597.104	22166.83
597.463	22345.13
597.822	22762.07
598.18	22948.05
598.538	23244.32
598.897	23765.89
599.255	23818.99
599.613	24524.96
599.972	24665.75
600.33	25028.9
600.688	25260.31
601.046	25587.31
601.404	25930.12
601.762	26107.07
602.12	26449.43
602.478	26703.44
602.836	27175.97
603.194	27203.99
603.552	27594.49
603.91	27738.89
604.268	28196.96
604.625	28333.68
604.983	28717.17
605.341	28818.86
605.698	29325.06
606.056	29579.74
606.413	29774.54
606.771	30138.6
607.128	30316.67
607.485	30548.31
607.843	30769.54
608.2	31134.73
608.557	31356.2
608.914	31543.31
609.272	31861.04
609.629	32150.98
609.986	32419.44
610.343	32499.67
610.7	32946.21
611.057	33092.87
611.414	33212.19
611.771	33428.23
612.127	33701.44
612.484	33850.82
612.841	34167.19
613.198	34156.12
613.554	34433.4
613.911	34808.53
614.267	34890.34
614.624	35030.67
614.98	35213.5
615.337	35553.6
615.693	35581.62
616.05	35695.06
616.406	36024.77
616.762	36066.58
617.118	36122.17
617.475	36350.64
617.831	36552.22
618.187	36768.48
618.543	37056.61
618.899	37111.52
619.255	37264.97
619.611	37264.51
619.967	37555.13
620.323	37752.41
620.678	37611.4
621.034	37765.97
621.39	37796.25
621.746	37920.54
622.101	38449.57
622.457	38246.64
622.812	38413.64
623.168	38671.03
623.523	38669.45
623.879	38850.91
624.234	38887.97
624.589	39052.72
624.945	39115.09
625.3	39086.16
625.655	39172.26
626.01	39324.8
626.365	39360.05
626.72	39381.52
627.075	39372.48
627.43	39458.13
627.785	39559.14
628.14	39603.44
628.495	39790.1
628.85	39764.79
629.205	39756.88
629.559	39957.1
629.914	39937.89
630.269	39968.17
630.623	39902.86
630.978	39966.59
631.332	40045.01
631.687	40231.67
632.041	40033.93
632.396	40217.88
632.75	40098.79
633.104	40268.73
633.459	40144.89
633.813	40115.29
634.167	40221.95
634.521	40261.27
634.875	40326.13
635.229	40242.74
635.583	40280.71
635.937	40132.01
636.291	40054.05
636.645	40198.9
636.999	40216.75
637.352	40347.82
637.706	40047.49
638.06	40460.81
638.413	40220.59
638.767	40266.02
639.121	40230.09
639.474	39980.38
639.828	40091.33
640.181	40235.28
640.534	40315.06
640.888	40078
641.241	39824.45
641.594	40074.38
641.947	40124.55
642.301	40083.88
642.654	40009.75
643.007	40237.32
643.36	39994.61
643.713	40121.39
644.066	40091.11
644.419	39825.13
644.771	39835.29
645.124	39366.83
645.477	39455.42
645.83	39191.92
646.182	39082.77
646.535	38869.44
646.888	38985.6
647.24	38884.36
647.593	39130.23
647.945	38868.09
648.298	38696.34
648.65	38709.45
649.002	38727.75
649.355	38905.15
649.707	38800.52
650.059	38943.34
650.411	39255.65
650.763	39360.28
651.115	39714.17
651.467	39669.2
651.819	39637.79
652.171	39574.74
652.523	39558.01
652.875	39556.88
653.227	39304.46
653.578	39673.94
653.93	39542.42
654.282	39393.27
654.633	39397.34
654.985	39436.43
655.337	39415.19
655.688	39388.53
656.039	39540.39
656.391	39188.76
656.742	39313.73
657.094	39435.98
657.445	39536.55
657.796	39269.66
658.147	39290.22
658.498	39209.32
658.849	39419.49
659.2	39368.19
659.551	39273.28
659.902	39376.1
660.253	39324.8
660.604	39315.31
660.955	39080.29
661.306	39329.09
661.656	39286.38
662.007	39242.77
662.358	39136.33
662.708	39129.32
663.059	39154.18
663.409	39005.49
663.76	39330.22
664.11	39282.77
664.461	39224.69
664.811	39228.53
665.161	39195.76
665.511	39106.73
665.862	39159.61
666.212	39178.81
666.562	39384.23
666.912	39181.75
667.262	39090
667.612	39104.24
667.962	39234.41
668.312	39106.95
668.662	39232.82
669.011	39075.09
669.361	39017.01
669.711	39024.02
670.06	39025.82
670.41	38953.96
670.76	38841.2
671.109	39024.47
671.459	38899.27
671.808	38841.87
672.157	39008.88
672.507	38660.41
672.856	38806.17
673.205	38766.62
673.554	38917.8
673.904	38852.72
674.253	39067.18
674.602	38775.66
674.951	38264.26
675.3	38013.42
675.649	38807.52
675.998	38687.3
676.346	38554.42
676.695	38825.6
677.044	38477.82
677.393	38649.56
677.741	38799.16
678.09	38649.34
678.438	38445.95
678.787	38587.64
679.135	38642.33
679.484	38289.12
679.832	38572.95
680.181	38280.08
680.529	38298.39
680.877	38325.05
681.225	38164.83
681.573	38447.08
681.922	38164.15
682.27	38002.12
682.618	38045.74
682.966	38000.31
683.314	37920.77
683.661	37932.75
684.009	37833.31
684.357	37815.23
684.705	37675.35
685.053	37726.42
685.4	37731.85
685.748	37401.46
686.095	37467
686.443	37354.23
686.79	37396.04
687.138	37391.29
687.485	37414.12
687.832	37203.5
688.18	37325.53
688.527	37113.56
688.874	37060
689.221	37031.07
689.568	36922.6
689.915	36867.01
690.262	36865.2
690.609	36668.82
690.956	36542.5
691.303	36560.58
691.65	36468.6
691.997	36292.79
692.344	36197.42
692.69	36285.56
693.037	36190.64
693.383	35876.75
693.73	35925.57
694.077	35810.54
694.423	35813.03
694.769	35678.12
695.116	35623.43
695.462	35593.82
695.808	35563.32
696.155	35522.41
696.501	35317
696.847	35280.84
697.193	35037.23
697.539	35217.79
697.885	34907.29
698.231	34777.8
698.577	34682.66
698.923	34801.08
699.269	34617.58
699.614	34413.06
699.96	34319.06
700.306	34418.71
700.651	34317.47
700.997	34190.25
701.342	34129.68
701.688	34090.13
702.033	34020.08
702.379	34000.87
702.724	33865.96
703.069	34019.63
703.415	33559.08
703.76	33537.61
704.105	33552.52
704.45	33525.63
704.795	33311.62
705.14	33174.23
705.485	33232.08
705.83	33043.83
706.175	33155.92
706.52	33006.32
706.865	32799.55
707.209	32876.83
707.554	32743.5
707.899	32762.71
708.243	32622.38
708.588	32513.68
708.932	32326.34
709.277	32404.3
709.621	32353.91
709.966	32200.47
710.31	32261.48
710.654	32064.43
710.998	32133.35
711.342	32060.58
711.687	31984.2
712.031	31746.24
712.375	31664.44
712.719	31662.18
713.063	31623.53
713.407	31793.47
713.75	31449.98
714.094	31661.95
714.438	31426.48
714.782	31471.22
715.125	31191.45
715.469	31403.43
715.812	31156.43
716.156	31082.53
716.499	31067.62
716.843	31085.24
717.186	30795.08
717.53	31133.15
717.873	30965.25
718.216	30877.34
718.559	30684.35
718.902	30689.77
719.246	30653.61
719.589	30510.79
719.932	30386.05
720.275	30462.89
720.617	30371.59
720.96	30392.83
721.303	30362.55
721.646	30307.18
721.989	30196
722.331	30288.65
722.674	30011.6
723.016	30215.43
723.359	30073.29
723.701	30177.02
724.044	29904.93
724.386	29683.7
724.729	29856.57
725.071	29742.23
725.413	29702.23
725.755	29721.44
726.097	29468.34
726.439	29388.11
726.782	29458.84
727.124	29548.33
727.465	29349.92
727.807	29434.89
728.149	29266.76
728.491	29258.62
728.833	29272.18
729.175	29121.45
729.516	29177.5
729.858	29073.09
730.199	29065.63
730.541	28971.17
730.882	29082.58
731.224	29007.78
731.565	28888.46
731.906	28812.99
732.248	28848.69
732.589	28734.34
732.93	28606.89
733.271	28610.5
733.612	28702.71
733.953	28655.25
734.294	28467.68
734.635	28483.95
734.976	28530.28
735.317	28427.01
735.658	28443.28
735.999	28247.12
736.339	28375.03
736.68	28278.54
737.021	28279.44
737.361	28135.72
737.702	28311.53
738.042	28115.38
738.383	28148.14
738.723	28070.41
739.063	27965.1
739.404	28020.46
739.744	28038.77
740.084	27821.37
740.424	27965.55
740.764	27796.51
741.104	27810.07
741.444	27666.8
741.784	27577.31
742.124	27682.17
742.464	27644.43
742.804	27633.81
743.143	27554.71
743.483	27536.41
743.823	27406.92
744.162	27393.14
744.502	27388.62
744.841	27332.12
745.181	27357.2
745.52	27191.33
745.86	27283.76
746.199	27266.13
746.538	27083.54
746.877	27153.59
747.216	27082.86
747.556	27098.23
747.895	26953.37
748.234	26947.72
748.573	26823.89
748.911	26939.59
749.25	26811.68
749.589	26579.82
749.928	26685.36
750.267	26834.73
750.605	26651.69
750.944	26596.09
751.283	26396.78
751.621	26618.01
751.96	26300.96
752.298	26387.06
752.636	26395.2
752.975	26092.83
753.313	26099.38
753.651	26225.71
753.989	26076.56
754.327	26055.54
754.666	25886.28
755.004	25961.76
755.342	25913.17
755.679	25795.21
756.017	25673.63
756.355	25761.09
756.693	25650.58
757.031	25656.01
757.368	25514.77
757.706	25597.25
758.044	25339.63
758.381	25395.45
758.719	25316.58
759.056	25296.47
