Data from hue_300_FLMS001491_00079.txt Node
Date: Tue Feb 07 15:51:12 GMT 2017
User: dcchb
Spectrometer: FLMS00149
Trigger mode: 0
Integration Time (sec): 2.000000E-2
Scans to average: 10
Electric dark correction enabled: true
Nonlinearity correction enabled: false
Boxcar width: 0
XAxis mode: Wavelengths
Number of Pixels in Spectrum: 2048
>>>>>Begin Spectral Data<<<<<
341.393	-6.95
341.776	-6.95
342.16	-6.95
342.543	-49.66
342.927	-63.67
343.31	-65.25
343.693	-89.88
344.077	-55.76
344.46	-67.74
344.843	-54.18
345.226	-30.9
345.61	-39.26
345.993	-17.12
346.376	-22.54
346.759	10.9
347.142	46.61
347.525	28.3
347.908	65.59
348.291	75.99
348.674	106.04
349.057	109.21
349.44	130
349.823	138.36
350.206	158.02
350.588	191.92
350.971	199.83
351.354	204.8
351.737	238.47
352.119	258.81
352.502	263.55
352.884	260.39
353.267	259.26
353.65	282.76
354.032	289.09
354.414	305.81
354.797	287.05
355.179	315.75
355.562	335.64
355.944	302.87
356.326	308.07
356.709	322.53
357.091	338.35
357.473	335.87
357.855	349.43
358.238	334.96
358.62	328.86
359.002	322.53
359.384	331.12
359.766	326.38
360.148	329.31
360.53	341.74
360.912	340.16
361.294	332.7
361.676	332.93
362.057	316.88
362.439	333.61
362.821	314.4
363.203	296.55
363.584	323.89
363.966	322.08
364.348	319.82
364.729	312.14
365.111	316.21
365.493	318.69
365.874	313.27
366.256	306.94
366.637	298.81
367.019	329.54
367.4	306.49
367.781	322.76
368.163	308.3
368.544	284.57
368.925	325.02
369.306	308.3
369.688	306.04
370.069	301.97
370.45	308.3
370.831	310.78
371.212	304
371.593	314.85
371.974	303.33
372.355	285.47
372.736	331.8
373.117	308.97
373.498	300.84
373.879	289.77
374.26	303.33
374.641	315.53
375.021	297.22
375.402	302.65
375.783	294.51
376.163	330.67
376.544	326.15
376.925	317.79
377.305	324.79
377.686	311.23
378.066	343.1
378.447	330.22
378.827	337.45
379.208	328.64
379.588	328.64
379.968	315.98
380.349	306.04
380.729	333.38
381.109	331.35
381.489	329.99
381.87	333.83
382.25	329.31
382.63	337.22
383.01	332.25
383.39	305.59
383.77	359.37
384.15	343.55
384.53	321.63
384.91	358.69
385.29	346.26
385.67	348.3
386.049	350.1
386.429	327.05
386.809	368.18
387.189	346.49
387.568	323.44
387.948	361.18
388.328	336.77
388.707	370.89
389.087	353.49
389.466	355.53
389.846	349.2
390.225	369.09
390.605	355.3
390.984	376.32
391.363	376.09
391.743	367.5
392.122	354.17
392.501	375.41
392.881	377
393.26	367.5
393.639	379.03
394.018	391.23
394.397	393.49
394.776	386.94
395.155	366.83
395.534	364.11
395.913	384
396.292	415.41
396.671	388.29
397.05	388.97
397.429	384
397.808	398.24
398.186	391.68
398.565	395.98
398.944	391.01
399.323	413.83
399.701	408.18
400.08	422.87
400.458	398.92
400.837	424.9
401.215	396.66
401.594	415.86
401.972	417.9
402.351	419.48
402.729	430.33
403.107	437.11
403.486	432.36
403.864	420.61
404.242	415.41
404.62	462.42
404.999	437.56
405.377	418.8
405.755	451.57
406.133	448.63
406.511	460.38
406.889	441.17
407.267	473.94
407.645	476.2
408.023	474.39
408.401	485.92
408.779	482.53
409.156	503.77
409.534	482.53
409.912	523.88
410.29	508.52
410.667	509.87
411.045	521.4
411.422	536.54
411.8	531.12
412.178	540.61
412.555	554.84
412.933	555.52
413.31	579.48
413.687	569.99
414.065	584.22
414.442	595.75
414.819	588.29
415.197	599.14
415.574	638.46
415.951	640.72
416.328	631.9
416.705	631.9
417.082	626.71
417.46	646.59
417.837	682.98
418.214	690.21
418.591	680.72
418.967	682.07
419.344	698.8
419.721	701.73
420.098	701.28
420.475	743.54
420.852	726.37
421.228	736.08
421.605	749.19
421.982	754.39
422.358	765.23
422.735	771.79
423.111	779.25
423.488	786.7
423.864	796.87
424.241	816.08
424.617	828.96
424.994	819.47
425.37	835.51
425.746	829.41
426.123	859.02
426.499	819.92
426.875	881.84
427.251	857.21
427.627	904.67
428.003	907.15
428.379	903.08
428.756	935.85
429.132	953.7
429.507	949.86
429.883	970.88
430.259	963.42
430.635	998
431.011	995.06
431.387	1001.39
431.763	1009.3
432.138	1030.09
432.514	1039.13
432.89	1048.62
433.265	1076.41
433.641	1099.46
434.016	1096.75
434.392	1083.42
434.767	1129.97
435.143	1137.88
435.518	1129.29
435.894	1148.95
436.269	1160.93
436.644	1192.34
437.02	1206.13
437.395	1196.64
437.77	1189.18
438.145	1230.31
438.52	1228.05
438.895	1245.22
439.271	1251.1
439.646	1255.84
440.021	1271.21
440.395	1276.86
440.77	1281.38
441.145	1277.09
441.52	1317.99
441.895	1311.21
442.27	1306.69
442.645	1309.85
443.019	1348.27
443.394	1336.29
443.769	1349.63
444.143	1346.69
444.518	1328.61
444.892	1327.03
445.267	1339.23
445.641	1352.11
446.016	1365.22
446.39	1413.35
446.764	1397.08
447.139	1352.56
447.513	1376.97
447.887	1385.33
448.262	1383.07
448.636	1389.17
449.01	1408.38
449.384	1400.92
449.758	1455.16
450.132	1450.64
450.506	1441.83
450.88	1421.26
451.254	1449.74
451.628	1468.94
452.002	1456.97
452.376	1506.46
452.75	1465.1
453.123	1520.69
453.497	1486.57
453.871	1496.29
454.244	1552.56
454.618	1529.73
454.992	1557.53
455.365	1570.86
455.739	1586
456.112	1581.71
456.486	1595.04
456.859	1602.95
457.232	1632.78
457.606	1608.6
457.979	1638.66
458.352	1665.1
458.725	1677.75
459.099	1638.21
459.472	1674.81
459.845	1717.3
460.218	1738.99
460.591	1694.48
460.964	1704.42
461.337	1778.31
461.71	1735.83
462.083	1799.11
462.456	1808.82
462.829	1828.26
463.201	1789.39
463.574	1837.75
463.947	1832.32
464.32	1840.01
464.692	1868.48
465.065	1877.52
465.438	1915.71
465.81	1933.34
466.183	1912.55
466.555	1959.78
466.928	1972.21
467.3	1966.78
467.672	1957.07
468.045	2024.86
468.417	2011.08
468.789	2033.9
469.161	2010.4
469.534	2063.51
469.906	2089.04
470.278	2123.84
470.65	2107.12
471.022	2155.48
471.394	2182.15
471.766	2186.44
472.138	2189.6
472.51	2216.72
472.882	2214.91
473.253	2284.97
473.625	2289.26
473.997	2332.65
474.369	2342.59
474.74	2343.5
475.112	2367.23
475.484	2397.51
475.855	2406.09
476.227	2445.64
476.598	2473.89
476.97	2512.76
477.341	2556.15
477.713	2572.42
478.084	2558.41
478.455	2627.11
478.827	2637.28
479.198	2660.1
479.569	2674.11
479.94	2729.02
480.311	2728.57
480.682	2839.3
481.053	2823.26
481.424	2877.49
481.795	2856.93
482.166	2889.92
482.537	2945.06
482.908	2986.87
483.279	3056.25
483.65	3010.6
484.021	3072.97
484.391	3087.43
484.762	3122.91
485.133	3131.5
485.503	3165.17
485.874	3188
486.244	3224.15
486.615	3247.65
486.985	3283.59
487.356	3346.64
487.726	3325.84
488.097	3419.85
488.467	3400.65
488.837	3462.11
489.207	3462.56
489.578	3507.31
489.948	3587.98
490.318	3605.84
490.688	3576.01
491.058	3638.83
491.428	3677.02
491.798	3676.57
492.168	3710.24
492.538	3725.38
492.908	3764.03
493.278	3801.09
493.648	3821.65
494.017	3847.41
494.387	3847.86
494.757	3859.84
495.126	3925.38
495.496	3898.49
495.866	3905.72
496.235	3964.7
496.605	3978.71
496.974	3973.29
497.344	4000.86
497.713	4040.85
498.082	4067.75
498.452	4071.59
498.821	4122.66
499.19	4104.81
499.559	4112.94
499.928	4187.97
500.298	4141.19
500.667	4183.22
501.036	4186.16
501.405	4204.01
501.774	4212.6
502.143	4225.93
502.512	4259.83
502.88	4270.68
503.249	4330.34
503.618	4310.23
503.987	4326.27
504.356	4335.99
504.724	4326.72
505.093	4400.84
505.462	4407.4
505.83	4390
506.199	4430
506.567	4425.25
506.936	4453.5
507.304	4437.68
507.672	4499.37
508.041	4533.72
508.409	4587.96
508.777	4548.19
509.145	4571.91
509.514	4578.69
509.882	4575.98
510.25	4593.16
510.618	4566.72
510.986	4594.29
511.354	4702.08
511.722	4699.14
512.09	4730.55
512.458	4726.71
512.826	4691.46
513.193	4760.84
513.561	4759.03
513.929	4732.36
514.297	4749.76
514.664	4763.32
515.032	4823.88
515.4	4834.05
515.767	4843.09
516.135	4876.31
516.502	4804.9
516.869	4868.86
517.237	4863.21
517.604	4846.03
517.972	4876.76
518.339	4892.81
518.706	4926.48
519.073	4963.09
519.44	4913.15
519.808	4971.45
520.175	4969.42
520.542	5041.73
520.909	5023.43
521.276	5017.55
521.643	5069.3
522.009	5085.57
522.376	5116.31
522.743	5152.46
523.11	5161.5
523.477	5201.28
523.843	5197.66
524.21	5233.59
524.577	5302.97
524.943	5250.77
525.31	5282.86
525.676	5355.17
526.043	5299.35
526.409	5348.62
526.776	5402.17
527.142	5430.65
527.508	5465.9
527.874	5445.79
528.241	5497.99
528.607	5480.14
528.973	5529.63
529.339	5537.99
529.705	5558.1
530.071	5573.24
530.437	5631.55
530.803	5700.92
531.169	5679.23
531.535	5716.29
531.901	5664.77
532.267	5735.95
532.632	5775.05
532.998	5784.76
533.364	5781.37
533.73	5816.4
534.095	5895.49
534.461	5903.18
534.826	5880.81
535.192	5942.5
535.557	5975.94
535.923	5970.07
536.288	5951.31
536.653	6038.32
537.019	6037.41
537.384	6052.33
537.749	6065.43
538.114	6042.38
538.479	6129.84
538.845	6087.35
539.21	6107.01
539.575	6227.69
539.94	6214.81
540.305	6210.97
540.67	6282.6
541.034	6285.54
541.399	6294.13
541.764	6289.61
542.129	6276.28
542.494	6332.55
542.858	6400.79
543.223	6441.24
543.587	6397.4
543.952	6489.38
544.316	6464.97
544.681	6520.34
545.045	6496.38
545.41	6561.69
545.774	6582.71
546.138	6577.74
546.503	6645.31
546.867	6546.33
547.231	6677.17
547.595	6724.85
547.959	6733.66
548.324	6666.32
548.688	6749.26
549.052	6831.52
549.416	6784.28
549.779	6789.03
550.143	6779.09
550.507	6826.77
550.871	6919.42
551.235	6862.02
551.599	6921.91
551.962	6972.3
552.326	7002.81
552.689	7024.73
553.053	6977.95
553.417	6997.16
553.78	7063.6
554.143	7090.72
554.507	7106.99
554.87	7084.62
555.234	7185.63
555.597	7107.44
555.96	7165.52
556.323	7196.03
556.686	7189.25
557.05	7257.27
557.413	7238.06
557.776	7299.53
558.139	7373.2
558.502	7326.64
558.865	7349.92
559.228	7401.9
559.59	7400.99
559.953	7377.72
560.316	7506.75
560.679	7435.34
561.041	7528.45
561.404	7581.78
561.767	7567.09
562.129	7499.07
562.492	7567.09
562.854	7659.97
563.217	7647.09
563.579	7611.38
563.941	7674.2
564.304	7722.11
564.666	7776.35
565.028	7764.6
565.39	7813.41
565.753	7824.71
566.115	7807.76
566.477	7812.96
566.839	7902.67
567.201	7934.76
567.563	7946.06
567.925	8017.47
568.287	8038.94
568.648	8025.38
569.01	8059.51
569.372	8140.63
569.734	8055.44
570.095	8146.96
570.457	8233.06
570.819	8220.41
571.18	8217.69
571.542	8221.54
571.903	8291.82
572.265	8359.38
572.626	8424.47
572.987	8471.47
573.349	8477.35
573.71	8501.3
574.071	8544.92
574.432	8608.87
574.794	8716.66
575.155	8741.3
575.516	8859.94
575.877	8876.43
576.238	8968.41
576.599	9047.95
576.96	9069.42
577.32	9139.03
577.681	9230.55
578.042	9329.98
578.403	9386.93
578.763	9486.59
579.124	9593.48
579.485	9704.66
579.845	9773.58
580.206	9866.01
580.566	10061.49
580.927	10222.16
581.287	10320.46
581.648	10416.73
582.008	10606.78
582.368	10768.36
582.728	10849.04
583.089	11112.08
583.449	11222.36
583.809	11333.54
584.169	11608.79
584.529	11711.16
584.889	11969.69
585.249	12098.27
585.609	12344.36
585.969	12589.1
586.329	12764.47
586.688	12983.22
587.048	13168.75
587.408	13414.17
587.768	13655.52
588.127	13944.77
588.487	14152
588.846	14483.29
589.206	14651.42
589.565	14878.99
589.925	15300.22
590.284	15341.35
590.643	15687.78
591.003	16102.46
591.362	16328.21
591.721	16620.41
592.08	16773.63
592.44	17227.63
592.799	17548.52
593.158	17712.81
593.517	18013.37
593.876	18335.85
594.235	18501.04
594.593	18875.04
594.952	19176.5
595.311	19504.63
595.67	19732.87
596.029	20193.2
596.387	20396.81
596.746	20784.59
597.104	20992.05
597.463	21254.64
597.822	21672.26
598.18	21810.1
598.538	22231.79
598.897	22633.81
599.255	22598.78
599.613	23352.21
599.972	23440.12
600.33	23703.16
600.688	23862.93
601.046	24275.8
601.404	24690.03
601.762	24844.83
602.12	25235.33
602.478	25573.62
602.836	25802.54
603.194	25946.94
603.552	26236.43
603.91	26443.2
604.268	26842.51
604.625	26880.93
604.983	27245.44
605.341	27468.03
605.698	27896.5
606.056	28086.32
606.413	28289.26
606.771	28548.01
607.128	28884.95
607.485	28953.65
607.843	29071.16
608.2	29514.31
608.557	29811.02
608.914	29882.89
609.272	30203.1
609.629	30397.45
609.986	30679.25
610.343	30830.66
610.7	31180.03
611.057	31232.23
611.414	31456.86
611.771	31809.39
612.127	31901.14
612.484	32159.44
612.841	32309.04
613.198	32377.28
613.554	32596.04
613.911	33013.43
614.267	32951.73
614.624	33141.33
614.98	33336.81
615.337	33622.9
615.693	33658.83
616.05	33837.36
616.406	34132.72
616.762	34073.06
617.118	34242.09
617.475	34420.39
617.831	34664.23
618.187	34764.79
618.543	34916.2
618.899	35127.27
619.255	35123.65
619.611	35198.23
619.967	35496.3
620.323	35684.54
620.678	35644.77
621.034	35568.84
621.39	35800.47
621.746	35877.53
622.101	36423.73
622.457	36093.12
622.812	36363.85
623.168	36505.54
623.523	36566.55
623.879	36652.65
624.234	36516.84
624.589	36838.41
624.945	36771.07
625.3	37024.62
625.655	37090.38
626.01	37131.28
626.365	37126.99
626.72	37162.92
627.075	37342.58
627.43	37231.39
627.785	37223.48
628.14	37498.96
628.495	37559.52
628.85	37459.86
629.205	37389.36
629.559	37730.82
629.914	37556.58
630.269	37728.33
630.623	37590.71
630.978	37531.95
631.332	37811.94
631.687	37883.58
632.041	37817.14
632.396	37963.8
632.75	37868.67
633.104	37861.21
633.459	37691.72
633.813	37708.22
634.167	37903.24
634.521	37904.6
634.875	37900.08
635.229	37963.58
635.583	37917.03
635.937	37926.06
636.291	37781.89
636.645	37923.81
636.999	37749.57
637.352	37825.28
637.706	37817.14
638.06	37856.91
638.413	37853.3
638.767	37743.7
639.121	37971.26
639.474	37699.63
639.828	37769.68
640.181	37839.74
640.534	37856.46
640.888	37655.56
641.241	37719.52
641.594	37665.28
641.947	37764.71
642.301	37788.22
642.654	37872.96
643.007	37872.96
643.36	37894.2
643.713	37716.13
644.066	37876.8
644.419	37592.51
644.771	37266.42
645.124	37167.21
645.477	37060.1
645.83	36892.65
646.182	36702.59
646.535	36613.33
646.888	36733.78
647.24	36516.38
647.593	36735.81
647.945	36699.43
648.298	36423.28
648.65	36466.89
649.002	36453.11
649.355	36682.26
649.707	36553.22
650.059	36779.43
650.411	37144.39
650.763	37135.35
651.115	37484.27
651.467	37446.08
651.819	37527.66
652.171	37224.39
652.523	37263.03
652.875	37369.7
653.227	37041.57
653.578	37539.63
653.93	37349.36
654.282	37265.52
654.633	37120.89
654.985	37184.84
655.337	37302.35
655.688	37261.68
656.039	37240.89
656.391	37112.53
656.742	37107.56
657.094	37112.98
657.445	37284.27
657.796	37150.94
658.147	37154.79
658.498	36991.85
658.849	37156.14
659.2	37238.4
659.551	37157.72
659.902	37230.04
660.253	37087.67
660.604	37141.23
660.955	36976.26
661.306	37123.83
661.656	37046.09
662.007	37159.31
662.358	37204.5
662.708	37173.09
663.059	37111.4
663.409	37073.43
663.76	37062.36
664.11	37028.46
664.461	37175.35
664.811	37127.89
665.161	36987.78
665.511	36882.93
665.862	37015.13
666.212	37167.21
666.562	37171.96
666.912	37095.35
667.262	36976.03
667.612	36928.8
667.962	37031.4
668.312	36918.86
668.662	37254.22
669.011	36911.4
669.361	36992.98
669.711	36943.94
670.06	36956.82
670.41	36833.66
670.76	36948.92
671.109	37058.29
671.459	36790.28
671.808	36774.68
672.157	36964.96
672.507	36618.53
672.856	36777.17
673.205	36736.94
673.554	36790.5
673.904	36686.32
674.253	36897.62
674.602	36767
674.951	36209.5
675.3	35990.75
675.649	36702.37
675.998	36536.5
676.346	36653.33
676.695	36779.65
677.044	36627.12
677.393	36595.25
677.741	36582.6
678.09	36583.05
678.438	36322.94
678.787	36538.76
679.135	36466.67
679.484	36205.66
679.832	36474.58
680.181	36114.14
680.529	36397.29
680.877	36178.09
681.225	36126.11
681.573	36389.83
681.922	36078.66
682.27	35875.05
682.618	35889.96
682.966	35910.07
683.314	36113.68
683.661	35793.01
684.009	35710.98
684.357	35673.02
684.705	35687.25
685.053	35751.43
685.4	35640.02
685.748	35479.35
686.095	35537.65
686.443	35382.85
686.79	35242.07
687.138	35381.27
687.485	35373.36
687.832	35185.35
688.18	35256.76
688.527	35091.79
688.874	35175.63
689.221	34984.9
689.568	34879.37
689.915	34704.68
690.262	34695.42
690.609	34605.02
690.956	34515.53
691.303	34543.33
691.65	34358.02
691.997	34383.56
692.344	34160.74
692.69	34177.24
693.037	34177.01
693.383	33986.73
693.73	33935.21
694.077	33802.33
694.423	33847.98
694.769	33688.44
695.116	33544.26
695.462	33610.02
695.808	33453.64
696.155	33537.93
696.501	33328.9
696.847	33267.43
697.193	33062.46
697.539	33142.01
697.885	33011.17
698.231	32884.39
698.577	32879.19
698.923	32784.73
699.269	32693.43
699.614	32530.05
699.96	32375.25
700.306	32273.78
700.651	32336.16
700.997	32125.09
701.342	32114.01
701.688	32052.77
702.033	31989.5
702.379	31945.66
702.724	31843.96
703.069	31857.75
703.415	31529.17
703.76	31519.45
704.105	31522.17
704.45	31464.31
704.795	31254.15
705.14	31126.02
705.485	31101.39
705.83	31026.81
706.175	31098.45
706.52	31098.22
706.865	30932.58
707.209	30792.92
707.554	30784.11
707.899	30835.86
708.243	30688.29
708.588	30648.29
708.932	30366.26
709.277	30349.31
709.621	30422.99
709.966	30194.06
710.31	30293.27
710.654	29961.75
710.998	30159.26
711.342	30127.85
711.687	29992.49
712.031	29970.34
712.375	29770.35
712.719	29869.1
713.063	29694.87
713.407	29877.91
713.75	29614.42
714.094	29617.58
714.438	29520.18
714.782	29640.63
715.125	29356.35
715.469	29553.4
715.812	29319.06
716.156	29175.33
716.499	29200.87
716.843	29230.25
717.186	28917.71
717.53	29160.65
717.873	29199.06
718.216	29058.73
718.559	28908
718.902	28629.13
719.246	28685.63
719.589	28751.62
719.932	28602.47
720.275	28561.34
720.617	28611.73
720.96	28541.9
721.303	28456.26
721.646	28509.82
721.989	28274.57
722.331	28362.47
722.674	28331.74
723.016	28414.68
723.359	28333.32
723.701	28387.11
724.044	28113.89
724.386	27975.37
724.729	28114.35
725.071	28039.32
725.413	28022.14
725.755	27914.12
726.097	27887.01
726.439	27747.8
726.782	27846.56
727.124	27896.95
727.465	27700.35
727.807	27671.87
728.149	27638.65
728.491	27597.75
728.833	27671.65
729.175	27541.48
729.516	27487.24
729.858	27381.94
730.199	27448.6
730.541	27534.47
730.882	27324.08
731.224	27422.61
731.565	27281.6
731.906	27346
732.248	27326.34
732.589	27222.17
732.93	27113.92
733.271	27024.66
733.612	27153.47
733.953	27152.56
734.294	26963.42
734.635	27010.65
734.976	26994.83
735.317	26897.43
735.658	26807.94
735.999	26809.52
736.339	26709.86
736.68	26881.38
737.021	26803.87
737.361	26617.44
737.702	26842.29
738.042	26611.33
738.383	26581.28
738.723	26711.67
739.063	26527.72
739.404	26570.21
739.744	26488.63
740.084	26457.67
740.424	26445.01
740.764	26465.35
741.104	26513.48
741.444	26285.02
741.784	26225.36
742.124	26324.11
742.464	26179.03
742.804	26249.99
743.143	26209.08
743.483	26201.18
743.823	26029.88
744.162	25976.32
744.502	26041.86
744.841	25932.03
745.181	26035.98
745.52	25909.66
745.86	26002.31
746.199	25856.33
746.538	25949.43
746.877	25952.82
747.216	25850.22
747.556	25723
747.895	25782.2
748.234	25823.56
748.573	25607.97
748.911	25752.37
749.25	25760.96
749.589	25496.11
749.928	25515.77
750.267	25721.41
750.605	25573.17
750.944	25483.91
751.283	25485.71
751.621	25420.18
751.96	25403.68
752.298	25333.63
752.636	25493.4
752.975	25262.22
753.313	25210.24
753.651	25457.01
753.989	25217.7
754.327	25185.38
754.666	25046.63
755.004	25165.27
755.342	25135.21
755.679	25085.72
756.017	24949.46
756.355	24980.42
756.693	24946.75
757.031	25014.09
757.368	24833.75
757.706	24871.72
758.044	24742
758.381	24824.26
758.719	24718.05
759.056	24713.53
759.394	24542.24
759.731	24485.29
