Data from hue_50_FLMS001491_31.txt Node
Date: Mon Feb 06 15:10:01 GMT 2017
User: dcchb
Spectrometer: FLMS00149
Trigger mode: 0
Integration Time (sec): 2.000000E-2
Scans to average: 10
Electric dark correction enabled: true
Nonlinearity correction enabled: false
Boxcar width: 0
XAxis mode: Wavelengths
Number of Pixels in Spectrum: 2048
>>>>>Begin Spectral Data<<<<<
341.393	-15.37
341.776	-15.37
342.16	-15.37
342.543	-70.05
342.927	-58.3
343.31	-64.18
343.693	-58.76
344.077	-77.74
344.46	-47
344.843	-52.43
345.226	-28.93
345.61	-50.17
345.993	-17.17
346.376	1.36
346.759	16.5
347.142	6.55
347.525	51.07
347.908	62.82
348.291	71.64
348.674	94.23
349.057	92.2
349.44	154.57
349.823	152.31
350.206	170.62
350.588	185.53
350.971	208.36
351.354	233.21
351.737	250.84
352.119	254
352.502	263.5
352.884	260.78
353.267	291.07
353.65	291.52
354.032	287.45
354.414	331.74
354.797	299.2
355.179	323.83
355.562	325.64
355.944	324.51
356.326	311.18
356.709	322.7
357.091	335.13
357.473	324.06
357.855	368.13
358.238	340.56
358.62	314.34
359.002	347.79
359.384	359.31
359.766	336.04
360.148	336.94
360.53	366.09
360.912	330.84
361.294	323.61
361.676	342.14
362.057	334
362.439	342.59
362.821	329.48
363.203	357.5
363.584	318.86
363.966	311.18
364.348	312.76
364.729	330.39
365.111	304.4
365.493	317.05
365.874	335.13
366.256	331.97
366.637	319.99
367.019	322.03
367.4	310.05
367.781	330.61
368.163	315.02
368.544	336.26
368.925	330.84
369.306	324.74
369.688	317.51
370.069	329.93
370.45	326.77
370.831	329.03
371.212	314.12
371.593	314.12
371.974	310.27
372.355	311.63
372.736	314.12
373.117	312.08
373.498	312.31
373.879	340.56
374.26	312.53
374.641	317.28
375.021	325.64
375.402	308.69
375.783	313.44
376.163	323.38
376.544	320.22
376.925	333.1
377.305	350.5
377.686	323.83
378.066	330.16
378.447	332.19
378.827	328.8
379.208	325.64
379.588	340.78
379.968	329.48
380.349	329.71
380.729	319.77
381.109	329.93
381.489	348.92
381.87	330.16
382.25	333.32
382.63	338.07
383.01	339.43
383.39	345.3
383.77	332.42
384.15	332.42
384.53	343.04
384.91	351.4
385.29	350.95
385.67	337.62
386.049	349.37
386.429	334.68
386.809	358.18
387.189	347.56
387.568	346.66
387.948	357.5
388.328	363.15
388.707	371.97
389.087	359.99
389.466	350.27
389.846	343.27
390.225	352.53
390.605	351.86
390.984	371.97
391.363	364.51
391.743	343.27
392.122	361.35
392.501	383.94
392.881	360.22
393.26	376.49
393.639	373.78
394.018	384.62
394.397	367.22
394.776	380.55
395.155	357.73
395.534	361.12
395.913	358.63
396.292	380.78
396.671	372.19
397.05	378.3
397.429	393.44
397.808	369.03
398.186	372.65
398.565	386.2
398.944	363.15
399.323	389.37
399.701	367.22
400.08	385.07
400.458	372.19
400.837	376.04
401.215	387.56
401.594	394.34
401.972	397.96
402.351	381.46
402.729	390.27
403.107	391.4
403.486	391.18
403.864	387.11
404.242	390.27
404.62	409.93
404.999	394.79
405.377	391.18
405.755	399.54
406.133	386.88
406.511	415.58
406.889	388.69
407.267	405.41
407.645	430.27
408.023	414.9
408.401	416.49
408.779	414.9
409.156	432.31
409.534	419.65
409.912	425.3
410.29	423.72
410.667	435.92
411.045	427.56
411.422	432.76
411.8	416.03
412.178	427.56
412.555	440.89
412.933	452.64
413.31	423.49
413.687	445.64
414.065	441.57
414.442	448.12
414.819	446.99
415.197	426.2
415.574	464.62
415.951	469.82
416.328	474.11
416.705	463.94
417.082	481.34
417.46	474.34
417.837	493.55
418.214	471.4
418.591	457.39
418.967	477.73
419.344	504.85
419.721	497.61
420.098	496.71
420.475	489.48
420.852	474.56
421.228	480.44
421.605	477.73
421.982	511.4
422.358	488.35
422.735	493.32
423.111	484.06
423.488	514.79
423.864	503.72
424.241	503.26
424.617	514.79
424.994	528.12
425.37	526.77
425.746	504.17
426.123	537.61
426.499	532.87
426.875	527.67
427.251	531.96
427.627	544.17
428.003	536.48
428.379	545.07
428.756	548.69
429.132	530.16
429.507	538.74
429.883	570.38
430.259	552.53
430.635	562.02
431.011	553.88
431.387	557.05
431.763	558.86
432.138	592.53
432.514	577.39
432.89	600.21
433.265	595.69
433.641	597.5
434.016	593.2
434.392	614.22
434.767	615.35
435.143	606.99
435.518	614.45
435.894	624.16
436.269	641.57
436.644	639.53
437.02	633.66
437.395	629.14
437.77	650.38
438.145	658.06
438.52	665.97
438.895	646.08
439.271	644.73
439.646	649.02
440.021	658.06
440.395	641.11
440.77	660.32
441.145	676.82
441.52	684.73
441.895	676.82
442.27	690.38
442.645	673.43
443.019	669.13
443.394	670.04
443.769	704.39
444.143	686.31
444.518	703.94
444.892	728.79
445.267	715.01
445.641	694.45
446.016	728.57
446.39	729.47
446.764	728.34
447.139	725.63
447.513	748.23
447.887	748.23
448.262	723.82
448.636	734.44
449.01	755.69
449.384	726.53
449.758	741
450.132	750.49
450.506	754.78
450.88	765.63
451.254	764.27
451.628	775.12
452.002	778.96
452.376	788.23
452.75	764.73
453.123	797.27
453.497	793.43
453.871	831.16
454.244	812.41
454.618	812.63
454.992	840.66
455.365	834.55
455.739	861.22
456.112	878.62
456.486	854.67
456.859	863.93
457.232	876.59
457.606	866.87
457.979	904.61
458.352	898.28
458.725	922.24
459.099	928.11
459.472	941.22
459.845	946.87
460.218	929.92
460.591	951.39
460.964	978.51
461.337	977.38
461.71	1004.49
462.083	1003.82
462.456	996.36
462.829	1032.06
463.201	1013.31
463.574	1033.19
463.947	1062.8
464.32	1053.98
464.692	1082.23
465.065	1074.77
465.438	1116.58
465.81	1095.11
466.183	1165.17
466.555	1159.74
466.928	1159.52
467.3	1148.9
467.672	1169.69
468.045	1223.7
468.417	1244.26
468.789	1232.28
469.161	1266.41
469.534	1267.76
469.906	1302.79
470.278	1304.37
470.65	1338.27
471.022	1370.81
471.394	1385.27
471.766	1387.76
472.138	1402
472.51	1475.67
472.882	1512.5
473.253	1530.58
473.625	1579.85
473.997	1601.99
474.369	1618.04
474.74	1661.65
475.112	1703.23
475.484	1728.77
475.855	1811.93
476.227	1805.6
476.598	1896
476.97	1904.36
477.341	1943.23
477.713	1971.47
478.084	2033.39
478.455	2117.46
478.827	2153.16
479.198	2219.83
479.569	2266.61
479.94	2407.39
480.311	2436.09
480.682	2499.82
481.053	2579.82
481.424	2652.81
481.795	2718.8
482.166	2809.87
482.537	2837.67
482.908	2936.87
483.279	3026.81
483.65	3147.94
484.021	3248.5
484.391	3313.13
484.762	3378.44
485.133	3485.33
485.503	3589.28
485.874	3705.67
486.244	3779.11
486.615	3893.46
486.985	4024.3
487.356	4122.6
487.726	4228.14
488.097	4352.65
488.467	4398.75
488.837	4601.01
489.207	4692.98
489.578	4838.52
489.948	4906.31
490.318	5128.9
490.688	5154.21
491.058	5336.13
491.428	5445.28
491.798	5520.08
492.168	5752.39
492.538	5876.23
492.908	5963.68
493.278	6080.29
493.648	6235.32
494.017	6354.18
494.387	6514.18
494.757	6588.3
495.126	6718.92
495.496	6838.24
495.866	6963.21
496.235	7134.5
496.605	7227.83
496.974	7341.73
497.344	7507.15
497.713	7638.67
498.082	7675.96
498.452	7912.79
498.821	7988.26
499.19	8059
499.559	8241.14
499.928	8327.24
500.298	8471.19
500.667	8651.3
501.036	8605.65
501.405	8842.48
501.774	8863.72
502.143	9057.84
502.512	9100.78
502.88	9303.71
503.249	9305.97
503.618	9460.09
503.987	9540.31
504.356	9672.29
504.724	9761.1
505.093	9866.63
505.462	9967.42
505.83	10027.76
506.199	10184.82
506.567	10377.35
506.936	10389.56
507.304	10561.76
507.672	10639.04
508.041	10731.47
508.409	10905.02
508.777	10926.49
509.145	11133.27
509.514	11168.29
509.882	11300.04
510.25	11310.66
510.618	11504.1
510.986	11462.98
511.354	11638.56
511.722	11781.84
512.09	11911.78
512.458	11922.17
512.826	12137.53
513.193	12156.97
513.561	12272.22
513.929	12377.53
514.297	12472.44
514.664	12648.26
515.032	12698.65
515.4	12798.76
515.767	12929.38
516.135	13029.94
516.502	12989.71
516.869	13223.16
517.237	13230.84
517.604	13321.01
517.972	13490.04
518.339	13495.01
518.706	13566.2
519.073	13731.39
519.44	13782.91
519.808	13899.07
520.175	13918.28
520.542	14136.35
520.909	14260.87
521.276	14328.89
521.643	14421.99
522.009	14573.63
522.376	14584.02
522.743	14771.14
523.11	14887.52
523.477	14990.34
523.843	15114.63
524.21	15281.86
524.577	15330.44
524.943	15479.82
525.31	15599.36
525.676	15716.65
526.043	15818.57
526.409	15845.23
526.776	16035.51
527.142	16054.72
527.508	16177.2
527.874	16373.58
528.241	16454.03
528.607	16461.04
528.973	16694.48
529.339	16665.55
529.705	16838.88
530.071	17002.49
530.437	17002.72
530.803	17142.37
531.169	17304.63
531.535	17250.62
531.901	17289.94
532.267	17370.16
532.632	17573.55
532.998	17585.07
533.364	17760.66
533.73	17778.74
534.095	17994.78
534.461	17991.39
534.826	18008.34
535.192	18099.19
535.557	18298.95
535.923	18339.86
536.288	18354.09
536.653	18516.58
537.019	18370.59
537.384	18565.84
537.749	18692.84
538.114	18700.75
538.479	18714.54
538.845	18935.77
539.21	18890.58
539.575	19000.4
539.94	19039.27
540.305	19154.3
540.67	19173.51
541.034	19194.52
541.399	19327.4
541.764	19351.36
542.129	19401.75
542.494	19569.43
542.858	19575.98
543.223	19594.51
543.587	19724.91
543.952	19718.13
544.316	19815.98
544.681	19816.2
545.045	19995.41
545.41	20007.38
545.774	20105.23
546.138	20111.34
546.503	20177.55
546.867	20206.7
547.231	20387.71
547.595	20326.92
547.959	20488.5
548.324	20558.78
548.688	20621.38
549.052	20703.86
549.416	20705.44
549.779	20794.71
550.143	20856.63
550.507	20966.91
550.871	21030.86
551.235	21050.52
551.599	21208.93
551.962	21261.14
552.326	21390.62
552.689	21425.43
553.053	21334.35
553.417	21416.61
553.78	21795.36
554.143	21592.43
554.507	21737.51
554.87	21848.69
555.234	22021.79
555.597	21935.02
555.96	22001.46
556.323	22146.54
556.686	22109.48
557.05	22387.89
557.413	22460.65
557.776	22436.7
558.139	22595.11
558.502	22673.08
558.865	22652.74
559.228	22892.51
559.59	22922.11
559.953	22930.24
560.316	23160.75
560.679	23105.38
561.041	23356.67
561.404	23431.47
561.767	23593.28
562.129	23543.34
562.492	23743.1
562.854	23719.6
563.217	23815.42
563.579	23948.75
563.941	23973.15
564.304	24125.47
564.666	24272.81
565.028	24397.1
565.39	24318
565.753	24486.59
566.115	24642.29
566.477	24804.32
566.839	24835.96
567.201	24988.72
567.563	24969.29
567.925	25120.24
568.287	25241.14
568.648	25230.75
569.01	25318.43
569.372	25564.53
569.734	25551.19
570.095	25673.45
570.457	25824.63
570.819	25779.44
571.18	25862.37
571.542	26043.61
571.903	26098.3
572.265	26255.13
572.626	26287.67
572.987	26435.46
573.349	26421.9
573.71	26521.34
574.071	26735.34
574.432	26727.43
574.794	26967.88
575.155	26927.43
575.516	26863.47
575.877	27169
576.238	27256.91
576.599	27272.28
576.96	27361.77
577.32	27365.83
577.681	27532.38
578.042	27691.7
578.403	27795.2
578.763	27852.38
579.124	27937.34
579.485	27934.41
579.845	28071.8
580.206	28197.68
580.566	28263.66
580.927	28277.22
581.287	28509.98
581.648	28411
582.008	28641.28
582.368	28683.99
582.728	28804.67
583.089	28826.36
583.449	28921.27
583.809	29089.86
584.169	29142.74
584.529	29147.48
584.889	29537.53
585.249	29300.47
585.609	29406.46
585.969	29685.55
586.329	29591.99
586.688	29876.73
587.048	30056.38
587.408	30021.81
587.768	30031.07
588.127	30165.99
588.487	30181.13
588.846	30521.46
589.206	30335.02
589.565	30518.97
589.925	30571.63
590.284	30730.94
590.643	30844.39
591.003	30966.19
591.362	31151.27
591.721	31183.81
592.08	31265.62
592.44	31362.11
592.799	31521.21
593.158	31461.32
593.517	31599.17
593.876	31869.22
594.235	31684.59
594.593	31889.56
594.952	31979.05
595.311	31963.45
595.67	32173.84
596.029	32450.45
596.387	32461.29
596.746	32480.05
597.104	32510.33
597.463	32667.84
597.822	32830.78
598.18	32793.71
598.538	32790.1
598.897	33106.47
599.255	32854.73
599.613	33381.27
599.972	33221.95
600.33	33588.95
600.688	33276.19
601.046	33601.83
601.404	33775.61
601.762	33667.36
602.12	33944.87
602.478	34041.36
602.836	34061.93
603.194	33977.86
603.552	34078.2
603.91	34180.34
604.268	34268.7
604.625	34195.03
604.983	34394.35
605.341	34276.16
605.698	34575.81
606.056	34696.94
606.413	34673.66
606.771	34788.24
607.128	34924.73
607.485	34732.19
607.843	34847.22
608.2	35177.61
608.557	35296.47
608.914	35171.28
609.272	35356.81
609.629	35400.43
609.986	35597.71
610.343	35486.07
610.7	35778.04
611.057	35760.87
611.414	35826.18
611.771	35789.34
612.127	35963.57
612.484	36030.01
612.841	36148.88
613.198	36073.4
613.554	36247.86
613.911	36490.11
614.267	36382.55
614.624	36437.46
614.98	36548.19
615.337	36826.38
615.693	36731.46
616.05	36654.18
616.406	36976.88
616.762	36886.26
617.118	36781.18
617.475	36939.14
617.831	37041.51
618.187	37025.92
618.543	37103.88
618.899	37370.77
619.255	37276.08
619.611	37245.12
619.967	37531.89
620.323	37529.41
620.678	37420.26
621.034	37446.25
621.39	37523.99
621.746	37424.1
622.101	37936.63
622.457	37551.33
622.812	37652.57
623.168	37780.25
623.523	37842.39
623.879	38001.94
624.234	37840.36
624.589	37991.09
624.945	37875.16
625.3	37954.93
625.655	37908.83
626.01	37855.95
626.365	38141.14
626.72	37982.05
627.075	38053.01
627.43	38010.07
627.785	37955.84
628.14	38119.45
628.495	38058.43
628.85	38102.73
629.205	37965.56
629.559	38187.7
629.914	37993.58
630.269	38125.78
630.623	37975.27
630.978	37948.83
631.332	38068.15
631.687	38253.46
632.041	38020.24
632.396	38166.68
632.75	37936.4
633.104	38001.49
633.459	37907.25
633.813	37965.78
634.167	37983.63
634.521	38090.3
634.875	38053.24
635.229	38002.16
635.583	37831.77
635.937	37820.93
636.291	37800.59
636.645	37824.09
636.999	37773.24
637.352	37906.8
637.706	37768.72
638.06	37852.79
638.413	37841.72
638.767	37744.09
639.121	37774.6
639.474	37559.92
639.828	37686.24
640.181	37662.74
640.534	37814.82
640.888	37474.04
641.241	37390.66
641.594	37538.9
641.947	37672.46
642.301	37532.12
642.654	37526.02
643.007	37513.59
643.36	37355.4
643.713	37498.68
644.066	37462.97
644.419	37322.41
644.771	37046.03
645.124	36624.12
645.477	36680.39
645.83	36389.55
646.182	36387.29
646.535	36256.9
646.888	36319.5
647.24	36058.03
647.593	36320.4
647.945	36226.62
648.298	36084.47
648.65	36024.59
649.002	36060.97
649.355	36144.36
649.707	36031.59
650.059	36237.69
650.411	36509.1
650.763	36447.63
651.115	36899.37
651.467	36846.71
651.819	36859.6
652.171	36695.08
652.523	36794.74
652.875	36684.69
653.227	36615.76
653.578	36943.44
653.93	36719.03
654.282	36516.55
654.633	36540.06
654.985	36618.92
655.337	36637.45
655.688	36497.8
656.039	36806.04
656.391	36385.71
656.742	36499.15
657.094	36522.66
657.445	36542.09
657.796	36428.42
658.147	36411.7
658.498	36370.34
658.849	36491.7
659.2	36344.36
659.551	36412.83
659.902	36486.72
660.253	36354.3
660.604	36479.04
660.955	36392.49
661.306	36394.98
661.656	36299.61
662.007	36346.84
662.358	36231.59
662.708	36237.92
663.059	36325.15
663.409	36124.93
663.76	36277.46
664.11	36269.33
664.461	36236.34
664.811	36237.69
665.161	36291.02
665.511	36185.94
665.862	36203.12
666.212	36444.69
666.562	36342.55
666.912	36194.3
667.262	36193.4
667.612	36152.27
667.962	36194.3
668.312	36122.67
668.662	36255.54
669.011	36264.81
669.361	36155.89
669.711	36134.64
670.06	36117.69
670.41	36000.18
670.76	36072.72
671.109	36139.61
671.459	36038.15
671.808	35983.46
672.157	36212.61
672.507	35837.25
672.856	35850.81
673.205	35907.98
673.554	35991.14
673.904	35775.33
674.253	36050.8
674.602	35859.62
674.951	35488.33
675.3	35308.45
675.649	35899.62
675.998	35804.03
676.346	35762.45
676.695	35869.79
677.044	35572.62
677.393	35834.76
677.741	35709.57
678.09	35605.17
678.438	35625.73
678.787	35534.21
679.135	35640.19
679.484	35446.98
679.832	35498.05
680.181	35333.53
680.529	35414.44
680.877	35397.94
681.225	35302.35
681.573	35461.67
681.922	35269.13
682.27	35093.77
682.618	35172.41
682.966	35138.29
683.314	35123.37
683.661	35038.4
684.009	34826.88
684.357	34858.74
684.705	34781.46
685.053	34733.55
685.4	34798.41
685.748	34582.14
686.095	34687.22
686.443	34586.66
686.79	34501.47
687.138	34574.23
687.485	34448.81
687.832	34391.19
688.18	34404.07
688.527	34204.07
688.874	34241.36
689.221	34147.12
689.568	34088.14
689.915	33966.79
690.262	33980.58
690.609	33878.66
690.956	33907.58
691.303	33812.67
691.65	33642.51
691.997	33555.95
692.344	33349.86
692.69	33341.27
693.037	33426.24
693.383	33073.48
693.73	33270.76
694.077	33093.59
694.423	32987.38
694.769	32940.15
695.116	32863.32
695.462	32832.13
695.808	32734.28
696.155	32760.04
696.501	32613.15
696.847	32561.18
697.193	32256.1
697.539	32420.62
697.885	32160.28
698.231	32158.02
698.577	32082.77
698.923	32151.7
699.269	31996.67
699.614	31808.43
699.96	31653.86
700.306	31768.43
700.651	31703.57
700.997	31583.12
701.342	31338.39
701.688	31422.45
702.033	31283.92
702.379	31294.32
702.724	31199.86
703.069	31193.98
703.415	30800.77
703.76	30917.83
704.105	30958.51
704.45	30799.64
704.795	30654.56
705.14	30587.67
705.485	30654.56
705.83	30324.63
706.175	30374.12
706.52	30360.78
706.865	30325.08
707.209	30349.03
707.554	30180.22
707.899	30273.1
708.243	29953.56
708.588	30022.94
708.932	29811.42
709.277	29742.95
709.621	29865.43
709.966	29536.62
710.31	29679.45
710.654	29422.5
710.998	29543.63
711.342	29519.68
711.687	29455.5
712.031	29410.07
712.375	29205.33
712.719	29246.46
713.063	29191.55
713.407	29178.89
713.75	29048.95
714.094	29090.31
714.438	28946.13
714.782	28942.74
715.125	28834.72
715.469	28885.57
715.812	28739.13
716.156	28621.17
716.499	28607.38
716.843	28540.72
717.186	28521.96
717.53	28565.58
717.873	28542.75
718.216	28447.61
718.559	28229.09
718.902	28107.06
719.246	28265.92
719.589	28151.8
719.932	27886.95
720.275	27939.38
720.617	27847.63
720.96	27927.18
721.303	28026.83
721.646	27926.5
721.989	27765.15
722.331	27797.69
722.674	27661.87
723.016	27654.87
723.359	27816.9
723.701	27688.09
724.044	27449.9
724.386	27286.97
724.729	27516.79
725.071	27440.86
725.413	27412.39
725.755	27287.64
726.097	27282.67
726.439	27126.97
726.782	27086.29
727.124	27213.3
727.465	27037.48
727.807	27072.96
728.149	26903.25
728.491	26947.99
728.833	26950.03
729.175	26889.91
729.516	26873.64
729.858	26745.96
730.199	26695.12
730.541	26727.88
730.882	26607.89
731.224	26746.87
731.565	26507.1
731.906	26574.44
732.248	26472.07
732.589	26465.74
732.93	26362.02
733.271	26321.57
733.612	26330.16
733.953	26356.14
734.294	26272.98
734.635	26249.48
734.976	26262.36
735.317	26218.29
735.658	26077.05
735.999	26093.78
736.339	25965.42
736.68	26141.91
737.021	25957.06
737.361	25869.38
737.702	25927.91
738.042	25834.57
738.383	25835.03
738.723	25936.27
739.063	25667.8
739.404	25712.77
739.744	25684.3
740.084	25435.94
740.424	25622.38
740.764	25606.56
741.104	25662.6
741.444	25445.66
741.784	25365.89
742.124	25499.22
742.464	25407.02
742.804	25352.1
743.143	25312.1
743.483	25295.15
743.823	25199.56
744.162	25214.93
744.502	25298.54
744.841	25069.4
745.181	25151.2
745.52	25072.34
745.86	25104.88
746.199	25059
746.538	24924.99
746.877	25114.59
747.216	24927.93
747.556	24898.33
747.895	24866.69
748.234	24715.28
748.573	24657.2
748.911	24691.33
749.25	24624.21
749.589	24512.12
749.928	24554.16
750.267	24578.11
750.605	24454.05
750.944	24459.7
751.283	24386.48
751.621	24422.86
751.96	24265.35
752.298	24243.43
752.636	24315.29
752.975	24174.51
753.313	24041.18
753.651	24139.03
753.989	24008.41
754.327	24014.06
754.666	23877.34
755.004	23920.28
755.342	23840.96
755.679	23867.62
756.017	23725.25
756.355	23743.1
756.693	23619.49
757.031	23675.31
