Data from hue_240_FLMS001491_00088.txt Node
Date: Tue Feb 07 16:36:04 GMT 2017
User: dcchb
Spectrometer: FLMS00149
Trigger mode: 0
Integration Time (sec): 2.000000E-2
Scans to average: 10
Electric dark correction enabled: true
Nonlinearity correction enabled: false
Boxcar width: 0
XAxis mode: Wavelengths
Number of Pixels in Spectrum: 2048
>>>>>Begin Spectral Data<<<<<
341.393	-12.95
341.776	-12.95
342.16	-12.95
342.543	-52.5
342.927	-62.89
343.31	-55.89
343.693	-69.67
344.077	-76.68
344.46	-55.89
344.843	-57.24
345.226	-51.14
345.61	-42.33
345.993	-10.69
346.376	-1.43
346.759	-3.69
347.142	28.86
347.525	42.64
347.908	81.06
348.291	83.32
348.674	74.28
349.057	114.5
349.44	107.27
349.823	150.21
350.206	167.38
350.588	201.28
350.971	213.26
351.354	227.27
351.737	245.12
352.119	229.75
352.502	248.96
352.884	271.79
353.267	278.34
353.65	279.7
354.032	281.73
354.414	279.47
354.797	312.46
355.179	312.69
355.562	330.32
355.944	309.07
356.326	324.89
356.709	334.84
357.091	316.08
357.473	327.83
357.855	332.35
358.238	336.87
358.62	327.38
359.002	339.13
359.384	297.77
359.766	333.48
360.148	345.01
360.53	338
360.912	324.67
361.294	306.59
361.676	311.33
362.057	318.34
362.439	318.79
362.821	316.76
363.203	323.99
363.584	309.53
363.966	311.33
364.348	320.37
364.729	307.94
365.111	312.46
365.493	323.08
365.874	296.42
366.256	312.24
366.637	310.66
367.019	307.94
367.4	321.05
367.781	328.96
368.163	316.76
368.544	316.08
368.925	302.07
369.306	314.95
369.688	320.6
370.069	321.95
370.45	314.27
370.831	328.28
371.212	313.37
371.593	312.24
371.974	313.59
372.355	312.46
372.736	325.57
373.117	305.01
373.498	319.92
373.879	314.27
374.26	310.88
374.641	299.13
375.021	300.03
375.402	317.21
375.783	326.7
376.163	329.41
376.544	324.44
376.925	312.01
377.305	325.34
377.686	323.31
378.066	329.64
378.447	326.02
378.827	312.24
379.208	325.12
379.588	314.72
379.968	324.89
380.349	332.12
380.729	330.09
381.109	335.29
381.489	317.44
381.87	329.41
382.25	318.34
382.63	342.75
383.01	330.99
383.39	315.85
383.77	342.29
384.15	344.55
384.53	334.16
384.91	335.51
385.29	331.67
385.67	344.55
386.049	369.64
386.429	343.65
386.809	337.55
387.189	344.78
387.568	340.03
387.948	335.97
388.328	358.56
388.707	346.59
389.087	336.42
389.466	347.72
389.846	350.2
390.225	361.05
390.605	365.12
390.984	348.17
391.363	371.9
391.743	342.07
392.122	367.6
392.501	370.32
392.881	380.94
393.26	368.51
393.639	381.84
394.018	364.89
394.397	341.16
394.776	372.35
395.155	392.69
395.534	364.44
395.913	356.3
396.292	377.77
396.671	390.88
397.05	409.86
397.429	391.56
397.808	400.6
398.186	400.6
398.565	392.24
398.944	393.59
399.323	402.63
399.701	397.89
400.08	394.27
400.458	420.48
400.837	372.35
401.215	402.86
401.594	406.47
401.972	392.69
402.351	400.82
402.729	395.4
403.107	402.4
403.486	403.08
403.864	397.21
404.242	432.46
404.62	426.81
404.999	446.02
405.377	431.56
405.755	437.43
406.133	442.86
406.511	442.4
406.889	443.76
407.267	453.7
407.645	456.41
408.023	447.38
408.401	452.8
408.779	453.7
409.156	471.78
409.534	465.68
409.912	462.06
410.29	456.19
410.667	497.54
411.045	462.29
411.422	497.54
411.8	502.29
412.178	505
412.555	547.26
412.933	535.96
413.31	506.81
413.687	503.64
414.065	540.48
414.442	555.62
414.819	556.52
415.197	543.87
415.574	563.3
415.951	561.04
416.328	578.22
416.705	577.32
417.082	597.2
417.46	566.02
417.837	592.91
418.214	613.7
418.591	578.9
418.967	602.85
419.344	606.92
419.721	594.26
420.098	642.17
420.475	630.87
420.852	665
421.228	652.12
421.605	641.04
421.982	684.66
422.358	657.31
422.735	683.98
423.111	666.8
423.488	702.74
423.864	720.14
424.241	698.89
424.617	740.02
424.994	730.98
425.37	734.6
425.746	740.47
426.123	762.4
426.499	771.43
426.875	770.98
427.251	774.82
427.627	809.17
428.003	801.94
428.379	799.68
428.756	794.71
429.132	851.43
429.507	843.52
429.883	860.47
430.259	850.98
430.635	860.02
431.011	877.42
431.387	879
431.763	905.67
432.138	902.73
432.514	910.87
432.89	925.1
433.265	963.29
433.641	969.62
434.016	933.01
434.392	997.42
434.767	987.93
435.143	1010.98
435.518	1018.21
435.894	1034.03
436.269	1048.94
436.644	1060.92
437.02	1078.55
437.395	1111.31
437.77	1093.91
438.145	1109.96
438.52	1136.4
438.895	1152.89
439.271	1155.61
439.646	1184.76
440.021	1176.62
440.395	1198.32
440.77	1212.1
441.145	1190.18
441.52	1229.95
441.895	1220.01
442.27	1260.46
442.645	1240.12
443.019	1247.35
443.394	1271.31
443.769	1279.22
444.143	1302.27
444.518	1302.27
444.892	1316.5
445.267	1347.24
445.641	1331.65
446.016	1346.11
446.39	1350.85
446.764	1389.72
447.139	1385.66
447.513	1378.65
447.887	1386.33
448.262	1407.8
448.636	1407.35
449.01	1434.02
449.384	1427.46
449.758	1443.73
450.132	1466.56
450.506	1453.45
450.88	1485.54
451.254	1484.64
451.628	1497.52
452.002	1495.03
452.376	1516.73
452.75	1515.37
453.123	1542.49
453.497	1598.98
453.871	1584.29
454.244	1607.12
454.618	1603.73
454.992	1656.83
455.365	1636.5
455.739	1698.87
456.112	1702.03
456.486	1723.5
456.859	1726.89
457.232	1728.25
457.606	1746.32
457.979	1739.54
458.352	1777.74
458.725	1818.64
459.099	1815.02
459.472	1832.88
459.845	1879.65
460.218	1867.22
460.591	1905.64
460.964	1893.66
461.337	1939.99
461.71	1961.23
462.083	1966.43
462.456	2018.18
462.829	1990.84
463.201	2041.91
463.574	2058.41
463.947	2086.2
464.32	2111.29
464.692	2140.44
465.065	2123.49
465.438	2158.29
465.81	2204.17
466.183	2200.32
466.555	2226.31
466.928	2275.8
467.3	2269.02
467.672	2297.5
468.045	2338.62
468.417	2346.99
468.789	2344.05
469.161	2378.4
469.534	2407.78
469.906	2470.15
470.278	2477.38
470.65	2529.81
471.022	2547.66
471.394	2564.16
471.766	2619.75
472.138	2641.44
472.51	2674.66
472.882	2729.8
473.253	2725.73
473.625	2770.25
473.997	2803.7
474.369	2836.24
474.74	2890.7
475.112	2911.49
475.484	2935.22
475.855	3002.34
476.227	3020.19
476.598	3109.45
476.97	3119.17
477.341	3167.98
477.713	3194.42
478.084	3230.8
478.455	3305.83
478.827	3344.7
479.198	3401.42
479.569	3434.64
479.94	3498.82
480.311	3498.59
480.682	3602.55
481.053	3658.59
481.424	3689.32
481.795	3707.85
482.166	3785.59
482.537	3767.97
482.908	3862.88
483.279	3933.84
483.65	3947.17
484.021	4053.38
484.391	4053.61
484.762	4140.84
485.133	4098.35
485.503	4171.35
485.874	4226.94
486.244	4298.8
486.615	4356.2
486.985	4366.82
487.356	4526.82
487.726	4493.14
488.097	4572.24
488.467	4580.37
488.837	4721.61
489.207	4687.26
489.578	4727.71
489.948	4797.32
490.318	4870.08
490.688	4875.51
491.058	4927.94
491.428	5010.65
491.798	5037.54
492.168	5090.87
492.538	5155.27
492.908	5176.74
493.278	5166.35
493.648	5264.88
494.017	5348.94
494.387	5339.9
494.757	5364.08
495.126	5370.64
495.496	5445.21
495.866	5496.06
496.235	5499.9
496.605	5562.72
496.974	5597.97
497.344	5622.83
497.713	5648.37
498.082	5688.82
498.452	5697.41
498.821	5726.11
499.19	5757.74
499.559	5770.85
499.928	5825.31
500.298	5856.05
500.667	5922.26
501.036	5901.47
501.405	5942.15
501.774	5924.75
502.143	5941.69
502.512	5975.14
502.88	5986.21
503.249	6022.6
503.618	6044.29
503.987	6081.35
504.356	6170.84
504.724	6128.81
505.093	6089.71
505.462	6150.95
505.83	6189.6
506.199	6248.58
506.567	6274.34
506.936	6256.26
507.304	6337.84
507.672	6387.56
508.041	6323.38
508.409	6385.3
508.777	6385.52
509.145	6436.82
509.514	6445.41
509.882	6435.47
510.25	6448.35
510.618	6542.81
510.986	6498.06
511.354	6586.2
511.722	6544.16
512.09	6669.13
512.458	6595.24
512.826	6650.83
513.193	6598.63
513.561	6634.11
513.929	6692.18
514.297	6712.52
514.664	6711.84
515.032	6735.12
515.4	6770.37
515.767	6768.11
516.135	6802.46
516.502	6716.36
516.869	6826.87
517.237	6800.43
517.604	6826.19
517.972	6882.01
518.339	6898.73
518.706	6876.13
519.073	6889.69
519.44	6918.39
519.808	7007.88
520.175	6931.27
520.542	6984.83
520.909	7026.41
521.276	6994.32
521.643	7014.66
522.009	7101.21
522.376	7048.11
522.743	7134.43
523.11	7100.53
523.477	7157.93
523.843	7155.45
524.21	7219.4
524.577	7234.99
524.943	7273.18
525.31	7190.25
525.676	7316.57
526.043	7295.78
526.409	7283.35
526.776	7385.05
527.142	7294.43
527.508	7347.08
527.874	7473.63
528.241	7406.06
528.607	7363.58
528.973	7479.28
529.339	7428.43
529.705	7449.45
530.071	7420.75
530.437	7530.35
530.803	7490.13
531.169	7511.14
531.535	7441.32
531.901	7521.99
532.267	7469.34
532.632	7553.63
532.998	7526.06
533.364	7517.92
533.73	7488.09
534.095	7511.37
534.461	7555.21
534.826	7568.09
535.192	7518.6
535.557	7576
535.923	7556.11
536.288	7537.13
536.653	7568.54
537.019	7493.52
537.384	7496.23
537.749	7541.65
538.114	7518.38
538.479	7489.45
538.845	7521.77
539.21	7417.36
539.575	7479.73
539.94	7445.16
540.305	7442.45
540.67	7445.61
541.034	7409.68
541.399	7474.08
541.764	7454.42
542.129	7399.51
542.494	7463.24
542.858	7466.63
543.223	7461.65
543.587	7452.16
543.952	7451.94
544.316	7451.71
544.681	7466.85
545.045	7430.24
545.41	7419.85
545.774	7425.27
546.138	7402.9
546.503	7396.57
546.867	7382.56
547.231	7383.24
547.595	7392.73
547.959	7374.65
548.324	7360.64
548.688	7432.5
549.052	7361.54
549.416	7364.48
549.779	7329.91
550.143	7330.81
550.507	7342.79
550.871	7349.57
551.235	7289.68
551.599	7338.04
551.962	7359.74
552.326	7289.46
552.689	7332.17
553.053	7248.33
553.417	7310.92
553.78	7429.11
554.143	7353.41
554.507	7345.27
554.87	7289.23
555.234	7391.37
555.597	7261.66
555.96	7265.73
556.323	7383.46
556.686	7320.64
557.05	7349.57
557.413	7340.75
557.776	7353.18
558.139	7410.58
558.502	7309.34
558.865	7348.44
559.228	7425.04
559.59	7367.42
559.953	7371.49
560.316	7481.31
560.679	7437.25
561.041	7462.78
561.404	7443.35
561.767	7509.79
562.129	7457.36
562.492	7532.61
562.854	7507.98
563.217	7442.67
563.579	7494.2
563.941	7531.71
564.304	7530.13
564.666	7620.07
565.028	7648.99
565.39	7587.98
565.753	7676.79
566.115	7687.18
566.477	7718.6
566.839	7680.63
567.201	7676.34
567.563	7738.48
567.925	7711.14
568.287	7757.01
568.648	7782.32
569.01	7797.92
569.372	7822.32
569.734	7829.33
570.095	7815.09
570.457	7856.9
570.819	7869.78
571.18	7850.12
571.542	7947.52
571.903	7875.43
572.265	7936.9
572.626	7985.71
572.987	7973.96
573.349	8047.4
573.71	8028.64
574.071	8027.74
574.432	8050.11
574.794	8107.74
575.155	8092.6
575.516	8018.02
575.877	8129.89
576.238	8077.91
576.599	8096.21
576.96	8123.33
577.32	8184.12
577.681	8231.35
578.042	8244.01
578.403	8204.46
578.763	8216.21
579.124	8289.43
579.485	8301.63
579.845	8276.32
580.206	8302.31
580.566	8257.34
580.927	8290.56
581.287	8296.66
581.648	8290.56
582.008	8350.67
582.368	8338.02
582.728	8429.76
583.089	8365.36
583.449	8418.92
583.809	8409.43
584.169	8390.22
584.529	8387.28
584.889	8477.45
585.249	8435.64
585.609	8367.39
585.969	8420.27
586.329	8448.75
586.688	8440.84
587.048	8437.67
587.408	8451.91
587.768	8458.69
588.127	8474.28
588.487	8447.84
588.846	8509.54
589.206	8453.04
589.565	8487.39
589.925	8509.76
590.284	8547.05
590.643	8518.8
591.003	8519.48
591.362	8621.4
591.721	8524.23
592.08	8559.93
592.44	8563.09
592.799	8595.86
593.158	8567.39
593.517	8579.36
593.876	8583.66
594.235	8530.55
594.593	8619.82
594.952	8566.03
595.311	8641.74
595.67	8593.6
596.029	8584.79
596.387	8688.74
596.746	8653.71
597.104	8594.73
597.463	8643.32
597.822	8651
598.18	8700.04
598.538	8680.83
598.897	8771.22
599.255	8617.1
599.613	8773.26
599.972	8700.27
600.33	8709.53
600.688	8674.05
601.046	8721.96
601.404	8755.18
601.762	8680.61
602.12	8740.49
602.478	8721.96
602.836	8800.83
603.194	8718.57
603.552	8694.16
603.91	8704.33
604.268	8756.08
604.625	8771.9
604.983	8736.65
605.341	8717.44
605.698	8768.29
606.056	8773.26
606.413	8799.02
606.771	8824.78
607.128	8820.94
607.485	8827.27
607.843	8799.92
608.2	8830.43
608.557	8839.02
608.914	8834.27
609.272	8868.17
609.629	8864.33
609.986	8884.89
610.343	8901.39
610.7	9012.8
611.057	8877.89
611.414	8929.86
611.771	8899.58
612.127	8913.82
612.484	9019.13
612.841	9011.22
613.198	9005.34
613.554	8929.19
613.911	8993.82
614.267	8948.39
614.624	8967.15
614.98	9024.78
615.337	8976.42
615.693	9001.5
616.05	8965.8
616.406	9085.57
616.762	8997.43
617.118	9000.82
617.475	9057.09
617.831	9027.71
618.187	9036.08
618.543	9018.45
618.899	9147.71
619.255	9060.26
619.611	9041.5
619.967	9093.02
620.323	9076.3
620.678	9051.22
621.034	9009.86
621.39	9042.63
621.746	9089.41
622.101	9154.26
622.457	9097.77
622.812	9136.41
623.168	9134.38
623.523	9141.61
623.879	9107.49
624.234	9061.39
624.589	9113.14
624.945	9117.88
625.3	9081.95
625.655	9085.57
626.01	9083.76
626.365	9046.92
626.72	9065.91
627.075	9022.52
627.43	9056.19
627.785	9026.81
628.14	9076.75
628.495	9108.84
628.85	9025
629.205	9046.92
629.559	9039.69
629.914	9098.9
630.269	9028.17
630.623	9010.54
630.978	8973.03
631.332	9006.02
631.687	9064.32
632.041	8966.47
632.396	8959.47
632.75	8954.04
633.104	8941.62
633.459	8924.67
633.813	8914.95
634.167	8944.78
634.521	8936.19
634.875	8950.65
635.229	8919.92
635.583	8832.69
635.937	8875.4
636.291	8874.27
636.645	8866.36
636.999	8811.68
637.352	8864.56
637.706	8844.89
638.06	8853.93
638.413	8829.53
638.767	8790.66
639.121	8776.87
639.474	8689.64
639.828	8752.69
640.181	8773.71
640.534	8846.02
640.888	8728.97
641.241	8749.3
641.594	8727.38
641.947	8682.41
642.301	8708.85
642.654	8700.49
643.007	8648.52
643.36	8696.42
643.713	8679.02
644.066	8705.01
644.419	8639.25
644.771	8577.1
645.124	8504.11
645.477	8465.7
645.83	8441.29
646.182	8450.78
646.535	8376.43
646.888	8409.2
647.24	8441.74
647.593	8427.05
647.945	8334.85
648.298	8367.39
648.65	8368.07
649.002	8359.26
649.355	8302.99
649.707	8364.23
650.059	8374.4
650.411	8551.57
650.763	8458.69
651.115	8587.73
651.467	8529.42
651.819	8515.19
652.171	8600.83
652.523	8509.08
652.875	8556.54
653.227	8464.57
653.578	8486.03
653.93	8522.87
654.282	8518.12
654.633	8431.12
654.985	8457.33
655.337	8472.25
655.688	8511.34
656.039	8498.24
656.391	8443.55
656.742	8408.52
657.094	8467.96
657.445	8462.53
657.796	8485.13
658.147	8505.69
658.498	8482.19
658.849	8468.18
659.2	8482.64
659.551	8486.26
659.902	8459.14
660.253	8535.98
660.604	8506.37
660.955	8436.32
661.306	8488.52
661.656	8519.03
662.007	8510.44
662.358	8460.72
662.708	8529.2
663.059	8441.74
663.409	8415.53
663.76	8521.74
664.11	8435.41
664.461	8508.63
664.811	8517.45
665.161	8492.59
665.511	8505.02
665.862	8487.39
666.212	8501.4
666.562	8563.77
666.912	8513.83
667.262	8443.32
667.612	8475.41
667.962	8458.24
668.312	8471.12
668.662	8453.49
669.011	8515.64
669.361	8461.4
669.711	8447.84
670.06	8491.46
670.41	8373.04
670.76	8421.63
671.109	8460.95
671.459	8501.85
671.808	8471.35
672.157	8450.55
672.507	8436.32
672.856	8415.08
673.205	8404.45
673.554	8462.98
673.904	8387.05
674.253	8461.4
674.602	8420.05
674.951	8299.82
675.3	8257.34
675.649	8346.15
675.998	8390.67
676.346	8361.29
676.695	8379.6
677.044	8331.46
677.393	8348.18
677.741	8338.24
678.09	8319.26
678.438	8228.64
678.787	8304.8
679.135	8268.41
679.484	8220.05
679.832	8227.74
680.181	8248.53
680.529	8209.88
680.877	8189.32
681.225	8221.86
681.573	8216.89
681.922	8222.76
682.27	8149.09
682.618	8121.07
682.966	8118.13
683.314	8099.15
683.661	8120.62
684.009	8119.72
684.357	8027.06
684.705	8067.29
685.053	8056.89
685.4	8011.92
685.748	7998.59
686.095	7992.49
686.443	8001.3
686.79	7990.68
687.138	7973.73
687.485	7936.9
687.832	7915.43
688.18	7890.34
688.527	7815.09
688.874	7867.97
689.221	7860.97
689.568	7809.67
689.915	7805.6
690.262	7792.04
690.609	7730.35
690.956	7714.53
691.303	7708.88
691.65	7683.8
691.997	7664.36
692.344	7642.44
692.69	7615.77
693.037	7646.73
693.383	7529
693.73	7559.5
694.077	7503.46
694.423	7501.2
694.769	7452.84
695.116	7469.11
695.462	7445.16
695.808	7452.84
696.155	7456.91
696.501	7337.82
696.847	7307.99
697.193	7310.7
697.539	7338.72
697.885	7274.77
698.231	7267.08
698.577	7259.4
698.923	7240.64
699.269	7262.79
699.614	7147.09
699.96	7181.44
700.306	7149.12
700.651	7121.78
700.997	7098.73
701.342	7028.45
701.688	6994.32
702.033	6990.48
702.379	7016.92
702.724	6963.59
703.069	6956.36
703.415	6883.14
703.76	6897.15
704.105	6945.74
704.45	6876.58
704.795	6844.04
705.14	6795
705.485	6808.79
705.83	6743.25
706.175	6774.89
706.52	6731.5
706.865	6720.66
707.209	6662.35
707.554	6697.38
707.899	6697.15
708.243	6657.61
708.588	6631.39
708.932	6652.64
709.277	6607.44
709.621	6598.17
709.966	6618.51
710.31	6579.42
710.654	6519.98
710.998	6581.68
711.342	6540.55
711.687	6444.05
712.031	6509.59
712.375	6476.14
712.719	6411.51
713.063	6439.76
713.407	6451.06
713.75	6419.2
714.094	6442.47
714.438	6433.88
714.782	6428.01
715.125	6328.35
715.469	6391.85
715.812	6324.73
716.156	6315.92
716.499	6344.17
716.843	6330.84
717.186	6279.54
717.53	6350.04
717.873	6329.48
718.216	6305.07
718.559	6347.33
718.902	6178.98
719.246	6282.48
719.589	6220.78
719.932	6218.52
720.275	6195.25
720.617	6187.34
720.96	6198.64
721.303	6190.28
721.646	6166.32
721.989	6174.46
722.331	6167.9
722.674	6151.63
723.016	6141.01
723.359	6144.4
723.701	6170.16
724.044	6148.47
724.386	6124.51
724.729	6140.33
725.071	6109.83
725.413	6101.24
725.755	6115.47
726.097	6103.95
726.439	6019.43
726.782	6015.36
727.124	6111.63
727.465	5981.69
727.807	6044.29
728.149	6045.65
728.491	5991.41
728.833	6009.49
729.175	6034.12
729.516	6042.71
729.858	5978.08
730.199	5994.35
730.541	5986.89
730.882	5995.93
731.224	5954.35
731.565	5937.4
731.906	6005.42
732.248	6047.45
732.589	5965.87
732.93	5994.35
733.271	5962.03
733.612	5993.22
733.953	6071.41
734.294	6011.07
734.635	5982.37
734.976	6013.33
735.317	5935.82
735.658	5942.15
735.999	5970.39
736.339	5990.96
736.68	6048.13
737.021	5969.49
737.361	5951.41
737.702	6004.52
738.042	5991.18
738.383	5968.59
738.723	6051.75
739.063	6030.05
739.404	6011.75
739.744	5967
740.084	5995.03
740.424	6009.71
740.764	5997.29
741.104	6010.17
741.444	6011.07
741.784	6017.4
742.124	6028.47
742.464	6050.84
742.804	6072.99
743.143	6029.38
743.483	6056.95
743.823	6042.93
744.162	6044.52
744.502	6108.47
744.841	6091.97
745.181	6147.56
745.52	6073.67
745.86	6127
746.199	6159.32
746.538	6186.66
746.877	6223.95
747.216	6205.42
747.556	6234.34
747.895	6297.16
748.234	6298.29
748.573	6307.56
748.911	6383.72
749.25	6425.98
749.589	6402.47
749.928	6457.39
750.267	6485.86
750.605	6561.79
750.944	6542.13
751.283	6607.21
751.621	6729.7
751.96	6719.07
752.298	6757.72
752.636	6790.94
752.975	6866.87
753.313	6903.7
753.651	6957.26
753.989	6954.55
754.327	7029.35
754.666	7096.92
755.004	7162.68
755.342	7298.95
755.679	7383.24
756.017	7422.79
756.355	7567.19
756.693	7611.03
757.031	7679.95
757.368	7689.9
757.706	7812.15
758.044	7840.18
758.381	7991.13
758.719	8051.24
759.056	8122.65
759.394	8249.2
759.731	8239.03
760.068	8428.63
760.405	8464.11
760.743	8518.8
761.08	8662.53
761.417	8749.76
761.754	8840.6
762.091	8928.73
762.428	8995.4
762.765	9135.96
763.102	9177.99
763.438	9335.28
763.775	9415.73
764.112	9407.82
764.449	9550.64
764.785	9588.83
765.122	9678.09
765.458	9696.4
765.795	9844.64
766.131	9945.66
766.467	10007.58
766.804	10013.45
767.14	10108.14
767.476	10184.29
767.812	10252.32
768.148	10408.92
768.485	10414.57
768.821	10405.31
769.157	10480.33
769.492	10582.48
