Data from hue_30_FLMS001491_51.txt Node
Date: Mon Feb 06 15:05:34 GMT 2017
User: dcchb
Spectrometer: FLMS00149
Trigger mode: 0
Integration Time (sec): 2.000000E-2
Scans to average: 10
Electric dark correction enabled: true
Nonlinearity correction enabled: false
Boxcar width: 0
XAxis mode: Wavelengths
Number of Pixels in Spectrum: 2048
>>>>>Begin Spectral Data<<<<<
341.393	-8.09
341.776	-8.09
342.16	-8.09
342.543	-87.86
342.927	-57.13
343.31	-64.59
343.693	-79.73
344.077	-45.83
344.46	-60.75
344.843	-63.68
345.226	-45.15
345.61	-34.98
345.993	-16
346.376	-2.9
346.759	3.66
347.142	17.9
347.525	39.14
347.908	75.52
348.291	83.88
348.674	89.53
349.057	103.99
349.44	132.92
349.823	130.43
350.206	175.86
350.588	173.15
350.971	203.2
351.354	210.88
351.737	247.95
352.119	246.82
352.502	283.88
352.884	273.26
353.267	289.07
353.65	284.55
354.032	291.56
354.414	316.19
354.797	320.71
355.179	314.84
355.562	329.98
355.944	315.97
356.326	342.63
356.709	349.86
357.091	337.43
357.473	342.18
357.855	341.5
358.238	341.95
358.62	330.88
359.002	334.95
359.384	329.07
359.766	349.64
360.148	333.37
360.53	331.11
360.912	340.6
361.294	358
361.676	342.86
362.057	326.14
362.439	344.67
362.821	308.28
363.203	331.79
363.584	325.23
363.966	336.08
364.348	337.89
364.729	325.68
365.111	321.39
365.493	308.96
365.874	322.75
366.256	314.84
366.637	307.83
367.019	308.73
367.4	323.88
367.781	309.41
368.163	325.68
368.544	321.16
368.925	327.04
369.306	314.61
369.688	318.45
370.069	292.92
370.45	307.38
370.831	294.95
371.212	299.02
371.593	313.93
371.974	305.57
372.355	311.67
372.736	309.86
373.117	305.12
373.498	317.55
373.879	314.61
374.26	308.96
374.641	311.67
375.021	313.93
375.402	291.56
375.783	326.36
376.163	305.8
376.544	323.88
376.925	329.98
377.305	318.23
377.686	325.23
378.066	324.55
378.447	308.06
378.827	327.27
379.208	321.39
379.588	331.11
379.968	343.31
380.349	333.37
380.729	338.56
381.109	334.04
381.489	358.45
381.87	335.4
382.25	342.41
382.63	336.08
383.01	336.76
383.39	321.16
383.77	336.98
384.15	347.38
384.53	345.8
384.91	326.59
385.29	339.92
385.67	348.28
386.049	374.72
386.429	328.62
386.809	365.46
387.189	375.4
387.568	372.46
387.948	368.39
388.328	355.51
388.707	342.86
389.087	355.97
389.466	362.29
389.846	356.87
390.225	359.81
390.605	344.21
390.984	358.23
391.363	352.12
391.743	370.65
392.122	356.19
392.501	369.52
392.881	370.88
393.26	338.56
393.639	388.51
394.018	363.65
394.397	366.36
394.776	355.74
395.155	374.72
395.534	366.36
395.913	375.17
396.292	379.47
396.671	380.6
397.05	391.22
397.429	381.28
397.808	386.02
398.186	398.68
398.565	395.74
398.944	384.21
399.323	390.54
399.701	397.77
400.08	376.3
400.458	388.96
400.837	393.93
401.215	363.65
401.594	403.65
401.972	397.77
402.351	388.28
402.729	402.52
403.107	401.61
403.486	412.01
403.864	405.91
404.242	397.32
404.62	424.21
404.999	407.04
405.377	413.36
405.755	419.01
406.133	403.65
406.511	417.88
406.889	433.93
407.267	410.43
407.645	430.77
408.023	412.01
408.401	413.36
408.779	426.92
409.156	447.26
409.534	432.12
409.912	422.86
410.29	444.55
410.667	448.62
411.045	452.69
411.422	433.7
411.8	454.04
412.178	452.69
412.555	467.6
412.933	449.3
413.31	450.88
413.687	484.78
414.065	470.76
414.442	462.18
414.819	480.03
415.197	471.89
415.574	482.29
415.951	482.52
416.328	474.38
416.705	478.9
417.082	487.49
417.46	464.21
417.837	492.01
418.214	479.58
418.591	476.87
418.967	499.69
419.344	511.22
419.721	514.38
420.098	499.01
420.475	490.42
420.852	527.03
421.228	505.57
421.605	509.86
421.982	530.65
422.358	524.55
422.735	529.29
423.111	537.66
423.488	538.11
423.864	532.23
424.241	528.62
424.617	558.45
424.994	555.73
425.37	538.33
425.746	529.97
426.123	564.1
426.499	561.61
426.875	562.74
427.251	569.07
427.627	569.07
428.003	562.29
428.379	563.42
428.756	597.54
429.132	587.15
429.507	589.63
429.883	600.7
430.259	594.38
430.635	604.77
431.011	613.36
431.387	602.74
431.763	616.98
432.138	621.27
432.514	640.03
432.89	638.22
433.265	637.31
433.641	651.1
434.016	633.25
434.392	667.82
434.767	663.75
435.143	662.85
435.518	648.16
435.894	649.74
436.269	666.69
436.644	693.58
437.02	687.93
437.395	692
437.77	702.4
438.145	689.29
438.52	717.31
438.895	683.19
439.271	693.36
439.646	732
440.021	715.05
440.395	722.51
440.77	746.46
441.145	710.98
441.52	740.59
441.895	742.85
442.27	740.36
442.645	735.62
443.019	743.53
443.394	778.55
443.769	764.54
444.143	753.92
444.518	769.51
444.892	749.63
445.267	761.38
445.641	771.1
446.016	779
446.39	771.55
446.764	776.52
447.139	804.32
447.513	786.01
447.887	771.77
448.262	813.35
448.636	818.78
449.01	794.15
449.384	809.06
449.758	805.9
450.132	831.66
450.506	842.51
450.88	813.13
451.254	840.92
451.628	833.69
452.002	841.15
452.376	862.84
452.75	843.41
453.123	859.23
453.497	875.73
453.871	890.64
454.244	891.77
454.618	881.15
454.992	903.97
455.365	920.7
455.739	949.17
456.112	945.33
456.486	941.94
456.859	929.06
457.232	945.33
457.606	978.32
457.979	996.4
458.352	1005.21
458.725	1016.51
459.099	996.63
459.472	1030.75
459.845	1018.55
460.218	1041.37
460.591	1051.09
460.964	1057.87
461.337	1059.9
461.71	1079.56
462.083	1099.45
462.456	1103.29
462.829	1117.75
463.201	1117.08
463.574	1119.56
463.947	1157.75
464.32	1171.76
464.692	1192.78
465.065	1179.45
465.438	1176.51
465.81	1206.11
466.183	1219.45
466.555	1258.09
466.928	1256.73
467.3	1256.28
467.672	1301.93
468.045	1312.32
468.417	1309.39
468.789	1344.19
469.161	1332.89
469.534	1358.65
469.906	1380.35
470.278	1381.7
470.65	1389.84
471.022	1441.59
471.394	1466.67
471.766	1470.74
472.138	1527.46
472.51	1513.67
472.882	1554.35
473.253	1580.57
473.625	1588.93
473.997	1639.55
474.369	1652.65
474.74	1636.84
475.112	1728.81
475.484	1744.86
475.855	1765.87
476.227	1794.35
476.598	1814.01
476.97	1837.96
477.341	1892.2
477.713	1958.86
478.084	1959.31
478.455	2013.55
478.827	2043.83
479.198	2101.46
479.569	2126.09
479.94	2154.11
480.311	2188.46
480.682	2230.94
481.053	2326.31
481.424	2330.6
481.795	2399.75
482.166	2427.32
482.537	2477.49
482.908	2525.17
483.279	2562.01
483.65	2644.04
484.021	2681.33
484.391	2746.64
484.762	2803.58
485.133	2809.23
485.503	2872.06
485.874	2971.04
486.244	2977.37
486.615	3080.87
486.985	3120.86
487.356	3157.7
487.726	3236.12
488.097	3325.6
488.467	3328.09
488.837	3440.4
489.207	3444.92
489.578	3545.94
489.948	3587.97
490.318	3680.17
490.688	3672.71
491.058	3752.94
491.428	3786.61
491.798	3876.78
492.168	3933.27
492.538	3991.58
492.908	4073.16
493.278	4154.51
493.648	4173.27
494.017	4239.7
494.387	4295.52
494.757	4314.51
495.126	4408.29
495.496	4451.45
495.866	4468.85
496.235	4527.38
496.605	4570.32
496.974	4624.55
497.344	4725.79
497.713	4745.23
498.082	4783.87
498.452	4838.56
498.821	4903.64
499.19	4923.3
499.559	4942.51
499.928	4983.19
500.298	5051.21
500.667	5108.83
501.036	5098.44
501.405	5162.17
501.774	5202.17
502.143	5269.73
502.512	5286.68
502.88	5352.9
503.249	5342.73
503.618	5391.99
503.987	5389.96
504.356	5485.77
504.724	5507.69
505.093	5511.08
505.462	5590.86
505.83	5653.23
506.199	5643.96
506.567	5752.43
506.936	5770.96
507.304	5804.41
507.672	5783.85
508.041	5824.52
508.409	5916.72
508.777	5930.28
509.145	5992.2
509.514	5974.35
509.882	6045.76
510.25	6053.67
510.618	6148.36
510.986	6145.64
511.354	6224.29
511.722	6218.64
512.09	6268.35
512.458	6252.76
512.826	6338.86
513.193	6341.57
513.561	6358.07
513.929	6408.01
514.297	6438.29
514.664	6519.87
515.032	6502.7
515.4	6575.69
515.767	6569.59
516.135	6617.95
516.502	6595.35
516.869	6665.18
517.237	6738.85
517.604	6680.32
517.972	6747.21
518.339	6808.9
518.706	6798.96
519.073	6804.38
519.44	6814.55
519.808	6884.16
520.175	6862.46
520.542	6963.48
520.909	7043.02
521.276	6957.15
521.643	7118.95
522.009	7122.57
522.376	7096.8
522.743	7219.29
523.11	7205.5
523.477	7260.87
523.843	7340.87
524.21	7421.77
524.577	7422.9
524.943	7475.33
525.31	7497.47
525.676	7585.38
526.043	7596.9
526.409	7640.07
526.776	7697.24
527.142	7710.35
527.508	7749.67
527.874	7835.09
528.241	7817.46
528.607	7911.92
528.973	8019.04
529.339	7906.95
529.705	8017.46
530.071	8070.34
530.437	8059.04
530.803	8169.77
531.169	8201.63
531.535	8192.37
531.901	8175.19
532.267	8271.24
532.632	8301.52
532.998	8305.59
533.364	8422.19
533.73	8368.86
534.095	8469.88
534.461	8482.76
534.826	8516.65
535.192	8594.62
535.557	8635.97
535.923	8609.99
536.288	8669.64
536.653	8715.29
537.019	8675.07
537.384	8737.44
537.749	8786.03
538.114	8785.57
538.479	8875.06
538.845	8898.79
539.21	8896.76
539.575	8984.21
539.94	9010.88
540.305	8985.12
540.67	9100.14
541.034	9123.19
541.399	9169.52
541.764	9148.73
542.129	9152.57
542.494	9193.47
542.858	9310.98
543.223	9265.34
543.587	9392.34
543.952	9385.33
544.316	9388.27
544.681	9440.02
545.045	9459.68
545.41	9553.24
545.774	9606.8
546.138	9510.53
546.503	9673.23
546.867	9651.54
547.231	9762.5
547.595	9729.28
547.959	9772.89
548.324	9815.6
548.688	9841.37
549.052	9845.43
549.416	9912.1
549.779	9886.11
550.143	9924.75
550.507	10033.22
550.871	10035.48
551.235	10079.1
551.599	10161.13
551.962	10182.15
552.326	10150.74
552.689	10244.52
553.053	10251.3
553.417	10233.9
553.78	10439.99
554.143	10330.39
554.507	10369.26
554.87	10360.45
555.234	10527.9
555.597	10407.9
555.96	10512.99
556.323	10484.06
556.686	10562.48
557.05	10626.88
557.413	10657.16
557.776	10637.95
558.139	10665.75
558.502	10666.43
558.865	10764.73
559.228	10848.8
559.59	10830.49
559.953	10900.32
560.316	11034.1
560.679	11045.4
561.041	11073.65
561.404	11138.73
561.767	11165.62
562.129	11089.92
562.492	11245.62
562.854	11210.6
563.217	11204.72
563.579	11229.35
563.941	11269.58
564.304	11380.53
564.666	11355.68
565.028	11390.48
565.39	11538.72
565.753	11464.6
566.115	11589.79
566.477	11576.01
566.839	11646.06
567.201	11703.24
567.563	11669.34
567.925	11772.39
568.287	11841.99
568.648	11773.97
569.01	11924.47
569.372	12011.25
569.734	11980.74
570.095	12055.77
570.457	12093.96
570.819	12163.56
571.18	12135.77
571.542	12268.65
571.903	12322.66
572.265	12303
572.626	12451.01
572.987	12458.25
573.349	12487.4
573.71	12546.15
574.071	12591.8
574.432	12653.95
574.794	12795.86
575.155	12886.03
575.516	12888.07
575.877	12960.38
576.238	13047.38
576.599	13239.24
576.96	13228.85
577.32	13279.02
577.681	13467.48
578.042	13579.57
578.403	13559.01
578.763	13618.89
579.124	13844.65
579.485	13902.73
579.845	14037.19
580.206	14120.35
580.566	14356.05
580.927	14428.14
581.287	14551.98
581.648	14678.75
582.008	14784.06
582.368	15024.51
582.728	15197.16
583.089	15243.03
583.449	15516.92
583.809	15661.55
584.169	15835.11
584.529	15867.2
584.889	16250.01
585.249	16363.68
585.609	16551.92
585.969	16831.69
586.329	16990.1
586.688	17224
587.048	17381.51
587.408	17569.52
587.768	17854.26
588.127	18039.34
588.487	18217.87
588.846	18512.1
589.206	18686.1
589.565	18903.95
589.925	19163.61
590.284	19424.39
590.643	19635.68
591.003	19896.24
591.362	20180.98
591.721	20414.65
592.08	20599.27
592.44	20862.77
592.799	21150.22
593.158	21382.31
593.517	21622.07
593.876	21860.71
594.235	22196.07
594.593	22455.95
594.952	22743.17
595.311	22988.36
595.67	23245.76
596.029	23655.24
596.387	23813.88
596.746	24145.62
597.104	24308.56
597.463	24468.55
597.822	24837.13
598.18	24955.09
598.538	25190.34
598.897	25495.42
599.255	25553.27
599.613	26122.52
599.972	26234.61
600.33	26420.82
600.688	26609.74
601.046	26976.28
601.404	27125.2
601.762	27352.54
602.12	27729.26
602.478	27937.39
602.836	28184.84
603.194	28405.17
603.552	28517.48
603.91	28746.86
604.268	29115.44
604.625	29117.02
604.983	29477.46
605.341	29508.19
605.698	29852.36
606.056	30139.59
606.413	30357.21
606.771	30457.32
607.128	30690.08
607.485	30732.57
607.843	30976.63
608.2	31210.75
608.557	31422.04
608.914	31531.87
609.272	31801.01
609.629	32008.92
609.986	32223.38
610.343	32188.57
610.7	32665.17
611.057	32735.23
611.414	32835.56
611.771	33028.55
612.127	33282.11
612.484	33367.98
612.841	33594.41
613.198	33588.31
613.554	33771.36
613.911	34185.36
614.267	34198.24
614.624	34166.6
614.98	34392.81
615.337	34588.74
615.693	34628.28
616.05	34632.8
616.406	35080.93
616.762	34986.02
617.118	35046.35
617.475	35200.7
617.831	35429.17
618.187	35586.68
618.543	35706.22
618.899	36024.18
619.255	35937.85
619.611	35990.51
619.967	36282.03
620.323	36477.73
620.678	36340.33
621.034	36272.76
621.39	36483.83
621.746	36329.26
622.101	37046.07
622.457	36783.03
622.812	36750.26
623.168	36961.78
623.523	36982.35
623.879	37192.28
624.234	36916.13
624.589	37073.19
624.945	37336.01
625.3	37443.58
625.655	37411.71
626.01	37526.51
626.365	37522.9
626.72	37593.86
627.075	37545.72
627.43	37534.87
627.785	37576.68
628.14	37772.83
628.495	37863
628.85	37767.41
629.205	37725.83
629.559	38033.17
629.914	37748.2
630.269	37868.88
630.623	37714.08
630.978	37829.78
631.332	38036.56
631.687	38141.86
632.041	37864.81
632.396	38009.44
632.75	37973.73
633.104	37979.61
633.459	37841.76
633.813	37824.81
634.167	37884.47
634.521	37929.44
634.875	38078.36
635.229	37884.47
635.583	37851.25
635.937	37924.69
636.291	37937.12
636.645	37904.58
636.999	37809.67
637.352	37995.2
637.706	37637.24
638.06	37977.12
638.413	37869.78
638.767	37698.71
639.121	37845.83
639.474	37691.48
639.828	37722.67
640.181	37759.95
640.534	37710.69
640.888	37636.11
641.241	37660.97
641.594	37635.44
641.947	37823.45
642.301	37643.8
642.654	37694.87
643.007	37682.22
643.36	37786.17
643.713	37634.76
644.066	37884.02
644.419	37552.05
644.771	37382.34
645.124	36896.47
645.477	37126.07
645.83	36802.46
646.182	36615.35
646.535	36474.56
646.888	36538.52
647.24	36365.41
647.593	36728.57
647.945	36481.79
648.298	36412.87
648.65	36276.83
649.002	36337.62
649.355	36374.45
649.707	36207.23
650.059	36498.07
650.411	36968.34
650.763	36951.16
651.115	37408.78
651.467	37136.24
651.819	37143.25
652.171	37175.56
652.523	37126.07
652.875	36989.35
653.227	36988.22
653.578	37283.58
653.93	37152.51
654.282	36894.67
654.633	36919.3
654.985	36983.02
655.337	36929.24
655.688	37043.36
656.039	37096.92
656.391	36931.27
656.742	36921.56
657.094	36887.21
657.445	37041.78
657.796	37007.43
658.147	36774.67
658.498	36862.35
658.849	36887.66
659.2	36778.51
659.551	36751.62
659.902	36960.43
660.253	36734.67
660.604	36802.92
660.955	36595.01
661.306	36829.13
661.656	36867.77
662.007	36790.94
662.358	36751.62
662.708	36765.63
663.059	36668.68
663.409	36416.94
663.76	36743.93
664.11	36659.19
664.461	36750.04
664.811	36708.23
665.161	36563.37
665.511	36609.7
665.862	36584.39
666.212	36804.05
666.562	36762.01
666.912	36725.18
667.262	36801.79
667.612	36718.62
667.962	36822.58
668.312	36611.74
668.662	36820.54
669.011	36712.3
669.361	36515.92
669.711	36628.91
670.06	36453.55
670.41	36431.17
670.76	36419.65
671.109	36709.36
671.459	36469.59
671.808	36343.95
672.157	36423.04
672.507	36291.97
672.856	36351.18
673.205	36400.67
673.554	36457.39
673.904	36307.56
674.253	36501.23
674.602	36454
674.951	35920.45
675.3	35722.04
675.649	36255.59
675.998	36306.66
676.346	36154.8
676.695	36350.27
677.044	35972.43
677.393	36249.03
677.741	36156.15
678.09	36162.03
678.438	36138.3
678.787	36030.28
679.135	36141.46
679.484	35904.41
679.832	36074.8
680.181	35840
680.529	35916.39
680.877	35775.6
681.225	35782.15
681.573	36065.31
681.922	35662.16
682.27	35667.13
682.618	35664.42
682.966	35606.34
683.314	35694.47
683.661	35626.45
684.009	35499.45
684.357	35388.72
684.705	35307.36
685.053	35266.23
685.4	35261.71
685.748	35031.21
686.095	35283.18
686.443	35123.86
686.79	35019.46
687.138	35017.2
687.485	34893.81
687.832	34769.75
688.18	34873.48
688.527	34491.79
688.874	34571.34
689.221	34426.03
689.568	34428.06
689.915	34327.5
690.262	34420.83
690.609	34195.08
690.956	34127.28
691.303	34195.75
691.65	33956.44
691.997	34014.29
692.344	33860.85
692.69	33834.63
693.037	33767.74
693.383	33531.82
693.73	33670.34
694.077	33387.64
694.423	33640.74
694.769	33367.98
695.116	33171.15
695.462	33238.72
695.808	33038.72
696.155	33255.89
696.501	32921.21
696.847	33048.66
697.193	32753.08
697.539	32760.54
697.885	32547.21
698.231	32366.87
698.577	32563.25
698.923	32431.28
699.269	32313.77
699.614	32147.45
699.96	32094.57
700.306	32259.76
700.651	31909.03
700.997	31898.86
701.342	31852.09
701.688	31764.63
702.033	31735.25
702.379	31601.47
702.724	31508.37
703.069	31641.92
703.415	31288.03
703.76	31374.36
704.105	31312.44
704.45	31246.68
704.795	31034.48
705.14	30971.66
705.485	30950.42
705.83	30855.05
706.175	30907.48
706.52	30697.77
706.865	30695.51
707.209	30721.95
707.554	30369.41
707.899	30595.62
708.243	30457.77
708.588	30326.48
708.932	30156.54
709.277	30105.69
709.621	30139.36
709.966	30006.71
710.31	29976.2
710.654	29722.42
710.998	29783.89
711.342	29784.34
711.687	29682.43
712.031	29607.17
712.375	29407.18
712.719	29475.43
713.063	29470.68
713.407	29559.94
713.75	29430.23
714.094	29333.96
714.438	29314.98
714.782	29234.3
715.125	29184.59
715.469	29206.51
715.812	29002.9
716.156	28834.09
716.499	28836.57
716.843	28965.61
717.186	28740.53
717.53	28815.33
717.873	28847.87
718.216	28776.46
718.559	28586.41
718.902	28413.98
719.246	28551.83
719.589	28343.7
719.932	28347.55
720.275	28285.4
720.617	28208.11
720.96	28198.17
721.303	28189.13
721.646	28211.96
721.989	28082.92
722.331	28071.39
722.674	28117.5
723.016	27959.99
723.359	27895.81
723.701	27979.19
724.044	27789.37
724.386	27695.36
724.729	27789.14
725.071	27737.62
725.413	27747.34
725.755	27661.91
726.097	27627.56
726.439	27381.02
726.782	27502.14
727.124	27570.39
727.465	27375.59
727.807	27321.13
728.149	27220.57
728.491	27333.79
728.833	27368.36
729.175	27170.63
729.516	27127.01
729.858	27077.07
730.199	27141.02
730.541	27178.08
730.882	27019.22
731.224	27014.93
731.565	26777.87
731.906	27041.37
732.248	26857.42
732.589	26765.67
732.93	26630.75
733.271	26711.88
733.612	26676.63
733.953	26646.8
734.294	26621.49
734.635	26500.81
734.976	26627.14
735.317	26421.27
735.658	26354.6
735.999	26430.31
736.339	26408.61
736.68	26430.31
737.021	26285.23
737.361	26178.56
737.702	26301.95
738.042	26186.92
738.383	26177.89
738.723	26130.43
739.063	26069.64
739.404	26174.72
739.744	26140.6
740.084	26068.96
740.424	25982.41
740.764	25949.64
741.104	25946.93
741.444	25822.41
741.784	25740.38
742.124	25797.78
742.464	25762.75
742.804	25699.25
743.143	25823.32
743.483	25612.25
743.823	25579.03
744.162	25569.77
744.502	25615.64
744.841	25367.06
745.181	25527.51
745.52	25390.34
745.86	25507.85
746.199	25380.84
746.538	25370.9
746.877	25423.55
747.216	25325.25
747.556	25204.58
747.895	25199.61
748.234	25174.3
748.573	25114.41
748.911	25113.51
749.25	25170
749.589	25004.58
749.928	25004.58
750.267	25106.73
750.605	24995.77
750.944	24953.96
751.283	24776.34
751.621	24877.58
751.96	24680.75
752.298	24728.88
752.636	24733.63
752.975	24553.75
753.313	24527.08
753.651	24506.29
753.989	24442.79
754.327	24444.82
754.666	24342.45
755.004	24344.26
755.342	24344.94
755.679	24328.89
756.017	24277.14
756.355	24236.47
756.693	24119.86
757.031	24072.63
757.368	24030.6
757.706	23918.06
758.044	23867.66
758.381	23932.07
758.719	23763.03
759.056	23887.1
