Data from hue_130_FLMS001491_00002.txt Node
Date: Tue Feb 07 16:57:04 GMT 2017
User: dcchb
Spectrometer: FLMS00149
Trigger mode: 0
Integration Time (sec): 2.000000E-2
Scans to average: 10
Electric dark correction enabled: true
Nonlinearity correction enabled: false
Boxcar width: 0
XAxis mode: Wavelengths
Number of Pixels in Spectrum: 2048
>>>>>Begin Spectral Data<<<<<
341.393	-8.76
341.776	-8.76
342.16	-8.76
342.543	-73.16
342.927	-75.87
343.31	-69.77
343.693	-89.43
344.077	-53.95
344.46	-68.19
344.843	-62.31
345.226	-52.37
345.61	-19.6
345.993	-23.67
346.376	-6.05
346.759	7.06
347.142	36.89
347.525	47.29
347.908	69.43
348.291	87.74
348.674	85.48
349.057	111.47
349.44	119.6
349.823	144.23
350.206	176.78
350.588	181.52
350.971	207.96
351.354	224.68
351.737	248.41
352.119	231.69
352.502	262.2
352.884	271.69
353.267	297.22
353.65	287.05
354.032	304.68
354.414	303.33
354.797	334.06
355.179	313.49
355.562	313.95
355.944	323.44
356.326	338.35
356.709	333.61
357.091	359.82
357.473	347.84
357.855	346.71
358.238	340.61
358.62	335.87
359.002	341.06
359.384	346.49
359.766	337
360.148	326.6
360.53	327.28
360.912	342.42
361.294	321.86
361.676	348.3
362.057	344.68
362.439	332.48
362.821	338.58
363.203	315.3
363.584	310.1
363.966	331.8
364.348	329.09
364.729	338.35
365.111	326.38
365.493	324.57
365.874	328.86
366.256	306.26
366.637	321.4
367.019	308.3
367.4	320.95
367.781	311.69
368.163	306.04
368.544	319.82
368.925	322.76
369.306	324.79
369.688	308.3
370.069	300.16
370.45	294.06
370.831	294.29
371.212	324.57
371.593	301.74
371.974	306.04
372.355	323.44
372.736	330.9
373.117	321.4
373.498	331.57
373.879	314.4
374.26	302.2
374.641	316.43
375.021	324.79
375.402	339.03
375.783	338.58
376.163	319.6
376.544	315.3
376.925	318.24
377.305	331.8
377.686	311.91
378.066	306.49
378.447	325.25
378.827	312.14
379.208	348.3
379.588	329.31
379.968	359.6
380.349	333.83
380.729	335.87
381.109	353.49
381.489	330.22
381.87	355.98
382.25	366.6
382.63	343.55
383.01	344.91
383.39	357.34
383.77	360.27
384.15	358.24
384.53	344
384.91	355.3
385.29	352.82
385.67	337.45
386.049	363.44
386.429	370.44
386.809	389.2
387.189	377.45
387.568	344
387.948	350.56
388.328	356.88
388.707	355.53
389.087	356.21
389.466	369.31
389.846	356.43
390.225	353.95
390.605	348.75
390.984	363.44
391.363	380.16
391.743	350.33
392.122	366.83
392.501	358.47
392.881	388.29
393.26	380.39
393.639	383.1
394.018	392.81
394.397	392.59
394.776	365.92
395.155	385.13
395.534	418.35
395.913	395.98
396.292	385.58
396.671	402.76
397.05	393.72
397.429	375.64
397.808	412.7
398.186	407.5
398.565	394.85
398.944	395.53
399.323	398.24
399.701	413.83
400.08	414.96
400.458	392.81
400.837	406.6
401.215	425.58
401.594	422.87
401.972	409.99
402.351	431.46
402.729	420.16
403.107	425.13
403.486	419.71
403.864	430.1
404.242	425.36
404.62	426.94
404.999	412.7
405.377	451.8
405.755	421.51
406.133	438.69
406.511	412.7
406.889	435.3
407.267	455.41
407.645	455.64
408.023	432.36
408.401	488.41
408.779	461.74
409.156	470.78
409.534	483.21
409.912	475.07
410.29	490.89
410.667	473.49
411.045	481.17
411.422	475.98
411.8	482.08
412.178	480.27
412.555	499.03
412.933	479.37
413.31	507.16
413.687	489.99
414.065	501.96
414.442	526.14
414.819	514.39
415.197	526.14
415.574	527.73
415.951	526.37
416.328	541.96
416.705	525.92
417.082	530.66
417.46	543.55
417.837	524.79
418.214	533.38
418.591	536.99
418.967	528.4
419.344	534.28
419.721	540.38
420.098	558.91
420.475	562.08
420.852	560.72
421.228	583.32
421.605	553.26
421.982	580.61
422.358	565.69
422.735	568.86
423.111	599.14
423.488	589.87
423.864	578.57
424.241	594.39
424.617	613.15
424.994	614.5
425.37	600.72
425.746	610.21
426.123	611.11
426.499	600.04
426.875	596.2
427.251	627.16
427.627	625.35
428.003	616.54
428.379	644.56
428.756	671.23
429.132	650.21
429.507	644.33
429.883	673.94
430.259	663.32
430.635	675.07
431.011	652.69
431.387	688.17
431.763	683.43
432.138	696.54
432.514	686.59
432.89	704.67
433.265	721.39
433.641	729.3
434.016	693.82
434.392	748.06
434.767	745.8
435.143	748.74
435.518	767.49
435.894	759.58
436.269	780.37
436.644	791.9
437.02	779.25
437.395	810.43
437.77	804.1
438.145	811.11
438.52	806.59
438.895	831.45
439.271	806.14
439.646	835.51
440.021	838
440.395	838.23
440.77	854.27
441.145	830.09
441.52	862.63
441.895	859.24
442.27	882.07
442.645	887.04
443.019	880.03
443.394	883.2
443.769	878.45
444.143	891.33
444.518	907.38
444.892	884.78
445.267	897.21
445.641	925.23
446.016	926.36
446.39	933.37
446.764	933.37
447.139	941.05
447.513	929.07
447.887	965.68
448.262	940.6
448.636	951.22
449.01	973.14
449.384	956.87
449.758	994.15
450.132	979.24
450.506	996.87
450.88	997.32
451.254	1020.37
451.628	1038.22
452.002	1050.2
452.376	1042.97
452.75	1032.35
453.123	1073.7
453.497	1085.9
453.871	1079.35
454.244	1099.91
454.618	1148.27
454.992	1105.79
455.365	1139.91
455.739	1123.19
456.112	1164.77
456.486	1213.81
456.859	1185.79
457.232	1163.42
457.606	1208.39
457.979	1236.86
458.352	1249.29
458.725	1260.59
459.099	1227.37
459.472	1303.75
459.845	1293.58
460.218	1299.23
460.591	1327.71
460.964	1342.17
461.337	1375.16
461.71	1364.77
462.083	1395.95
462.456	1404.99
462.829	1408.61
463.201	1405.67
463.574	1447.7
463.947	1445.89
464.32	1492.9
464.692	1515.04
465.065	1519.11
465.438	1593.01
465.81	1583.97
466.183	1587.13
466.555	1615.16
466.928	1608.6
467.3	1664.42
467.672	1696.28
468.045	1728.15
468.417	1751.65
468.789	1776.96
469.161	1785.32
469.534	1830.29
469.906	1882.27
470.278	1874.58
470.65	1906.67
471.022	1966.78
471.394	2023.51
471.766	1989.61
472.138	2063.28
472.51	2125.42
472.882	2165.2
473.253	2189.15
473.625	2231.41
473.997	2304.63
474.369	2311.41
474.74	2382.59
475.112	2440.67
475.484	2483.83
475.855	2526.54
476.227	2569.03
476.598	2699.87
476.97	2729.93
477.341	2771.96
477.713	2871.62
478.084	2902.35
478.455	2993.42
478.827	3065.96
479.198	3185.74
479.569	3164.27
479.94	3330.59
480.311	3401.1
480.682	3491.94
481.053	3626.63
481.424	3711.15
481.795	3792.05
482.166	3874.3
482.537	4005.37
482.908	4076.33
483.279	4154.75
483.65	4281.53
484.021	4479.03
484.391	4554.29
484.762	4628.86
485.133	4749.99
485.503	4807.84
485.874	4990.43
486.244	5032.69
486.615	5276.98
486.985	5334.38
487.356	5528.72
487.726	5629.96
488.097	5810.53
488.467	5840.35
488.837	6053.46
489.207	6185.88
489.578	6340.45
489.948	6460.68
490.318	6641.46
490.688	6694.34
491.058	6862.47
491.428	7010.04
491.798	7135.01
492.168	7383.59
492.538	7516.02
492.908	7609.35
493.278	7804.15
493.648	7881.21
494.017	8070.58
494.387	8225.83
494.757	8309.67
495.126	8515.76
495.496	8534.97
495.866	8664.46
496.235	8771.8
496.605	9013.15
496.974	9048.18
497.344	9223.77
497.713	9397.78
498.082	9544.44
498.452	9632.57
498.821	9758.67
499.19	9812
499.559	9982.62
499.928	10067.36
500.298	10189.85
500.667	10273.23
501.036	10391.2
501.405	10530.4
501.774	10611.08
502.143	10777.63
502.512	10827.57
502.88	10917.96
503.249	10994.34
503.618	11009.71
503.987	11211.29
504.356	11258.07
504.724	11347.78
505.093	11434.56
505.462	11566.98
505.83	11668.68
506.199	11734.21
506.567	11909.35
506.936	11869.57
507.304	12102.56
507.672	12153.41
508.041	12209.68
508.409	12275.21
508.777	12352.05
509.145	12483.34
509.514	12483.34
509.882	12566.51
510.25	12615.54
510.618	12704.36
510.986	12741.19
511.354	12870.23
511.722	12948.19
512.09	13133.5
512.458	13016.21
512.826	13123.1
513.193	13202.2
513.561	13199.26
513.929	13330.1
514.297	13432.7
514.664	13517.44
515.032	13527.84
515.4	13566.93
515.767	13595.41
516.135	13655.74
516.502	13522.64
516.869	13799.92
517.237	13695.97
517.604	13718.57
517.972	13865.45
518.339	13852.35
518.706	13905
519.073	14081.04
519.44	14084.66
519.808	14156.52
520.175	14053.7
520.542	14241.72
520.909	14218.67
521.276	14202.85
521.643	14379.11
522.009	14415.72
522.376	14465.89
522.743	14465.44
523.11	14617.98
523.477	14639.9
523.843	14678.54
524.21	14730.74
524.577	14732.55
524.943	14731.42
525.31	14820.23
525.676	14919.44
526.043	14940
526.409	14902.49
526.776	15028.36
527.142	14958.53
527.508	15015.48
527.874	14962.83
528.241	15171.18
528.607	15117.4
528.973	15203.72
529.339	15111.3
529.705	15177.28
530.071	15222.03
530.437	15194.91
530.803	15311.07
531.169	15240.79
531.535	15239.66
531.901	15083.5
532.267	15116.95
532.632	15211.18
532.998	15283.95
533.364	15161.47
533.73	15159.43
534.095	15205.08
534.461	15189.49
534.826	15206.21
535.192	15188.58
535.557	15221.13
535.923	15069.72
536.288	15174.35
536.653	15129.6
537.019	15134.8
537.384	15140.45
537.749	15122.37
538.114	15152.2
538.479	15017.29
538.845	15106.33
539.21	14926.67
539.575	14946.33
539.94	14928.48
540.305	14956.73
540.67	14869.04
541.034	14862.49
541.399	14776.62
541.764	14881.93
542.129	14736.84
542.494	14724.42
542.858	14693.91
543.223	14693.91
543.587	14647.58
543.952	14578.88
544.316	14569.16
544.681	14529.39
545.045	14522.84
545.41	14609.16
545.774	14540.92
546.138	14500.92
546.503	14441.71
546.867	14382.96
547.231	14374.14
547.595	14333.92
547.959	14338.66
548.324	14292.56
548.688	14244.43
549.052	14235.84
549.416	14281.71
549.779	14234.26
550.143	14165.79
550.507	14162.85
550.871	14147.71
551.235	14047.82
551.599	14079.91
551.962	14003.76
552.326	14092.12
552.689	14112.23
553.053	13966.47
553.417	13861.39
553.78	14064.32
554.143	13891.67
554.507	14031.78
554.87	13955.85
555.234	14008.28
555.597	13880.37
555.96	13814.16
556.323	13826.59
556.686	13866.13
557.05	13906.13
557.413	13865.68
557.776	13780.94
558.139	13852.12
558.502	13848.51
558.865	13829.3
559.228	13833.59
559.59	13818.9
559.953	13927.37
560.316	13868.84
560.679	13930.99
561.041	13880.37
561.404	13961.27
561.767	13975.96
562.129	13820.71
562.492	13928.96
562.854	13919.46
563.217	13881.5
563.579	13964.66
563.941	13942.74
564.304	13940.71
564.666	13935.51
565.028	13954.94
565.39	14030.87
565.753	13950.42
566.115	13987.03
566.477	14054.15
566.839	13933.48
567.201	14164.43
567.563	14081.49
567.925	14178.44
568.287	14092.12
568.648	14168.95
569.01	14144.09
569.372	14244.2
569.734	14144.77
570.095	14175.73
570.457	14210.76
570.819	14243.52
571.18	14206.24
571.542	14310.87
571.903	14335.5
572.265	14329.85
572.626	14333.24
572.987	14323.07
573.349	14310.64
573.71	14340.24
574.071	14383.63
574.432	14320.58
574.794	14444.42
575.155	14392.45
575.516	14326.46
575.877	14503.4
576.238	14356.97
576.599	14408.27
576.96	14398.1
577.32	14437.64
577.681	14412.78
578.042	14511.54
578.403	14573.01
578.763	14510.86
579.124	14428.15
579.485	14490.07
579.845	14483.74
580.206	14491.43
580.566	14482.84
580.927	14497.75
581.287	14538.88
581.648	14435.38
582.008	14544.98
582.368	14547.7
582.728	14495.04
583.089	14443.07
583.449	14473.57
583.809	14466.57
584.169	14409.62
584.529	14389.51
584.889	14527.81
585.249	14417.3
585.609	14349.74
585.969	14316.29
586.329	14416.4
586.688	14431.54
587.048	14395.61
587.408	14363.07
587.768	14358.32
588.127	14326.69
588.487	14368.27
588.846	14315.39
589.206	14375.95
589.565	14272.9
589.925	14410.07
590.284	14287.59
590.643	14351.54
591.003	14235.61
591.362	14335.27
591.721	14298.21
592.08	14224.99
592.44	14324.88
592.799	14324.65
593.158	14284.2
593.517	14312.67
593.876	14225.45
594.235	14225.9
594.593	14233.58
594.952	14239.68
595.311	14174.37
595.67	14196.97
596.029	14266.8
596.387	14275.39
596.746	14274.26
597.104	14175.73
597.463	14142.28
597.822	14185.9
598.18	14189.51
598.538	14074.49
598.897	14208.72
599.255	14044.43
599.613	14238.1
599.972	14165.56
600.33	14229.06
600.688	14083.3
601.046	14242.62
601.404	14215.5
601.762	14321.49
602.12	14292.34
602.478	14271.55
602.836	14274.48
603.194	14207.82
603.552	14138.22
603.91	14191.55
604.268	14297.08
604.625	14202.85
604.983	14181.83
605.341	14185.9
605.698	14262.73
606.056	14251.89
606.413	14186.12
606.771	14192.23
607.128	14275.61
607.485	14124.66
607.843	14241.49
608.2	14218.89
608.557	14279.91
608.914	14162.85
609.272	14303.64
609.629	14264.77
609.986	14429.28
610.343	14337.98
610.7	14384.99
611.057	14403.97
611.414	14415.72
611.771	14293.47
612.127	14395.61
612.484	14496.17
612.841	14498.21
613.198	14342.5
613.554	14407.36
613.911	14425.67
614.267	14439
614.624	14435.16
614.98	14493.23
615.337	14536.85
615.693	14470.41
616.05	14475.61
616.406	14540.69
616.762	14557.19
617.118	14463.86
617.475	14535.72
617.831	14524.87
618.187	14568.49
618.543	14577.07
618.899	14737.97
619.255	14629.95
619.611	14660.46
619.967	14665.43
620.323	14662.95
620.678	14577.98
621.034	14536.62
621.39	14633.8
621.746	14698.88
622.101	14671.31
622.457	14619.79
622.812	14609.39
623.168	14679.44
623.523	14681.03
623.879	14655.26
624.234	14613.91
624.589	14577.53
624.945	14679.67
625.3	14673.34
625.655	14720.12
626.01	14622.95
626.365	14668.6
626.72	14630.18
627.075	14691.42
627.43	14595.38
627.785	14534.82
628.14	14729.84
628.495	14627.02
628.85	14631.31
629.205	14508.15
629.559	14646
629.914	14537.75
630.269	14621.82
630.623	14525.1
630.978	14517.41
631.332	14603.97
631.687	14640.12
632.041	14560.35
632.396	14589.73
632.75	14526.91
633.104	14523.97
633.459	14507.7
633.813	14464.76
634.167	14447.59
634.521	14389.96
634.875	14486
635.229	14389.96
635.583	14340.7
635.937	14327.14
636.291	14293.69
636.645	14396.51
636.999	14298.44
637.352	14400.81
637.706	14169.85
638.06	14353.13
638.413	14149.29
638.767	14150.87
639.121	14214.37
639.474	14153.36
639.828	14048.73
640.181	14119.46
640.534	14230.64
640.888	14199.91
641.241	14071.55
641.594	14086.01
641.947	14149.51
642.301	14088.27
642.654	14070.87
643.007	14134.83
643.36	14072.68
643.713	14029.07
644.066	14098.44
644.419	13952.68
644.771	13915.62
645.124	13808.73
645.477	13821.16
645.83	13782.97
646.182	13705.01
646.535	13588.63
646.888	13629.3
647.24	13538.91
647.593	13648.29
647.945	13589.08
648.298	13513.6
648.65	13457.78
649.002	13438.12
649.355	13549.3
649.707	13502.07
650.059	13599.47
650.411	13723.99
650.763	13657.55
651.115	13961.27
651.467	13883.08
651.819	13908.84
652.171	13779.13
652.523	13766.25
652.875	13849.41
653.227	13801.95
653.578	13862.29
653.93	13802.63
654.282	13842.86
654.633	13757.66
654.985	13813.93
655.337	13858.9
655.688	13806.02
656.039	13916.75
656.391	13742.97
656.742	13864.32
657.094	13843.08
657.445	13854.38
657.796	13797.43
658.147	13795.4
658.498	13803.76
658.849	13874.95
659.2	13892.8
659.551	13817.32
659.902	13901.39
660.253	13826.59
660.604	13838.79
660.955	13768.28
661.306	13899.35
661.656	13914.27
662.007	13876.3
662.358	13797.66
662.708	13872.46
663.059	13948.62
663.409	13809.18
663.76	13904.32
664.11	13923.31
664.461	13914.94
664.811	13964.21
665.161	13922.85
665.511	13890.54
665.862	13909.75
666.212	13926.24
666.562	13907.49
666.912	13830.65
667.262	13918.11
667.612	13931.89
667.962	13902.06
668.312	13851.44
668.662	13941.84
669.011	13867.04
669.361	13864.78
669.711	13815.06
670.06	13867.49
670.41	13807.15
670.76	13850.77
671.109	13917.88
671.459	13838.34
671.808	13905.45
672.157	13856.64
672.507	13709.98
672.856	13750.88
673.205	13815.51
673.554	13797.21
673.904	13662.52
674.253	13820.26
674.602	13771.22
674.951	13576.87
675.3	13468.4
675.649	13709.75
675.998	13631.79
676.346	13661.39
676.695	13763.76
677.044	13565.35
677.393	13624.56
677.741	13639.25
678.09	13571.68
678.438	13545.69
678.787	13573.48
679.135	13518.12
679.484	13494.16
679.832	13607.38
680.181	13425.47
680.529	13439.48
680.877	13434.96
681.225	13387.95
681.573	13484.9
681.922	13394.05
682.27	13395.41
682.618	13332.14
682.966	13262.53
683.314	13338.24
683.661	13242.65
684.009	13310.67
684.357	13217.34
684.705	13160.16
685.053	13227.73
685.4	13140.05
685.748	13040.39
686.095	13096.66
686.443	13071.35
686.79	13014.4
687.138	13049.88
687.485	13015.08
687.832	13003.33
688.18	13006.04
688.527	12958.81
688.874	12865.03
689.221	12833.62
689.568	12745.48
689.915	12763.11
690.262	12725.37
690.609	12729.44
690.956	12679.5
691.303	12677.92
691.65	12558.37
691.997	12500.97
692.344	12472.5
692.69	12478.37
693.037	12388.66
693.383	12338.94
693.73	12379.62
694.077	12281.09
694.423	12272.73
694.769	12250.13
695.116	12155.67
695.462	12097.82
695.808	12134.65
696.155	12157.93
696.501	11977.37
696.847	12016.92
697.193	11877.48
697.539	11960.42
697.885	11801.78
698.231	11843.81
698.577	11792.97
698.923	11745.06
699.269	11719.97
699.614	11680.43
699.96	11635
700.306	11592.29
700.651	11483.14
700.997	11545.97
701.342	11465.97
701.688	11395.69
702.033	11415.8
702.379	11398.63
702.724	11333.09
703.069	11366.31
703.415	11163.6
703.76	11195.47
704.105	11204.73
704.45	11178.52
704.795	11089.93
705.14	11016.26
705.485	11052.2
705.83	10981.91
706.175	10938.07
706.52	10881.58
706.865	10894.46
707.209	10901.24
707.554	10795.25
707.899	10862.14
708.243	10747.34
708.588	10756.61
708.932	10696.27
709.277	10673.22
709.621	10739.44
709.966	10591.64
710.31	10665.54
710.654	10522.27
710.998	10576.73
711.342	10532.66
711.687	10428.26
712.031	10432.55
712.375	10390.74
712.719	10442.04
713.063	10394.81
713.407	10433
713.75	10459.22
714.094	10333.8
714.438	10335.15
714.782	10386.22
715.125	10325.89
715.469	10314.36
715.812	10239.79
716.156	10187.81
716.499	10205.21
716.843	10259.45
717.186	10108.04
717.53	10204.08
717.873	10216.06
718.216	10218.54
718.559	10077.31
718.902	10094.03
719.246	10084.54
719.589	10044.76
719.932	10011.32
720.275	9934.26
720.617	10026.91
720.96	9937.42
721.303	9995.05
721.646	9969.74
721.989	9932.45
722.331	10005.67
722.674	9940.13
723.016	9911.89
723.359	9902.39
723.701	9932.9
724.044	9877.76
724.386	9852.9
724.729	9818.1
725.071	9848.84
725.413	9831.44
725.755	9814.04
726.097	9812.68
726.439	9750.08
726.782	9775.62
727.124	9782.17
727.465	9762.74
727.807	9753.02
728.149	9768.39
728.491	9795.05
728.833	9766.13
729.175	9733.13
729.516	9711.67
729.858	9672.12
730.199	9751.21
730.541	9700.59
730.882	9759.8
731.224	9746.92
731.565	9630.99
731.906	9750.76
732.248	9670.99
732.589	9701.27
732.93	9647.26
733.271	9628.5
733.612	9673.7
733.953	9698.56
734.294	9682.74
734.635	9611.56
734.976	9680.93
735.317	9672.34
735.658	9636.41
735.999	9716.41
736.339	9750.53
736.68	9707.6
737.021	9696.07
737.361	9620.82
737.702	9676.41
738.042	9684.77
738.383	9647.49
738.723	9757.09
739.063	9733.36
739.404	9717.09
739.744	9713.93
740.084	9709.63
740.424	9707.15
740.764	9726.58
741.104	9789.4
741.444	9740.82
741.784	9756.41
742.124	9806.35
742.464	9787.14
742.804	9796.64
743.143	9858.1
743.483	9869.18
743.823	9895.62
744.162	9881.83
744.502	9936.29
744.841	9943.98
745.181	10022.17
745.52	9950.3
745.86	10095.38
746.199	10079.34
746.538	10153.01
746.877	10192.1
747.216	10262.84
747.556	10295.38
747.895	10356.62
748.234	10429.39
748.573	10430.97
748.911	10481.14
749.25	10514.81
749.589	10650.17
749.928	10697.18
750.267	10678.87
750.605	10789.38
750.944	10840.9
751.283	10995.7
751.621	10981.46
751.96	11015.36
752.298	11228.01
752.636	11321.79
752.975	11314.79
753.313	11419.64
753.651	11628.23
753.989	11664.38
754.327	11795.23
754.666	11864.38
755.004	12010.36
755.342	12190.7
755.679	12325.16
756.017	12427.07
756.355	12627.52
756.693	12738.48
757.031	12893.5
757.368	12902.99
757.706	13146.6
758.044	13287.62
