Data from hue_00_FLMS001491_39.txt Node
Date: Mon Feb 06 15:29:38 GMT 2017
User: dcchb
Spectrometer: FLMS00149
Trigger mode: 0
Integration Time (sec): 2.000000E-2
Scans to average: 10
Electric dark correction enabled: true
Nonlinearity correction enabled: false
Boxcar width: 0
XAxis mode: Wavelengths
Number of Pixels in Spectrum: 2048
>>>>>Begin Spectral Data<<<<<
341.393	-11.82
341.776	-11.82
342.16	-11.82
342.543	-61.99
342.927	-86.62
343.31	-88.66
343.693	-65.15
344.077	-58.6
344.46	-61.54
344.843	-50.24
345.226	-49.33
345.61	-29.9
345.993	-18.15
346.376	-21.54
346.759	20.04
347.142	34.96
347.525	48.29
347.908	52.58
348.291	77.44
348.674	98.68
349.057	111.11
349.44	138
349.823	154.73
350.206	147.72
350.588	218
350.971	194.27
351.354	228.17
351.737	208.51
352.119	222.75
352.502	254.84
352.884	272.46
353.267	274.72
353.65	292.13
354.032	290.09
354.414	312.24
354.797	296.19
355.179	336.87
355.562	312.92
355.944	342.29
356.326	328.51
356.709	338.9
357.091	341.39
357.473	328.73
357.855	335.74
358.238	334.84
358.62	360.6
359.002	323.54
359.384	348.62
359.766	344.78
360.148	336.19
360.53	335.74
360.912	323.08
361.294	320.6
361.676	323.08
362.057	321.95
362.439	321.28
362.821	333.93
363.203	327.6
363.584	329.19
363.966	330.54
364.348	307.27
364.729	330.99
365.111	313.82
365.493	311.33
365.874	327.38
366.256	306.36
366.637	297.55
367.019	308.85
367.4	295.51
367.781	313.37
368.163	317.66
368.544	324.89
368.925	325.12
369.306	312.24
369.688	305.23
370.069	305.91
370.45	292.13
370.831	307.04
371.212	315.85
371.593	299.36
371.974	316.98
372.355	306.14
372.736	296.87
373.117	293.26
373.498	308.17
373.879	314.5
374.26	306.36
374.641	312.01
375.021	310.2
375.402	323.08
375.783	307.72
376.163	311.79
376.544	314.72
376.925	309.07
377.305	314.5
377.686	310.43
378.066	317.89
378.447	338.68
378.827	326.02
379.208	327.15
379.588	303.2
379.968	324.44
380.349	336.64
380.729	339.13
381.109	329.64
381.489	303.88
381.87	332.8
382.25	318.57
382.63	339.36
383.01	345.01
383.39	333.71
383.77	323.99
384.15	345.91
384.53	315.18
384.91	335.06
385.29	349.75
385.67	336.64
386.049	339.58
386.429	348.17
386.809	346.36
387.189	345.01
387.568	340.03
387.948	359.92
388.328	340.94
388.707	362.86
389.087	343.2
389.466	350.43
389.846	374.83
390.225	367.83
390.605	339.13
390.984	369.86
391.363	352.01
391.743	384.78
392.122	330.77
392.501	353.82
392.881	370.99
393.26	355.85
393.639	332.8
394.018	356.3
394.397	346.59
394.776	367.15
395.155	370.77
395.534	379.58
395.913	355.17
396.292	380.48
396.671	366.47
397.05	366.25
397.429	374.61
397.808	361.05
398.186	385.68
398.565	383.87
398.944	383.2
399.323	392.69
399.701	389.98
400.08	392.24
400.458	405.12
400.837	401.73
401.215	387.49
401.594	390.65
401.972	381.61
402.351	393.82
402.729	378.9
403.107	398.11
403.486	380.48
403.864	389.52
404.242	403.76
404.62	398.79
404.999	413.48
405.377	404.66
405.755	414.38
406.133	438.34
406.511	397.21
406.889	425
407.267	400.82
407.645	399.69
408.023	412.8
408.401	408.51
408.779	421.84
409.156	446.02
409.534	429.97
409.912	417.55
410.29	425
410.667	444.66
411.045	445.12
411.422	444.44
411.8	462.97
412.178	460.71
412.555	445.79
412.933	460.71
413.31	457.32
413.687	456.41
414.065	467.94
414.442	466.36
414.819	470.2
415.197	460.26
415.574	483.98
415.951	476.08
416.328	471.78
416.705	488.5
417.082	491.22
417.46	480.14
417.837	487.83
418.214	504.1
418.591	504.1
418.967	509.97
419.344	513.36
419.721	504.32
420.098	507.26
420.475	494.15
420.852	513.36
421.228	516.53
421.605	516.75
421.982	497.77
422.358	529.18
422.735	517.43
423.111	521.72
423.488	518.79
423.864	523.76
424.241	545
424.617	545.68
424.994	559.46
425.37	547.94
425.746	549.75
426.123	580.93
426.499	552.91
426.875	582.51
427.251	558.11
427.627	538.45
428.003	569.18
428.379	576.19
428.756	580.48
429.132	596.98
429.507	580.48
429.883	596.98
430.259	599.91
430.635	611.89
431.011	609.4
431.387	626.35
431.763	628.61
432.138	628.16
432.514	631.55
432.89	634.26
433.265	656.18
433.641	655.51
434.016	652.12
434.392	650.99
434.767	695.05
435.143	665.9
435.518	666.35
435.894	671.55
436.269	713.81
436.644	676.97
437.02	675.17
437.395	685.79
437.77	693.47
438.145	681.72
438.52	716.07
438.895	708.39
439.271	712.45
439.646	731.89
440.021	714.03
440.395	722.4
440.77	708.84
441.145	735.05
441.52	752
441.895	725.33
442.27	738.67
442.645	752.23
443.019	733.24
443.394	744.99
443.769	753.36
444.143	768.72
444.518	766.91
444.892	777.08
445.267	756.07
445.641	784.54
446.016	782.51
446.39	768.95
446.764	772.79
447.139	786.35
447.513	807.59
447.887	797.2
448.262	813.24
448.636	820.25
449.01	811.66
449.384	829.06
449.758	818.21
450.132	825.9
450.506	824.77
450.88	849.4
451.254	863.86
451.628	824.31
452.002	848.95
452.376	865.22
452.75	856.63
453.123	857.99
453.497	882.17
453.871	862.73
454.244	874.48
454.618	887.36
454.992	913.35
455.365	921.26
455.739	921.26
456.112	912.45
456.486	932.56
456.859	945.89
457.232	950.41
457.606	951.77
457.979	957.87
458.352	982.73
458.725	993.58
459.099	967.59
459.472	1026.8
459.845	1003.74
460.218	1000.58
460.591	990.64
460.964	1027.02
461.337	1058.88
461.71	1046.46
462.083	1068.6
462.456	1072.67
462.829	1079.45
463.201	1069.73
463.574	1089.39
463.947	1129.39
464.32	1119.9
464.692	1157.87
465.065	1149.5
465.438	1167.81
465.81	1149.5
466.183	1196.06
466.555	1176.62
466.928	1207.36
467.3	1225.89
467.672	1243.51
468.045	1254.81
468.417	1230.18
468.789	1249.61
469.161	1292.78
469.534	1293.45
469.906	1321.7
470.278	1345.43
470.65	1346.56
471.022	1370.74
471.394	1384.98
471.766	1401.02
472.138	1416.16
472.51	1449.83
472.882	1465.43
473.253	1502.94
473.625	1504.07
473.997	1513.34
474.369	1548.36
474.74	1531.41
475.112	1560.57
475.484	1597.18
475.855	1625.2
476.227	1668.59
476.598	1705.87
476.97	1708.13
477.341	1757.17
477.713	1739.54
478.084	1792.2
478.455	1821.58
478.827	1873.1
479.198	1910.16
479.569	1943.61
479.94	1974.79
480.311	1989.71
480.682	2029.93
481.053	2058.41
481.424	2110.61
481.795	2130.04
482.166	2163.04
482.537	2198.06
482.908	2254.56
483.279	2253.66
483.65	2290.04
484.021	2382.01
484.391	2406.19
484.762	2434.89
485.133	2433.99
485.503	2475.34
485.874	2551.95
486.244	2552.18
486.615	2655
486.985	2662.23
487.356	2717.6
487.726	2752.85
488.097	2812.51
488.467	2823.81
488.837	2856.8
489.207	2927.76
489.578	2942
489.948	2989
490.318	3022
490.688	3039.62
491.058	3094.76
491.428	3144.03
491.798	3169.34
492.168	3246.85
492.538	3253.86
492.908	3301.76
493.278	3323.23
493.648	3337.69
494.017	3383.34
494.387	3399.39
494.757	3445.04
495.126	3479.61
495.496	3498.14
495.866	3476.67
496.235	3610
496.605	3608.87
496.974	3637.8
497.344	3705.14
497.713	3665.6
498.082	3722.54
498.452	3727.51
498.821	3767.51
499.19	3819.04
499.559	3807.74
499.928	3837.57
500.298	3861.75
500.667	3898.13
501.036	3896.78
501.405	3901.3
501.774	3958.02
502.143	3961.63
502.512	3997.34
502.88	3991.91
503.249	4016.09
503.618	4024
503.987	4086.6
504.356	4142.87
504.724	4155.75
505.093	4155.98
505.462	4184
505.83	4165.92
506.199	4198.01
506.567	4238.24
506.936	4259.48
507.304	4326.37
507.672	4268.97
508.041	4277.33
508.409	4315.97
508.777	4366.82
509.145	4331.11
509.514	4385.12
509.882	4402.75
510.25	4447.95
510.618	4489.08
510.986	4455.86
511.354	4495.4
511.722	4502.41
512.09	4509.42
512.458	4517.1
512.826	4542.86
513.193	4533.37
513.561	4586.48
513.929	4588.96
514.297	4665.57
514.664	4623.08
515.032	4668.73
515.4	4690.43
515.767	4708.05
516.135	4710.99
516.502	4728.84
516.869	4782.4
517.237	4726.58
517.604	4771.33
517.972	4778.79
518.339	4772.46
518.706	4817.43
519.073	4857.43
519.44	4818.33
519.808	4900.82
520.175	4887.26
520.542	4942.62
520.909	4931.55
521.276	4970.19
521.643	4966.8
522.009	5029.4
522.376	4972.68
522.743	5030.31
523.11	5047.71
523.477	5077.31
523.843	5100.81
524.21	5073.92
524.577	5153.69
524.943	5178.32
525.31	5187.82
525.676	5288.83
526.043	5275.27
526.409	5318.43
526.776	5324.54
527.142	5352.11
527.508	5349.17
527.874	5369.51
528.241	5438.88
528.607	5404.99
528.973	5504.42
529.339	5539.44
529.705	5521.37
530.071	5530.86
530.437	5576.51
530.803	5639.78
531.169	5647.92
531.535	5671.42
531.901	5640.91
532.267	5691.53
532.632	5729.04
532.998	5708.03
533.364	5755.26
533.73	5799.55
534.095	5830.96
534.461	5780.12
534.826	5838.42
535.192	5896.27
535.557	5864.18
535.923	5932.2
536.288	5975.82
536.653	6015.82
537.019	5985.99
537.384	6056.04
537.749	6052.88
538.114	6080.45
538.479	6040.9
538.845	6132.65
539.21	6070.28
539.575	6124.97
539.94	6144.17
540.305	6223.27
540.67	6192.99
541.034	6237.28
541.399	6228.47
541.764	6321.12
542.129	6349.59
542.494	6406.99
542.858	6370.84
543.223	6359.31
543.587	6451.29
543.952	6491.28
544.316	6444.51
544.681	6501.68
545.045	6537.61
545.41	6525.18
545.774	6593.65
546.138	6577.38
546.503	6670.26
546.867	6616.03
547.231	6678.4
547.595	6744.16
547.959	6743.03
548.324	6758.4
548.688	6766.98
549.052	6804.27
549.416	6789.13
549.779	6803.14
550.143	6865.96
550.507	6837.72
550.871	6934.89
551.235	6925.62
551.599	6932.18
551.962	6950.93
552.326	6985.73
552.689	7009.24
553.053	7063.92
553.417	7023.7
553.78	7057.6
554.143	7115.67
554.507	7160.87
554.87	7152.06
555.234	7206.29
555.597	7200.87
555.96	7170.81
556.323	7249.46
556.686	7240.19
557.05	7341.43
557.413	7294.65
557.776	7368.78
558.139	7340.98
558.502	7390.24
558.865	7395.67
559.228	7461.43
559.59	7488.09
559.953	7463.91
560.316	7474.08
560.679	7559.73
561.041	7569
561.404	7552.27
561.767	7609.22
562.129	7646.51
562.492	7695.77
562.854	7706.39
563.217	7692.16
563.579	7777.58
563.941	7891.02
564.304	7826.39
564.666	7843.34
565.028	7858.93
565.39	7896.22
565.753	7874.75
566.115	7881.3
566.477	7964.24
566.839	8034.29
567.201	8009.89
567.563	7973.28
567.925	8097.8
568.287	8190
568.648	8156.78
569.01	8159.49
569.372	8139.38
569.734	8204.23
570.095	8295.08
570.457	8313.16
570.819	8335.08
571.18	8369.43
571.542	8377.56
571.903	8434.74
572.265	8502.3
572.626	8554.96
572.987	8589.08
573.349	8602.42
573.71	8671.11
574.071	8696.42
574.432	8798.57
574.794	8889.64
575.155	8896.19
575.516	8959.69
575.877	9051.67
576.238	9065.68
576.599	9131.44
576.96	9235.62
577.32	9220.93
577.681	9356.52
578.042	9479.91
578.403	9448.95
578.763	9650.07
579.124	9677.64
579.485	9749.5
579.845	9914.02
580.206	9945.88
580.566	10152.2
580.927	10210.06
581.287	10369.15
581.648	10518.52
582.008	10689.59
582.368	10771.17
582.728	10875.8
583.089	11023.82
583.449	11220.2
583.809	11337.71
584.169	11611.38
584.529	11730.69
584.889	12007.3
585.249	12191.93
585.609	12378.81
585.969	12662.42
586.329	12743.32
586.688	12982.41
587.048	13226.93
587.408	13456.3
587.768	13609.52
588.127	13866.46
588.487	14049.28
588.846	14442.04
589.206	14588.25
589.565	14869.37
589.925	15196.82
590.284	15353.42
590.643	15705.05
591.003	15967.19
591.362	16327.41
591.721	16549.1
592.08	16851.01
592.44	17111.12
592.799	17400.38
593.158	17730.76
593.517	18019.79
593.876	18340.46
594.235	18552.21
594.593	18837.17
594.952	19214.79
595.311	19538.62
595.67	19787.66
596.029	20234.43
596.387	20687.75
596.746	20930.9
597.104	21113.5
597.463	21395.75
597.822	21759.36
598.18	22010.2
598.538	22327.93
598.897	22776.05
599.255	22835.49
599.613	23488.8
599.972	23672.75
600.33	24026.87
600.688	24220.99
601.046	24480.87
601.404	24923.79
601.762	25114.75
602.12	25610.78
602.478	25863.43
602.836	26026.59
603.194	26277.43
603.552	26511.32
603.91	26809.62
604.268	27136.17
604.625	27350.85
604.983	27752.87
605.341	27934.79
605.698	28253.2
606.056	28537.03
606.413	28666.07
606.771	29157.35
607.128	29327.52
607.485	29407.29
607.843	29724.35
608.2	30112.13
608.557	30370.2
608.914	30483.2
609.272	30779.91
609.629	31106.68
609.986	31449.5
610.343	31477.07
610.7	31855.14
611.057	32056.94
611.414	32208.57
611.771	32354.11
612.127	32755.68
612.484	32909.57
612.841	33119.96
613.198	33246.96
613.554	33575.77
613.911	33804.24
614.267	33963.33
614.624	34100.05
614.98	34229.09
615.337	34480.38
615.693	34660.94
616.05	34731.67
616.406	34960.14
616.762	35027.26
617.118	35174.82
617.475	35382.73
617.831	35631.53
618.187	35714.47
618.543	35873.34
618.899	36361.46
619.255	36354.45
619.611	36484.39
619.967	36578.85
620.323	36860.88
620.678	36663.15
621.034	36933.65
621.39	36966.19
621.746	37004.15
622.101	37567.76
622.457	37339.06
622.812	37590.35
623.168	37659.5
623.523	37676.68
623.879	37852.04
624.234	37835.54
624.589	37916.45
624.945	38114.41
625.3	38108.31
625.655	38281.41
626.01	38427.39
626.365	38529.31
626.72	38435.08
627.075	38544.9
627.43	38512.36
627.785	38570.21
628.14	38700.61
628.495	38816.76
628.85	38762.75
629.205	38805.69
629.559	38917.1
629.914	38760.04
630.269	38950.32
630.623	38963.42
630.978	38976.98
631.332	39182.18
631.687	39304.66
632.041	39065.79
632.396	39276.86
632.75	39067.6
633.104	39209.52
633.459	39196.86
633.813	39133.14
634.167	39180.14
634.521	39386.46
634.875	39269.86
635.229	39294.04
635.583	39096.3
635.937	39323.87
636.291	39258.33
636.645	39266.24
636.999	39090.65
637.352	39353.92
637.706	39120.71
638.06	39433.47
638.413	39266.47
638.767	39211.1
639.121	39319.12
639.474	39085.46
639.828	39080.71
640.181	39235.28
640.534	39183.31
640.888	39159.58
641.241	38986.93
641.594	39174.94
641.947	39287.48
642.301	39167.04
642.654	39298.56
643.007	39209.75
643.36	39244.1
643.713	39111.9
644.066	39237.32
644.419	39001.39
644.771	38745.13
645.124	38311.01
645.477	38379.49
645.83	38242.77
646.182	38163.67
646.535	38008.42
646.888	38107.4
647.24	37873.06
647.593	38100.4
647.945	38073.73
648.298	37810.23
648.65	37850.91
649.002	37738.82
649.355	37820.18
649.707	38003.9
650.059	38007.29
650.411	38408.19
650.763	38445.47
651.115	38874.16
651.467	38740.15
651.819	38772.24
652.171	38772.7
652.523	38708.29
652.875	38663.09
653.227	38451.8
653.578	38823.54
653.93	38720.72
654.282	38557.56
654.633	38402.76
654.985	38386.72
655.337	38613.38
655.688	38592.13
656.039	38567.5
656.391	38355.08
656.742	38557.56
657.094	38466.26
657.445	38595.75
657.796	38379.03
658.147	38482.99
658.498	38519.14
658.849	38482.08
659.2	38279.37
659.551	38445.47
659.902	38544.68
660.253	38373.84
660.604	38491.8
660.955	38343.78
661.306	38450.9
661.656	38364.34
662.007	38444.12
662.358	38394.4
662.708	38303.1
663.059	38325.93
663.409	38001.64
663.76	38375.42
664.11	38257.23
664.461	38349.88
664.811	38379.49
665.161	38252.26
665.511	38182.43
665.862	38372.25
666.212	38361.18
666.562	38280.96
666.912	38239.6
667.262	38221.75
667.612	38136.55
667.962	38223.56
668.312	38233.27
668.662	38356.21
669.011	38239.15
669.361	38104.24
669.711	38057.23
670.06	38200.96
670.41	38088.19
670.76	38109.44
671.109	38241.64
671.459	38283.22
671.808	38073.96
672.157	38199.38
672.507	37778.37
672.856	38053.17
673.205	38076.89
673.554	38175.2
673.904	37962.77
674.253	38167.97
674.602	37888.88
674.951	37393.07
675.3	37201.89
675.649	37782.21
675.998	37804.81
676.346	37849.78
676.695	37967.97
677.044	37700.41
677.393	37749.22
677.741	37810.23
678.09	37840.52
678.438	37658.83
678.787	37723.68
679.135	37655.66
679.484	37572.95
679.832	37605.95
680.181	37425.39
680.529	37600.75
680.877	37391.94
681.225	37429
681.573	37593.97
681.922	37320.76
682.27	37173.42
682.618	37434.2
682.966	37091.61
683.314	37215.67
683.661	37140.2
684.009	37016.13
684.357	36983.36
684.705	36959.86
685.053	36936.13
685.4	36824.27
685.748	36728.46
686.095	36718.06
686.443	36609.81
686.79	36611.4
687.138	36567.56
687.485	36589.02
687.832	36419.08
688.18	36516.71
688.527	36149.71
688.874	36229.94
689.221	36183.84
689.568	36105.42
689.915	35911.98
690.262	35994.24
690.609	35988.14
690.956	35765.09
691.303	35536.85
691.65	35668.6
691.997	35611.2
692.344	35429.05
692.69	35366.23
693.037	35335.95
693.383	35094.6
693.73	35307.25
694.077	35088.5
694.423	34991.1
694.769	34928.73
695.116	34865.45
695.462	34909.52
695.808	34664.55
696.155	34737.55
696.501	34395.64
696.847	34550.21
697.193	34286.94
697.539	34383.43
697.885	34058.47
698.231	33950.45
698.577	34122.42
698.923	33965.59
699.269	33858.47
699.614	33653.51
699.96	33566.28
700.306	33703.45
700.651	33542.55
700.997	33287.19
701.342	33346.17
701.688	33159.06
702.033	33196.34
702.379	33197.47
702.724	33046.07
703.069	33084.94
703.415	32676.81
703.76	32813.98
704.105	32815.79
704.45	32622.35
704.795	32494.89
705.14	32414.9
705.485	32357.04
705.83	32209.03
706.175	32341.9
706.52	32216.71
706.865	32007.9
707.209	31987.56
707.554	32058.07
707.899	32001.35
708.243	31804.97
708.588	31825.76
708.932	31660.79
709.277	31606.56
709.621	31613.11
709.966	31410.63
710.31	31463.96
710.654	31233.23
710.998	31402.95
711.342	31314.59
711.687	31183.06
712.031	31060.13
712.375	30949.17
712.719	30989.4
713.063	30885.9
713.407	31018.55
713.75	30854.49
714.094	30789.4
714.438	30696.07
714.782	30645
715.125	30547.83
715.469	30581.95
715.812	30398.23
716.156	30270.32
716.499	30252.02
716.843	30320.04
717.186	30111.45
717.53	30318.91
717.873	30241.17
718.216	30152.13
718.559	29975.19
718.902	29683.44
719.246	29978.35
719.589	29754.4
719.932	29664.46
720.275	29699.26
720.617	29665.82
720.96	29645.03
721.303	29733.61
721.646	29599.38
721.989	29298.37
722.331	29524.8
722.674	29333.17
723.016	29425.82
723.359	29416.56
723.701	29403.9
724.044	29164.36
724.386	29009.34
724.729	29222.44
725.071	29100.63
725.413	29063.8
725.755	29119.16
726.097	28980.18
726.439	28745.84
726.782	28857.25
727.124	28906.51
727.465	28773.41
727.807	28677.82
728.149	28640.08
728.491	28589.01
728.833	28727.76
729.175	28492.29
729.516	28429.92
729.858	28419.52
730.199	28475.11
730.541	28305.17
730.882	28429.69
731.224	28319.41
731.565	28159.87
731.906	28253.65
732.248	28248
732.589	28051.17
732.93	28063.15
733.271	27981.79
733.612	27991.74
733.953	27945.64
734.294	27891.85
734.635	27777.73
734.976	27867.67
735.317	27800.33
735.658	27692.08
735.999	27746.09
736.339	27725.98
736.68	27766.88
737.021	27552.65
737.361	27401.69
737.702	27583.38
738.042	27516.04
738.383	27493.67
738.723	27429.04
739.063	27344.97
739.404	27481.01
739.744	27403.05
740.084	27254.13
740.424	27345.88
740.764	27220.46
741.104	27306.1
741.444	27043.74
741.784	26977.75
742.124	27028.6
742.464	27017.75
742.804	27079.67
743.143	26927.81
743.483	26937.53
743.823	26866.79
744.162	26846.91
744.502	26870.64
744.841	26728.94
745.181	26810.98
745.52	26756.29
745.86	26791.32
746.199	26582.06
746.538	26586.12
746.877	26631.55
747.216	26482.17
747.556	26475.62
747.895	26488.27
748.234	26457.09
748.573	26347.71
748.911	26386.81
749.25	26293.48
749.589	26152.91
749.928	26086.7
750.267	26137.32
750.605	26188.17
750.944	26046.48
751.283	26011
751.621	26008.29
751.96	25865.01
752.298	25887.16
752.636	25840.83
752.975	25676.09
753.313	25650.33
753.651	25793.38
753.989	25680.38
754.327	25522.2
754.666	25476.77
755.004	25450.33
755.342	25502.08
755.679	25396.1
756.017	25335.31
756.355	25383.44
756.693	25225.93
757.031	25333.5
757.368	25060.06
757.706	25129.89
758.044	25060.97
758.381	25065.94
758.719	24950.01
759.056	24986.84
759.394	24923.79
759.731	24727.87
760.068	24759.28
760.405	24691.26
760.743	24503.24
761.08	24535.78
761.417	24428.89
