Data from hue_100_FLMS001491_00080.txt Node
Date: Tue Feb 07 17:03:39 GMT 2017
User: dcchb
Spectrometer: FLMS00149
Trigger mode: 0
Integration Time (sec): 2.000000E-2
Scans to average: 10
Electric dark correction enabled: true
Nonlinearity correction enabled: false
Boxcar width: 0
XAxis mode: Wavelengths
Number of Pixels in Spectrum: 2048
>>>>>Begin Spectral Data<<<<<
341.393	-18.73
341.776	-18.73
342.16	-18.73
342.543	-50.37
342.927	-65.05
343.31	-58.5
343.693	-59.86
344.077	-84.72
344.46	-73.19
344.843	-37.71
345.226	-37.48
345.61	-35.23
345.993	-16.92
346.376	-20.54
346.759	12.68
347.142	17.88
347.525	53.36
347.908	40.71
348.291	83.42
348.674	111.21
349.057	104.88
349.44	111.21
349.823	154.37
350.206	183.07
350.588	208.16
350.971	218.78
351.354	224.2
351.737	256.97
352.119	263.98
352.502	263.3
352.884	280.92
353.267	291.09
353.65	287.25
354.032	295.16
354.414	315.05
354.797	299
355.179	323.64
355.562	329.06
355.944	327.93
356.326	344.43
356.709	343.07
357.091	337.65
357.473	351.66
357.855	324.77
358.238	347.36
358.62	330.87
359.002	345.56
359.384	355.5
359.766	337.19
360.148	339.91
360.53	341.71
360.912	341.04
361.294	363.41
361.676	338.1
362.057	347.59
362.439	306.23
362.821	359.79
363.203	347.59
363.584	325.9
363.966	330.87
364.348	343.07
364.729	350.75
365.111	337.19
365.493	303.98
365.874	313.24
366.256	321.6
366.637	330.19
367.019	307.36
367.4	324.54
367.781	329.06
368.163	339
368.544	334.26
368.925	331.54
369.306	319.79
369.688	320.92
370.069	312.79
370.45	317.08
370.831	325.67
371.212	327.25
371.593	323.18
371.974	329.29
372.355	345.78
372.736	312.79
373.117	325.9
373.498	334.48
373.879	338.32
374.26	326.8
374.641	322.96
375.021	310.08
375.402	326.8
375.783	330.64
376.163	349.17
376.544	341.71
376.925	350.08
377.305	345.56
377.686	341.94
378.066	332.45
378.447	347.82
378.827	351.21
379.208	345.56
379.588	343.52
379.968	349.17
380.349	343.07
380.729	351.66
381.109	343.97
381.489	345.56
381.87	336.29
382.25	333.8
382.63	356.18
383.01	363.18
383.39	352.34
383.77	348.95
384.15	371.54
384.53	336.52
384.91	358.89
385.29	364.31
385.67	358.89
386.049	367.7
386.429	370.64
386.809	395.05
387.189	365.89
387.568	368.38
387.948	363.18
388.328	360.02
388.707	365.44
389.087	368.38
389.466	374.03
389.846	386.23
390.225	381.94
390.605	409.28
390.984	391.66
391.363	403.86
391.743	399.11
392.122	372
392.501	383.52
392.881	384.2
393.26	401.37
393.639	413.12
394.018	418.77
394.397	408.38
394.776	409.06
395.155	416.74
395.534	406.8
395.913	384.65
396.292	427.81
396.671	431.2
397.05	413.35
397.429	424.65
397.808	419
398.186	437.98
398.565	434.82
398.944	408.15
399.323	428.49
399.701	429.17
400.08	419.68
400.458	409.73
400.837	447.02
401.215	423.07
401.594	433.46
401.972	452.67
402.351	434.59
402.729	426.46
403.107	442.95
403.486	475.72
403.864	454.93
404.242	438.43
404.62	457.64
404.999	456.51
405.377	456.29
405.755	435.72
406.133	460.13
406.511	448.15
406.889	473.91
407.267	487.7
407.645	476.85
408.023	477.98
408.401	480.69
408.779	489.73
409.156	480.69
409.534	492.9
409.912	502.39
410.29	508.26
410.667	503.29
411.045	504.65
411.422	504.2
411.8	499.9
412.178	527.02
412.555	534.25
412.933	515.27
413.31	541.71
413.687	536.74
414.065	538.55
414.442	541.48
414.819	523.86
415.197	528.6
415.574	556.4
415.951	550.3
416.328	539.22
416.705	559.34
417.082	576.51
417.46	550.97
417.837	565.89
418.214	577.19
418.591	599.79
418.967	579
419.344	596.62
419.721	570.41
420.098	574.25
420.475	587.81
420.852	605.89
421.228	604.31
421.605	590.07
421.982	597.75
422.358	609.5
422.735	624.42
423.111	650.63
423.488	635.04
423.864	621.03
424.241	656.06
424.617	637.07
424.994	648.82
425.37	653.12
425.746	645.89
426.123	680.46
426.499	659.67
426.875	679.33
427.251	664.87
427.627	690.18
428.003	686.56
428.379	674.59
428.756	686.34
429.132	696.73
429.507	702.16
429.883	723.17
430.259	720.46
430.635	722.04
431.011	713.23
431.387	744.42
431.763	773.12
432.138	753.23
432.514	763.85
432.89	771.31
433.265	788.48
433.641	785.77
434.016	811.08
434.392	816.28
434.767	806.11
435.143	806.33
435.518	802.94
435.894	839.1
436.269	843.85
436.644	842.27
437.02	843.62
437.395	835.03
437.77	883.62
438.145	876.16
438.52	869.38
438.895	870.51
439.271	895.37
439.646	904.86
440.021	928.82
440.395	917.74
440.77	927.46
441.145	911.19
441.52	925.65
441.895	931.76
442.27	936.05
442.645	937.63
443.019	939.21
443.394	978.31
443.769	974.69
444.143	945.09
444.518	978.99
444.892	985.31
445.267	976.73
445.641	978.31
446.016	1013.56
446.39	1021.92
446.764	983.05
447.139	1023.73
447.513	1014.92
447.887	1050.17
448.262	1025.54
448.636	1052.43
449.01	1060.34
449.384	1058.08
449.758	1066.44
450.132	1082.26
450.506	1070.73
450.88	1062.37
451.254	1108.93
451.628	1112.09
452.002	1114.12
452.376	1154.35
452.75	1158.64
453.123	1165.87
453.497	1168.36
453.871	1182.14
454.244	1200.22
454.618	1201.8
454.992	1197.96
455.365	1213.33
455.739	1270.73
456.112	1268.02
456.486	1289.49
456.859	1290.84
457.232	1325.42
457.606	1331.07
457.979	1327.9
458.352	1372.42
458.725	1374.91
459.099	1393.44
459.472	1373.1
459.845	1406.77
460.218	1412.65
460.591	1451.97
460.964	1462.59
461.337	1465.53
461.71	1483.38
462.083	1514.56
462.456	1540.33
462.829	1509.14
463.201	1565.18
463.574	1592.75
463.947	1616.48
464.32	1624.84
464.692	1648.12
465.065	1653.09
465.438	1700.32
465.81	1694.9
466.183	1753.65
466.555	1766.76
466.928	1771.28
467.3	1838.17
467.672	1855.57
468.045	1880.43
468.417	1903.93
468.789	1908.9
469.161	1939.64
469.534	1997.72
469.906	2008.79
470.278	2071.39
470.65	2098.73
471.022	2124.27
471.394	2150.48
471.766	2223.7
472.138	2251.95
472.51	2290.59
472.882	2345.96
473.253	2378.27
473.625	2427.08
473.997	2521.32
474.369	2532.62
474.74	2561.32
475.112	2609.68
475.484	2707.75
475.855	2768.99
476.227	2815.55
476.598	2889.67
476.97	2930.57
477.341	3007.41
477.713	3069.55
478.084	3123.56
478.455	3242.65
478.827	3314.07
479.198	3425.7
479.569	3452.14
479.94	3572.59
480.311	3629.09
480.682	3760.38
481.053	3902.07
481.424	3957.21
481.795	4091.67
482.166	4188.84
482.537	4277.2
482.908	4430.19
483.279	4474.26
483.65	4597.2
484.021	4766.23
484.391	4895.49
484.762	4941.14
485.133	5045.09
485.503	5254.35
485.874	5404.63
486.244	5415.93
486.615	5554.91
486.985	5734.11
487.356	5911.06
487.726	5990.15
488.097	6160.32
488.467	6257.49
488.837	6452.74
489.207	6604.6
489.578	6743.81
489.948	6900.19
490.318	7059.96
490.688	7125.26
491.058	7326.39
491.428	7492.03
491.798	7602.09
492.168	7869.88
492.538	7994.39
492.908	8128.63
493.278	8310.77
493.648	8356.42
494.017	8542.4
494.387	8708.73
494.757	8824.2
495.126	9017.64
495.496	9076.63
495.866	9227.81
496.235	9340.8
496.605	9558.42
496.974	9682.71
497.344	9813.56
497.713	9915.7
498.082	10053.1
498.452	10199.76
498.821	10306.65
499.19	10386.65
499.559	10557.49
499.928	10664.61
500.298	10764.72
500.667	10976.24
501.036	10963.36
501.405	11151.6
501.774	11149.11
502.143	11285.83
502.512	11386.17
502.88	11583.9
503.249	11526.28
503.618	11661.64
503.987	11779.61
504.356	11922.88
504.724	11968.08
505.093	12008.98
505.462	12245.13
505.83	12237.22
506.199	12371
506.567	12630.88
506.936	12533.48
507.304	12696.19
507.672	12805.79
508.041	12787.94
508.409	12945.9
508.777	13030.42
509.145	13185.67
509.514	13150.42
509.882	13336.85
510.25	13246.91
510.618	13396.29
510.986	13539.11
511.354	13611.87
511.722	13681.7
512.09	13732.55
512.458	13724.19
512.826	13776.39
513.193	13979.55
513.561	13952.66
513.929	14068.58
514.297	14118.08
514.664	14216.38
515.032	14271.52
515.4	14376.37
515.767	14437.16
516.135	14532.98
516.502	14417.95
516.869	14629.7
517.237	14657.72
517.604	14546.76
517.972	14857.49
518.339	14777.72
518.706	14753.99
519.073	14953.08
519.44	14858.17
519.808	14972.52
520.175	14970.03
520.542	15123.02
520.909	15165.51
521.276	15155.11
521.643	15266.29
522.009	15327.31
522.376	15366.18
522.743	15374.31
523.11	15523.69
523.477	15597.13
523.843	15594.42
524.21	15752.16
524.577	15783.57
524.943	15774.08
525.31	15870.35
525.676	15859.5
526.043	15970.23
526.409	16043.67
526.776	16112.82
527.142	16051.81
527.508	16130.23
527.874	16232.14
528.241	16231.69
528.607	16230.56
528.973	16255.87
529.339	16291.35
529.705	16339.94
530.071	16399.6
530.437	16439.37
530.803	16493.61
531.169	16432.82
531.535	16417.22
531.901	16417.68
532.267	16473.04
532.632	16500.61
532.998	16470.78
533.364	16542.64
533.73	16528.41
534.095	16504
534.461	16546.26
534.826	16556.2
535.192	16557.56
535.557	16558.91
535.923	16522.53
536.288	16574.06
536.653	16551.91
537.019	16443.21
537.384	16434.85
537.749	16500.39
538.114	16386.49
538.479	16539.48
538.845	16427.17
539.21	16383.55
539.575	16462.87
539.94	16419.94
540.305	16456.54
540.67	16312.14
541.034	16342.88
541.399	16325.93
541.764	16278.24
542.129	16273.27
542.494	16378.81
542.858	16384.91
543.223	16233.95
543.587	16265.36
543.952	16204.57
544.316	16123.22
544.681	16066.27
545.045	16081.19
545.41	16179.94
545.774	16091.36
546.138	16044.13
546.503	15984.01
546.867	15931.81
547.231	16092.03
547.595	15998.48
547.959	16000.06
548.324	15918.03
548.688	15918.48
549.052	15948.31
549.416	15832.38
549.779	15768.2
550.143	15846.39
550.507	15877.58
550.871	15922.32
551.235	15700.41
551.599	15797.58
551.962	15749.22
552.326	15708.99
552.689	15691.14
553.053	15640.75
553.417	15734.53
553.78	15838.48
554.143	15658.37
554.507	15607.98
554.87	15580.18
555.234	15761.87
555.597	15579.28
555.96	15638.04
556.323	15694.08
556.686	15534.54
557.05	15707.86
557.413	15576.34
557.776	15631.48
558.139	15700.18
558.502	15615.89
558.865	15689.11
559.228	15752.83
559.59	15635.78
559.953	15643.91
560.316	15891.14
560.679	15705.15
561.041	15727.52
561.404	15740.41
561.767	15756
562.129	15738.37
562.492	15832.83
562.854	15810.91
563.217	15768.65
563.579	15737.24
563.941	15919.61
564.304	15833.28
564.666	15880.74
565.028	15880.06
565.39	15843.91
565.753	15936.56
566.115	16004.13
566.477	16014.75
566.839	16085.26
567.201	16093.84
567.563	16092.71
567.925	16238.25
568.287	16042.54
568.648	16146.72
569.01	16191.69
569.372	16306.27
569.734	16196.44
570.095	16294.74
570.457	16296.32
570.819	16305.81
571.18	16284.8
571.542	16367.73
571.903	16343.78
572.265	16375.19
572.626	16468.52
572.987	16458.58
573.349	16502.87
573.71	16490.22
574.071	16383.55
574.432	16515.75
574.794	16635.98
575.155	16606.82
575.516	16468.07
575.877	16541.29
576.238	16455.41
576.599	16578.35
576.96	16567.73
577.32	16520.5
577.681	16577.67
578.042	16635.07
578.403	16606.6
578.763	16632.81
579.124	16625.58
579.485	16639.14
579.845	16629.65
580.206	16589.42
580.566	16594.85
580.927	16635.98
581.287	16694.5
581.648	16567.73
582.008	16682.98
582.368	16576.09
582.728	16671.45
583.089	16589.87
583.449	16577.45
583.809	16650.66
584.169	16619.25
584.529	16489.99
584.889	16619.03
585.249	16586.26
585.609	16449.99
585.969	16580.84
586.329	16536.32
586.688	16525.24
587.048	16530.67
587.408	16514.85
587.768	16475.98
588.127	16514.4
588.487	16501.74
588.846	16585.35
589.206	16368.19
589.565	16393.27
589.925	16465.13
590.284	16374.74
590.643	16456.32
591.003	16535.64
591.362	16459.26
591.721	16420.84
592.08	16442.99
592.44	16468.52
592.799	16468.3
593.158	16349.88
593.517	16384.91
593.876	16445.47
594.235	16391.24
594.593	16396.21
594.952	16403.21
595.311	16398.47
595.67	16439.82
596.029	16450.67
596.387	16432.14
596.746	16395.98
597.104	16391.69
597.463	16420.84
597.822	16419.03
598.18	16348.3
598.538	16309.43
598.897	16408.18
599.255	16329.09
599.613	16595.52
599.972	16316.44
600.33	16339.26
600.688	16398.24
601.046	16400.5
601.404	16412.25
601.762	16374.06
602.12	16438.24
602.478	16462.87
602.836	16377.22
603.194	16400.95
603.552	16384.91
603.91	16386.04
604.268	16394.4
604.625	16336.32
604.983	16386.72
605.341	16333.61
605.698	16344.46
606.056	16452.03
606.413	16465.81
606.771	16506.71
607.128	16406.15
607.485	16412.7
607.843	16361.63
608.2	16480.27
608.557	16470.33
608.914	16393.72
609.272	16483.89
609.629	16575.19
609.986	16509.2
610.343	16482.31
610.7	16625.13
611.057	16590.55
611.414	16566.6
611.771	16538.58
612.127	16630.33
612.484	16605.02
612.841	16584.68
613.198	16569.31
613.554	16643.21
613.911	16695.41
614.267	16745.58
614.624	16761.17
614.98	16744.22
615.337	16783.09
615.693	16771.11
616.05	16679.82
616.406	16895.18
616.762	16785.58
617.118	16792.81
617.475	16799.13
617.831	16855.4
618.187	16830.09
618.543	16775.41
618.899	16813.6
619.255	16842.3
619.611	16858.57
619.967	16946.48
620.323	16962.29
620.678	16900.37
621.034	16882.3
621.39	16824.67
621.746	16840.72
622.101	17025.12
622.457	16892.69
622.812	16982.63
623.168	16893.14
623.523	16917.1
623.879	17091.78
624.234	16921.17
624.589	16948.28
624.945	17027.38
625.3	17017.21
625.655	16973.82
626.01	16989.64
626.365	16958.45
626.72	16859.47
627.075	16956.87
627.43	16899.47
627.785	16859.7
628.14	16896.08
628.495	16884.33
628.85	16842.98
629.205	16818.8
629.559	16922.52
629.914	16848.4
630.269	16810.21
630.623	16746.25
630.978	16866.48
631.332	16825.35
631.687	16906.02
632.041	16747.16
632.396	16827.61
632.75	16727.5
633.104	16712.58
633.459	16729.31
633.813	16687.27
634.167	16680.72
634.521	16666.71
634.875	16633.04
635.229	16622.64
635.583	16511.46
635.937	16549.88
636.291	16544
636.645	16491.8
636.999	16418.58
637.352	16489.76
637.706	16415.42
638.06	16430.33
638.413	16422.2
638.767	16350.33
639.121	16379.48
639.474	16337
639.828	16352.59
640.181	16344.46
640.534	16361.18
640.888	16306.27
641.241	16200.51
641.594	16269.88
641.947	16240.73
642.301	16288.19
642.654	16245.93
643.007	16217.68
643.36	16177.91
643.713	16137.46
644.066	16176.33
644.419	16071.7
644.771	16037.8
645.124	15877.12
645.477	15871.25
645.83	15820.63
646.182	15739.95
646.535	15700.41
646.888	15710.58
647.24	15596.23
647.593	15631.71
647.945	15641.42
648.298	15615.21
648.65	15603.91
649.002	15556.46
649.355	15696.34
649.707	15625.38
650.059	15762.78
650.411	16033.5
650.763	15876.67
651.115	16078.25
651.467	15913.73
651.819	16000.74
652.171	15938.59
652.523	15889.55
652.875	15949.89
653.227	15843.45
653.578	15992.15
653.93	15874.19
654.282	15829.22
654.633	15847.97
654.985	15883.45
655.337	15850.91
655.688	15949.89
656.039	15958.93
656.391	15838.93
656.742	15956.67
657.094	15900.4
657.445	16007.52
657.796	15959.61
658.147	15926.84
658.498	15879.84
658.849	15972.94
659.2	15927.75
659.551	15963.22
659.902	16024.01
660.253	15897.69
660.604	15946.5
660.955	15966.84
661.306	15981.98
661.656	15894.53
662.007	15957.8
662.358	16031.7
662.708	15961.42
663.059	15952.15
663.409	15896.79
663.76	16013.62
664.11	15998.93
664.461	16029.44
664.811	16020.17
665.161	16038.93
665.511	15925.71
665.862	15972.72
666.212	15994.86
666.562	15972.72
666.912	15933.17
667.262	15944.69
667.612	16004.58
667.962	15979.04
668.312	15958.03
668.662	16131.81
669.011	15976.78
669.361	15901.53
669.711	16053.39
670.06	15880.74
670.41	16005.48
670.76	15971.36
671.109	16024.69
671.459	15937.46
671.808	15917.12
672.157	15956.44
672.507	15816.79
672.856	15839.84
673.205	15909.89
673.554	15870.8
673.904	15804.13
674.253	15939.5
674.602	15861.53
674.951	15560.3
675.3	15555.1
675.649	15752.61
675.998	15749.44
676.346	15702.89
676.695	15759.16
677.044	15655.21
677.393	15678.03
677.741	15674.42
678.09	15717.58
678.438	15586.74
678.787	15713.29
679.135	15688.88
679.484	15526.4
679.832	15666.06
680.181	15441.88
680.529	15536.34
680.877	15462.67
681.225	15384.71
681.573	15566.62
681.922	15437.59
682.27	15314.2
682.618	15391.04
682.966	15280.3
683.314	15318.04
683.661	15200.76
684.009	15192.85
684.357	15120.31
684.705	15104.94
685.053	15210.02
685.4	15068.78
685.748	15044.6
686.095	14982.69
686.443	14977.26
686.79	14991.05
687.138	14997.83
687.485	15027.2
687.832	14922.8
688.18	14934.78
688.527	14907.66
688.874	14823.37
689.221	14836.7
689.568	14729.81
689.915	14672.18
690.262	14746.99
690.609	14601.23
690.956	14616.37
691.303	14531.62
691.65	14524.17
691.997	14422.47
692.344	14308.35
692.69	14368.92
693.037	14291.18
693.383	14209.15
693.73	14168.24
694.077	14152.65
694.423	14121.01
694.769	14150.84
695.116	14100.22
695.462	14017.29
695.808	13980.45
696.155	13945.65
696.501	13828.37
696.847	13848.25
697.193	13733.23
697.539	13820.46
697.885	13660.46
698.231	13561.03
698.577	13532.1
698.923	13449.84
699.269	13417.75
699.614	13419.79
699.96	13370.98
700.306	13327.81
700.651	13233.8
700.997	13208.95
701.342	13249.85
701.688	13139.34
702.033	13098.44
702.379	13161.49
702.724	13031.55
703.069	13069.29
703.415	12894.6
703.76	12902.29
704.105	12831.78
704.45	12827.94
704.795	12718.79
705.14	12693.25
705.485	12652.58
705.83	12653.71
706.175	12722.41
706.52	12663.2
706.865	12528.51
707.209	12444.22
707.554	12497.1
707.899	12538
708.243	12389.98
708.588	12435.63
708.932	12264.79
709.277	12218.01
709.621	12250.78
709.966	12199.26
710.31	12229.09
710.654	12119.26
710.998	12145.92
711.342	12103.66
711.687	12072.25
712.031	12015.76
712.375	11972.14
712.719	12018.92
713.063	12024.12
713.407	12047.17
713.75	11917.23
714.094	11873.39
714.438	11867.29
714.782	11856.67
715.125	11745.48
715.469	11784.58
715.812	11739.38
716.156	11719.49
716.499	11746.39
716.843	11799.72
717.186	11606.5
717.53	11707.74
717.873	11666.39
718.216	11694.18
718.559	11551.81
718.902	11575.54
719.246	11589.33
719.589	11467.3
719.932	11506.17
720.275	11542.78
720.617	11496
720.96	11472.72
721.303	11466.39
721.646	11425.04
721.989	11427.98
722.331	11451.48
722.674	11300.97
723.016	11506.17
723.359	11350.46
723.701	11351.37
724.044	11230.69
724.386	11211.71
724.729	11390.46
725.071	11326.96
725.413	11294.65
725.755	11272.5
726.097	11217.36
726.439	11183.01
726.782	11077.7
727.124	11254.87
727.465	11174.65
727.807	11192.95
728.149	11207.19
728.491	11164.03
728.833	11146.4
729.175	11114.31
729.516	11112.5
729.858	11132.84
730.199	11109.57
730.541	11139.17
730.882	11110.47
731.224	11110.47
731.565	11097.36
731.906	11069.57
732.248	11086.06
732.589	11006.29
732.93	11050.36
733.271	11058.72
733.612	11077.03
733.953	11092.17
734.294	11098.49
734.635	11022.11
734.976	11058.95
735.317	11022.56
735.658	11033.18
735.999	11040.42
736.339	11072.28
736.68	11119.51
737.021	11135.55
737.361	11060.53
737.702	11130.36
738.042	11067.76
738.383	11133.07
738.723	11068.21
739.063	11101.43
739.404	11145.72
739.744	11134.2
740.084	11107.76
740.424	11158.38
740.764	11093.3
741.104	11198.15
741.444	11194.08
741.784	11193.41
742.124	11125.84
742.464	11172.39
742.804	11239.96
743.143	11152.5
743.483	11267.53
743.823	11256.23
744.162	11288.77
744.502	11356.34
744.841	11315.44
745.181	11411.25
745.52	11331.71
745.86	11426.85
746.199	11476.11
746.538	11477.92
746.877	11540.97
747.216	11668.42
747.556	11632.26
747.895	11720.85
748.234	11684.92
748.573	11754.3
748.911	11769.21
749.25	11882.43
749.589	11868.19
749.928	11961.75
750.267	12043.55
750.605	12095.08
750.944	12190.22
751.283	12157.45
751.621	12450.1
751.96	12439.25
752.298	12539.81
752.636	12634.27
752.975	12721.28
753.313	12724.44
753.651	12957.2
753.989	12944.09
754.327	13136.18
754.666	13152.9
755.004	13343.18
755.342	13474.93
755.679	13583.17
756.017	13750.63
