Data from hue_100_FLMS001491_00047.txt Node
Date: Tue Feb 07 17:03:14 GMT 2017
User: dcchb
Spectrometer: FLMS00149
Trigger mode: 0
Integration Time (sec): 2.000000E-2
Scans to average: 10
Electric dark correction enabled: true
Nonlinearity correction enabled: false
Boxcar width: 0
XAxis mode: Wavelengths
Number of Pixels in Spectrum: 2048
>>>>>Begin Spectral Data<<<<<
341.393	-7.84
341.776	-7.84
342.16	-7.84
342.543	-65.92
342.927	-75.86
343.31	-67.5
343.693	-60.94
344.077	-52.81
344.46	-72.24
344.843	-39.02
345.226	-27.5
345.61	-14.62
345.993	-25.92
346.376	3.46
346.759	5.04
347.142	36.91
347.525	36.23
347.908	35.55
348.291	70.35
348.674	79.16
349.057	93.85
349.44	131.59
349.823	139.5
350.206	172.04
350.588	182.21
350.971	224.25
351.354	240.97
351.737	228.31
352.119	254.75
352.502	243.45
352.884	274.87
353.267	290.23
353.65	282.32
354.032	297.92
354.414	305.37
354.797	328.65
355.179	325.49
355.562	310.8
355.944	318.71
356.326	342.66
356.709	320.74
357.091	339.27
357.473	337.91
357.855	333.17
358.238	340.85
358.62	346.05
359.002	350.12
359.384	334.98
359.766	343.11
360.148	341.53
360.53	343.56
360.912	328.2
361.294	353.28
361.676	347.63
362.057	340.17
362.439	326.62
362.821	332.27
363.203	344.92
363.584	323.9
363.966	328.88
364.348	307.63
364.729	319.38
365.111	306.73
365.493	342.66
365.874	326.84
366.256	314.19
366.637	306.05
367.019	322.1
367.4	310.12
367.781	309.89
368.163	295.2
368.544	305.37
368.925	306.28
369.306	313.06
369.688	317.12
370.069	304.47
370.45	311.02
370.831	320.29
371.212	322.55
371.593	307.41
371.974	302.21
372.355	319.16
372.736	333.17
373.117	327.07
373.498	313.51
373.879	329.55
374.26	349.89
374.641	328.65
375.021	313.96
375.402	314.19
375.783	325.71
376.163	347.63
376.544	355.32
376.925	334.07
377.305	318.03
377.686	349.44
378.066	357.35
378.447	345.15
378.827	334.07
379.208	332.94
379.588	341.53
379.968	349.21
380.349	342.89
380.729	352.15
381.109	340.63
381.489	345.6
381.87	342.66
382.25	346.5
382.63	363
383.01	348.99
383.39	369.33
383.77	343.79
384.15	327.75
384.53	365.71
384.91	351.47
385.29	351.7
385.67	387.86
386.049	370.91
386.429	375.65
386.809	365.94
387.189	377.69
387.568	364.13
387.948	372.72
388.328	391.02
388.707	375.43
389.087	376.56
389.466	388.08
389.846	392.6
390.225	384.02
390.605	382.66
390.984	381.53
391.363	384.02
391.743	385.15
392.122	382.89
392.501	389.89
392.881	384.02
393.26	407.07
393.639	394.86
394.018	390.34
394.397	380.85
394.776	395.77
395.155	403.22
395.534	394.41
395.913	391.02
396.292	405.71
396.671	406.39
397.05	430.57
397.429	418.59
397.808	412.72
398.186	388.53
398.565	409.1
398.944	417.01
399.323	414.97
399.701	428.76
400.08	424.92
400.458	416.56
400.837	437.8
401.215	443
401.594	434.41
401.972	420.62
402.351	435.09
402.729	448.65
403.107	441.87
403.486	439.38
403.864	441.87
404.242	466.5
404.62	464.69
404.999	460.62
405.377	472.37
405.755	475.99
406.133	452.26
406.511	466.27
406.889	470.34
407.267	480.51
407.645	468.31
408.023	481.41
408.401	494.97
408.779	487.74
409.156	489.32
409.534	496.1
409.912	499.49
410.29	494.75
410.667	477.8
411.045	521.19
411.422	526.84
411.8	504.92
412.178	516.89
412.555	516.22
412.933	516.89
413.31	529.32
413.687	543.11
414.065	539.94
414.442	505.82
414.819	527.06
415.197	551.02
415.574	542.43
415.951	546.95
416.328	551.47
416.705	574.74
417.082	550.79
417.46	563.22
417.837	576.78
418.214	575.65
418.591	566.61
418.967	604.35
419.344	589.21
419.721	606.38
420.098	591.47
420.475	601.64
420.852	597.12
421.228	597.12
421.605	583.56
421.982	602.09
422.358	612.71
422.735	621.75
423.111	644.12
423.488	625.59
423.864	614.07
424.241	657.91
424.617	648.42
424.994	659.94
425.37	662.2
425.746	653.84
426.123	651.8
426.499	652.93
426.875	669.43
427.251	654.74
427.627	709.88
428.003	671.01
428.379	697.45
428.756	711.46
429.132	719.15
429.507	734.06
429.883	731.12
430.259	730.67
430.635	738.58
431.011	738.13
431.387	746.94
431.763	772.48
432.138	752.37
432.514	772.03
432.89	793.27
433.265	795.53
433.641	820.84
434.016	828.3
434.392	810.22
434.767	814.06
435.143	836.21
435.518	830.33
435.894	849.09
436.269	852.48
436.644	853.38
437.02	875.08
437.395	870.56
437.77	896.09
438.145	871.46
438.52	884.12
438.895	887.5
439.271	906.71
439.646	915.07
440.021	900.16
440.395	943.77
440.77	922.53
441.145	935.41
441.52	937.45
441.895	961.63
442.27	975.86
442.645	951.01
443.019	981.06
443.394	978.58
443.769	960.95
444.143	993.49
444.518	1001.85
444.892	998.24
445.267	1010.67
445.641	1010.44
446.016	1028.74
446.39	1025.81
446.764	1008.63
447.139	1045.24
447.513	1034.39
447.887	1058.57
448.262	1044.34
448.636	1060.16
449.01	1053.15
449.384	1059.7
449.758	1068.29
450.132	1109.65
450.506	1111.91
450.88	1114.39
451.254	1126.14
451.628	1131.57
452.002	1135.63
452.376	1152.13
452.75	1153.49
453.123	1160.27
453.497	1185.8
453.871	1185.8
454.244	1204.11
454.618	1202.3
454.992	1220.6
455.365	1219.47
455.739	1257.21
456.112	1286.82
456.486	1294.27
456.859	1301.05
457.232	1309.19
457.606	1331.34
457.979	1360.26
458.352	1381.96
458.725	1393.03
459.099	1394.61
459.472	1400.26
459.845	1430.99
460.218	1452.01
460.591	1471.67
460.964	1475.29
461.337	1512.8
461.71	1528.17
462.083	1532.23
462.456	1542.85
462.829	1577.43
463.201	1565.91
463.574	1607.03
463.947	1645.68
464.32	1653.81
464.692	1685
465.065	1695.17
465.438	1701.27
465.81	1739.01
466.183	1774.71
466.555	1829.85
466.928	1827.82
467.3	1852
467.672	1870.3
468.045	1909.85
468.417	1905.33
468.789	1919.34
469.161	2001.6
469.534	1999.57
469.906	2083.41
470.278	2109.17
470.65	2131.99
471.022	2188.71
471.394	2225.55
471.766	2250.18
472.138	2291.31
472.51	2349.84
472.882	2384.19
473.253	2417.63
473.625	2447.69
473.997	2530.17
474.369	2563.39
474.74	2653.56
475.112	2659.44
475.484	2765.42
475.855	2779.21
476.227	2806.78
476.598	2965.64
476.97	3035.02
477.341	3069.59
477.713	3190.95
478.084	3250.38
478.455	3345.29
478.827	3372.86
479.198	3474.1
479.569	3582.8
479.94	3722.46
480.311	3798.16
480.682	3872.29
481.053	3995.9
481.424	4079.51
481.795	4155.44
482.166	4293.52
482.537	4382.78
482.908	4500.29
483.279	4594.07
483.65	4719.72
484.021	4865.25
484.391	4995.87
484.762	5039.71
485.133	5148.64
485.503	5319.7
485.874	5514.95
486.244	5606.25
486.615	5707.27
486.985	5828.62
487.356	6024.54
487.726	6129.63
488.097	6352.9
488.467	6425.44
488.837	6568.49
489.207	6801.93
489.578	6921.92
489.948	7080.11
490.318	7198.07
490.688	7348.8
491.058	7505.64
491.428	7716.7
491.798	7873.31
492.168	8030.14
492.538	8181.78
492.908	8356.69
493.278	8499.96
493.648	8635.32
494.017	8841.42
494.387	8939.5
494.757	9057.91
495.126	9238.02
495.496	9313.27
495.866	9418.58
496.235	9680.95
496.605	9779.02
496.974	9942.63
497.344	10060.82
497.713	10176.53
498.082	10314.6
498.452	10477.54
498.821	10590.98
499.19	10701.26
499.559	10844.98
499.928	10975.6
500.298	11126.11
500.667	11222.6
501.036	11239.55
501.405	11423.5
501.774	11454.68
502.143	11680.67
502.512	11702.36
502.88	11835.01
503.249	12015.57
503.618	12071.84
503.987	12059.64
504.356	12195.68
504.724	12327.43
505.093	12416.02
505.462	12510.93
505.83	12579.17
506.199	12757.02
506.567	12879.51
506.936	12961.31
507.304	13076.34
507.672	13163.79
508.041	13231.14
508.409	13284.02
508.777	13440.62
509.145	13471.58
509.514	13560.17
509.882	13643.1
510.25	13660.05
510.618	13875.64
510.986	13843.32
511.354	13973.26
511.722	14061.62
512.09	14240.83
512.458	14215.29
512.826	14340.03
513.193	14379.35
513.561	14406.02
513.929	14451.89
514.297	14633.36
514.664	14735.95
515.032	14674.49
515.4	14838.55
515.767	14824.31
516.135	14906.57
516.502	14794.26
516.869	14982.73
517.237	15123.51
517.604	15090.07
517.972	15205.32
518.339	15248.26
518.706	15246
519.073	15284.41
519.44	15358.99
519.808	15482.6
520.175	15380.91
520.542	15649.83
520.909	15608.93
521.276	15620.9
521.643	15736.38
522.009	15776.38
522.376	15820.9
522.743	15946.09
523.11	16012.3
523.477	16052.3
523.843	16137.05
524.21	16226.99
524.577	16357.83
524.943	16340.88
525.31	16285.07
525.676	16447.55
526.043	16427.21
526.409	16522.35
526.776	16688.67
527.142	16614.55
527.508	16633.98
527.874	16764.83
528.241	16773.87
528.607	16885.5
528.973	16953.3
529.339	16759.63
529.705	16839.4
530.071	16926.18
530.437	16940.64
530.803	16982.9
531.169	17003.69
531.535	16836.92
531.901	16925.73
532.267	16958.95
532.632	17093.63
532.998	17120.3
533.364	17082.11
533.73	17125.5
534.095	17069.23
534.461	17093.18
534.826	17133.18
535.192	17134.54
535.557	17205.72
535.923	17080.75
536.288	17061.32
536.653	17160.3
537.019	17014.09
537.384	17083.46
537.749	17103.12
538.114	16946.29
538.479	17023.35
538.845	17034.65
539.21	16878.72
539.575	16960.98
539.94	16890.47
540.305	16887.99
540.67	16811.15
541.034	16900.42
541.399	16959.17
541.764	16846.63
542.129	16815.22
542.494	16835.33
542.858	16779.97
543.223	16818.16
543.587	16747.88
543.952	16761.44
544.316	16742
544.681	16711.95
545.045	16662.23
545.41	16704.04
545.774	16686.64
546.138	16640.31
546.503	16617.26
546.867	16542.01
547.231	16697.03
547.595	16530.03
547.959	16511.95
548.324	16424.05
548.688	16415.01
549.052	16449.13
549.416	16434.44
549.779	16344.5
550.143	16334.56
550.507	16356.48
550.871	16365.74
551.235	16247.78
551.599	16410.03
551.962	16342.01
552.326	16362.13
552.689	16390.15
553.053	16269.47
553.417	16229.93
553.78	16259.3
554.143	16198.51
554.507	16297.72
554.87	16185.63
555.234	16322.35
555.597	16158.06
555.96	16208.01
556.323	16187.44
556.686	16128.01
557.05	16216.37
557.413	16280.55
557.776	16173.88
558.139	16259.08
558.502	16290.72
558.865	16315.8
559.228	16242.58
559.59	16284.84
559.953	16214.79
560.316	16323.03
560.679	16348.34
561.041	16418.17
561.404	16358.51
561.767	16429.47
562.129	16281.45
562.492	16461.78
562.854	16393.09
563.217	16370.49
563.579	16378.62
563.941	16532.97
564.304	16441.67
564.666	16544.27
565.028	16528
565.39	16552.63
565.753	16642.34
566.115	16617.49
566.477	16744.04
566.839	16721.66
567.201	16706.52
567.563	16713.08
567.925	16829.91
568.287	16829.68
568.648	16745.84
569.01	16798.95
569.372	16854.32
569.734	16740.87
570.095	16889.57
570.457	16922.56
570.819	16895.9
571.18	16847.31
571.542	17036.23
571.903	16927.99
572.265	16992.17
572.626	17064.93
572.987	17040.75
573.349	17102.45
573.71	17082.79
574.071	17161.43
574.432	17081.66
574.794	17244.81
575.155	17137.47
575.516	17088.43
575.877	17222.67
576.238	17207.3
576.599	17214.08
576.96	17200.97
577.32	17219.05
577.681	17264.02
578.042	17268.32
578.403	17224.7
578.763	17207.53
579.124	17362.33
579.485	17343.8
579.845	17337.24
580.206	17298.6
580.566	17252.05
580.927	17248.88
581.287	17344.47
581.648	17266.06
582.008	17391.48
582.368	17311.48
582.728	17347.86
583.089	17204.82
583.449	17280.29
583.809	17230.13
584.169	17304.02
584.529	17248.2
584.889	17419.05
585.249	17171.82
585.609	17142.67
585.969	17266.28
586.329	17267.87
586.688	17310.12
587.048	17262.22
587.408	17229.45
587.768	17196.68
588.127	17128.43
588.487	17120.3
588.846	17218.15
589.206	17169.79
589.565	17074.65
589.925	17178.38
590.284	17171.82
590.643	17171.37
591.003	17215.21
591.362	17165.95
591.721	17139.05
592.08	17090.24
592.44	17137.02
592.799	17146.96
593.158	17139.05
593.517	17128.66
593.876	17119.39
594.235	17052.73
594.593	17051.83
594.952	17043.01
595.311	17000.53
595.67	17110.81
596.029	17229.67
596.387	17116
596.746	17129.56
597.104	17024.26
597.463	17037.59
597.822	17067.42
598.18	17010.7
598.538	16996.46
598.897	17084.37
599.255	16904.71
599.613	17197.36
599.972	17085.72
600.33	17016.8
600.688	16929.79
601.046	17142.44
601.404	17153.07
601.762	17066.51
602.12	17093.18
602.478	17146.96
602.836	17164.14
603.194	17087.08
603.552	17064.03
603.91	17077.81
604.268	17026.06
604.625	17014.76
604.983	17164.82
605.341	17046.85
605.698	17153.97
606.056	17190.35
606.413	17105.84
606.771	17129.11
607.128	17137.25
607.485	16924.82
607.843	17100.41
608.2	17346.73
608.557	17169.11
608.914	17193.29
609.272	17305.83
609.629	17347.41
609.986	17373.85
610.343	17238.04
610.7	17400.52
611.057	17344.7
611.414	17309.9
611.771	17314.64
612.127	17474.64
612.484	17394.64
612.841	17439.16
613.198	17362.55
613.554	17409.56
613.911	17416.11
614.267	17405.71
614.624	17368.43
614.98	17407.07
615.337	17560.29
615.693	17428.31
616.05	17448.2
616.406	17529.1
616.762	17496.11
617.118	17416.11
617.475	17591.92
617.831	17623.11
618.187	17467.41
618.543	17588.76
618.899	17634.86
619.255	17645.48
619.611	17659.04
619.967	17619.04
620.323	17718.93
620.678	17669.66
621.034	17622.88
621.39	17527.52
621.746	17544.69
622.101	17815.65
622.457	17599.38
622.812	17609.33
623.168	17763.45
623.523	17678.25
623.879	17756.21
624.234	17580.85
624.589	17609.78
624.945	17628.31
625.3	17619.72
625.655	17692.49
626.01	17760.51
626.365	17581.3
626.72	17609.78
627.075	17684.8
627.43	17655.2
627.785	17622.43
628.14	17643.45
628.495	17743.33
628.85	17656.56
629.205	17577.46
629.559	17658.82
629.914	17551.25
630.269	17632.83
630.623	17527.52
630.978	17537.69
631.332	17544.47
631.687	17579.95
632.041	17480.51
632.396	17617.23
632.75	17443.45
633.104	17471.48
633.459	17350.8
633.813	17415.66
634.167	17361.2
634.521	17313.74
634.875	17453.62
635.229	17349.22
635.583	17349.9
635.937	17305.38
636.291	17177.7
636.645	17266.51
636.999	17203.91
637.352	17217.92
637.706	17154.2
638.06	17161.2
638.413	17244.81
638.767	17110.81
639.121	17179.73
639.474	17105.38
639.828	17002.11
640.181	17108.55
640.534	17071.94
640.888	16948.55
641.241	17030.58
641.594	17010.7
641.947	17002.34
642.301	17007.31
642.654	16993.3
643.007	16970.02
643.36	16960.75
643.713	16939.96
644.066	17067.19
644.419	16870.14
644.771	16847.54
645.124	16628.56
645.477	16610.26
645.83	16557.83
646.182	16489.13
646.535	16323.94
646.888	16383.14
647.24	16370.26
647.593	16359.41
647.945	16357.15
648.298	16220.89
648.65	16226.08
649.002	16262.69
649.355	16289.36
649.707	16276.93
650.059	16430.37
650.411	16580.88
650.763	16593.08
651.115	16765.05
651.467	16671.95
651.819	16745.17
652.171	16631.05
652.523	16570.48
652.875	16673.08
653.227	16627.2
653.578	16672.85
653.93	16666.75
654.282	16568.22
654.633	16568.67
654.985	16684.6
655.337	16615.68
655.688	16565.96
656.039	16683.47
656.391	16590.14
656.742	16613.19
657.094	16603.93
657.445	16662.23
657.796	16609.58
658.147	16634.89
658.498	16644.6
658.849	16728.67
659.2	16697.94
659.551	16613.42
659.902	16606.64
660.253	16668.11
660.604	16648.67
660.955	16599.86
661.306	16712.4
661.656	16620.88
662.007	16671.27
662.358	16722.79
662.708	16679.41
663.059	16626.75
663.409	16568.9
663.76	16720.08
664.11	16721.89
664.461	16730.48
664.811	16730.25
665.161	16668.56
665.511	16651.16
665.862	16636.92
666.212	16675.11
666.562	16711.04
666.912	16688.45
667.262	16647.09
667.612	16718.5
667.962	16791.27
668.312	16740.65
668.662	16814.32
669.011	16673.3
669.361	16654.1
669.711	16648.45
670.06	16680.08
670.41	16587.66
670.76	16706.52
671.109	16704.72
671.459	16596.47
671.808	16560.09
672.157	16582.69
672.507	16488.68
672.856	16481.22
673.205	16537.49
673.554	16561.9
673.904	16538.39
674.253	16617.49
674.602	16584.72
674.951	16281.9
675.3	16172.3
675.649	16535.23
675.998	16430.15
676.346	16451.84
676.695	16547.21
677.044	16362.13
677.393	16423.37
677.741	16402.58
678.09	16356.93
678.438	16366.65
678.787	16333.2
679.135	16308.79
679.484	16150.38
679.832	16262.47
680.181	16120.78
680.529	16171.4
680.877	16145.41
681.225	16060.44
681.573	16222.02
681.922	16116.93
682.27	15999.2
682.618	16048.46
682.966	15978.63
683.314	16007.33
683.661	15873.33
684.009	15887.11
684.357	15729.83
684.705	15811.63
685.053	15864.74
685.4	15749.49
685.748	15707.68
686.095	15674.69
686.443	15674.69
686.79	15562.15
687.138	15612.32
687.485	15644.41
687.832	15467.01
688.18	15568.47
688.527	15434.02
688.874	15420.68
689.221	15410.06
689.568	15319.67
689.915	15346.11
690.262	15279.44
690.609	15307.46
690.956	15187.24
691.303	15276.05
691.65	15030.64
691.997	15133.01
692.344	14931.66
692.69	14953.8
693.037	14909.06
693.383	14793.13
693.73	14930.3
694.077	14777.54
694.423	14793.58
694.769	14761.94
695.116	14619.57
695.462	14644.66
695.808	14568.5
696.155	14565.11
696.501	14525.34
696.847	14462.06
697.193	14338.45
697.539	14414.83
697.885	14323.99
698.231	14184.78
698.577	14368.51
698.923	14220.71
699.269	14072.47
699.614	14025.69
699.96	13963.77
700.306	13937.56
700.651	13944.11
700.997	13859.59
701.342	13790.67
701.688	13823.21
702.033	13712.48
702.379	13674.74
702.724	13632.25
703.069	13720.39
703.415	13580.05
703.76	13590.67
704.105	13551.13
704.45	13435.65
704.795	13412.15
705.14	13341.19
705.485	13311.36
705.83	13313.39
706.175	13233.62
706.52	13179.39
706.865	13168.09
707.209	13095.77
707.554	13075.43
707.899	12996.34
708.243	13049.22
708.588	12974.64
708.932	12903.91
709.277	12811.49
709.621	12912.27
709.966	12782.56
710.31	12824.14
710.654	12735.55
710.998	12718.38
711.342	12753.41
711.687	12621.66
712.031	12699.85
712.375	12550.93
712.719	12596.8
713.063	12635.9
713.407	12598.16
713.75	12571.72
714.094	12444.26
714.438	12387.09
714.782	12496.69
715.125	12323.59
715.469	12380.54
715.812	12282.01
716.156	12242.69
716.499	12205.4
716.843	12280.2
717.186	12156.81
717.53	12264.61
717.873	12236.81
718.216	12197.49
718.559	12176.25
718.902	12102.8
719.246	12106.19
719.589	12101.67
719.932	11968.8
720.275	11992.3
720.617	12007.89
720.96	12011.05
721.303	12037.72
721.646	12021.68
721.989	11874.33
722.331	12065.06
722.674	11934.9
723.016	11997.95
723.359	11884.73
723.701	11893.77
724.044	11875.46
724.386	11795.24
724.729	11828.23
725.071	11834.11
725.413	11885.63
725.755	11796.14
726.097	11772.42
726.439	11715.02
726.782	11614.45
727.124	11764.06
727.465	11745.75
727.807	11741.46
728.149	11688.8
728.491	11630.95
728.833	11739.87
729.175	11648.58
729.516	11604.29
729.858	11647.22
730.199	11684.96
730.541	11680.67
730.882	11628.47
731.224	11753.66
731.565	11632.08
731.906	11529.48
732.248	11657.84
732.589	11541.01
732.93	11562.93
733.271	11587.79
733.612	11577.17
733.953	11611.06
734.294	11568.81
734.635	11542.37
734.976	11567.9
735.317	11565.64
735.658	11475.93
735.999	11586.43
736.339	11564.96
736.68	11608.58
737.021	11557.96
737.361	11482.93
737.702	11557.28
738.042	11562.93
738.383	11501.69
738.723	11559.31
739.063	11502.59
739.404	11606.77
739.744	11583.72
740.084	11564.51
740.424	11604.51
740.764	11574.23
741.104	11660.1
741.444	11630.95
741.784	11595.02
742.124	11657.39
742.464	11656.26
742.804	11684.96
743.143	11681.35
743.483	11646.09
743.823	11698.29
744.162	11743.94
744.502	11711.18
744.841	11781.46
745.181	11835.69
745.52	11803.83
745.86	11924.28
746.199	11849.7
746.538	11982.58
746.877	12044.5
747.216	12113.42
747.556	12068.23
747.895	12186.19
748.234	12117.04
748.573	12263.25
748.911	12297.6
749.25	12373.3
749.589	12409.46
749.928	12504.37
750.267	12536.46
750.605	12649
750.944	12660.53
751.283	12694.43
751.621	12877.47
751.96	12904.36
752.298	13113.17
752.636	13131.25
752.975	13128.99
753.313	13236.11
753.651	13416.89
753.989	13467.29
754.327	13527.17
754.666	13641.29
755.004	13848.75
755.342	14027.72
755.679	14067.27
756.017	14135.74
