Data from hue_190_FLMS001491_00074.txt Node
Date: Tue Feb 07 16:45:45 GMT 2017
User: dcchb
Spectrometer: FLMS00149
Trigger mode: 0
Integration Time (sec): 2.000000E-2
Scans to average: 10
Electric dark correction enabled: true
Nonlinearity correction enabled: false
Boxcar width: 0
XAxis mode: Wavelengths
Number of Pixels in Spectrum: 2048
>>>>>Begin Spectral Data<<<<<
341.393	0.61
341.776	0.61
342.16	0.61
342.543	-63.8
342.927	-66.06
343.31	-64.02
343.693	-76.9
344.077	-63.57
344.46	-61.31
344.843	-49.79
345.226	-50.92
345.61	-21.99
345.993	-18.15
346.376	-0.75
346.759	6.93
347.142	23.21
347.525	47.16
347.908	57.55
348.291	71.34
348.674	93.26
349.057	107.95
349.44	131.23
349.823	131.9
350.206	159.93
350.588	194.27
350.971	187.5
351.354	214.84
351.737	251.9
352.119	246.93
352.502	258.45
352.884	280.37
353.267	272.24
353.65	278.57
354.032	299.36
354.414	290.32
354.797	300.26
355.179	319.69
355.562	321.28
355.944	320.6
356.326	323.31
356.709	325.34
357.091	347.72
357.473	343.42
357.855	332.12
358.238	334.84
358.62	334.16
359.002	322.18
359.384	327.83
359.766	331.22
360.148	334.84
360.53	344.33
360.912	341.62
361.294	340.49
361.676	333.71
362.057	334.84
362.439	320.6
362.821	302.52
363.203	332.35
363.584	324.21
363.966	334.84
364.348	307.94
364.729	304.33
365.111	306.59
365.493	305.23
365.874	305.01
366.256	302.07
366.637	301.84
367.019	337.1
367.4	310.2
367.781	321.73
368.163	319.47
368.544	324.67
368.925	293.71
369.306	313.37
369.688	260.26
370.069	325.34
370.45	309.75
370.831	295.74
371.212	307.94
371.593	291
371.974	313.37
372.355	299.58
372.736	324.21
373.117	329.64
373.498	325.34
373.879	300.71
374.26	295.06
374.641	321.05
375.021	309.07
375.402	300.26
375.783	319.24
376.163	328.73
376.544	295.74
376.925	310.66
377.305	330.09
377.686	336.19
378.066	332.12
378.447	304.78
378.827	295.29
379.208	328.51
379.588	327.15
379.968	319.92
380.349	338.68
380.729	330.32
381.109	326.7
381.489	335.97
381.87	347.72
382.25	316.98
382.63	317.21
383.01	336.19
383.39	339.81
383.77	333.03
384.15	354.04
384.53	331.67
384.91	334.16
385.29	334.16
385.67	330.99
386.049	358.34
386.429	342.97
386.809	336.42
387.189	347.49
387.568	367.15
387.948	366.02
388.328	324.89
388.707	349.3
389.087	338.23
389.466	336.87
389.846	364.89
390.225	369.64
390.605	360.15
390.984	345.68
391.363	357.89
391.743	361.5
392.122	357.21
392.501	363.31
392.881	359.47
393.26	379.58
393.639	360.82
394.018	359.24
394.397	369.64
394.776	369.19
395.155	385.68
395.534	369.41
395.913	371.9
396.292	377.32
396.671	393.82
397.05	394.04
397.429	378.68
397.808	381.84
398.186	377.32
398.565	402.18
398.944	367.38
399.323	396.3
399.701	383.87
400.08	385.23
400.458	398.56
400.837	403.76
401.215	408.05
401.594	381.84
401.972	396.3
402.351	415.74
402.729	392.91
403.107	396.76
403.486	385.91
403.864	425.68
404.242	415.51
404.62	410.77
404.999	441.73
405.377	404.21
405.755	437.66
406.133	447.83
406.511	452.57
406.889	451.67
407.267	461.16
407.645	453.48
408.023	448.28
408.401	484.44
408.779	476.98
409.156	464.78
409.534	468.17
409.912	477.88
410.29	491.67
410.667	513.59
411.045	504.77
411.422	519.46
411.8	539.8
412.178	532.8
412.555	540.03
412.933	549.29
413.31	544.55
413.687	551.55
414.065	559.91
414.442	572.57
414.819	591.78
415.197	594.49
415.574	601.04
415.951	586.35
416.328	620.48
416.705	614.6
417.082	634.71
417.46	642.62
417.837	644.66
418.214	668.16
418.591	674.26
418.967	666.13
419.344	686.92
419.721	663.87
420.098	688.95
420.475	715.62
420.852	737.54
421.228	736.41
421.605	722.85
421.982	744.32
422.358	759.23
422.735	757.65
423.111	749.97
423.488	807.14
423.864	793.81
424.241	805.11
424.617	837.42
424.994	832.68
425.37	843.52
425.746	854.37
426.123	883.97
426.499	883.3
426.875	924.42
427.251	897.53
427.627	927.81
428.003	953.8
428.379	970.3
428.756	956.29
429.132	957.87
429.507	986.34
429.883	987.25
430.259	1019.79
430.635	1015.95
431.011	1034.25
431.387	1046.68
431.763	1064.08
432.138	1079.45
432.514	1110.18
432.89	1077.64
433.265	1126
433.641	1127.36
434.016	1163.29
434.392	1167.36
434.767	1220.91
435.143	1257.52
435.518	1246.22
435.894	1276.73
436.269	1319.89
436.644	1313.12
437.02	1341.59
437.395	1334.81
437.77	1347.69
438.145	1387.01
438.52	1413
438.895	1456.16
439.271	1463.62
439.646	1476.95
440.021	1513.56
440.395	1516.95
440.77	1506.33
441.145	1549.49
441.52	1587.01
441.895	1579.77
442.27	1614.35
442.645	1649.15
443.019	1617.74
443.394	1656.38
443.769	1673.56
444.143	1681.24
444.518	1702.71
444.892	1695.48
445.267	1733.22
445.641	1748.36
446.016	1746.78
446.39	1789.26
446.764	1811.63
447.139	1817.96
447.513	1833.1
447.887	1815.93
448.262	1835.14
448.636	1847.79
449.01	1911.97
449.384	1916.72
449.758	1914.23
450.132	1957.84
450.506	1938.41
450.88	1961.46
451.254	1985.64
451.628	2031.29
452.002	2063.38
452.376	2053.66
452.75	2069.48
453.123	2121.46
453.497	2137.95
453.871	2152.42
454.244	2192.87
454.618	2181.34
454.992	2221.11
455.365	2239.42
455.739	2290.26
456.112	2315.35
456.486	2349.47
456.859	2362.81
457.232	2380.88
457.606	2382.24
457.979	2442.13
458.352	2481.22
458.725	2490.03
459.099	2506.98
459.472	2559.41
459.845	2578.39
460.218	2615
460.591	2654.32
460.964	2644.38
461.337	2717.15
461.71	2757.82
462.083	2787.65
462.456	2795.56
462.829	2791.49
463.201	2889.12
463.574	2883.24
463.947	2939.74
464.32	3020.87
464.692	3010.02
465.065	3047.98
465.438	3046.4
465.81	3122.56
466.183	3132.95
466.555	3236.23
466.928	3250.47
467.3	3241.88
467.672	3328.43
468.045	3392.38
468.417	3376.79
468.789	3421.99
469.161	3482.55
469.534	3539.95
469.906	3591.93
470.278	3648.42
470.65	3685.26
471.022	3744.92
471.394	3785.59
471.766	3862.2
472.138	3915.08
472.51	3959.6
472.882	4075.75
473.253	4093.83
473.625	4152.14
473.997	4234.17
474.369	4270.33
474.74	4353.49
475.112	4380.61
475.484	4520.26
475.855	4587.15
476.227	4613.37
476.598	4717.09
476.97	4811.33
477.341	4876.19
477.713	4926.58
478.084	5028.72
478.455	5103.75
478.827	5171.32
479.198	5317.76
479.569	5328.6
479.94	5506.68
480.311	5524.3
480.682	5661.93
481.053	5790.06
481.424	5906.21
481.795	5951.64
482.166	6030.51
482.537	6131.29
482.908	6226.21
483.279	6297.84
483.65	6411.74
484.021	6523.37
484.391	6595.69
484.762	6642.92
485.133	6719.53
485.503	6853.53
485.874	7041.55
486.244	7022.34
486.615	7164.49
486.985	7335.33
487.356	7361.09
487.726	7434.31
488.097	7621.2
488.467	7646.96
488.837	7799.5
489.207	7874.3
489.578	8041.07
489.948	8112.94
490.318	8141.41
490.688	8190.22
491.058	8357.22
491.428	8476.99
491.798	8494.17
492.168	8632.02
492.538	8710.43
492.908	8793.82
493.278	8868.62
493.648	8930.32
494.017	8921.95
494.387	9087.83
494.757	9110.88
495.126	9182.74
495.496	9289.18
495.866	9311.55
496.235	9421.15
496.605	9503.41
496.974	9485.56
497.344	9535.27
497.713	9582.28
498.082	9649.39
498.452	9822.72
498.821	9825.89
499.19	9812.1
499.559	9911.08
499.928	9913.79
500.298	10005.77
500.667	10006.45
501.036	10052.32
501.405	10103.17
501.774	10072.43
502.143	10133.9
502.512	10177.97
502.88	10260.45
503.249	10169.38
503.618	10331.41
503.987	10379.09
504.356	10401.46
504.724	10400.79
505.093	10353.33
505.462	10455.25
505.83	10440.78
506.199	10461.12
506.567	10605.98
506.936	10473.55
507.304	10660.67
507.672	10730.95
508.041	10708.8
508.409	10777.05
508.777	10790.38
509.145	10775.24
509.514	10759.87
509.882	10848.23
510.25	10849.36
510.618	10888.68
510.986	10850.04
511.354	10891.39
511.722	10961.9
512.09	11043.25
512.458	10960.09
512.826	10987.21
513.193	11032.18
513.561	11076.47
513.929	11092.97
514.297	11083.93
514.664	11140.88
515.032	11164.83
515.4	11208.22
515.767	11122.35
516.135	11171.16
516.502	11074.44
516.869	11187.88
517.237	11231.05
517.604	11191.27
517.972	11224.27
518.339	11224.27
518.706	11240.54
519.073	11171.39
519.44	11257.26
519.808	11248.22
520.175	11223.14
520.542	11326.86
520.909	11282.57
521.276	11251.61
521.643	11291.38
522.009	11281.67
522.376	11343.81
522.743	11284.15
523.11	11372.51
523.477	11408.67
523.843	11398.27
524.21	11389.23
524.577	11470.14
524.943	11378.39
525.31	11384.49
525.676	11490.7
526.043	11460.42
526.409	11439.85
526.776	11436.24
527.142	11391.49
527.508	11419.06
527.874	11447.99
528.241	11392.17
528.607	11387.43
528.973	11379.29
529.339	11390.59
529.705	11283.25
530.071	11347.65
530.437	11282.12
530.803	11325.06
531.169	11318.28
531.535	11186.53
531.901	11184.72
532.267	11195.34
532.632	11185.85
532.998	11165.96
533.364	11131.39
533.73	11018.4
534.095	11085.29
534.461	11022.01
534.826	11064.95
535.192	10936.59
535.557	11023.59
535.923	10903.82
536.288	10881
536.653	10866.76
537.019	10704.96
537.384	10734.11
537.749	10711.06
538.114	10617.73
538.479	10625.86
538.845	10560.56
539.21	10516.94
539.575	10455.7
539.94	10536.6
540.305	10445.53
540.67	10359.88
541.034	10308.36
541.399	10244.18
541.764	10242.82
542.129	10184.97
542.494	10121.02
542.858	10121.92
543.223	10072.66
543.587	10000.57
543.952	10010.51
544.316	9921.7
544.681	9878.77
545.045	9848.03
545.41	9831.76
545.774	9737.98
546.138	9706.11
546.503	9640.35
546.867	9574.59
547.231	9614.82
547.595	9567.14
547.959	9432.68
548.324	9383.86
548.688	9408.27
549.052	9334.15
549.416	9306.8
549.779	9236.07
550.143	9275.39
550.507	9197.88
550.871	9125.57
551.235	9070.43
551.599	9165.79
551.962	8965.12
552.326	9018.68
552.689	8987.72
553.053	8861.62
553.417	8844.67
553.78	8852.58
554.143	8775.52
554.507	8776.65
554.87	8757.21
555.234	8801.28
555.597	8642.64
555.96	8658.46
556.323	8624.11
556.686	8598.57
557.05	8600.16
557.413	8522.19
557.776	8538.24
558.139	8443.32
558.502	8418.92
558.865	8440.84
559.228	8452.59
559.59	8458.69
559.953	8382.76
560.316	8449.42
560.679	8326.26
561.041	8350.67
561.404	8283.33
561.767	8351.12
562.129	8183.22
562.492	8276.77
562.854	8245.81
563.217	8240.84
563.579	8238.81
563.941	8246.04
564.304	8295.53
564.666	8267.28
565.028	8212.37
565.39	8224.35
565.753	8215.76
566.115	8267.51
566.477	8235.65
566.839	8244.23
567.201	8215.31
567.563	8217.34
567.925	8182.77
568.287	8245.81
568.648	8194.29
569.01	8178.92
569.372	8209.43
569.734	8133.73
570.095	8181.41
570.457	8227.06
570.819	8202.88
571.18	8231.13
571.542	8225.93
571.903	8171.92
572.265	8225.02
572.626	8212.82
572.987	8262.31
573.349	8259.15
573.71	8166.27
574.071	8155.87
574.432	8235.42
574.794	8262.09
575.155	8144.8
575.516	8149.77
575.877	8193.84
576.238	8230.22
576.599	8166.72
576.96	8224.35
577.32	8136.66
577.681	8171.24
578.042	8182.77
578.403	8220.5
578.763	8168.98
579.124	8164.01
579.485	8213.05
579.845	8157
580.206	8194.97
580.566	8137.79
580.927	8142.31
581.287	8146.16
581.648	8093.05
582.008	8185.48
582.368	8119.04
582.728	8152.71
583.089	8133.5
583.449	8050.34
583.809	8091.24
584.169	8106.61
584.529	8083.78
584.889	8138.47
585.249	8066.38
585.609	8044.69
585.969	8095.76
586.329	8038.59
586.688	8053.28
587.048	7961.75
587.408	8015.09
587.768	8000.17
588.127	8015.09
588.487	7912.94
588.846	7975.76
589.206	7952.04
589.565	7957.46
589.925	7981.64
590.284	7972.38
590.643	7970.57
591.003	7975.99
591.362	7974.18
591.721	7921.3
592.08	7901.19
592.44	7970.57
592.799	7881.76
593.158	7829.55
593.517	7872.72
593.876	7898.93
594.235	7832.04
594.593	7849.44
594.952	7936.44
595.311	7804.7
595.67	7842.89
596.029	7875.65
596.387	7898.25
596.746	7811.02
597.104	7855.54
597.463	7777.35
597.822	7816.9
598.18	7806.96
598.538	7761.31
598.897	7765.15
599.255	7777.13
599.613	7844.47
599.972	7784.13
600.33	7802.89
600.688	7742.1
601.046	7804.92
601.404	7791.36
601.762	7771.7
602.12	7784.13
602.478	7793.62
602.836	7820.06
603.194	7717.24
603.552	7751.14
603.91	7813.96
604.268	7775.32
604.625	7766.5
604.983	7765.15
605.341	7719.5
605.698	7753.17
606.056	7771.02
606.413	7806.73
606.771	7785.04
607.128	7753.62
607.485	7760.86
607.843	7722.44
608.2	7725.6
608.557	7798.59
608.914	7746.84
609.272	7766.96
609.629	7774.64
609.986	7819.16
610.343	7811.02
610.7	7794.75
611.057	7791.59
611.414	7786.62
611.771	7818.03
612.127	7798.59
612.484	7818.71
612.841	7876.56
613.198	7850.12
613.554	7729.44
613.911	7856.22
614.267	7773.06
614.624	7823.9
614.98	7792.27
615.337	7807.18
615.693	7867.75
616.05	7852.15
616.406	7872.26
616.762	7877.91
617.118	7840.63
617.475	7886.5
617.831	7886.05
618.187	7845.15
618.543	7835.66
618.899	7891.93
619.255	7875.2
619.611	7904.35
619.967	7933.73
620.323	7936.22
620.678	7910.23
621.034	7881.08
621.39	7829.78
621.746	7828.65
622.101	7939.16
622.457	7867.07
622.812	7905.71
623.168	7893.96
623.523	7877.01
623.879	7942.77
624.234	7856.67
624.589	7879.95
624.945	7913.39
625.3	7843.34
625.655	7887.86
626.01	7855.32
626.365	7884.92
626.72	7905.94
627.075	7851.47
627.43	7875.65
627.785	7828.88
628.14	7860.74
628.495	7844.02
628.85	7822.1
629.205	7817.58
629.559	7874.07
629.914	7823
630.269	7865.03
630.623	7832.94
630.978	7801.53
631.332	7785.26
631.687	7865.71
632.041	7799.95
632.396	7806.28
632.75	7702.1
633.104	7754.75
633.459	7714.08
633.813	7683.34
634.167	7727.41
634.521	7717.47
634.875	7712.27
635.229	7700.97
635.583	7653.06
635.937	7668.88
636.291	7656.9
636.645	7637.92
636.999	7588.43
637.352	7648.09
637.706	7595.89
638.06	7639.28
638.413	7566.96
638.767	7530.13
639.121	7503.46
639.474	7470.47
639.828	7524.7
640.181	7527.42
640.534	7559.28
640.888	7495.55
641.241	7530.35
641.594	7516.57
641.947	7575.32
642.301	7475.44
642.654	7529.9
643.007	7512.05
643.36	7465.04
643.713	7545.72
644.066	7491.71
644.419	7475.44
644.771	7443.12
645.124	7396.35
645.477	7375.33
645.83	7301.88
646.182	7249.91
646.535	7246.74
646.888	7216.91
647.24	7185.28
647.593	7266.4
647.945	7198.16
648.298	7165.39
648.65	7170.81
649.002	7208.78
649.355	7234.99
649.707	7179.85
650.059	7317.25
650.411	7331.26
650.763	7308.44
651.115	7406.51
651.467	7368.55
651.819	7348.66
652.171	7403.35
652.523	7402.45
652.875	7344.6
653.227	7357.02
653.578	7426.17
653.93	7405.61
654.282	7360.64
654.633	7353.18
654.985	7327.42
655.337	7406.29
655.688	7401.77
656.039	7459.85
656.391	7338.49
656.742	7372.84
657.094	7345.95
657.445	7387.53
657.796	7356.35
658.147	7367.19
658.498	7416.68
658.849	7421.2
659.2	7384.14
659.551	7388.44
659.902	7402.9
660.253	7428.21
660.604	7429.56
660.955	7390.47
661.306	7470.02
661.656	7372.62
662.007	7347.76
662.358	7397.7
662.708	7437.25
663.059	7470.69
663.409	7416.68
663.76	7440.41
664.11	7450.81
664.461	7479.28
664.811	7427.3
665.161	7422.11
665.511	7382.79
665.862	7451.71
666.212	7498.94
666.562	7400.86
666.912	7430.69
667.262	7436.12
667.612	7544.59
667.962	7465.04
668.312	7453.97
668.662	7525.16
669.011	7487.64
669.361	7394.76
669.711	7385.95
670.06	7399.28
670.41	7353.18
670.76	7411.94
671.109	7413.75
671.459	7395.22
671.808	7400.64
672.157	7375.55
672.507	7395.22
672.856	7400.41
673.205	7379.62
673.554	7392.96
673.904	7355.44
674.253	7434.08
674.602	7338.49
674.951	7271.38
675.3	7263.24
675.649	7315.67
675.998	7292.84
676.346	7302.11
676.695	7409.23
677.044	7343.24
677.393	7340.08
677.741	7311.38
678.09	7329.68
678.438	7318.61
678.787	7336.91
679.135	7236.58
679.484	7245.16
679.832	7273.86
680.181	7266.86
680.529	7253.98
680.877	7136.69
681.225	7191.83
681.573	7217.82
681.922	7165.84
682.27	7166.29
682.618	7169.23
682.966	7119.97
683.314	7099.4
683.661	7067.31
684.009	7074.32
684.357	7088.33
684.705	7081.33
685.053	7064.38
685.4	7063.7
685.748	7016.02
686.095	7020.31
686.443	6972.85
686.79	6929.24
687.138	6970.14
687.485	6973.76
687.832	6909.35
688.18	6962.91
688.527	6879.3
688.874	6837.94
689.221	6843.82
689.568	6813.31
689.915	6848.11
690.262	6799.75
690.609	6787.55
690.956	6760.2
691.303	6804.27
691.65	6733.54
691.997	6641.11
692.344	6641.34
692.69	6663.93
693.037	6695.35
693.383	6581.9
693.73	6576.03
694.077	6536.03
694.423	6545.07
694.769	6496.26
695.116	6480.89
695.462	6473.66
695.808	6444.28
696.155	6479.08
696.501	6414
696.847	6399.76
697.193	6343.04
697.539	6394.79
697.885	6295.36
698.231	6262.14
698.577	6316.6
698.923	6261.69
699.269	6230.27
699.614	6228.47
699.96	6140.33
700.306	6153.67
700.651	6084.97
700.997	6082.93
701.342	6074.8
701.688	6046.32
702.033	6047.68
702.379	6014.23
702.724	6014.91
703.069	5989.15
703.415	5940.34
703.76	5979.66
704.105	6005.42
704.45	5925.2
704.795	5852.66
705.14	5861.02
705.485	5828.7
705.83	5844.07
706.175	5858.08
706.52	5808.14
706.865	5772.43
707.209	5760.46
707.554	5786.9
707.899	5776.05
708.243	5742.15
708.588	5716.16
708.932	5698.31
709.277	5657.63
709.621	5657.41
709.966	5673.68
710.31	5630.06
710.654	5586.22
710.998	5531.54
711.342	5556.17
711.687	5576.05
712.031	5538.77
712.375	5516.85
712.719	5548.71
713.063	5524.76
713.407	5560.69
713.75	5500.35
714.094	5508.03
714.438	5454.25
714.782	5450.41
715.125	5448.15
715.469	5484.3
715.812	5399.11
716.156	5413.57
716.499	5385.32
716.843	5423.29
717.186	5372.67
717.53	5418.09
717.873	5364.53
718.216	5421.26
718.559	5354.36
718.902	5376.51
719.246	5337.19
719.589	5333.35
719.932	5344.65
720.275	5363.4
720.617	5349.17
720.96	5314.37
721.303	5302.16
721.646	5294.93
721.989	5257.64
722.331	5357.08
722.674	5293.35
723.016	5282.05
723.359	5300.13
723.701	5279.34
724.044	5279.11
724.386	5220.13
724.729	5218.78
725.071	5265.78
725.413	5280.02
725.755	5275.27
726.097	5221.71
726.439	5194.82
726.782	5228.04
727.124	5237.76
727.465	5176.74
727.807	5218.1
728.149	5217.65
728.491	5223.52
728.833	5219.68
729.175	5179.68
729.516	5141.49
729.858	5163.64
730.199	5188.95
730.541	5222.16
730.882	5179.68
731.224	5244.31
731.565	5208.83
731.906	5222.16
732.248	5207.25
732.589	5210.64
732.93	5178.55
733.271	5233.92
733.612	5188.49
733.953	5190.3
734.294	5182.17
734.635	5208.83
734.976	5226.68
735.317	5200.47
735.658	5217.87
735.999	5254.48
736.339	5179
736.68	5261.94
737.021	5265.78
737.361	5247.02
737.702	5279.79
738.042	5254.93
738.383	5283.86
738.723	5262.16
739.063	5279.79
739.404	5247.02
739.744	5258.77
740.084	5261.94
740.424	5266.68
740.764	5299.9
741.104	5324.31
741.444	5292.22
741.784	5351.2
742.124	5329.28
742.464	5383.29
742.804	5392.78
743.143	5383.52
743.483	5414.02
743.823	5471.88
744.162	5466
744.502	5516.39
744.841	5464.64
745.181	5561.37
745.52	5553.46
745.86	5576.28
746.199	5601.82
746.538	5661.48
746.877	5702.83
747.216	5701.02
747.556	5809.04
747.895	5826.22
748.234	5873
748.573	5898.76
748.911	5969.49
749.25	6006.55
749.589	6040.22
749.928	6105.98
750.267	6186.66
750.605	6226.43
750.944	6271.63
751.283	6361.57
751.621	6473.43
751.96	6508.23
752.298	6668.45
752.636	6646.31
752.975	6813.99
753.313	6800.88
753.651	7012.63
753.989	7024.6
754.327	7171.04
754.666	7249
755.004	7398.15
755.342	7490.58
755.679	7686.05
756.017	7729.44
756.355	7900.06
756.693	8000.17
757.031	8185.7
757.368	8291.01
757.706	8471.12
758.044	8566.26
758.381	8696.2
758.719	8860.49
759.056	9050.99
759.394	9142.29
759.731	9244.21
760.068	9461.38
760.405	9646.23
760.743	9794.25
761.08	9933.23
761.417	10103.84
761.754	10312.2
762.091	10482.14
762.428	10615.7
762.765	10782.24
763.102	10947.21
763.438	11109.47
763.775	11295.68
764.112	11469.68
764.449	11633.97
764.785	11891.82
765.122	11946.96
765.458	12080.74
765.795	12288.87
766.131	12534.29
766.467	12601.63
