Data from hue_260_FLMS001491_00080.txt Node
Date: Tue Feb 07 15:59:35 GMT 2017
User: dcchb
Spectrometer: FLMS00149
Trigger mode: 0
Integration Time (sec): 2.000000E-2
Scans to average: 10
Electric dark correction enabled: true
Nonlinearity correction enabled: false
Boxcar width: 0
XAxis mode: Wavelengths
Number of Pixels in Spectrum: 2048
>>>>>Begin Spectral Data<<<<<
341.393	-14.21
341.776	-14.21
342.16	-14.21
342.543	-74.77
342.927	-69.8
343.31	-71.38
343.693	-56.02
344.077	-71.16
344.46	-87.2
344.843	-62.34
345.226	-32.97
345.61	-36.13
345.993	-9.24
346.376	-13.53
346.759	11.1
347.142	37.99
347.525	48.39
347.908	63.08
348.291	80.93
348.674	83.42
349.057	115.05
349.44	106.69
349.823	136.52
350.206	156.86
350.588	172.45
350.971	235.05
351.354	197.54
351.737	207.25
352.119	252.9
352.502	260.81
352.884	272.11
353.267	266.24
353.65	293.58
354.032	270.3
354.414	280.92
354.797	294.71
355.179	302.62
355.562	307.59
355.944	334.48
356.326	317.31
356.709	342.62
357.091	352.79
357.473	329.96
357.855	339
358.238	328.38
358.62	324.31
359.002	329.74
359.384	317.31
359.766	315.05
360.148	318.21
360.53	327.93
360.912	327.25
361.294	346.46
361.676	329.74
362.057	327.93
362.439	320.02
362.821	282.28
363.203	300.36
363.584	315.73
363.966	318.66
364.348	320.47
364.729	309.85
365.111	315.27
365.493	313.92
365.874	312.79
366.256	318.66
366.637	302.39
367.019	312.11
367.4	302.62
367.781	296.29
368.163	299.46
368.544	300.36
368.925	303.07
369.306	317.76
369.688	309.85
370.069	309.17
370.45	307.14
370.831	313.92
371.212	295.61
371.593	310.08
371.974	323.41
372.355	313.92
372.736	310.75
373.117	319.57
373.498	306.23
373.879	297.2
374.26	309.85
374.641	315.73
375.021	309.85
375.402	291.32
375.783	290.42
376.163	322.96
376.544	314.14
376.925	328.61
377.305	304.65
377.686	306.69
378.066	309.17
378.447	317.99
378.827	338.32
379.208	303.75
379.588	340.36
379.968	320.25
380.349	312.34
380.729	328.83
381.109	295.84
381.489	339.23
381.87	336.29
382.25	335.84
382.63	338.32
383.01	339.91
383.39	321.38
383.77	325.9
384.15	343.07
384.53	341.71
384.91	330.64
385.29	343.3
385.67	341.49
386.049	357.31
386.429	344.88
386.809	336.06
387.189	327.7
387.568	358.89
387.948	355.95
388.328	361.15
388.707	365.22
389.087	364.99
389.466	354.82
389.846	361.37
390.225	363.18
390.605	351.43
390.984	361.6
391.363	362.5
391.743	364.76
392.122	369.51
392.501	367.48
392.881	385.55
393.26	360.02
393.639	371.32
394.018	359.11
394.397	366.12
394.776	381.71
395.155	382.84
395.534	381.26
395.913	376.52
396.292	403.18
396.671	383.75
397.05	383.75
397.429	388.72
397.808	374.71
398.186	389.85
398.565	405.44
398.944	393.92
399.323	407.48
399.701	401.15
400.08	398.89
400.458	399.34
400.837	402.28
401.215	411.77
401.594	443.86
401.972	416.97
402.351	429.17
402.729	423.29
403.107	424.88
403.486	439.56
403.864	411.99
404.242	434.59
404.62	450.19
404.999	446.8
405.377	464.2
405.755	442.95
406.133	425.33
406.511	452.22
406.889	447.02
407.267	463.97
407.645	468.26
408.023	488.83
408.401	459.68
408.779	481.37
409.156	502.39
409.534	496.96
409.912	497.42
410.29	501.03
410.667	530.41
411.045	522.73
411.422	529.05
411.8	512.11
412.178	545.1
412.555	548.04
412.933	558.88
413.31	578.54
413.687	571.99
414.065	575.38
414.442	573.8
414.819	596.4
415.197	599.33
415.574	582.39
415.951	614.93
416.328	611.76
416.705	623.06
417.082	616.06
417.46	644.98
417.837	617.64
418.214	642.5
418.591	665.32
418.967	662.61
419.344	648.15
419.721	699.22
420.098	667.81
420.475	701.7
420.852	694.25
421.228	694.93
421.605	718.2
421.982	708.71
422.358	717.07
422.735	745.09
423.111	741.25
423.488	757.52
423.864	781.93
424.241	772.44
424.617	780.35
424.994	820.8
425.37	824.64
425.746	804.75
426.123	831.64
426.499	834.13
426.875	846.11
427.251	858.99
427.627	855.37
428.003	879.1
428.379	886.56
428.756	912.32
429.132	938.31
429.507	944.64
429.883	917.74
430.259	931.08
430.635	952.32
431.011	972.88
431.387	992.09
431.763	986.89
432.138	1022.15
432.514	1027.35
432.89	1037.97
433.265	1025.99
433.641	1056.05
434.016	1059.44
434.392	1107.8
434.767	1121.81
435.143	1113.9
435.518	1129.26
435.894	1156.16
436.269	1192.77
436.644	1186.44
437.02	1209.49
437.395	1201.35
437.77	1259.88
438.145	1243.84
438.52	1265.53
438.895	1318.86
439.271	1315.7
439.646	1340.56
440.021	1340.78
440.395	1355.92
440.77	1359.99
441.145	1389.82
441.52	1416.71
441.895	1423.49
442.27	1440.67
442.645	1430.95
443.019	1437.96
443.394	1437.05
443.769	1476.37
444.143	1468.46
444.518	1506.2
444.892	1512.53
445.267	1540.33
445.641	1518.18
446.016	1544.62
446.39	1535.81
446.764	1537.16
447.139	1544.17
447.513	1595.01
447.887	1580.1
448.262	1580.78
448.636	1586.43
449.01	1640.21
449.384	1628.23
449.758	1645.41
450.132	1682.92
450.506	1672.98
450.88	1677.95
451.254	1688.57
451.628	1736.48
452.002	1710.94
452.376	1726.76
452.75	1778.96
453.123	1757.72
453.497	1771.73
453.871	1794.11
454.244	1844.5
454.618	1829.13
454.992	1884.27
455.365	1843.6
455.739	1871.62
456.112	1900.54
456.486	1931.73
456.859	1985.06
457.232	1998.17
457.606	1992.29
457.979	2012.4
458.352	2061.22
458.725	2068.67
459.099	2071.84
459.472	2105.06
459.845	2140.76
460.218	2156.36
460.591	2135.79
460.964	2181.21
461.337	2206.3
461.71	2278.61
462.083	2282.23
462.456	2252.17
462.829	2255.34
463.201	2307.99
463.574	2320.87
463.947	2362.45
464.32	2376.46
464.692	2427.54
465.065	2450.13
465.438	2437.93
465.81	2498.95
466.183	2498.27
466.555	2567.87
466.928	2550.92
467.3	2571.94
467.672	2603.35
468.045	2656
468.417	2646.29
468.789	2672.95
469.161	2699.84
469.534	2752.72
469.906	2814.42
470.278	2815.55
470.65	2882.44
471.022	2867.98
471.394	2931.93
471.766	2959.05
472.138	2980.74
472.51	2999.5
472.882	3094.18
473.253	3095.99
473.625	3115.88
473.997	3155.65
474.369	3230.9
474.74	3227.74
475.112	3315.65
475.484	3364.01
475.855	3388.64
476.227	3421.63
476.598	3491.24
476.97	3526.26
477.341	3532.59
477.713	3637.22
478.084	3681.29
478.455	3704.34
478.827	3700.27
479.198	3845.58
479.569	3832.02
479.94	3907.95
480.311	3973.03
480.682	4003.31
481.053	4090.77
481.424	4165.34
481.795	4214.83
482.166	4227.71
482.537	4297.99
482.908	4360.82
483.279	4399.46
483.65	4463.87
484.021	4548.16
484.391	4584.09
484.762	4616.18
485.133	4670.87
485.503	4740.02
485.874	4786.34
486.244	4792.22
486.615	4848.26
486.985	4921.71
487.356	5026.11
487.726	5067.24
488.097	5149.05
488.467	5110.85
488.837	5240.12
489.207	5220.91
489.578	5295.93
489.948	5377.97
490.318	5401.47
490.688	5416.61
491.058	5514.01
491.428	5603.95
491.798	5596.27
492.168	5697.73
492.538	5718.97
492.908	5797.84
493.278	5791.29
493.648	5827.22
494.017	5908.35
494.387	5921.91
494.757	6001
495.126	6074.22
495.496	6070.6
495.866	6126.19
496.235	6129.13
496.605	6121.68
496.974	6179.98
497.344	6224.5
497.713	6259.52
498.082	6285.96
498.452	6335.91
498.821	6365.51
499.19	6315.34
499.559	6377.26
499.928	6478.73
500.298	6413.19
500.667	6518.05
501.036	6511.04
501.405	6564.38
501.774	6543.36
502.143	6574.09
502.512	6608.22
502.88	6680.3
503.249	6687.76
503.618	6664.71
503.987	6720.76
504.356	6740.87
504.724	6804.82
505.093	6770.02
505.462	6828.32
505.83	6864.93
506.199	6882.79
506.567	6981.31
506.936	6913.97
507.304	7000.97
507.672	6965.04
508.041	7013.86
508.409	7053.63
508.777	7032.84
509.145	7137.69
509.514	7111.03
509.882	7130.24
510.25	7118.26
510.618	7173.62
510.986	7155.55
511.354	7149.9
511.722	7172.27
512.09	7234.87
512.458	7201.87
512.826	7241.42
513.193	7351.25
513.561	7290.46
513.929	7357.12
514.297	7352.83
514.664	7346.95
515.032	7405.71
515.4	7407.07
515.767	7443.45
516.135	7456.56
516.502	7348.31
516.869	7504.92
517.237	7501.3
517.604	7465.14
517.972	7527.29
518.339	7565.48
518.706	7493.84
519.073	7564.12
519.44	7555.99
519.808	7626.04
520.175	7574.29
520.542	7665.82
520.909	7724.12
521.276	7675.08
521.643	7690.22
522.009	7681.18
522.376	7765.47
522.743	7682.09
523.11	7766.83
523.477	7792.82
523.843	7832.82
524.21	7854.96
524.577	7913.94
524.943	7891.35
525.31	7877.34
525.676	7947.62
526.043	7932.25
526.409	7932.93
526.776	8030.33
527.142	7969.31
527.508	8036.88
527.874	8061.06
528.241	8004.56
528.607	7998.01
528.973	8101.96
529.339	8089.76
529.705	8073.04
530.071	8164.79
530.437	8113.71
530.803	8144.9
531.169	8187.61
531.535	8134.28
531.901	8111.23
532.267	8125.01
532.632	8198.68
532.998	8148.29
533.364	8094.96
533.73	8141.96
534.095	8223.77
534.461	8170.21
534.826	8142.19
535.192	8172.47
535.557	8201.85
535.923	8218.57
536.288	8175.63
536.653	8175.63
537.019	8150.1
537.384	8172.24
537.749	8197.33
538.114	8204.11
538.479	8204.11
538.845	8174.28
539.21	8163.66
539.575	8109.87
539.94	8186.25
540.305	8209.76
540.67	8163.66
541.034	8169.3
541.399	8159.59
541.764	8149.64
542.129	8078.91
542.494	8067.39
542.858	8124.33
543.223	8128.4
543.587	8107.39
543.952	8129.08
544.316	8131.34
544.681	8071.23
545.045	8125.24
545.41	8081.4
545.774	8115.52
546.138	8101.74
546.503	8099.48
546.867	8137.67
547.231	8089.08
547.595	8059.7
547.959	8065.58
548.324	8045.47
548.688	8071.68
549.052	8011.34
549.416	7998.91
549.779	8072.58
550.143	8014.28
550.507	8068.97
550.871	8061.29
551.235	8035.3
551.599	8087.27
551.962	8028.07
552.326	8055.64
552.689	8053.15
553.053	7982.87
553.417	8014.51
553.78	8063.55
554.143	8060.38
554.507	8047.73
554.87	8077.56
555.234	8130.89
555.597	8023.32
555.96	8009.08
556.323	8040.72
556.686	8064.67
557.05	8184.67
557.413	8088.4
557.776	8080.72
558.139	8165.92
558.502	8061.74
558.865	8145.35
559.228	8139.25
559.59	8171.34
559.953	8203.43
560.316	8191.9
560.679	8199.81
561.041	8177.44
561.404	8147.16
561.767	8285.46
562.129	8212.92
562.492	8244.56
562.854	8228.96
563.217	8238.46
563.579	8328.4
563.941	8301.5
564.304	8361.62
564.666	8316.87
565.028	8359.81
565.39	8366.59
565.753	8393.71
566.115	8399.58
566.477	8437.32
566.839	8455.4
567.201	8497.43
567.563	8508.51
567.925	8506.7
568.287	8540.14
568.648	8502.4
569.01	8589.86
569.372	8575.62
569.734	8604.32
570.095	8625.11
570.457	8641.83
570.819	8699.01
571.18	8715.51
571.542	8714.6
571.903	8706.47
572.265	8805.45
572.626	8801.38
572.987	8782.17
573.349	8770.42
573.71	8825.56
574.071	8907.36
574.432	8897.65
574.794	8970.87
575.155	8913.47
575.516	8955.5
575.877	8951.88
576.238	9038.66
576.599	9021.03
576.96	9013.58
577.32	9034.14
577.681	9100.13
578.042	9086.79
578.403	9083.86
578.763	9143.97
579.124	9169.05
579.485	9183.06
579.845	9167.47
580.206	9106.68
580.566	9219.22
580.927	9277.75
581.287	9281.82
581.648	9304.87
582.008	9319.11
582.368	9309.84
582.728	9297.64
583.089	9353.68
583.449	9315.04
583.809	9322.27
584.169	9320.46
584.529	9430.74
584.889	9468.93
585.249	9426.22
585.609	9395.94
585.969	9494.92
586.329	9469.61
586.688	9499.89
587.048	9482.72
587.408	9434.58
587.768	9510.29
588.127	9484.98
588.487	9509.83
588.846	9640.45
589.206	9586.89
589.565	9592.32
589.925	9616.27
590.284	9637.29
590.643	9614.24
591.003	9687.23
591.362	9658.31
591.721	9673.22
592.08	9695.82
592.44	9700.11
592.799	9700.34
593.158	9748.47
593.517	9721.35
593.876	9770.84
594.235	9797.28
594.593	9810.84
594.952	9720.9
595.311	9750.96
595.67	9712.32
596.029	9842.03
596.387	9806.55
596.746	9880.45
597.104	9838.19
597.463	9823.72
597.822	9888.36
598.18	9826.44
598.538	9767.68
598.897	9877.73
599.255	9811.07
599.613	9953.89
599.972	9909.37
600.33	9878.86
600.688	9904.85
601.046	9919.54
601.404	9940.56
601.762	9982.59
602.12	9919.32
602.478	10031.4
602.836	9966.09
603.194	9969.71
603.552	9930.61
603.91	9882.25
604.268	10000.67
604.625	9950.5
604.983	9991.86
605.341	9917.96
605.698	10023.95
606.056	10039.99
606.413	10023.27
606.771	10040.67
607.128	10035.02
607.485	9999.77
607.843	10088.35
608.2	10081.57
608.557	10116.6
608.914	10126.54
609.272	10135.58
609.629	10155.24
609.986	10190.27
610.343	10031.4
610.7	10274.33
611.057	10192.98
611.414	10125.86
611.771	10186.65
612.127	10130.16
612.484	10226.2
612.841	10225.97
613.198	10171.06
613.554	10227.78
613.911	10325.41
614.267	10243.37
614.624	10250.61
614.98	10208.12
615.337	10383.03
615.693	10268.01
616.05	10327.89
616.406	10385.97
616.762	10397.27
617.118	10277.5
617.475	10311.4
617.831	10254.22
618.187	10347.1
618.543	10317.27
618.899	10421.45
619.255	10404.27
619.611	10331.06
619.967	10482.46
620.323	10391.62
620.678	10344.62
621.034	10413.09
621.39	10339.87
621.746	10396.14
622.101	10380.77
622.457	10409.92
622.812	10425.29
623.168	10377.16
623.523	10386.87
623.879	10464.39
624.234	10376.48
624.589	10380.32
624.945	10428.91
625.3	10454.44
625.655	10417.61
626.01	10395.69
626.365	10424.61
626.72	10418.29
627.075	10406.31
627.43	10404.05
627.785	10353.65
628.14	10325.63
628.495	10409.25
628.85	10315.01
629.205	10334.45
629.559	10390.26
629.914	10339.87
630.269	10346.87
630.623	10364.73
630.978	10294.45
631.332	10340.55
631.687	10374.67
632.041	10272.98
632.396	10242.7
632.75	10296.93
633.104	10227.78
633.459	10230.95
633.813	10228.23
634.167	10196.82
634.521	10207.44
634.875	10158.18
635.229	10192.98
635.583	10177.39
635.937	10167.67
636.291	10102.14
636.645	10141.91
636.999	10136.48
637.352	10070.72
637.706	10067.11
638.06	10170.38
638.413	10019.88
638.767	10094
639.121	10074.34
639.474	10046.32
639.828	10011.74
640.181	10066.43
640.534	10039.54
640.888	10005.64
641.241	9958.64
641.594	9975.81
641.947	10014.45
642.301	9988.47
642.654	9980.33
643.007	9990.5
643.36	10007.22
643.713	9947.34
644.066	9987.11
644.419	9873.44
644.771	9838.87
645.124	9801.58
645.477	9766.33
645.83	9665.31
646.182	9685.88
646.535	9606.33
646.888	9637.06
647.24	9578.76
647.593	9606.56
647.945	9552.09
648.298	9603.84
648.65	9529.04
649.002	9581.92
649.355	9588.02
649.707	9600
650.059	9599.32
650.411	9724.97
650.763	9750.28
651.115	9788.47
651.467	9835.25
651.819	9799.32
652.171	9776.04
652.523	9710.51
652.875	9793.9
653.227	9772.43
653.578	9783.27
653.93	9794.12
654.282	9729.94
654.633	9743.27
654.985	9775.14
655.337	9783.05
655.688	9839.77
656.039	9826.89
656.391	9793.44
656.742	9779.21
657.094	9743.05
657.445	9825.31
657.796	9784.4
658.147	9785.53
658.498	9730.17
658.849	9750.96
659.2	9709.15
659.551	9716.61
659.902	9869.83
660.253	9778.75
660.604	9791.86
660.955	9749.83
661.306	9755.25
661.656	9755.93
662.007	9795.93
662.358	9759.55
662.708	9810.84
663.059	9774.01
663.409	9685.42
663.76	9808.81
664.11	9847
664.461	9754.8
664.811	9780.79
665.161	9783.05
665.511	9769.04
665.862	9757.96
666.212	9731.07
666.562	9779.66
666.912	9770.62
667.262	9762.48
667.612	9769.71
667.962	9762.03
668.312	9778.53
668.662	9790.73
669.011	9800
669.361	9747.34
669.711	9763.84
670.06	9748.25
670.41	9728.36
670.76	9660.11
671.109	9755.7
671.459	9674.12
671.808	9713.45
672.157	9739.21
672.507	9634.13
672.856	9656.5
673.205	9691.3
673.554	9724.74
673.904	9674.8
674.253	9699.89
674.602	9601.58
674.951	9551.19
675.3	9513.9
675.649	9622.83
675.998	9640.68
676.346	9585.54
676.695	9703.73
677.044	9524.75
677.393	9604.97
677.741	9558.42
678.09	9533.34
678.438	9537.18
678.787	9553.9
679.135	9559.55
679.484	9532.43
679.832	9506.9
680.181	9449.05
680.529	9478.2
680.877	9472.32
681.225	9483.85
681.573	9533.56
681.922	9428.48
682.27	9408.37
682.618	9341.03
682.966	9374.47
683.314	9389.16
683.661	9386.9
684.009	9294.02
684.357	9317.75
684.705	9280.46
685.053	9277.07
685.4	9247.47
685.748	9191.65
686.095	9271.65
686.443	9145.1
686.79	9159.56
687.138	9161.14
687.485	9160.92
687.832	9150.75
688.18	9156.4
688.527	9029.62
688.874	9065.55
689.221	9062.16
689.568	8973.8
689.915	8972
690.262	8990.53
690.609	8948.72
690.956	8857.42
691.303	8868.72
691.65	8770.87
691.997	8792.11
692.344	8714.15
692.69	8767.48
693.037	8732.23
693.383	8681.61
693.73	8726.13
694.077	8628.73
694.423	8655.62
694.769	8560.93
695.116	8564.77
695.462	8576.3
695.808	8538.33
696.155	8533.82
696.501	8494.49
696.847	8495.85
697.193	8420.82
697.539	8460.37
697.885	8309.64
698.231	8366.14
698.577	8306.02
698.923	8329.53
699.269	8259.92
699.614	8271.22
699.96	8215.41
700.306	8179.47
700.651	8103.54
700.997	8070.78
701.342	8096.31
701.688	8087.5
702.033	8036.2
702.379	8051.57
702.724	7982.87
703.069	7965.24
703.415	7855.64
703.76	7934.06
704.105	7872.36
704.45	7916.2
704.795	7754.4
705.14	7831.91
705.485	7840.73
705.83	7741.29
706.175	7745.14
706.52	7758.92
706.865	7749.43
707.209	7701.07
707.554	7668.3
707.899	7658.13
708.243	7562.32
708.588	7641.41
708.932	7532.49
709.277	7577.46
709.621	7573.84
709.966	7466.5
710.31	7417.46
710.654	7433.05
710.998	7418.36
711.342	7386.05
711.687	7435.09
712.031	7392.38
712.375	7400.74
712.719	7358.25
713.063	7359.38
713.407	7431.25
713.75	7314.64
714.094	7339.04
714.438	7299.27
714.782	7307.63
715.125	7294.98
715.469	7282.1
715.812	7233.74
716.156	7243.45
716.499	7221.08
716.843	7202.32
717.186	7184.7
717.53	7201.19
717.873	7196.22
718.216	7191.48
718.559	7158.03
718.902	7096.56
719.246	7120.97
719.589	7076.68
719.932	7053.18
720.275	7057.47
720.617	7058.83
720.96	7016.57
721.303	7012.05
721.646	7067.41
721.989	7019.5
722.331	7071.71
722.674	6964.59
723.016	7046.17
723.359	6994.42
723.701	7002.33
724.044	6958.04
724.386	6935.67
724.729	7001.43
725.071	6958.94
725.413	6971.37
725.755	6935.44
726.097	6891.37
726.439	6909
726.782	6939.51
727.124	6947.64
727.465	6911.03
727.807	6931.15
728.149	6890.02
728.491	6854.54
728.833	6907.19
729.175	6892.05
729.516	6813.18
729.858	6806.18
730.199	6863.8
730.541	6868.55
730.882	6824.26
731.224	6862.9
731.565	6872.16
731.906	6843.24
732.248	6850.92
732.589	6809.34
732.93	6786.74
733.271	6819.28
733.612	6889.56
733.953	6845.95
734.294	6778.16
734.635	6797.82
734.976	6868.32
735.317	6776.12
735.658	6841.2
735.999	6841.43
736.339	6818.83
736.68	6866.97
737.021	6808.21
737.361	6761.66
737.702	6852.5
738.042	6790.13
738.383	6845.5
738.723	6883.01
739.063	6806.63
739.404	6810.24
739.744	6797.36
740.084	6811.15
740.424	6804.82
740.764	6899.28
741.104	6842.56
741.444	6878.49
741.784	6862.22
742.124	6899.73
742.464	6890.02
742.804	6930.24
743.143	6922.33
743.483	6988.09
743.823	6912.61
744.162	6961.65
744.502	7021.99
744.841	6981.77
745.181	7001.43
745.52	6945.83
745.86	7070.35
746.199	7100.18
746.538	7056.34
746.877	7128.88
747.216	7181.99
747.556	7239.61
747.895	7275.32
748.234	7325.26
748.573	7267.86
748.911	7341.3
749.25	7395.09
749.589	7421.98
749.928	7497.91
750.267	7477.57
750.605	7582.2
750.944	7619.26
751.283	7727.73
751.621	7793.72
751.96	7817.68
752.298	7923.44
752.636	7947.84
752.975	7955.75
753.313	8065.35
753.651	8166.37
753.989	8190.77
754.327	8324.56
754.666	8373.59
755.004	8405
755.342	8555.74
755.679	8567.49
756.017	8727.26
756.355	8759.12
756.693	8884.54
757.031	9015.38
757.368	9063.97
757.706	9224.87
758.044	9354.13
758.381	9439.1
758.719	9616.27
759.056	9712.32
759.394	9835.25
759.731	9928.81
760.068	10037.28
760.405	10105.3
760.743	10245.18
761.08	10432.97
761.417	10509.58
761.754	10594.78
762.091	10785.51
762.428	10852.62
762.765	10990.7
763.102	11164.03
763.438	11188.43
763.775	11376.9
764.112	11518.6
764.449	11700.74
764.785	11778.02
765.122	11817.12
765.458	11968.3
765.795	12136.21
766.131	12229.31
766.467	12305.02
766.804	12457.33
767.14	12509.3
