Data from hue_230_FLMS001491_00087.txt Node
Date: Tue Feb 07 16:37:52 GMT 2017
User: dcchb
Spectrometer: FLMS00149
Trigger mode: 0
Integration Time (sec): 2.000000E-2
Scans to average: 10
Electric dark correction enabled: true
Nonlinearity correction enabled: false
Boxcar width: 0
XAxis mode: Wavelengths
Number of Pixels in Spectrum: 2048
>>>>>Begin Spectral Data<<<<<
341.393	-16.71
341.776	-16.71
342.16	-16.71
342.543	-56.48
342.927	-64.84
343.31	-68.91
343.693	-56.93
344.077	-72.75
344.46	-57.84
344.843	-47.44
345.226	-45.18
345.61	-35.69
345.993	-14
346.376	2.05
346.759	11.99
347.142	4.53
347.525	43.85
347.908	65.55
348.291	54.93
348.674	105.55
349.057	110.29
349.44	138.09
349.823	132.44
350.206	134.02
350.588	191.87
350.971	201.14
351.354	200.46
351.737	232.1
352.119	229.61
352.502	269.16
352.884	261.02
353.267	290.63
353.65	282.94
354.032	286.11
354.414	288.82
354.797	320.68
355.179	287.69
355.562	298.76
355.944	312.1
356.326	315.71
356.709	317.52
357.091	336.5
357.473	320.46
357.855	335.37
358.238	337.86
358.62	329.27
359.002	318.65
359.384	320.46
359.766	315.03
360.148	319.55
360.53	337.18
360.912	341.25
361.294	312.77
361.676	323.62
362.057	303.96
362.439	317.52
362.821	324.07
363.203	318.88
363.584	316.16
363.966	307.8
364.348	327.24
364.729	326.79
365.111	320.23
365.493	309.61
365.874	299.44
366.256	295.37
366.637	305.09
367.019	292.21
367.4	302.83
367.781	303.51
368.163	298.09
368.544	303.28
368.925	288.82
369.306	315.49
369.688	320.91
370.069	323.17
370.45	290.4
370.831	300.8
371.212	314.58
371.593	306.45
371.974	298.31
372.355	329.95
372.736	303.96
373.117	311.64
373.498	301.25
373.879	287.92
374.26	311.19
374.641	321.36
375.021	301.93
375.402	309.61
375.783	311.64
376.163	311.64
376.544	300.57
376.925	314.58
377.305	297.63
377.686	286.79
378.066	318.2
378.447	298.31
378.827	311.19
379.208	309.84
379.588	310.97
379.968	309.84
380.349	324.3
380.729	319.55
381.109	324.75
381.489	308.48
381.87	314.36
382.25	337.86
382.63	315.94
383.01	331.08
383.39	328.14
383.77	326.11
384.15	342.38
384.53	349.61
384.91	335.82
385.29	324.75
385.67	353.45
386.049	345.54
386.429	334.02
386.809	345.99
387.189	339.89
387.568	341.93
387.948	345.32
388.328	340.34
388.707	336.73
389.087	337.63
389.466	346.22
389.846	339.89
390.225	364.07
390.605	338.54
390.984	351.87
391.363	363.85
391.743	364.98
392.122	363.62
392.501	352.55
392.881	369.04
393.26	360
393.639	364.3
394.018	349.61
394.397	379.44
394.776	358.65
395.155	378.08
395.534	396.61
395.913	367.24
396.292	381.25
396.671	387.8
397.05	393.45
397.429	367.01
397.808	392.77
398.186	381.02
398.565	402.04
398.944	380.12
399.323	388.48
399.701	388.93
400.08	393.9
400.458	387.35
400.837	388.7
401.215	401.81
401.594	389.61
401.972	423.96
402.351	386.44
402.729	414.47
403.107	411.08
403.486	411.3
403.864	399.1
404.242	417.18
404.62	418.53
404.999	421.92
405.377	433
405.755	421.92
406.133	459.21
406.511	423.73
406.889	440.45
407.267	449.72
407.645	419.66
408.023	458.31
408.401	443.62
408.779	463.96
409.156	453.11
409.534	489.27
409.912	475.93
410.29	442.49
410.667	492.2
411.045	489.04
411.422	499.21
411.8	505.76
412.178	507.12
412.555	523.16
412.933	512.09
413.31	516.84
413.687	550.96
414.065	542.6
414.442	553.45
414.819	560.68
415.197	551.86
415.574	557.74
415.951	581.24
416.328	610.39
416.705	603.61
417.082	592.09
417.46	600.9
417.837	598.87
418.214	622.6
418.591	619.88
418.967	609.04
419.344	650.39
419.721	639.77
420.098	646.78
420.475	650.84
420.852	654.01
421.228	670.73
421.605	670.5
421.982	680.45
422.358	701.24
422.735	714.12
423.111	705.76
423.488	745.08
423.864	728.36
424.241	703.95
424.617	751.86
424.994	765.87
425.37	767
425.746	788.69
426.123	764.06
426.499	779.43
426.875	804.51
427.251	834.12
427.627	822.82
428.003	865.53
428.379	868.01
428.756	845.64
429.132	887.9
429.507	856.49
429.883	886.54
430.259	912.76
430.635	924.51
431.011	901.46
431.387	916.6
431.763	940.1
432.138	926.32
432.514	965.86
432.89	961.34
433.265	1001.12
433.641	1012.19
434.016	1031.63
434.392	1061.23
434.767	1046.99
435.143	1071.17
435.518	1096.93
435.894	1077.95
436.269	1108.69
436.644	1137.16
437.02	1139.19
437.395	1134.67
437.77	1176.25
438.145	1187.55
438.52	1202.69
438.895	1229.59
439.271	1212.19
439.646	1272.52
440.021	1246.31
440.395	1261.45
440.77	1293.09
441.145	1310.26
441.52	1350.71
441.895	1324.05
442.27	1326.76
442.645	1349.58
443.019	1360.88
443.394	1385.51
443.769	1398.4
444.143	1367.89
444.518	1417.38
444.892	1416.02
445.267	1449.24
445.641	1463.25
446.016	1447.43
446.39	1461.67
446.764	1492.18
447.139	1499.64
447.513	1509.8
447.887	1514.32
448.262	1509.13
448.636	1509.58
449.01	1534.66
449.384	1580.76
449.758	1578.5
450.132	1594.77
450.506	1579.86
450.88	1587.54
451.254	1625.96
451.628	1625.73
452.002	1647.43
452.376	1657.6
452.75	1665.28
453.123	1697.6
453.497	1704.83
453.871	1711.83
454.244	1737.6
454.618	1770.59
454.992	1773.53
455.365	1762.91
455.739	1792.74
456.112	1837.25
456.486	1821.89
456.859	1871.83
457.232	1895.11
457.606	1886.74
457.979	1883.13
458.352	1961.54
458.725	1959.28
459.099	1951.6
459.472	1991.37
459.845	1996.12
460.218	2033.63
460.591	2040.19
460.964	2074.76
461.337	2114.76
461.71	2131.26
462.083	2171.71
462.456	2170.13
462.829	2192.27
463.201	2223.46
463.574	2198.83
463.947	2260.75
464.32	2281.08
464.692	2309.78
465.065	2316.79
465.438	2324.92
465.81	2373.06
466.183	2400.85
466.555	2442.89
466.928	2447.18
467.3	2437.24
467.672	2528.31
468.045	2556.11
468.417	2574.18
468.789	2585.71
469.161	2616.44
469.534	2624.35
469.906	2659.15
470.278	2723.33
470.65	2723.78
471.022	2756.55
471.394	2799.26
471.766	2830.45
472.138	2858.02
472.51	2908.64
472.882	2940.73
473.253	2961.74
473.625	2999.26
473.997	3048.52
474.369	3075.19
474.74	3112.25
475.112	3158.35
475.484	3229.53
475.855	3248.29
476.227	3261.85
476.598	3365.35
476.97	3345.01
477.341	3440.15
477.713	3472.92
478.084	3501.62
478.455	3600.15
478.827	3593.59
479.198	3682.86
479.569	3681.73
479.94	3817.31
480.311	3784.55
480.682	3888.73
481.053	3956.52
481.424	3995.62
481.795	4013.69
482.166	4101.83
482.537	4110.64
482.908	4216.4
483.279	4232.22
483.65	4341.37
484.021	4368.71
484.391	4424.76
484.762	4440.35
485.133	4474.92
485.503	4548.37
485.874	4608.71
486.244	4613.45
486.615	4703.62
486.985	4741.58
487.356	4790.4
487.726	4856.16
488.097	4940
488.467	4953.1
488.837	5102.7
489.207	5129.82
489.578	5181.35
489.948	5137.73
490.318	5221.35
490.688	5241.23
491.058	5356.03
491.428	5396.26
491.798	5457.27
492.168	5522.13
492.538	5528.46
492.908	5572.3
493.278	5644.16
493.648	5666.53
494.017	5730.71
494.387	5737.94
494.757	5806.19
495.126	5820.88
495.496	5837.37
495.866	5848.67
496.235	5891.38
496.605	5976.81
496.974	6019.52
497.344	6008.44
497.713	6003.92
498.082	6071.04
498.452	6086.86
498.821	6150.13
499.19	6177.03
499.559	6209.57
499.928	6188.33
500.298	6256.35
500.667	6269.45
501.036	6216.12
501.405	6338.38
501.774	6287.08
502.143	6350.36
502.512	6394.65
502.88	6437.81
503.249	6438.04
503.618	6472.61
503.987	6416.57
504.356	6534.08
504.724	6541.09
505.093	6587.86
505.462	6600.97
505.83	6603.23
506.199	6635.32
506.567	6697.47
506.936	6692.49
507.304	6693.4
507.672	6739.5
508.041	6752.6
508.409	6839.38
508.777	6775.2
509.145	6804.13
509.514	6826.28
509.882	6861.3
510.25	6880.74
510.618	6880.51
510.986	6863.34
511.354	6967.06
511.722	6915.76
512.09	7010.45
512.458	7016.1
512.826	7042.77
513.193	7024.01
513.561	7041.64
513.929	7041.41
514.297	7049.77
514.664	7106.95
515.032	7094.74
515.4	7128.64
515.767	7171.8
516.135	7155.08
516.502	7112.6
516.869	7203.89
517.237	7155.98
517.604	7210.67
517.972	7174.29
518.339	7267.85
518.706	7192.14
519.073	7200.05
519.44	7228.3
519.808	7216.55
520.175	7193.72
520.542	7310.33
520.909	7339.03
521.276	7268.98
521.643	7286.38
522.009	7326.83
522.376	7391.91
522.743	7375.41
523.11	7440.27
523.477	7508.29
523.843	7458.58
524.21	7489.76
524.577	7505.13
524.943	7556.88
525.31	7568.63
525.676	7572.7
526.043	7558.91
526.409	7529.99
526.776	7665.35
527.142	7599.36
527.508	7561.62
527.874	7628.29
528.241	7641.4
528.607	7619.93
528.973	7665.8
529.339	7643.88
529.705	7671.68
530.071	7726.82
530.437	7602.98
530.803	7682.98
531.169	7725.01
531.535	7697.66
531.901	7629.64
532.267	7633.03
532.632	7662.19
532.998	7641.17
533.364	7684.11
533.73	7681.85
534.095	7698.12
534.461	7636.2
534.826	7669.87
535.192	7671.9
535.557	7734.05
535.923	7677.1
536.288	7680.26
536.653	7621.51
537.019	7577.67
537.384	7538.12
537.749	7644.78
538.114	7566.37
538.479	7563.43
538.845	7577.67
539.21	7538.35
539.575	7458.58
539.94	7531.12
540.305	7537.67
540.67	7526.37
541.034	7462.19
541.399	7485.02
541.764	7477.11
542.129	7449.76
542.494	7498.12
542.858	7475.75
543.223	7466.94
543.587	7415.19
543.952	7456.54
544.316	7402.08
544.681	7379.71
545.045	7344.45
545.41	7359.59
545.774	7393.94
546.138	7316.88
546.503	7369.31
546.867	7339.26
547.231	7355.3
547.595	7324.12
547.959	7283.89
548.324	7258.81
548.688	7232.82
549.052	7240.28
549.416	7224
549.779	7233.27
550.143	7298.13
550.507	7256.77
550.871	7191.24
551.235	7215.19
551.599	7210.45
551.962	7187.4
552.326	7219.94
552.689	7211.35
553.053	7168.19
553.417	7096.78
553.78	7175.64
554.143	7157.34
554.507	7145.36
554.87	7152.82
555.234	7177.23
555.597	7161.86
555.96	7175.19
556.323	7140.84
556.686	7099.04
557.05	7159.83
557.413	7159.6
557.776	7119.83
558.139	7090
558.502	7127.28
558.865	7147.85
559.228	7153.95
559.59	7141.3
559.953	7163.89
560.316	7202.31
560.679	7160.5
561.041	7213.16
561.404	7201.41
561.767	7262.65
562.129	7139.26
562.492	7255.19
562.854	7151.24
563.217	7203.89
563.579	7186.49
563.941	7245.25
564.304	7262.87
564.666	7264.91
565.028	7286.6
565.39	7257.45
565.753	7268.52
566.115	7305.36
566.477	7340.16
566.839	7285.7
567.201	7349.65
567.563	7335.87
567.925	7379.03
568.287	7396.88
568.648	7393.04
569.01	7390.1
569.372	7389.2
569.734	7425.81
570.095	7473.04
570.457	7468.74
570.819	7514.62
571.18	7491.79
571.542	7547.84
571.903	7548.74
572.265	7529.08
572.626	7577.89
572.987	7612.7
573.349	7664.9
573.71	7609.31
574.071	7628.97
574.432	7600.72
574.794	7681.17
575.155	7687.04
575.516	7682.75
575.877	7717.1
576.238	7688.63
576.599	7735.18
576.96	7717.55
577.32	7767.04
577.681	7761.39
578.042	7858.56
578.403	7780.6
578.763	7802.97
579.124	7808.85
579.485	7870.09
579.845	7904.67
580.206	7795.29
580.566	7881.16
580.927	7923.65
581.287	7926.36
581.648	7911.9
582.008	7964.1
582.368	7997.09
582.728	7993.48
583.089	7979.69
583.449	7934.95
583.809	7966.13
584.169	7939.01
584.529	7953.25
584.889	8010.2
585.249	8007.26
585.609	7953.25
585.969	8030.99
586.329	8035.51
586.688	8026.92
587.048	8039.58
587.408	8031.44
587.768	8101.95
588.127	8064.43
588.487	8021.27
588.846	8128.16
589.206	8024.21
589.565	8078.45
589.925	8180.36
590.284	8118.9
590.643	8153.25
591.003	8159.57
591.362	8187.14
591.721	8192.12
592.08	8179.69
592.44	8173.58
592.799	8120.25
593.158	8170.65
593.517	8180.59
593.876	8227.14
594.235	8255.39
594.593	8230.31
594.952	8253.81
595.311	8189.63
595.67	8195.96
596.029	8280.47
596.387	8336.29
596.746	8295.84
597.104	8243.87
597.463	8297.88
597.822	8319.12
598.18	8221.04
598.538	8230.08
598.897	8328.83
599.255	8271.44
599.613	8333.35
599.972	8240.93
600.33	8330.64
600.688	8288.61
601.046	8325.67
601.404	8354.37
601.762	8358.89
602.12	8354.82
602.478	8367.7
602.836	8439.11
603.194	8308.72
603.552	8341.04
603.91	8322.96
604.268	8348.95
604.625	8393.92
604.983	8418.78
605.341	8373.58
605.698	8390.98
606.056	8458.77
606.413	8380.81
606.771	8415.39
607.128	8388.27
607.485	8422.62
607.843	8438.44
608.2	8480.7
608.557	8435.05
608.914	8407.7
609.272	8408.15
609.629	8499.45
609.986	8463.29
610.343	8481.83
610.7	8559.11
611.057	8525.44
611.414	8495.16
611.771	8487.02
612.127	8572.44
612.484	8504.2
612.841	8539
613.198	8541.48
613.554	8520.24
613.911	8602.5
614.267	8595.95
614.624	8565.21
614.98	8541.26
615.337	8603.4
615.693	8642.95
616.05	8571.31
616.406	8629.62
616.762	8671.42
617.118	8624.65
617.475	8612.44
617.831	8663.74
618.187	8667.36
618.543	8671.42
618.899	8691.09
619.255	8693.34
619.611	8655.83
619.967	8743.29
620.323	8688.15
620.678	8726.56
621.034	8663.52
621.39	8703.74
621.746	8654.02
622.101	8781.03
622.457	8651.31
622.812	8720.01
623.168	8661.26
623.523	8724.3
623.879	8775.15
624.234	8662.39
624.589	8679.56
624.945	8714.36
625.3	8738.32
625.655	8727.02
626.01	8761.59
626.365	8677.53
626.72	8724.98
627.075	8692.89
627.43	8676.62
627.785	8675.27
628.14	8759.33
628.495	8765.66
628.85	8714.14
629.205	8676.62
629.559	8669.39
629.914	8681.37
630.269	8675.94
630.623	8571.99
630.978	8645.21
631.332	8565.44
631.687	8670.07
632.041	8614.7
632.396	8638.43
632.75	8602.5
633.104	8635.72
633.459	8578.32
633.813	8586.68
634.167	8570.41
634.521	8570.41
634.875	8524.99
635.229	8457.64
635.583	8500.58
635.937	8497.42
636.291	8556.63
636.645	8468.49
636.999	8444.99
637.352	8501.03
637.706	8382.39
638.06	8478.66
638.413	8424.88
638.767	8405.67
639.121	8394.6
639.474	8325.22
639.828	8410.41
640.181	8395.5
640.534	8396.86
640.888	8412.22
641.241	8355.5
641.594	8308.5
641.947	8390.53
642.301	8318.67
642.654	8388.27
643.007	8380.13
643.36	8324.99
643.713	8390.3
644.066	8380.36
644.419	8308.95
644.771	8247.48
645.124	8186.01
645.477	8165.45
645.83	8153.7
646.182	8114.83
646.535	8085
646.888	8110.08
647.24	8051.55
647.593	8080.48
647.945	8034.15
648.298	8053.36
648.65	8028.73
649.002	8021.72
649.355	8017.66
649.707	7998.45
650.059	8046.13
650.411	8146.47
650.763	8125.45
651.115	8199.12
651.467	8212
651.819	8216.97
652.171	8171.32
652.523	8210.42
652.875	8148.05
653.227	8145.56
653.578	8210.19
653.93	8144.21
654.282	8124.09
654.633	8120.7
654.985	8168.84
655.337	8124.55
655.688	8182.4
656.039	8164.77
656.391	8092.23
656.742	8144.66
657.094	8122.74
657.445	8177.43
657.796	8136.3
658.147	8104.21
658.498	8195.96
658.849	8152.34
659.2	8131.78
659.551	8153.25
659.902	8227.37
660.253	8123.42
660.604	8186.24
660.955	8209.97
661.306	8173.13
661.656	8140.59
662.007	8181.27
662.358	8148.05
662.708	8199.8
663.059	8162.51
663.409	8134.72
663.76	8169.74
664.11	8184.43
664.461	8181.27
664.811	8158.44
665.161	8203.87
665.511	8204.77
665.862	8198.22
666.212	8165.22
666.562	8213.81
666.912	8143.53
667.262	8194.37
667.612	8179.69
667.962	8225.11
668.312	8222.62
668.662	8241.83
669.011	8162.51
669.361	8142.62
669.711	8158.22
670.06	8106.24
670.41	8111.89
670.76	8192.12
671.109	8174.04
671.459	8144.66
671.808	8143.3
672.157	8139.46
672.507	8161.61
672.856	8060.37
673.205	8101.95
673.554	8134.94
673.904	8089.07
674.253	8160.7
674.602	8082.97
674.951	7983.76
675.3	7955.29
675.649	8070.08
675.998	8038.9
676.346	8127.48
676.695	8052.01
677.044	8056.75
677.393	8033.7
677.741	8065.56
678.09	8008.84
678.438	7955.96
678.787	7971.33
679.135	8000.48
679.484	7949.64
679.832	7981.05
680.181	7926.81
680.529	7966.58
680.877	7899.92
681.225	7900.37
681.573	7927.26
681.922	7894.04
682.27	7860.15
682.618	7858.79
682.966	7800.71
683.314	7824.67
683.661	7773.37
684.009	7766.59
684.357	7775.18
684.705	7708.51
685.053	7789.87
685.4	7731.79
685.748	7749.41
686.095	7665.35
686.443	7643.43
686.79	7670.09
687.138	7668.51
687.485	7638.91
687.832	7618.34
688.18	7615.86
688.527	7595.52
688.874	7575.63
689.221	7522.08
689.568	7506.71
689.915	7448.86
690.262	7501.96
690.609	7452.25
690.956	7448.18
691.303	7469.2
691.65	7313.04
691.997	7430.1
692.344	7334.74
692.69	7289.54
693.037	7368.41
693.383	7293.61
693.73	7318.01
694.077	7208.64
694.423	7251.12
694.769	7217.9
695.116	7198.92
695.462	7181.07
695.808	7172.93
696.155	7153.72
696.501	7087.51
696.847	7129.09
697.193	6996.67
697.539	7039.6
697.885	6991.69
698.231	7023.33
698.577	7001.64
698.923	6964.58
699.269	6911.92
699.614	6928.65
699.96	6854.75
700.306	6862.66
700.651	6802.77
700.997	6790.34
701.342	6761.42
701.688	6764.81
702.033	6718.48
702.379	6784.69
702.724	6716.45
703.069	6738.82
703.415	6620.18
703.76	6666.05
704.105	6653.85
704.45	6596.9
704.795	6588.09
705.14	6583.8
705.485	6536.79
705.83	6512.84
706.175	6460.41
706.52	6510.58
706.865	6502.67
707.209	6457.02
707.554	6423.35
707.899	6436.46
708.243	6371.6
708.588	6349.9
708.932	6365.04
709.277	6306.29
709.621	6364.14
709.966	6280.3
710.31	6328.89
710.654	6241.66
710.998	6240.3
711.342	6211.15
711.687	6224.94
712.031	6194.88
712.375	6152.39
712.719	6196.46
713.063	6135.9
713.407	6214.31
713.75	6150.81
714.094	6167.54
714.438	6114.88
714.782	6104.94
715.125	6083.47
715.469	6114.88
715.812	6036.47
716.156	6049.35
716.499	6008.44
716.843	6066.52
717.186	6047.99
717.53	6010.48
717.873	6052.74
718.216	6033.75
718.559	6015.9
718.902	5960.76
719.246	5980.87
719.589	5946.3
719.932	5932.51
720.275	5951.5
720.617	5961.67
720.96	5936.58
721.303	5913.08
721.646	5926.19
721.989	5866.98
722.331	5947.65
722.674	5921.21
723.016	5897.71
723.359	5905.62
723.701	5950.37
724.044	5867.66
724.386	5847.77
724.729	5912.63
725.071	5841.44
725.413	5857.71
725.755	5866.75
726.097	5850.71
726.439	5848.67
726.782	5837.15
727.124	5824.95
727.465	5853.65
727.807	5819.97
728.149	5792.86
728.491	5795.57
728.833	5810.93
729.175	5816.58
729.516	5837.15
729.858	5771.39
730.199	5812.74
730.541	5827.66
730.882	5800.54
731.224	5790.82
731.565	5761.44
731.906	5775.68
732.248	5769.13
732.589	5768.45
732.93	5769.35
733.271	5789.92
733.612	5768.22
733.953	5812.29
734.294	5767.32
734.635	5744.5
734.976	5763.48
735.317	5733.65
735.658	5782.01
735.999	5787.66
736.339	5814.55
736.68	5774.1
737.021	5802.35
737.361	5725.29
737.702	5773.2
738.042	5785.17
738.383	5786.75
738.723	5785.85
739.063	5776.81
739.404	5820.88
739.744	5798.73
740.084	5792.63
740.424	5839.86
740.764	5809.13
741.104	5866.75
741.444	5759.86
741.784	5840.76
742.124	5865.85
742.464	5871.5
742.804	5887.09
743.143	5928.9
743.483	5935.9
743.823	5896.81
744.162	5933.19
744.502	6029.46
744.841	5969.35
745.181	6032.85
745.52	5993.08
745.86	6003.02
746.199	6067.65
746.538	6056.13
746.877	6133.86
747.216	6159.17
747.556	6229.91
747.895	6219.96
748.234	6278.27
748.573	6245.27
748.911	6264.71
749.25	6319.4
749.589	6302.22
749.928	6363.69
750.267	6433.97
750.605	6511.71
750.944	6556
751.283	6590.8
751.621	6664.47
751.96	6655.66
752.298	6772.49
752.636	6813.62
752.975	6884.13
753.313	6936.1
753.651	7097.68
753.989	7098.81
754.327	7159.37
754.666	7269.65
755.004	7324.79
755.342	7443.66
755.679	7572.47
756.017	7580.83
756.355	7711
756.693	7756.65
757.031	7902.18
757.368	7935.17
757.706	8021.72
758.044	8208.84
758.381	8284.77
758.719	8332.45
759.056	8536.74
759.394	8635.04
759.731	8714.36
760.068	8799.78
760.405	8851.98
760.743	8963.39
761.08	9163.84
761.417	9229.6
761.754	9352.08
762.091	9519.54
762.428	9616.94
762.765	9660.78
763.102	9796.82
763.438	9924.05
763.775	10015.8
764.112	10098.51
764.449	10246.07
764.785	10444.03
765.122	10424.37
765.458	10583.01
765.795	10721.77
766.131	10699.17
766.467	10913.85
766.804	10941.65
767.14	11064.58
767.476	11158.14
767.812	11209.21
768.148	11333.5
768.485	11373.5
768.821	11482.88
769.157	11529.2
769.492	11646.71
