Data from hue_350_FLMS001491_15.txt Node
Date: Mon Feb 06 15:37:39 GMT 2017
User: dcchb
Spectrometer: FLMS00149
Trigger mode: 0
Integration Time (sec): 2.000000E-2
Scans to average: 10
Electric dark correction enabled: true
Nonlinearity correction enabled: false
Boxcar width: 0
XAxis mode: Wavelengths
Number of Pixels in Spectrum: 2048
>>>>>Begin Spectral Data<<<<<
341.393	-19.99
341.776	-19.99
342.16	-19.99
342.543	-78.51
342.927	-90.27
343.31	-69.93
343.693	-73.09
344.077	-60.89
344.46	-60.89
344.843	-45.97
345.226	-41.91
345.61	-24.96
345.993	-6.43
346.376	-17.27
346.759	20.01
347.142	17.75
347.525	27.92
347.908	62.5
348.291	80.58
348.674	99.33
349.057	93.23
349.44	114.47
349.823	136.17
350.206	170.29
350.588	204.19
350.971	196.28
351.354	222.27
351.737	224.3
352.119	267.01
352.502	253.45
352.884	285.09
353.267	272.89
353.65	294.58
354.032	298.88
354.414	305.66
354.797	321.93
355.179	316.5
355.562	320.57
355.944	330.74
356.326	318.54
356.709	336.62
357.091	350.17
357.473	350.63
357.855	330.74
358.238	358.08
358.62	337.29
359.002	353.56
359.384	349.72
359.766	338.42
360.148	337.29
360.53	331.87
360.912	342.04
361.294	334.13
361.676	340.23
362.057	312.66
362.439	312.89
362.821	320.12
363.203	329.16
363.584	331.19
363.966	320.8
364.348	328.25
364.729	325.09
365.111	330.06
365.493	328.48
365.874	315.83
366.256	310.4
366.637	319.21
367.019	312.89
367.4	312.44
367.781	306.56
368.163	312.44
368.544	301.81
368.925	295.26
369.306	322.15
369.688	307.24
370.069	321.02
370.45	309.5
370.831	308.59
371.212	319.21
371.593	314.24
371.974	316.95
372.355	287.13
372.736	319.89
373.117	320.12
373.498	316.05
373.879	310.63
374.26	317.41
374.641	314.24
375.021	304.3
375.402	312.44
375.783	323.73
376.163	327.58
376.544	321.7
376.925	325.09
377.305	341.14
377.686	323.28
378.066	334.81
378.447	337.07
378.827	330.29
379.208	329.84
379.588	318.54
379.968	324.64
380.349	330.06
380.729	342.04
381.109	330.06
381.489	323.06
381.87	323.06
382.25	323.28
382.63	319.44
383.01	350.63
383.39	346.56
383.77	334.36
384.15	343.85
384.53	344.98
384.91	341.81
385.29	347.46
385.67	352.43
386.049	354.02
386.429	359.89
386.809	357.86
387.189	326.9
387.568	356.05
387.948	350.63
388.328	343.62
388.707	349.95
389.087	351.98
389.466	361.02
389.846	373
390.225	375.94
390.605	352.43
390.984	341.59
391.363	360.12
391.743	363.51
392.122	365.09
392.501	345.65
392.881	360.8
393.26	363.06
393.639	384.98
394.018	363.51
394.397	382.26
394.776	345.88
395.155	370.06
395.534	380.46
395.913	381.59
396.292	398.53
396.671	387.69
397.05	376.61
397.429	390.85
397.808	383.39
398.186	386.33
398.565	392.66
398.944	377.29
399.323	373.9
399.701	375.03
400.08	387.01
400.458	375.94
400.837	385.43
401.215	409.38
401.594	373
401.972	397.18
402.351	404.41
402.729	393.79
403.107	413.22
403.486	410.06
403.864	408.93
404.242	406.22
404.62	428.36
404.999	416.61
405.377	406.67
405.755	381.36
406.133	396.05
406.511	442.15
406.889	436.5
407.267	425.43
407.645	409.61
408.023	423.39
408.401	420.46
408.779	437.63
409.156	444.64
409.534	432.21
409.912	424.07
410.29	451.87
410.667	457.74
411.045	469.04
411.422	439.89
411.8	436.73
412.178	443.05
412.555	486.89
412.933	455.26
413.31	478.53
413.687	471.75
414.065	488.93
414.442	486.89
414.819	484.18
415.197	465.88
415.574	488.48
415.951	483.5
416.328	501.58
416.705	502.94
417.082	499.77
417.46	499.32
417.837	512.43
418.214	515.59
418.591	517.4
418.967	515.37
419.344	519.89
419.721	528.47
420.098	512.66
420.475	538.87
420.852	540.45
421.228	532.77
421.605	544.75
421.982	537.06
422.358	563.28
422.735	561.47
423.111	542.94
423.488	563.5
423.864	565.08
424.241	584.97
424.617	581.13
424.994	570.73
425.37	564.86
425.746	572.54
426.123	595.59
426.499	581.58
426.875	601.02
427.251	595.37
427.627	611.64
428.003	618.42
428.379	630.84
428.756	617.74
429.132	613.9
429.507	623.84
429.883	628.13
430.259	631.97
430.635	665.42
431.011	628.13
431.387	645.31
431.763	668.58
432.138	659.77
432.514	672.88
432.89	670.62
433.265	692.99
433.641	688.92
434.016	693.67
434.392	714.91
434.767	706.32
435.143	701.35
435.518	708.36
435.894	719.66
436.269	730.05
436.644	740.45
437.02	749.03
437.395	732.99
437.77	746.77
438.145	748.81
438.52	749.71
438.895	780.45
439.271	748.81
439.646	778.86
440.021	760.56
440.395	749.71
440.77	787.23
441.145	777.51
441.52	792.42
441.895	783.84
442.27	815.7
442.645	789.71
443.019	817.73
443.394	788.58
443.769	825.42
444.143	821.35
444.518	822.25
444.892	803.5
445.267	829.26
445.641	846.21
446.016	821.57
446.39	839.88
446.764	843.72
447.139	841.69
447.513	849.6
447.887	857.05
448.262	850.05
448.636	875.81
449.01	857.51
449.384	879.2
449.758	892.31
450.132	893.21
450.506	896.37
450.88	901.57
451.254	913.78
451.628	916.94
452.002	916.94
452.376	931.85
452.75	933.44
453.123	944.28
453.497	939.31
453.871	957.16
454.244	972.98
454.618	956.49
454.992	979.54
455.365	939.31
455.739	976.37
456.112	990.38
456.486	986.77
456.859	1053.43
457.232	1044.85
457.606	1023.38
457.979	1018.41
458.352	1050.27
458.725	1054.34
459.099	1092.08
459.472	1100.21
459.845	1090.27
460.218	1071.51
460.591	1094.11
460.964	1114.67
461.337	1121.91
461.71	1129.59
462.083	1175.24
462.456	1160.32
462.829	1190.83
463.201	1175.69
463.574	1160.77
463.947	1207.55
464.32	1238.29
464.692	1193.54
465.065	1224.05
465.438	1261.11
465.81	1280.32
466.183	1279.19
466.555	1318.74
466.928	1290.04
467.3	1325.06
467.672	1353.31
468.045	1380.43
468.417	1365.51
468.789	1384.95
469.161	1363.93
469.534	1408.9
469.906	1431.5
470.278	1457.94
470.65	1453.42
471.022	1502.01
471.394	1509.01
471.766	1502.69
472.138	1531.16
472.51	1553.98
472.882	1607.77
473.253	1598.28
473.625	1623.14
473.997	1667.65
474.369	1673.98
474.74	1689.12
475.112	1717.14
475.484	1754.66
475.855	1775.9
476.227	1787.42
476.598	1819.29
476.97	1838.95
477.341	1898.83
477.713	1905.39
478.084	1949.23
478.455	1998.49
478.827	2000.07
479.198	2098.38
479.569	2059.06
479.94	2124.59
480.311	2140.18
480.682	2160.97
481.053	2242.78
481.424	2295.21
481.795	2288.65
482.166	2315.55
482.537	2373.4
482.908	2416.56
483.279	2465.6
483.65	2474.19
484.021	2516.45
484.391	2535.2
484.762	2603.67
485.133	2617.91
485.503	2664.01
485.874	2712.37
486.244	2737
486.615	2821.3
486.985	2800.05
487.356	2892.03
487.726	2899.71
488.097	2957.79
488.467	2931.58
488.837	3052.7
489.207	3045.02
489.578	3144.23
489.948	3164.34
490.318	3240.95
490.688	3173.6
491.058	3246.37
491.428	3314.16
491.798	3353.49
492.168	3380.6
492.538	3416.76
492.908	3461.73
493.278	3500.6
493.648	3497.66
494.017	3542.18
494.387	3590.54
494.757	3613.37
495.126	3673.02
495.496	3693.82
495.866	3723.87
496.235	3708.73
496.605	3830.08
496.974	3846.81
497.344	3846.13
497.713	3887.93
498.082	3869.18
498.452	3870.76
498.821	3923.41
499.19	3944.43
499.559	4001.6
499.928	4017.42
500.298	4019.68
500.667	4086.57
501.036	4042.51
501.405	4112.56
501.774	4110.08
502.143	4154.37
502.512	4197.3
502.88	4195.5
503.249	4232.33
503.618	4249.05
503.987	4244.54
504.356	4285.89
504.724	4297.87
505.093	4349.17
505.462	4359.56
505.83	4401.59
506.199	4422.16
506.567	4463.74
506.936	4445.21
507.304	4454.7
507.672	4513
508.041	4533.12
508.409	4576.28
508.777	4582.83
509.145	4610.18
509.514	4593
509.882	4614.02
510.25	4635.94
510.618	4655.82
510.986	4695.37
511.354	4668.93
511.722	4727.23
512.09	4803.62
512.458	4757.52
512.826	4821.47
513.193	4802.71
513.561	4886.1
513.929	4847.01
514.297	4910.28
514.664	4876.84
515.032	4908.47
515.4	4934.01
515.767	4958.87
516.135	4969.94
516.502	4956.61
516.869	5044.06
517.237	5067.56
517.604	5070.5
517.972	5077.28
518.339	5079.09
518.706	5112.99
519.073	5126.55
519.44	5075.47
519.808	5215.58
520.175	5123.61
520.542	5232.31
520.909	5221.23
521.276	5247.22
521.643	5243.83
522.009	5327.9
522.376	5315.47
522.743	5317.05
523.11	5359.76
523.477	5388.91
523.843	5432.75
524.21	5436.14
524.577	5520.66
524.943	5465.29
525.31	5504.39
525.676	5551.39
526.043	5595.91
526.409	5582.81
526.776	5677.94
527.142	5653.54
527.508	5709.13
527.874	5758.85
528.241	5760.88
528.607	5795.91
528.973	5831.39
529.339	5837.71
529.705	5852.18
530.071	5956.81
530.437	5925.62
530.803	5961.78
531.169	6045.62
531.535	6031.61
531.901	6010.14
532.267	6076.58
532.632	6054.66
532.998	6132.62
533.364	6144.37
533.73	6221.21
534.095	6220.75
534.461	6197.03
534.826	6284.03
535.192	6286.52
535.557	6392.28
535.923	6304.82
536.288	6340.3
536.653	6393.86
537.019	6422.11
537.384	6397.02
537.749	6473.63
538.114	6472.27
538.479	6530.58
538.845	6555.89
539.21	6493.52
539.575	6555.43
539.94	6618.94
540.305	6636.34
540.67	6668.65
541.034	6698.48
541.399	6745.03
541.764	6700.52
542.129	6781.64
542.494	6779.61
542.858	6739.61
543.223	6840.17
543.587	6911.81
543.952	6895.09
544.316	6871.13
544.681	6897.12
545.045	6962.66
545.41	6937.8
545.774	6998.36
546.138	7041.98
546.503	7031.35
546.867	7079.49
547.231	7107.06
547.595	7188.86
547.959	7139.37
548.324	7159.94
548.688	7251.46
549.052	7248.52
549.416	7276.32
549.779	7265.02
550.143	7330.78
550.507	7352.7
550.871	7340.05
551.235	7362.19
551.599	7422.76
551.962	7397.22
552.326	7423.66
552.689	7470.67
553.053	7486.48
553.417	7541.62
553.78	7559.48
554.143	7554.73
554.507	7637.67
554.87	7615.29
555.234	7656.2
555.597	7664.56
555.96	7737.78
556.323	7719.47
556.686	7770.77
557.05	7761.28
557.413	7832.69
557.776	7854.16
558.139	7886.25
558.502	7864.55
558.865	7905.68
559.228	7946.13
559.59	7990.65
559.953	8031.1
560.316	8071.1
560.679	8100.48
561.041	8097.54
561.404	8166.47
561.767	8140.93
562.129	8160.59
562.492	8230.87
562.854	8281.04
563.217	8288.27
563.579	8283.3
563.941	8267.25
564.304	8283.07
564.666	8365.78
565.028	8436.74
565.39	8364.2
565.753	8404.43
566.115	8501.6
566.477	8484.88
566.839	8554.25
567.201	8570.75
567.563	8650.07
567.925	8678.77
568.287	8614.14
568.648	8690.75
569.01	8744.98
569.372	8786.11
569.734	8750.18
570.095	8860.46
570.457	8836.96
570.819	8899.1
571.18	8890.29
571.542	8949.27
571.903	9023.17
572.265	9068.82
572.626	9141.58
572.987	9120.11
573.349	9145.65
573.71	9254.12
574.071	9298.41
574.432	9352.88
574.794	9397.39
575.155	9472.19
575.516	9487.79
575.877	9574.56
576.238	9623.6
576.599	9710.38
576.96	9705.18
577.32	9825.86
577.681	9908.12
578.042	10068.56
578.403	10046.87
578.763	10083.03
579.124	10278.95
579.485	10340.19
579.845	10486.18
580.206	10537.03
580.566	10591.94
580.927	10756.45
581.287	10911.25
581.648	10969.56
582.008	11241.87
582.368	11206.16
582.728	11368.19
583.089	11560.05
583.449	11632.36
583.809	11857.67
584.169	12034.84
584.529	12159.81
584.889	12355.28
585.249	12484.77
585.609	12595.95
585.969	12916.62
586.329	12978.54
586.688	13312.55
587.048	13506.21
587.408	13635.25
587.768	13828.69
588.127	14064.16
588.487	14260.77
588.846	14607.43
589.206	14759.29
589.565	15014.87
589.925	15366.73
590.284	15504.35
590.643	15743.22
591.003	16086.71
591.362	16334.84
591.721	16600.14
592.08	16838.1
592.44	17254.59
592.799	17385.66
593.158	17739.77
593.517	17878.3
593.876	18324.39
594.235	18426.31
594.593	18788.33
594.952	19099.29
595.311	19353.52
595.67	19661.31
596.029	20062.42
596.387	20374.05
596.746	20633.48
597.104	20813.82
597.463	21114.15
597.822	21462.84
598.18	21659.22
598.538	21904.18
598.897	22275.47
599.255	22374.23
599.613	23136.92
599.972	23227.54
600.33	23407.65
600.688	23702.33
601.046	24073.84
601.404	24347.74
601.762	24600.84
602.12	25069.98
602.478	25259.58
602.836	25510.87
603.194	25594.03
603.552	25991.76
603.91	26104.53
604.268	26562.37
604.625	26641.01
604.983	27087.32
605.341	27122.13
605.698	27399.41
606.056	27759.4
606.413	27948.54
606.771	28299.72
607.128	28474.63
607.485	28753.27
607.843	29014.96
608.2	29257.66
608.557	29522.74
608.914	29673.02
609.272	30066
609.629	30218.77
609.986	30513.9
610.343	30636.61
610.7	31034.34
611.057	31097.16
611.414	31302.58
611.771	31521.11
612.127	31770.59
612.484	31875.9
612.841	32310.69
613.198	32244.25
613.554	32502.1
613.911	32755.2
614.267	32922.65
614.624	32969.43
614.98	33260.27
615.337	33505.23
615.693	33657.1
616.05	33653.48
616.406	34174.6
616.762	34035.62
617.118	34115.84
617.475	34374.59
617.831	34559.22
618.187	34719.21
618.543	34849.38
618.899	35184.74
619.255	35219.54
619.611	35217.05
619.967	35524.39
620.323	35674.67
620.678	35549.25
621.034	35722.35
621.39	35809.81
621.746	35882.57
622.101	36379.51
622.457	36019.29
622.812	36288.89
623.168	36527.75
623.523	36645.49
623.879	36706.28
624.234	36604.59
624.589	36885.03
624.945	36941.75
625.3	36940.62
625.655	37059.94
626.01	37218.81
626.365	37211.35
626.72	37311.91
627.075	37540.16
627.43	37462.64
627.785	37435.53
628.14	37591.23
628.495	37660.83
628.85	37665.8
629.205	37590.78
629.559	37863.09
629.914	37776.08
630.269	37881.16
630.623	37904.44
630.978	37716.42
631.332	38085.45
631.687	38146.92
632.041	38004.78
632.396	38159.35
632.75	38040.93
633.104	38126.58
633.459	38033.7
633.813	37977.21
634.167	38038.67
634.521	38008.17
634.875	38072.12
635.229	38139.46
635.583	38028.96
635.937	37975.4
636.291	38005.46
636.645	38056.08
636.999	38011.56
637.352	38168.16
637.706	37889.98
638.06	38064.21
638.413	38166.36
638.767	38082.06
639.121	38118.22
639.474	37891.56
639.828	37945.57
640.181	37960.71
640.534	38036.19
640.888	38057.88
641.241	37800.04
641.594	37822.64
641.947	38102.63
642.301	37923.65
642.654	37973.59
643.007	38013.36
643.36	37941.5
643.713	37834.84
644.066	38053.82
644.419	37767.04
644.771	37531.57
645.124	37336.32
645.477	37341.52
645.83	37121.86
646.182	36997.8
646.535	36867.63
646.888	36924.81
647.24	36806.16
647.593	36908.76
647.945	36899.95
648.298	36748.77
648.65	36661.76
649.002	36652.27
649.355	36816.79
649.707	36755.09
650.059	36998.93
650.411	37354.85
650.763	37368.18
651.115	37699.93
651.467	37540.16
651.819	37554.39
652.171	37469.2
652.523	37613.38
652.875	37518.69
653.227	37463.1
653.578	37615.41
653.93	37525.24
654.282	37350.56
654.633	37358.01
654.985	37338.58
655.337	37304.23
655.688	37470.1
656.039	37518.46
656.391	37119.6
656.742	37257.68
657.094	37255.19
657.445	37440.05
657.796	37282.99
658.147	37291.35
658.498	37150.34
658.849	37297.45
659.2	37269.88
659.551	37065.59
659.902	37275.53
660.253	37172.26
660.604	37361.63
660.955	37151.24
661.306	37246.61
661.656	37148.53
662.007	37203.89
662.358	37204.12
662.708	37179.94
663.059	37167.06
663.409	36963
663.76	37057.01
664.11	37264.23
664.461	37235.08
664.811	37155.76
665.161	37119.83
665.511	37066.95
665.862	37105.37
666.212	37075.54
666.562	37268.98
666.912	37069.43
667.262	37070.34
667.612	37065.82
667.962	37090.45
668.312	37001.41
668.662	37139.72
669.011	37097
669.361	37030.11
669.711	37045.48
670.06	36935.88
670.41	36751.25
670.76	36976.78
671.109	36847.97
671.459	37027.18
671.808	37020.85
672.157	36943.56
672.507	36830.8
672.856	36804.13
673.205	36903.79
673.554	36919.38
673.904	36799.84
674.253	37059.72
674.602	36900.4
674.951	36356.23
675.3	36175.9
675.649	36687.07
675.998	36659.95
676.346	36793.28
676.695	36912.6
677.044	36411.37
677.393	36695.21
677.741	36685.72
678.09	36575.66
678.438	36510.13
678.787	36628.77
679.135	36678.94
679.484	36425.84
679.832	36501.31
680.181	36301.09
680.529	36490.92
680.877	36172.06
681.225	36271.94
681.573	36398.27
681.922	36188.33
682.27	36086.18
682.618	36156.01
682.966	36112.62
683.314	36086.18
683.661	35856.59
684.009	35814.55
684.357	35758.96
684.705	35625.18
685.053	35811.39
685.4	35684.39
685.748	35544.5
686.095	35371.4
686.443	35426.77
686.79	35336.6
687.138	35399.42
687.485	35397.84
687.832	35263.61
688.18	35210.73
688.527	35134.12
688.874	35008.02
689.221	35088.24
689.568	34975.25
689.915	34990.62
690.262	34800.79
690.609	34777.52
690.956	34640.35
691.303	34626.11
691.65	34542.95
691.997	34483.51
692.344	34269.28
692.69	34228.61
693.037	34294.59
693.383	34014.6
693.73	34093.24
694.077	33867.94
694.423	33936.64
694.769	33832.68
695.116	33711.11
695.462	33662.07
695.808	33602.86
696.155	33568.96
696.501	33374.16
696.847	33437.21
697.193	33034.29
697.539	33269.76
697.885	33065.25
698.231	32976.44
698.577	32827.06
698.923	32873.84
699.269	32765.59
699.614	32594.75
699.96	32609.89
700.306	32664.13
700.651	32461.42
700.997	32378.03
701.342	32271.37
701.688	32258.04
702.033	32161.09
702.379	32156.57
702.724	31962.45
703.069	32025.05
703.415	31582.57
703.76	31755.22
704.105	31769.01
704.45	31638.62
704.795	31496.93
705.14	31330.6
705.485	31370.38
705.83	31258.74
706.175	31280.21
706.52	31198.4
706.865	31035.7
707.209	30963.15
707.554	30891.29
707.899	30874.8
708.243	30753.89
708.588	30760.22
708.932	30558.65
709.277	30497.18
709.621	30587.12
709.966	30447.01
710.31	30378.76
710.654	30053.8
710.998	30199.79
711.342	30279.56
711.687	30091.99
712.031	29981.94
712.375	29913.01
712.719	30004.54
713.063	29835.73
713.407	29899.68
713.75	29904.88
714.094	29830.3
714.438	29636.86
714.782	29674.83
715.125	29479.58
715.469	29513.7
715.812	29463.99
716.156	29302.63
716.499	29245.01
716.843	29478.9
717.186	29272.35
717.53	29340.6
717.873	29232.58
718.216	29254.73
718.559	29163.88
718.902	28903.32
719.246	29035.75
719.589	28838.46
719.932	28832.59
720.275	28832.82
720.617	28654.74
720.96	28691.35
721.303	28682.76
721.646	28609.77
721.989	28442.77
722.331	28559.6
722.674	28353.51
723.016	28567.96
723.359	28419.72
723.701	28411.13
724.044	28211.36
724.386	28033.06
724.729	28122.55
725.071	28111.48
725.413	28062.89
725.755	28109.9
726.097	27971.6
726.439	27875.55
726.782	27892.28
727.124	27931.37
727.465	27662.22
727.807	27803.46
728.149	27803.69
728.491	27669.46
728.833	27754.2
729.175	27614.77
729.516	27440.08
729.858	27464.72
730.199	27550.36
730.541	27471.72
730.882	27427.2
731.224	27473.76
731.565	27238.96
731.906	27310.14
732.248	27353.08
732.589	27194.21
732.93	27099.3
733.271	27113.31
733.612	27165.06
733.953	27135.23
734.294	27045.29
734.635	26942.92
734.976	26907.22
735.317	26824.28
735.658	26861.79
735.999	26962.36
736.339	26923.04
736.68	26810.95
737.021	26693.21
737.361	26617.73
737.702	26794.45
738.042	26654.12
738.383	26497.74
738.723	26599.65
739.063	26436.27
739.404	26547.9
739.744	26487.34
740.084	26421.81
740.424	26384.07
740.764	26371.86
741.104	26389.04
741.444	26293.67
741.784	26165.77
742.124	26185.65
742.464	26151.3
742.804	26078.31
743.143	26047.8
743.483	26098.65
743.823	25973.23
744.162	25981.36
744.502	25967.81
744.841	25847.58
745.181	25941.59
745.52	25678.55
745.86	25839
746.199	25614.59
746.538	25710.41
746.877	25817.98
747.216	25714.71
747.556	25582.05
747.895	25649.17
748.234	25577.31
748.573	25460.7
748.911	25409.85
749.25	25425.67
749.589	25262.51
749.928	25284.66
750.267	25233.81
750.605	25206.02
750.944	25185.45
751.283	25072.46
751.621	25191.56
751.96	25072.91
752.298	25112.01
752.636	25093.03
752.975	24856.2
753.313	24756.76
753.651	24988.85
753.989	24783.66
754.327	24697.78
754.666	24597.9
755.004	24664.11
755.342	24673.83
755.679	24618.46
756.017	24365.59
756.355	24459.15
756.693	24366.49
757.031	24336.66
757.368	24241.98
757.706	24187.51
758.044	24190.45
758.381	24172.6
758.719	24127.63
759.056	24008.31
759.394	24005.15
759.731	23759.05
760.068	23807.64
760.405	23771.71
