Data from hue_210_FLMS001491_00012.txt Node
Date: Tue Feb 07 16:40:48 GMT 2017
User: dcchb
Spectrometer: FLMS00149
Trigger mode: 0
Integration Time (sec): 2.000000E-2
Scans to average: 10
Electric dark correction enabled: true
Nonlinearity correction enabled: false
Boxcar width: 0
XAxis mode: Wavelengths
Number of Pixels in Spectrum: 2048
>>>>>Begin Spectral Data<<<<<
341.393	-3.19
341.776	-3.19
342.16	-3.19
342.543	-60.14
342.927	-70.76
343.31	-70.31
343.693	-77.54
344.077	-63.53
344.46	-59.46
344.843	-62.17
345.226	-33.93
345.61	-42.29
345.993	-13.14
346.376	-13.59
346.759	5.62
347.142	5.17
347.525	61.89
347.908	65.51
348.291	96.92
348.674	90.14
349.057	110.7
349.44	134.21
349.823	152.06
350.206	176.46
350.588	180.98
350.971	202.68
351.354	227.08
351.737	242.9
352.119	237.71
352.502	260.53
352.884	277.7
353.267	281.77
353.65	314.54
354.032	297.14
354.414	311.38
354.797	315.67
355.179	334.65
355.562	343.47
355.944	343.69
356.326	343.01
356.709	322
357.091	336.23
357.473	337.82
357.855	341.66
358.238	326.06
358.62	350.25
359.002	341.21
359.384	335.1
359.766	333.3
360.148	336.01
360.53	350.25
360.912	352.73
361.294	311.15
361.676	316.35
362.057	319.06
362.439	324.26
362.821	345.73
363.203	318.61
363.584	322.45
363.966	338.72
364.348	334.65
364.729	348.89
365.111	326.29
365.493	343.47
365.874	337.59
366.256	331.71
366.637	332.62
367.019	332.62
367.4	336.01
367.781	301.66
368.163	314.09
368.544	311.83
368.925	304.6
369.306	322.45
369.688	332.84
370.069	329.68
370.45	324.93
370.831	321.09
371.212	313.86
371.593	306.63
371.974	292.62
372.355	322.68
372.736	309.57
373.117	324.03
373.498	336.23
373.879	328.1
374.26	307.53
374.641	323.35
375.021	317.03
375.402	310.7
375.783	344.37
376.163	328.1
376.544	329.68
376.925	337.14
377.305	339.85
377.686	328.1
378.066	325.39
378.447	324.93
378.827	321.32
379.208	326.06
379.588	358.15
379.968	331.71
380.349	349.12
380.729	337.14
381.109	335.78
381.489	347.08
381.87	330.13
382.25	317.03
382.63	341.21
383.01	347.08
383.39	339.85
383.77	341.43
384.15	347.99
384.53	348.44
384.91	341.43
385.29	345.5
385.67	346.86
386.049	335.33
386.429	342.79
386.809	344.6
387.189	381.66
387.568	370.58
387.948	381.88
388.328	370.36
388.707	347.76
389.087	376.01
389.466	354.99
389.846	369.68
390.225	362.9
390.605	383.24
390.984	377.14
391.363	361.09
391.743	370.58
392.122	364.26
392.501	390.7
392.881	397.02
393.26	367.65
393.639	377.36
394.018	373.3
394.397	368.32
394.776	408.32
395.155	401.09
395.534	376.91
395.913	379.62
396.292	383.69
396.671	393.41
397.05	394.09
397.429	398.38
397.808	406.97
398.186	391.83
398.565	386.18
398.944	396.35
399.323	402.67
399.701	431.37
400.08	424.14
400.458	425.72
400.837	408.1
401.215	456.46
401.594	429.34
401.972	418.04
402.351	414.42
402.729	440.64
403.107	448.77
403.486	426.63
403.864	434.54
404.242	439.28
404.62	445.61
404.999	454.65
405.377	447.19
405.755	460.52
406.133	480.19
406.511	463.46
406.889	471.6
407.267	458.72
407.645	491.48
408.023	479.73
408.401	480.41
408.779	506.4
409.156	505.72
409.534	540.07
409.912	513.63
410.29	535.78
410.667	536.68
411.045	533.97
411.422	558.83
411.8	555.66
412.178	582.56
412.555	567.87
412.933	628.43
413.31	619.62
413.687	630.01
414.065	634.76
414.442	639.95
414.819	637.47
415.197	640.41
415.574	642.21
415.951	665.04
416.328	671.37
416.705	644.7
417.082	670.01
417.46	692.83
417.837	698.48
418.214	707.07
418.591	712.72
418.967	721.31
419.344	739.16
419.721	742.78
420.098	739.61
420.475	770.57
420.852	776.67
421.228	787.97
421.605	810.57
421.982	816.22
422.358	823.23
422.735	869.78
423.111	879.04
423.488	881.76
423.864	903.68
424.241	896.9
424.617	935.54
424.994	940.96
425.37	929.44
425.746	960.85
426.123	966.05
426.499	976.9
426.875	967.4
427.251	1019.61
427.627	1053.73
428.003	1053.05
428.379	1068.87
428.756	1060.28
429.132	1055.09
429.507	1088.53
429.883	1102.77
430.259	1125.82
430.635	1132.82
431.011	1138.25
431.387	1170.79
431.763	1176.89
432.138	1169.43
432.514	1231.13
432.89	1225.48
433.265	1301.18
433.641	1282.42
434.016	1309.09
434.392	1321.97
434.767	1357.9
435.143	1382.08
435.518	1392.93
435.894	1413.49
436.269	1446.26
436.644	1452.81
437.02	1477.9
437.395	1487.39
437.77	1522.64
438.145	1542.76
438.52	1585.92
438.895	1608.74
439.271	1591.34
439.646	1676.76
440.021	1672.7
440.395	1692.81
440.77	1680.83
441.145	1713.82
441.52	1788.85
441.895	1749.98
442.27	1772.35
442.645	1808.96
443.019	1836.99
443.394	1847.61
443.769	1858.23
444.143	1867.27
444.518	1920.15
444.892	1904.55
445.267	1908.17
445.641	1930.99
446.016	1989.52
446.39	1984.1
446.764	1982.52
447.139	1966.02
447.513	2011.67
447.887	2036.75
448.262	2016.64
448.636	2016.19
449.01	2057.54
449.384	2086.92
449.758	2117.88
450.132	2183.19
450.506	2136.41
450.88	2183.87
451.254	2193.81
451.628	2212.79
452.002	2219.35
452.376	2236.52
452.75	2279.23
453.123	2274.26
453.497	2305.9
453.871	2335.96
454.244	2384.32
454.618	2366.24
454.992	2429.06
455.365	2410.08
455.739	2509.06
456.112	2520.81
456.486	2509.51
456.859	2522.17
457.232	2612.11
457.606	2590.19
457.979	2610.75
458.352	2665.89
458.725	2668.83
459.099	2708.83
459.472	2797.19
459.845	2793.34
460.218	2788.6
460.591	2827.02
460.964	2824.53
461.337	2940.91
461.71	2972.1
462.083	2967.13
462.456	3033.11
462.829	3022.72
463.201	3046.9
463.574	3077.63
463.947	3090.74
464.32	3147.23
464.692	3213.67
465.065	3206.89
465.438	3272.43
465.81	3344.06
466.183	3343.39
466.555	3413.89
466.928	3450.05
467.3	3417.51
467.672	3481.46
468.045	3521.24
468.417	3597.17
468.789	3593.78
469.161	3659.76
469.534	3738.4
469.906	3752.42
470.278	3791.51
470.65	3821.11
471.022	3874.9
471.394	3978.62
471.766	3969.58
472.138	3994.89
472.51	4090.03
472.882	4160.09
473.253	4220.65
473.625	4254.1
473.997	4224.04
474.369	4330.93
474.74	4367.09
475.112	4441.44
475.484	4515.33
475.855	4607.31
476.227	4616.35
476.598	4723.92
476.97	4737.02
477.341	4831.48
477.713	4958.49
478.084	4958.71
478.455	5093.17
478.827	5120.06
479.198	5212.72
479.569	5235.77
479.94	5336.78
480.311	5460.17
480.682	5513.95
481.053	5654.06
481.424	5711.46
481.795	5714.85
482.166	5801.85
482.537	5862.64
482.908	6009.98
483.279	6041.17
483.65	6153.26
484.021	6210.88
484.391	6303.76
484.762	6318
485.133	6372.91
485.503	6485
485.874	6575.84
486.244	6647.93
486.615	6748.04
486.985	6849.51
487.356	6918.43
487.726	6962.5
488.097	7102.16
488.467	7051.54
488.837	7252.66
489.207	7247.92
489.578	7389.83
489.948	7460.11
490.318	7513.67
490.688	7509.38
491.058	7627.12
491.428	7774.23
491.798	7796.6
492.168	7944.17
492.538	7989.59
492.908	8007.9
493.278	8112.75
493.648	8085.41
494.017	8251.96
494.387	8241.56
494.757	8333.54
495.126	8300.32
495.496	8376.7
495.866	8422.8
496.235	8552.74
496.605	8531.27
496.974	8600.2
497.344	8680.87
497.713	8670.03
498.082	8743.02
498.452	8823.02
498.821	8859.85
499.19	8830.93
499.559	8973.75
499.928	8952.05
500.298	9009.9
500.667	9000.41
501.036	9004.93
501.405	9063.91
501.774	9069.34
502.143	9123.12
502.512	9100.52
502.88	9154.31
503.249	9187.3
503.618	9251.03
503.987	9241.31
504.356	9268.88
504.724	9317.92
505.093	9359.27
505.462	9380.06
505.83	9437.69
506.199	9414.19
506.567	9548.2
506.936	9437.24
507.304	9585.71
507.672	9575.31
508.041	9623.9
508.409	9631.58
508.777	9648.31
509.145	9706.16
509.514	9740.73
509.882	9754.74
510.25	9742.54
510.618	9844.46
510.986	9779.38
511.354	9845.81
511.722	9857.57
512.09	9938.24
512.458	9887.62
512.826	9900.5
513.193	9990.9
513.561	9972.82
513.929	9943.89
514.297	10034.06
514.664	10072.7
515.032	10064.57
515.4	10062.53
515.767	10104.79
516.135	10130.1
516.502	10008.75
516.869	10128.52
517.237	10125.58
517.604	10015.08
517.972	10157.44
518.339	10126.71
518.706	10094.62
519.073	10135.3
519.44	10127.62
519.808	10227.27
520.175	10185.92
520.542	10249.65
520.909	10233.15
521.276	10216.65
521.643	10273.15
522.009	10245.35
522.376	10329.19
522.743	10307.27
523.11	10341.62
523.477	10413.03
523.843	10379.59
524.21	10343.88
524.577	10391.79
524.943	10380.72
525.31	10379.59
525.676	10454.16
526.043	10439.25
526.409	10396.08
526.776	10493.93
527.142	10510.2
527.508	10483.54
527.874	10519.02
528.241	10512.01
528.607	10526.47
528.973	10484.89
529.339	10450.54
529.705	10547.72
530.071	10526.47
530.437	10545.91
530.803	10441.73
531.169	10550.88
531.535	10468.85
531.901	10447.83
532.267	10478.11
532.632	10425.23
532.998	10538.9
533.364	10458.23
533.73	10380.49
534.095	10381.17
534.461	10357.67
534.826	10403.09
535.192	10366.03
535.557	10388.4
535.923	10376.65
536.288	10298.23
536.653	10323.09
537.019	10262.3
537.384	10248.06
537.749	10298.23
538.114	10204.22
538.479	10150.89
538.845	10133.04
539.21	10022.99
539.575	10019.6
539.94	9983.89
540.305	10064.57
540.67	9996.09
541.034	9893.04
541.399	9881.97
541.764	9907.28
542.129	9880.16
542.494	9946.38
542.858	9846.27
543.223	9830.67
543.587	9820.05
543.952	9723.56
544.316	9734.63
544.681	9661.19
545.045	9750.9
545.41	9726.95
545.774	9698.02
546.138	9596.1
546.503	9582.77
546.867	9484.92
547.231	9571.02
547.595	9494.41
547.959	9469.78
548.324	9490.57
548.688	9391.59
549.052	9421.87
549.416	9449.89
549.779	9353.4
550.143	9385.94
550.507	9348.88
550.871	9275.89
551.235	9164.48
551.599	9228.66
551.962	9200.18
552.326	9195.21
552.689	9139.17
553.053	9098.49
553.417	9040.86
553.78	9184.36
554.143	9091.71
554.507	9059.39
554.87	9013.07
555.234	9083.12
555.597	8972.39
555.96	8960.64
556.323	9000.64
556.686	8988.21
557.05	8932.84
557.413	8951.37
557.776	8933.07
558.139	8925.84
558.502	8916.8
558.865	8876.57
559.228	8928.32
559.59	8902.56
559.953	8896.01
560.316	8998.83
560.679	8874.99
561.041	8969
561.404	8908.66
561.767	8964.48
562.129	8928.32
562.492	8902.56
562.854	8869.57
563.217	8858.27
563.579	8862.56
563.941	8890.81
564.304	8910.47
564.666	8937.82
565.028	8908.21
565.39	8947.76
565.753	8947.31
566.115	8924.03
566.477	8999.96
566.839	9029.11
567.201	9051.94
567.563	8971.49
567.925	8975.33
568.287	8983.92
568.648	8987.98
569.01	9009.45
569.372	9058.72
569.734	9032.73
570.095	9070.24
570.457	9094.87
570.819	9044.93
571.18	9055.33
571.542	9077.25
571.903	9078.38
572.265	9106.17
572.626	9090.81
572.987	9108.43
573.349	9075.44
573.71	9204.93
574.071	9199.5
574.432	9170.35
574.794	9253.74
575.155	9210.35
575.516	9184.14
575.877	9212.16
576.238	9227.75
576.599	9275.21
576.96	9267.52
577.32	9189.33
577.681	9290.8
578.042	9281.54
578.403	9285.83
578.763	9264.59
579.124	9282.67
579.485	9301.65
579.845	9297.58
580.206	9311.37
580.566	9321.99
580.927	9358.82
581.287	9410.57
581.648	9406.28
582.008	9391.36
582.368	9346.39
582.728	9373.96
583.089	9382.55
583.449	9388.2
583.809	9436.79
584.169	9447.41
584.529	9374.19
584.889	9435.2
585.249	9407.41
585.609	9410.35
585.969	9408.31
586.329	9386.39
586.688	9422.77
587.048	9425.71
587.408	9393.4
587.768	9461.64
588.127	9437.92
588.487	9418.71
588.846	9528.31
589.206	9457.8
589.565	9413.96
589.925	9488.76
590.284	9489.67
590.643	9479.04
591.003	9486.28
591.362	9469.55
591.721	9463.9
592.08	9536.9
592.44	9571.92
592.799	9531.47
593.158	9457.35
593.517	9532.6
593.876	9488.99
594.235	9478.59
594.593	9482.21
594.952	9522.43
595.311	9508.42
595.67	9510.46
596.029	9540.74
596.387	9461.19
596.746	9559.95
597.104	9501.42
597.463	9511.59
597.822	9598.82
598.18	9503
598.538	9568.76
598.897	9567.18
599.255	9488.99
599.613	9586.61
599.972	9544.81
600.33	9580.74
600.688	9543.22
601.046	9603.56
601.404	9603.56
601.762	9573.28
602.12	9639.72
602.478	9557.23
602.836	9594.52
603.194	9544.35
603.552	9557.69
603.91	9506.61
604.268	9601.53
604.625	9563.56
604.983	9597.69
605.341	9562.66
605.698	9580.51
606.056	9605.14
606.413	9530.57
606.771	9683.56
607.128	9704.8
607.485	9567.18
607.843	9568.99
608.2	9631.58
608.557	9663.22
608.914	9651.47
609.272	9750.68
609.629	9634.97
609.986	9657.8
610.343	9704.12
610.7	9653.73
611.057	9664.12
611.414	9598.59
611.771	9695.54
612.127	9768.3
612.484	9710.68
612.841	9729.89
613.198	9666.38
613.554	9732.6
613.911	9817.11
614.267	9731.47
614.624	9764.01
614.98	9773.73
615.337	9735.99
615.693	9798.13
616.05	9807.85
616.406	9877.68
616.762	9739.38
617.118	9761.52
617.475	9795.42
617.831	9864.35
618.187	9849.43
618.543	9814.85
618.899	9919.48
619.255	9860.5
619.611	9822.99
619.967	9934.63
620.323	9853.95
620.678	9916.77
621.034	9828.41
621.39	9851.01
621.746	9804.23
622.101	9985.92
622.457	9873.61
622.812	9886.94
623.168	9874.29
623.523	9937.79
623.879	9879.49
624.234	9888.53
624.589	9946.6
624.945	9923.78
625.3	9851.24
625.655	9915.64
626.01	9879.49
626.365	9882.88
626.72	9865.25
627.075	9901.18
627.43	9843.55
627.785	9841.52
628.14	9888.98
628.495	9896.66
628.85	9911.35
629.205	9773.27
629.559	9848.98
629.914	9768.75
630.269	9810.11
630.623	9794.74
630.978	9797.91
631.332	9771.24
631.687	9766.95
632.041	9786.83
632.396	9848.75
632.75	9750.45
633.104	9793.61
633.459	9706.38
633.813	9718.81
634.167	9668.64
634.521	9761.07
634.875	9710.22
635.229	9666.84
635.583	9627.29
635.937	9643.33
636.291	9600.62
636.645	9628.19
636.999	9654.18
637.352	9590.68
637.706	9518.37
638.06	9566.27
638.413	9594.97
638.767	9553.62
639.121	9567.4
639.474	9455.54
639.828	9565.82
640.181	9437.01
640.534	9538.25
640.888	9558.82
641.241	9429.1
641.594	9448.08
641.947	9505.71
642.301	9465.71
642.654	9453.06
643.007	9440.85
643.36	9470.68
643.713	9386.17
644.066	9549.1
644.419	9404.7
644.771	9279.95
645.124	9246.06
645.477	9282.67
645.83	9192.05
646.182	9078.15
646.535	9129.9
646.888	9133.74
647.24	9075.44
647.593	9150.69
647.945	9166.74
648.298	9092.39
648.65	9061.43
649.002	9095.78
649.355	9087.64
649.707	9098.94
650.059	9229.33
650.411	9237.47
650.763	9242.67
651.115	9326.96
651.467	9313.85
651.819	9305.49
652.171	9245.15
652.523	9249.67
652.875	9245.83
653.227	9229.33
653.578	9301.42
653.93	9358.37
654.282	9289.9
654.633	9234.31
654.985	9273.17
655.337	9256.9
655.688	9325.6
656.039	9343.91
656.391	9200.63
656.742	9270.01
657.094	9259.84
657.445	9390.69
657.796	9347.52
658.147	9291.48
658.498	9350.46
658.849	9338.71
659.2	9318.37
659.551	9279.95
659.902	9354.53
660.253	9306.17
660.604	9332.83
660.955	9320.18
661.306	9314.08
661.656	9343.23
662.007	9295.32
662.358	9372.83
662.708	9352.04
663.059	9386.62
663.409	9279.95
663.76	9331.25
664.11	9360.18
664.461	9368.09
664.811	9294.42
665.161	9325.83
665.511	9272.5
665.862	9353.62
666.212	9347.75
666.562	9299.61
666.912	9329.44
667.262	9308.88
667.612	9310.24
667.962	9345.04
668.312	9350.46
668.662	9383.45
669.011	9356.56
669.361	9305.26
669.711	9292.16
670.06	9365.38
670.41	9286.06
670.76	9267.3
671.109	9338.48
671.459	9287.19
671.808	9291.48
672.157	9324.7
672.507	9279.28
672.856	9189.56
673.205	9277.92
673.554	9305.26
673.904	9206.06
674.253	9281.76
674.602	9263.46
674.951	9096.91
675.3	9051.94
675.649	9225.49
675.998	9169.22
676.346	9167.41
676.695	9204.7
677.044	9107.75
677.393	9146.17
677.741	9191.59
678.09	9075.89
678.438	9058.49
678.787	9131.94
679.135	9090.35
679.484	9040.19
679.832	9107.98
680.181	9062.78
680.529	9073.18
680.877	9063.69
681.225	8995.44
681.573	9107.53
681.922	8982.79
682.27	8960.64
682.618	8938.95
682.966	8885.61
683.314	8937.82
683.661	8931.94
684.009	8861.21
684.357	8886.29
684.705	8851.94
685.053	8877.7
685.4	8865.05
685.748	8736.92
686.095	8765.17
686.443	8780.98
686.79	8702.34
687.138	8748.22
687.485	8673.87
687.832	8652.63
688.18	8689.69
688.527	8559.07
688.874	8559.52
689.221	8587.09
689.568	8612.4
689.915	8508
690.262	8597.94
690.609	8477.71
690.956	8490.6
691.303	8430.94
691.65	8436.59
691.997	8413.99
692.344	8383.71
692.69	8308.91
693.037	8377.38
693.383	8275.46
693.73	8288.34
694.077	8237.72
694.423	8261.45
694.769	8244.73
695.116	8127.89
695.462	8081.34
695.808	8095.58
696.155	8107.56
696.501	8088.12
696.847	8056.48
697.193	8004.96
697.539	8026.2
697.885	7943.04
698.231	7903.72
698.577	7860.56
698.923	7956.82
699.269	7824.17
699.614	7813.55
699.96	7787.34
700.306	7726.32
700.651	7747.34
700.997	7704.63
701.342	7673.44
701.688	7646.55
702.033	7616.72
702.379	7580.34
702.724	7540.79
703.069	7570.85
703.415	7472.09
703.76	7505.99
704.105	7457.63
704.45	7423.96
704.795	7367.69
705.14	7368.14
705.485	7396.61
705.83	7319.33
706.175	7376.95
706.52	7321.36
706.865	7327.46
707.209	7278.2
707.554	7252.89
707.899	7189.39
708.243	7220.12
708.588	7222.61
708.932	7160.24
709.277	7155.26
709.621	7100.8
709.966	7111.42
710.31	7112.78
710.654	7090.86
710.998	7092.67
711.342	7061.71
711.687	6990.07
712.031	7055.61
712.375	6922.05
712.719	6993.46
713.063	6959.79
713.407	6974.48
713.75	6855.84
714.094	6937.64
714.438	6837.98
714.782	6910.07
715.125	6826.91
715.469	6872.11
715.812	6830.07
716.156	6828.04
716.499	6809.28
716.843	6828.72
717.186	6800.7
717.53	6812.67
717.873	6795.5
718.216	6803.18
718.559	6782.62
718.902	6694.71
719.246	6767.03
719.589	6713.24
719.932	6697.87
720.275	6711.21
720.617	6671.21
720.96	6635.96
721.303	6659.68
721.646	6710.08
721.989	6638.22
722.331	6660.36
722.674	6613.81
723.016	6600.93
723.359	6588.5
723.701	6649.29
724.044	6592.11
724.386	6555.05
724.729	6594.6
725.071	6609.06
725.413	6624.43
725.755	6599.57
726.097	6525.9
726.439	6595.28
726.782	6541.49
727.124	6597.76
727.465	6539.69
727.807	6518.67
728.149	6532.46
728.491	6557.77
728.833	6553.7
729.175	6495.85
729.516	6495.85
729.858	6518.22
730.199	6596.18
730.541	6507.37
730.882	6508.95
731.224	6471.21
731.565	6479.35
731.906	6485
732.248	6512.57
732.589	6504.21
732.93	6464.43
733.271	6491.33
733.612	6506.69
733.953	6529.07
734.294	6553.92
734.635	6469.63
734.976	6545.56
735.317	6512.79
735.658	6472.57
735.999	6523.87
736.339	6476.19
736.68	6528.84
737.021	6531.55
737.361	6520.48
737.702	6499.91
738.042	6506.47
738.383	6523.64
738.723	6539.46
739.063	6510.31
739.404	6547.37
739.744	6542.17
740.084	6564.54
740.424	6529.97
740.764	6571.78
741.104	6626.69
741.444	6602.51
741.784	6601.83
742.124	6663.53
742.464	6645.67
742.804	6650.87
743.143	6696.29
743.483	6681.6
743.823	6732.22
744.162	6770.87
744.502	6810.41
744.841	6793.69
745.181	6846.12
745.52	6840.02
745.86	6844.31
746.199	6911.88
746.538	6921.37
746.877	7008.6
747.216	7060.8
747.556	7045.44
747.895	7166.79
748.234	7122.5
748.573	7138.77
748.911	7217.41
749.25	7273.9
749.589	7314.13
749.928	7405.88
750.267	7465.09
750.605	7611.07
750.944	7582.6
751.283	7631.64
751.621	7839.54
751.96	7820.11
752.298	7898.75
752.636	8013.32
752.975	8105.97
753.313	8172.64
753.651	8317.49
753.989	8413.99
754.327	8490.14
754.666	8562.01
755.004	8675.9
755.342	8845.61
755.679	8933.52
756.017	9045.16
756.355	9211.25
756.693	9226.62
757.031	9508.2
757.368	9516.33
757.706	9739.6
758.044	9813.73
758.381	10008.97
758.719	10167.84
759.056	10352.69
759.394	10461.17
759.731	10577.09
760.068	10786.13
760.405	10917.2
760.743	11072.45
761.08	11345.44
761.417	11380.46
761.754	11597.86
762.091	11790.62
762.428	11940
762.765	12099.99
763.102	12328.46
763.438	12411.17
763.775	12619.07
764.112	12835.79
764.449	13010.7
764.785	13141.1
765.122	13252.28
765.458	13331.37
765.795	13659.95
766.131	13774.07
766.467	13955.76
766.804	14082.77
767.14	14207.06
767.476	14409.76
