Data from hue_20_FLMS001491_1.txt Node
Date: Mon Feb 06 15:33:32 GMT 2017
User: dcchb
Spectrometer: FLMS00149
Trigger mode: 0
Integration Time (sec): 2.000000E-2
Scans to average: 10
Electric dark correction enabled: true
Nonlinearity correction enabled: false
Boxcar width: 0
XAxis mode: Wavelengths
Number of Pixels in Spectrum: 2048
>>>>>Begin Spectral Data<<<<<
341.393	-14.91
341.776	-14.91
342.16	-14.91
342.543	-48.13
342.927	-58.08
343.31	-69.38
343.693	-56.5
344.077	-68.92
344.46	-61.69
344.843	-68.92
345.226	-41.81
345.61	-31.86
345.993	-10.17
346.376	-8.59
346.759	14.46
347.142	37.06
347.525	52.88
347.908	54.24
348.291	91.3
348.674	70.51
349.057	97.4
349.44	119.32
349.823	166.78
350.206	169.04
350.588	185.31
350.971	207.9
351.354	217.4
351.737	231.63
352.119	250.39
352.502	265.53
352.884	269.15
353.267	303.72
353.65	309.37
354.032	294.91
354.414	296.72
354.797	320.44
355.179	306.43
355.562	323.16
355.944	331.97
356.326	313.89
356.709	326.09
357.091	348.24
357.473	326.77
357.855	351.4
358.238	321.57
358.62	324.96
359.002	337.39
359.384	342.82
359.766	343.27
360.148	325.42
360.53	355.47
360.912	329.48
361.294	346.88
361.676	336.94
362.057	326.09
362.439	333.32
362.821	309.6
363.203	325.42
363.584	324.96
363.966	334
364.348	341.69
364.729	333.55
365.111	302.82
365.493	303.95
365.874	331.29
366.256	327
366.637	335.58
367.019	301.69
367.4	306.21
367.781	319.77
368.163	315.92
368.544	323.16
368.925	326.09
369.306	316.38
369.688	321.8
370.069	307.11
370.45	317.73
370.831	335.58
371.212	319.54
371.593	324.51
371.974	317.28
372.355	322.03
372.736	301.24
373.117	300.33
373.498	341.46
373.879	303.72
374.26	308.47
374.641	325.87
375.021	317.05
375.402	311.4
375.783	326.09
376.163	346.88
376.544	329.03
376.925	349.37
377.305	318.86
377.686	310.27
378.066	332.42
378.447	331.06
378.827	326.55
379.208	334.91
379.588	341.69
379.968	347.79
380.349	330.39
380.729	326.32
381.109	340.33
381.489	325.42
381.87	341.91
382.25	341.23
382.63	342.82
383.01	345.3
383.39	337.62
383.77	348.01
384.15	334
384.53	350.5
384.91	347.34
385.29	348.47
385.67	344.62
386.049	357.05
386.429	330.39
386.809	335.13
387.189	358.63
387.568	353.44
387.948	326.32
388.328	322.48
388.707	367.67
389.087	362.25
389.466	352.08
389.846	349.6
390.225	367.9
390.605	344.62
390.984	341.69
391.363	345.3
391.743	366.32
392.122	376.94
392.501	346.88
392.881	381.91
393.26	395.02
393.639	356.37
394.018	372.19
394.397	367.9
394.776	379.88
395.155	355.47
395.534	379.2
395.913	382.14
396.292	395.47
396.671	379.43
397.05	369.71
397.429	358.86
397.808	385.07
398.186	393.44
398.565	398.63
398.944	362.02
399.323	392.76
399.701	386.66
400.08	374.91
400.458	377.17
400.837	399.09
401.215	378.75
401.594	371.29
401.972	403.38
402.351	389.59
402.729	401.12
403.107	392.08
403.486	392.08
403.864	403.83
404.242	402.02
404.62	424.4
404.999	383.27
405.377	410.38
405.755	406.54
406.133	404.96
406.511	404.06
406.889	433.21
407.267	432.31
407.645	420.78
408.023	416.71
408.401	425.3
408.779	434.34
409.156	412.64
409.534	407.67
409.912	423.72
410.29	433.89
410.667	438.63
411.045	452.64
411.422	441.34
411.8	416.71
412.178	432.76
412.555	448.58
412.933	446.09
413.31	456.94
413.687	432.98
414.065	478.18
414.442	452.64
414.819	437.28
415.197	441.8
415.574	452.87
415.951	463.49
416.328	476.82
416.705	464.17
417.082	460.78
417.46	493.32
417.837	467.11
418.214	479.08
418.591	496.48
418.967	481.8
419.344	486.99
419.721	502.13
420.098	479.54
420.475	480.67
420.852	509.59
421.228	490.16
421.605	511.62
421.982	482.25
422.358	491.96
422.735	512.08
423.111	503.04
423.488	508.46
423.864	490.38
424.241	518.63
424.617	517.5
424.994	504.62
425.37	521.79
425.746	529.7
426.123	526.54
426.499	536.03
426.875	517.27
427.251	547.33
427.627	556.37
428.003	536.94
428.379	550.72
428.756	571.06
429.132	541.91
429.507	561.34
429.883	570.83
430.259	578.97
430.635	583.71
431.011	558.86
431.387	599.98
431.763	574
432.138	588.69
432.514	596.14
432.89	610.38
433.265	588.46
433.641	622.13
434.016	608.12
434.392	612.41
434.767	620.1
435.143	603.37
435.518	619.87
435.894	640.21
436.269	658.51
436.644	635.46
437.02	634.11
437.395	651.51
437.77	637.72
438.145	643.6
438.52	661.9
438.895	666.65
439.271	663.94
439.646	677.95
440.021	684.73
440.395	695.35
440.77	693.32
441.145	680.21
441.52	659.87
441.895	693.32
442.27	706.2
442.645	702.58
443.019	732.18
443.394	713.2
443.769	692.41
444.143	721.79
444.518	732.41
444.892	727.66
445.267	723.6
445.641	726.76
446.016	754.1
446.39	732.86
446.764	738.74
447.139	706.65
447.513	717.04
447.887	725.86
448.262	733.31
448.636	738.06
449.01	780.32
449.384	763.6
449.758	774.22
450.132	776.25
450.506	773.31
450.88	801.33
451.254	764.5
451.628	780.54
452.002	784.16
452.376	807.89
452.75	801.79
453.123	797.95
453.497	808.79
453.871	813.09
454.244	825.74
454.618	846.53
454.992	849.7
455.365	862.58
455.739	849.02
456.112	856.02
456.486	882.91
456.859	884.95
457.232	895.34
457.606	892.86
457.979	897.38
458.352	919.07
458.725	920.65
459.099	924.5
459.472	947.09
459.845	941.67
460.218	967.88
460.591	971.5
460.964	960.65
461.337	1024.61
461.71	990.03
462.083	1005.4
462.456	991.16
462.829	1008.79
463.201	1031.16
463.574	1030.93
463.947	1014.66
464.32	1049.69
464.692	1034.78
465.065	1072.51
465.438	1066.86
465.81	1099.41
466.183	1119.97
466.555	1153.87
466.928	1150.7
467.3	1111.61
467.672	1126.07
468.045	1194.09
468.417	1179.86
468.789	1192.96
469.161	1223.24
469.534	1242.45
469.906	1236.8
470.278	1257.14
470.65	1267.99
471.022	1301.66
471.394	1312.28
471.766	1306.41
472.138	1336.69
472.51	1316.8
472.882	1373.07
473.253	1379.62
473.625	1427.08
473.997	1431.15
474.369	1434.31
474.74	1479.28
475.112	1474.76
475.484	1486.51
475.855	1531.71
476.227	1571.71
476.598	1568.55
476.97	1612.84
477.341	1630.69
477.713	1682.22
478.084	1672.05
478.455	1744.81
478.827	1753.17
479.198	1806.51
479.569	1805.83
479.94	1861.42
480.311	1871.59
480.682	1893.51
481.053	1943
481.424	1971.7
481.795	2008.76
482.166	2047.4
482.537	2087.4
482.908	2106.16
483.279	2136.44
483.65	2194.29
484.021	2185.48
484.391	2244.91
484.762	2261.64
485.133	2308.19
485.503	2333.05
485.874	2391.35
486.244	2439.94
486.615	2465.47
486.985	2489.65
487.356	2549.09
487.726	2557.45
488.097	2647.61
488.467	2696.2
488.837	2710.21
489.207	2742.07
489.578	2787.27
489.948	2792.47
490.318	2836.76
490.688	2873.82
491.058	2940.04
491.428	2956.98
491.798	2988.85
492.168	3070.65
492.538	3105.68
492.908	3102.97
493.278	3148.39
493.648	3188.84
494.017	3240.37
494.387	3274.49
494.757	3267.94
495.126	3315.62
495.496	3382.51
495.866	3384.77
496.235	3393.36
496.605	3436.75
496.974	3502.05
497.344	3534.6
497.713	3558.78
498.082	3571.66
498.452	3643.75
498.821	3612.56
499.19	3669.96
499.559	3679.68
499.928	3726.91
500.298	3749.73
500.667	3758.32
501.036	3738.21
501.405	3843.29
501.774	3844.19
502.143	3895.72
502.512	3858.2
502.88	3910.18
503.249	3947.92
503.618	3950.86
503.987	4002.61
504.356	4021.36
504.724	4010.52
505.093	4014.36
505.462	4082.15
505.83	4070.18
506.199	4130.74
506.567	4150.4
506.936	4134.35
507.304	4232.66
507.672	4226.78
508.041	4203.05
508.409	4245.31
508.777	4290.73
509.145	4339.55
509.514	4300.68
509.882	4331.86
510.25	4342.48
510.618	4375.7
510.986	4350.85
511.354	4430.62
511.722	4486.44
512.09	4484.4
512.458	4512.88
512.826	4488.7
513.193	4444.85
513.561	4522.82
513.929	4563.72
514.297	4601.46
514.664	4612.08
515.032	4649.6
515.4	4632.19
515.767	4662.7
516.135	4662.7
516.502	4659.99
516.869	4752.87
517.237	4732.3
517.604	4737.5
517.972	4776.15
518.339	4754.68
518.706	4778.86
519.073	4786.99
519.44	4846.65
519.808	4887.33
520.175	4936.37
520.542	4891.85
520.909	4973.65
521.276	4958.06
521.643	5009.36
522.009	4998.06
522.376	5077.83
522.743	5075.12
523.11	5132.75
523.477	5107.89
523.843	5176.14
524.21	5181.56
524.577	5241.44
524.943	5232.4
525.31	5292.74
525.676	5282.57
526.043	5331.84
526.409	5337.71
526.776	5404.15
527.142	5458.61
527.508	5382.46
527.874	5448.22
528.241	5475.11
528.607	5478.95
528.973	5596.46
529.339	5548.55
529.705	5612.73
530.071	5685.95
530.437	5626.74
530.803	5720.98
531.169	5692.28
531.535	5699.29
531.901	5749
532.267	5740.64
532.632	5801.88
532.998	5840.3
533.364	5830.58
533.73	5845.95
534.095	5933.18
534.461	5907.64
534.826	5938.15
535.192	5984.93
535.557	6026.73
535.923	6012.5
536.288	6089.78
536.653	6053.63
537.019	6096.79
537.384	6082.55
537.749	6116.22
538.114	6117.13
538.479	6174.98
538.845	6186.5
539.21	6189.44
539.575	6251.59
539.94	6275.77
540.305	6337.23
540.67	6275.32
541.034	6369.78
541.399	6363
541.764	6366.39
542.129	6434.18
542.494	6468.98
542.858	6447.97
543.223	6475.31
543.587	6493.84
543.952	6513.28
544.316	6607.51
544.681	6596.44
545.045	6611.8
545.41	6645.93
545.774	6676.43
546.138	6639.6
546.503	6709.43
546.867	6735.19
547.231	6715.53
547.595	6748.3
547.959	6795.3
548.324	6798.69
548.688	6863.55
549.052	6870.55
549.416	6890.44
549.779	6874.85
550.143	6864
550.507	6996.43
550.871	7011.34
551.235	6992.58
551.599	7017.89
551.962	7091.34
552.326	7079.14
552.689	7095.63
553.053	7093.37
553.417	7119.13
553.78	7220.38
554.143	7182.18
554.507	7202.52
554.87	7242.52
555.234	7294.95
555.597	7289.53
555.96	7308.06
556.323	7332.46
556.686	7304.89
557.05	7413.14
557.413	7389.86
557.776	7357.77
558.139	7481.84
558.502	7470.54
558.865	7478.45
559.228	7527.03
559.59	7551.44
559.953	7523.64
560.316	7621.49
560.679	7602.74
561.041	7747.59
561.404	7728.16
561.767	7727.48
562.129	7733.58
562.492	7867.82
562.854	7778.55
563.217	7764.77
563.579	7791.89
563.941	7876.18
564.304	7893.8
564.666	7953.01
565.028	7918.89
565.39	8004.08
565.753	8048.83
566.115	8056.96
566.477	8076.17
566.839	8127.02
567.201	8107.13
567.563	8165.44
567.925	8235.49
568.287	8185.32
568.648	8233.46
569.01	8297.18
569.372	8316.39
569.734	8353.9
570.095	8370.18
570.457	8460.57
570.819	8521.58
571.18	8482.71
571.542	8542.37
571.903	8536.05
572.265	8529.95
572.626	8620.34
572.987	8699.88
573.349	8703.27
573.71	8770.16
574.071	8815.14
574.432	8856.26
574.794	8945.08
575.155	8976.71
575.516	8950.73
575.877	8986.2
576.238	9177.84
576.599	9150.95
576.96	9241.34
577.32	9214.9
577.681	9376.93
578.042	9465.97
578.403	9533.99
578.763	9587.77
579.124	9691.72
579.485	9772.62
579.845	9890.14
580.206	9922.9
580.566	10058.49
580.927	10126.29
581.287	10242.89
581.648	10305.72
582.008	10428.88
582.368	10529.44
582.728	10700.06
583.089	10746.84
583.449	10959.94
583.809	11128.97
584.169	11280.38
584.529	11386.14
584.889	11662.97
585.249	11599.02
585.609	11921.27
585.969	12132.34
586.329	12256.63
586.688	12447.58
587.048	12662.27
587.408	12820.68
587.768	13074.68
588.127	13195.59
588.487	13402.59
588.846	13803.03
589.206	13776.59
589.565	14139.97
589.925	14392.39
590.284	14628.09
590.643	14869.67
591.003	15210
591.362	15401.63
591.721	15539.7
592.08	15820.6
592.44	16168.84
592.799	16377.87
593.158	16657.42
593.517	17010.85
593.876	17181.02
594.235	17505.3
594.593	17860.77
594.952	18173.53
595.311	18318.84
595.67	18656.68
596.029	19077.69
596.387	19336.89
596.746	19645.13
597.104	19813.26
597.463	20064.11
597.822	20437.65
598.18	20580.02
598.538	20914.25
598.897	21336.61
599.255	21434.01
599.613	22015.24
599.972	22212.52
600.33	22463.59
600.688	22670.59
601.046	23134.31
601.404	23478.03
601.762	23601.41
602.12	23982.87
602.478	24276.42
602.836	24506.25
603.194	24706.47
603.552	24990.3
603.91	25162.28
604.268	25602.94
604.625	25696.27
604.983	26167.9
605.341	26254.45
605.698	26679.07
606.056	26878.39
606.413	27092.85
606.771	27456.68
607.128	27711.36
607.485	27800.62
607.843	28035.65
608.2	28325.36
608.557	28544.11
608.914	28726.02
609.272	29176.18
609.629	29451.43
609.986	29655.72
610.343	29719.9
610.7	30109.26
611.057	30157.17
611.414	30387.45
611.771	30678.06
612.127	31083.48
612.484	31204.83
612.841	31446.63
613.198	31459.51
613.554	31629.45
613.911	31973.62
614.267	32096.11
614.624	32144.69
614.98	32332.03
615.337	32888.4
615.693	32734.28
616.05	32918.46
616.406	33290.2
616.762	33283.19
617.118	33368.16
617.475	33553.92
617.831	33827.13
618.187	33875.95
618.543	34051.53
618.899	34418.08
619.255	34354.58
619.611	34553.22
619.967	34808.58
620.323	34950.95
620.678	34859.2
621.034	34985.52
621.39	35134.44
621.746	35099.87
622.101	35453.08
622.457	35401.78
622.812	35605.62
623.168	35748.44
623.523	35746.4
623.879	35891.03
624.234	35770.58
624.589	36112.95
624.945	36173.29
625.3	36148.2
625.655	36362.43
626.01	36374.18
626.365	36544.35
626.72	36555.87
627.075	36609.43
627.43	36724.23
627.785	36604.46
628.14	36794.51
628.495	36895.53
628.85	37009.65
629.205	36938.01
629.559	37028.63
629.914	36975.3
630.269	37148.4
630.623	36977.78
630.978	37014.62
631.332	37308.4
631.687	37405.12
632.041	37112.92
632.396	37337.55
632.75	37256.87
633.104	37326.93
633.459	37212.81
633.813	37321.96
634.167	37355.85
634.521	37281.05
634.875	37379.36
635.229	37390.88
635.583	37262.75
635.937	37307.04
636.291	37295.52
636.645	37274.95
636.999	37300.26
637.352	37364.44
637.706	37147.27
638.06	37429.52
638.413	37322.86
638.767	37263.43
639.121	37409.86
639.474	37106.37
639.828	37274.05
640.181	37399.69
640.534	37342.52
640.888	37166.93
641.241	37156.76
641.594	37205.12
641.947	37338
642.301	37250.77
642.654	37250.77
643.007	37272.24
643.36	37254.16
643.713	37130.1
644.066	37337.55
644.419	37018.91
644.771	36885.58
645.124	36579.83
645.477	36504.35
645.83	36385.71
646.182	36265.94
646.535	36188.65
646.888	36228.2
647.24	36103.23
647.593	36321.3
647.945	36164.02
648.298	36059.16
648.65	35954.53
649.002	35968.32
649.355	36034.98
649.707	35860.3
650.059	36117.24
650.411	36598.13
650.763	36671.13
651.115	37044.45
651.467	36848.07
651.819	36911.12
652.171	36721.29
652.523	36663.67
652.875	36818.47
653.227	36591.13
653.578	36835.42
653.93	36709.09
654.282	36728.98
654.633	36529.66
654.985	36614.86
655.337	36729.43
655.688	36561.07
656.039	36867.28
656.391	36450.12
656.742	36547.06
657.094	36564.91
657.445	36694.18
657.796	36656.21
658.147	36579.6
658.498	36565.59
658.849	36486.72
659.2	36466.16
659.551	36289.44
659.902	36614.4
660.253	36552.94
660.604	36494.63
660.955	36458.02
661.306	36574.63
661.656	36425.03
662.007	36373.96
662.358	36396.78
662.708	36448.76
663.059	36366.28
663.409	36322.21
663.76	36468.19
664.11	36394.75
664.461	36455.31
664.811	36476.1
665.161	36451.24
665.511	36362.43
665.862	36278.37
666.212	36515.65
666.562	36514.97
666.912	36269.55
667.262	36257.8
667.612	36420.29
667.962	36371.7
668.312	36330.57
668.662	36438.59
669.011	36478.36
669.361	36307.07
669.711	36320.17
670.06	36228.2
670.41	36124.7
670.76	36113.63
671.109	36367.63
671.459	36294.86
671.808	36355.88
672.157	36347.97
672.507	36056.45
672.856	36186.39
673.205	36182.1
673.554	36255.77
673.904	36037.92
674.253	36281.98
674.602	36191.59
674.951	35605.39
675.3	35518.61
675.649	36070.24
675.998	35975.33
676.346	35994.99
676.695	36106.4
677.044	35786.4
677.393	35912.95
677.741	36064.14
678.09	35809.68
678.438	35857.81
678.787	35913.18
679.135	35933.97
679.484	35602
679.832	35698.5
680.181	35579.18
680.529	35762.9
680.877	35505.73
681.225	35521.1
681.573	35940.3
681.922	35406.3
682.27	35439.75
682.618	35405.4
682.966	35253.99
683.314	35376.24
683.661	35336.92
684.009	35173.54
684.357	35072.75
684.705	34996.37
685.053	34977.16
685.4	35127.66
685.748	34877.28
686.095	34915.47
686.443	34730.16
686.79	34575.59
687.138	34778.07
687.485	34641.58
687.832	34604.97
688.18	34523.61
688.527	34414.01
688.874	34404.97
689.221	34383.28
689.568	34295.37
689.915	34193.68
690.262	34177.18
690.609	34041.82
690.956	33954.36
691.303	33994.13
691.65	33922.95
691.997	33789.39
692.344	33607.25
692.69	33618.55
693.037	33686.35
693.383	33247.04
693.73	33578.33
694.077	33218.56
694.423	33370.42
694.769	33161.39
695.116	33168.17
695.462	33122.52
695.808	32911.45
696.155	33018.34
696.501	32785.13
696.847	32739.48
697.193	32523.89
697.539	32598.01
697.885	32467.62
698.231	32278.7
698.577	32179.04
698.923	32195.54
699.269	32175.65
699.614	31914.87
699.96	31865.6
700.306	31839.61
700.651	31873.29
700.997	31754.42
701.342	31629.68
701.688	31658.6
702.033	31481.88
702.379	31510.13
702.724	31429.23
703.069	31399.4
703.415	31122.12
703.76	31127.77
704.105	31176.13
704.45	31006.64
704.795	30920.09
705.14	30848.23
705.485	30722.81
705.83	30661.79
706.175	30802.58
706.52	30623.15
706.865	30379.09
707.209	30438.52
707.554	30382.25
707.899	30480.55
708.243	30078.08
708.588	30162.14
708.932	30050.74
709.277	30012.09
709.621	29965.54
709.966	29754.7
710.31	29858.2
710.654	29573.01
710.998	29585.21
711.342	29681.25
711.687	29530.3
712.031	29461.37
712.375	29399.9
712.719	29392.22
713.063	29344.54
713.407	29403.07
713.75	29192.68
714.094	29136.41
714.438	29040.59
714.782	29048.28
715.125	28902.97
715.469	29097.99
715.812	28907.71
716.156	28656.65
716.499	28711.79
716.843	28893.93
717.186	28598.34
717.53	28785.91
717.873	28623.43
718.216	28623.43
718.559	28411.68
718.902	28344.11
719.246	28329.65
719.589	28260.27
719.932	28157
720.275	28171.91
720.617	28194.06
720.96	28109.32
721.303	28029.09
721.646	28022.31
721.989	27817.8
722.331	27955.42
722.674	27825.26
723.016	27844.47
723.359	27722.43
723.701	27781.64
724.044	27570.8
724.386	27374.2
724.729	27660.06
725.071	27600.86
725.413	27484.48
725.755	27497.13
726.097	27463.46
726.439	27352.28
726.782	27306.17
727.124	27375.78
727.465	27212.17
727.807	27244.71
728.149	27167.65
728.491	27081.32
728.833	27022.34
729.175	26962.68
729.516	26878.62
729.858	26879.97
730.199	26992.51
730.541	26857.37
730.882	26861.67
731.224	26946.64
731.565	26689.02
731.906	26707.55
732.248	26743.48
732.589	26560.21
732.93	26565.4
733.271	26547.55
733.612	26584.84
733.953	26567.89
734.294	26448.12
734.635	26400.44
734.976	26380.1
735.317	26437.04
735.658	26379.42
735.999	26341.91
736.339	26117.05
736.68	26331.96
737.021	26193.21
737.361	25988.24
737.702	26108.01
738.042	26046.09
738.383	26171.06
738.723	26095.13
739.063	25958.19
739.404	26060.56
739.744	25999.77
740.084	25882.48
740.424	25944.63
740.764	25811.75
741.104	25955.48
741.444	25663.05
741.784	25690.85
742.124	25702.15
742.464	25666.22
742.804	25575.82
743.143	25529.27
743.483	25579.89
743.823	25321.59
744.162	25381.25
744.502	25450.86
744.841	25257.87
745.181	25466.45
745.52	25278.88
745.86	25362.95
746.199	25197.53
746.538	25288.37
746.877	25307.36
747.216	25204.54
747.556	25176.74
747.895	25131.54
748.234	25063.07
748.573	24931.32
748.911	24983.98
749.25	24987.37
749.589	24956.63
749.928	24889.97
750.267	24895.16
750.605	24777.65
750.944	24740.37
751.283	24701.72
751.621	24705.34
751.96	24553.48
752.298	24560.03
752.636	24560.26
752.975	24494.27
753.313	24329.3
753.651	24532.01
753.989	24268.97
754.327	24386.93
754.666	24183.32
755.004	24351.22
755.342	24287.5
755.679	24198.91
756.017	24107.61
756.355	24105.13
756.693	24016.09
757.031	24086.37
757.368	23815.64
757.706	23846.38
758.044	23791.24
758.381	23784.91
758.719	23647.97
759.056	23746.95
759.394	23636.44
759.731	23522.09
760.068	23456.33
760.405	23293.17
760.743	23456.11
761.08	23418.14
761.417	23229.22
