Data from hue_40_FLMS001491_100.txt Node
Date: Mon Feb 06 15:08:52 GMT 2017
User: dcchb
Spectrometer: FLMS00149
Trigger mode: 0
Integration Time (sec): 2.000000E-2
Scans to average: 10
Electric dark correction enabled: true
Nonlinearity correction enabled: false
Boxcar width: 0
XAxis mode: Wavelengths
Number of Pixels in Spectrum: 2048
>>>>>Begin Spectral Data<<<<<
341.393	6.84
341.776	6.84
342.16	6.84
342.543	-46.72
342.927	-45.14
343.31	-86.49
343.693	-60.28
344.077	-52.37
344.46	-65.48
344.843	-35.87
345.226	-45.82
345.61	-32.94
345.993	-1.3
346.376	17.91
346.759	-4.46
347.142	16.33
347.525	35.08
347.908	43.9
348.291	63.56
348.674	107.85
349.057	100.39
349.44	130
349.823	150.11
350.206	170.22
350.588	196.66
350.971	198.02
351.354	220.16
351.737	257.68
352.119	253.38
352.502	277.34
352.884	288.86
353.267	275.98
353.65	297.45
354.032	296.77
354.414	312.36
354.797	325.7
355.179	337.45
355.562	335.19
355.944	331.12
356.326	348.75
356.709	353.49
357.091	345.58
357.473	334.28
357.855	337
358.238	353.49
358.62	335.87
359.002	354.85
359.384	345.58
359.766	343.55
360.148	337
360.53	358.01
360.912	342.65
361.294	337.45
361.676	337
362.057	337.67
362.439	344.91
362.821	331.35
363.203	335.41
363.584	332.03
363.966	315.08
364.348	333.38
364.729	326.15
365.111	300.16
365.493	313.04
365.874	301.29
366.256	321.86
366.637	316.88
367.019	330.9
367.4	334.06
367.781	339.48
368.163	327.05
368.544	329.99
368.925	302.87
369.306	302.2
369.688	311.69
370.069	313.27
370.45	330.67
370.831	311.46
371.212	330.9
371.593	311.69
371.974	308.3
372.355	341.97
372.736	318.24
373.117	338.8
373.498	340.16
373.879	328.41
374.26	329.31
374.641	293.61
375.021	321.4
375.402	339.03
375.783	319.82
376.163	343.78
376.544	332.25
376.925	325.25
377.305	332.48
377.686	315.3
378.066	329.99
378.447	346.49
378.827	332.03
379.208	344.91
379.588	323.44
379.968	334.74
380.349	339.71
380.729	344
381.109	348.07
381.489	350.78
381.87	326.6
382.25	366.6
382.63	324.79
383.01	353.72
383.39	361.63
383.77	338.13
384.15	384.91
384.53	348.07
384.91	360.5
385.29	355.53
385.67	350.1
386.049	369.31
386.429	367.05
386.809	355.53
387.189	341.52
387.568	352.82
387.948	373.15
388.328	361.4
388.707	352.14
389.087	375.19
389.466	386.04
389.846	386.49
390.225	368.41
390.605	380.39
390.984	386.49
391.363	370.89
391.743	375.87
392.122	372.48
392.501	383.1
392.881	398.46
393.26	378.35
393.639	407.96
394.018	381.97
394.397	384.23
394.776	406.37
395.155	384.91
395.534	397.33
395.913	390.1
396.292	394.4
396.671	403.89
397.05	399.59
397.429	412.25
397.808	403.21
398.186	394.85
398.565	402.08
398.944	395.53
399.323	411.12
399.701	411.8
400.08	409.31
400.458	425.58
400.837	393.04
401.215	409.76
401.594	393.04
401.972	415.19
402.351	413.6
402.729	416.54
403.107	428.97
403.486	411.8
403.864	414.73
404.242	420.61
404.62	423.32
404.999	427.62
405.377	445.47
405.755	427.16
406.133	425.81
406.511	433.49
406.889	437.11
407.267	450.89
407.645	440.04
408.023	461.51
408.401	466.48
408.779	444.56
409.156	453.83
409.534	459.03
409.912	467.16
410.29	468.52
410.667	477.33
411.045	470.33
411.422	479.59
411.8	484.34
412.178	500.61
412.555	485.47
412.933	500.83
413.31	478.69
413.687	485.24
414.065	477.33
414.442	497.9
414.819	503.55
415.197	528.18
415.574	508.97
415.951	520.27
416.328	515.52
416.705	513.04
417.082	549.42
417.46	521.4
417.837	499.93
418.214	534.05
418.591	525.24
418.967	572.24
419.344	525.92
419.721	552.36
420.098	528.4
420.475	556.65
420.852	556.65
421.228	548.29
421.605	542.87
421.982	554.62
422.358	583.32
422.735	576.76
423.111	555.07
423.488	578.12
423.864	598.46
424.241	589.19
424.617	593.26
424.994	596.88
425.37	598.01
425.746	600.49
426.123	618.57
426.499	623.99
426.875	599.81
427.251	614.05
427.627	624.9
428.003	641.17
428.379	637.1
428.756	658.8
429.132	619.7
429.507	657.44
429.883	663.09
430.259	653.6
430.635	678.46
431.011	643.88
431.387	658.8
431.763	673.03
432.138	709.42
432.514	692.92
432.89	703.31
433.265	680.72
433.641	697.89
434.016	704.44
434.392	730.21
434.767	732.69
435.143	721.39
435.518	739.7
435.894	740.15
436.269	756.65
436.644	737.44
437.02	769.53
437.395	771.56
437.77	773.6
438.145	765.23
438.52	779.92
438.895	768.4
439.271	803.2
439.646	800.04
440.021	802.52
440.395	824.67
440.77	813.59
441.145	813.82
441.52	828.96
441.895	836.87
442.27	839.36
442.645	850.66
443.019	835.97
443.394	855.63
443.769	873.48
444.143	867.38
444.518	889.75
444.892	863.99
445.267	867.15
445.641	889.75
446.016	872.12
446.39	870.09
446.764	893.14
447.139	896.76
447.513	891.56
447.887	901.73
448.262	896.3
448.636	936.53
449.01	936.76
449.384	929.07
449.758	938.79
450.132	952.8
450.506	943.31
450.88	951.67
451.254	953.93
451.628	987.83
452.002	981.73
452.376	985.79
452.75	1007.49
453.123	1009.97
453.497	1017.43
453.871	1019.46
454.244	1036.64
454.618	1052.23
454.992	1049.97
455.365	1043.19
455.739	1070.31
456.112	1075.06
456.486	1096.3
456.859	1110.08
457.232	1120.93
457.606	1120.03
457.979	1130.65
458.352	1152.57
458.725	1134.04
459.099	1165.68
459.472	1200.48
459.845	1216.3
460.218	1200.93
460.591	1233.92
460.964	1233.02
461.337	1235.73
461.71	1269.4
462.083	1263.75
462.456	1296.52
462.829	1312.79
463.201	1317.54
463.574	1328.38
463.947	1340.36
464.32	1350.98
464.692	1371.77
465.065	1397.76
465.438	1407.93
465.81	1405.22
466.183	1427.82
466.555	1465.55
466.928	1477.76
467.3	1515.5
467.672	1513.01
468.045	1578.09
468.417	1546.46
468.789	1594.82
469.161	1601.6
469.534	1628.71
469.906	1669.62
470.278	1663.06
470.65	1697.19
471.022	1733.57
471.394	1766.56
471.766	1777.18
472.138	1806.79
472.51	1856.05
472.882	1884.07
473.253	1904.41
473.625	1964.98
473.997	2006.11
474.369	2009.95
474.74	2052.43
475.112	2089.49
475.484	2138.08
475.855	2180.11
476.227	2195.48
476.598	2308.24
476.97	2322.03
477.341	2364.06
477.713	2407.9
478.084	2465.98
478.455	2576.03
478.827	2577.16
479.198	2671.62
479.569	2677.73
479.94	2794.33
480.311	2841.34
480.682	2940.32
481.053	3002.01
481.424	3116.13
481.795	3144.15
482.166	3225.06
482.537	3284.94
482.908	3372.17
483.279	3472.51
483.65	3535.33
484.021	3635.22
484.391	3703.01
484.762	3799.28
485.133	3836.11
485.503	3928.77
485.874	4096.22
486.244	4121.08
486.615	4261.87
486.985	4384.12
487.356	4475.19
487.726	4531.24
488.097	4647.62
488.467	4748.86
488.837	4895.97
489.207	4950.89
489.578	5113.82
489.948	5156.31
490.318	5288.51
490.688	5389.29
491.058	5443.53
491.428	5608.04
491.798	5706.35
492.168	5878.55
492.538	5953.57
492.908	6019.56
493.278	6132.32
493.648	6218.65
494.017	6321.47
494.387	6422.94
494.757	6558.3
495.126	6639.66
495.496	6726.66
495.866	6828.13
496.235	6918.97
496.605	7019.98
496.974	7132.75
497.344	7266.53
497.713	7337.72
498.082	7406.19
498.452	7610.93
498.821	7684.83
499.19	7655
499.559	7770.02
499.928	7887.31
500.298	7991.26
500.667	8143.12
501.036	8169.11
501.405	8280.06
501.774	8331.59
502.143	8404.13
502.512	8487.74
502.88	8570.23
503.249	8625.14
503.618	8770.22
503.987	8821.29
504.356	8924.34
504.724	9066.26
505.093	9085.69
505.462	9105.58
505.83	9202.3
506.199	9371.79
506.567	9476.64
506.936	9493.82
507.304	9639.58
507.672	9723.42
508.041	9730.2
508.409	9879.8
508.777	9930.64
509.145	9982.17
509.514	10056.97
509.882	10154.14
510.25	10224.19
510.618	10288.15
510.986	10348.48
511.354	10436.17
511.722	10529.27
512.09	10601.36
512.458	10654.92
512.826	10744.41
513.193	10772.43
513.561	10843.84
513.929	10918.87
514.297	11052.2
514.664	11131.74
515.032	11200.44
515.4	11225.52
515.767	11269.14
516.135	11369.93
516.502	11329.02
516.869	11590.26
517.237	11569.02
517.604	11595.46
517.972	11700.54
518.339	11738.96
518.706	11784.15
519.073	11859.41
519.44	11955.67
519.808	12067.54
520.175	12034.99
520.542	12285.61
520.909	12353.86
521.276	12387.98
521.643	12433.85
522.009	12467.75
522.376	12615.54
522.743	12699.16
523.11	12769.66
523.477	12915.88
523.843	12966.27
524.21	13051.69
524.577	13204.46
524.943	13237.22
525.31	13274.74
525.676	13408.52
526.043	13534.84
526.409	13538.91
526.776	13734.84
527.142	13761.95
527.508	13800.82
527.874	13941.16
528.241	13978.9
528.607	14000.37
528.973	14155.62
529.339	14132.79
529.705	14297.31
530.071	14451.88
530.437	14467.47
530.803	14616.4
531.169	14681.93
531.535	14659.56
531.901	14689.61
532.267	14783.62
532.632	14882.83
532.998	14888.7
533.364	15072.2
533.73	15047.34
534.095	15159.43
534.461	15273.33
534.826	15312.87
535.192	15358.3
535.557	15485.75
535.923	15447.33
536.288	15608.46
536.653	15633.54
537.019	15570.72
537.384	15761.45
537.749	15850.71
538.114	15784.05
538.479	15886.19
538.845	15995.79
539.21	15979.52
539.575	16031.95
539.94	16114.21
540.305	16274.2
540.67	16247.54
541.034	16285.73
541.399	16407.76
541.764	16399.85
542.129	16483.01
542.494	16537.7
542.858	16572.73
543.223	16647.98
543.587	16789.9
543.952	16757.58
544.316	16822.67
544.681	16890.23
545.045	17032.6
545.41	17193.28
545.774	17088.87
546.138	17190.79
546.503	17300.17
546.867	17259.04
547.231	17449.09
547.595	17495.64
547.959	17567.73
548.324	17475.98
548.688	17502.65
549.052	17615.41
549.416	17680.04
549.779	17773.37
550.143	17774.5
550.507	17917.33
550.871	18039.81
551.235	17946.93
551.599	18149.41
551.962	18102.86
552.326	18204.78
552.689	18343.75
553.053	18334.49
553.417	18257.43
553.78	18583.07
554.143	18512.34
554.507	18609.74
554.87	18635.95
555.234	18789.17
555.597	18691.99
555.96	18821.93
556.323	18876.4
556.686	18843.4
557.05	19023.29
557.413	19073.45
557.776	19054.24
558.139	19220.12
558.502	19261.24
558.865	19370.39
559.228	19526.32
559.59	19525.42
559.953	19515.02
560.316	19755.47
560.679	19703.27
561.041	19890.61
561.404	19881.12
561.767	20027.55
562.129	20019.42
562.492	20196.14
562.854	20099.64
563.217	20220.09
563.579	20251.5
563.941	20433.42
564.304	20560.65
564.666	20648.33
565.028	20583.92
565.39	20797.48
565.753	20877.7
566.115	20849.23
566.477	21002.44
566.839	21138.48
567.201	21076.11
567.563	21123.57
567.925	21398.59
568.287	21406.27
568.648	21380.74
569.01	21476.78
569.372	21664.35
569.734	21619.83
570.095	21660.28
570.457	21889.42
570.819	21937.56
571.18	21986.15
571.542	22013.04
571.903	22120.15
572.265	22266.59
572.626	22358.11
572.987	22413.7
573.349	22554.27
573.71	22610.08
574.071	22708.84
574.432	22801.72
574.794	22970.07
575.155	22907.25
575.516	23049.62
575.877	23189.96
576.238	23231.99
576.599	23444.64
576.96	23497.52
577.32	23607.35
577.681	23714.46
578.042	23987
578.403	24126.2
578.763	24046.66
579.124	24353.54
579.485	24461.79
579.845	24604.38
580.206	24669.24
580.566	24811.61
580.927	24982
581.287	25193.97
581.648	25210.24
582.008	25501.98
582.368	25630.12
582.728	25735.43
583.089	25869.88
583.449	26047.73
583.809	26240.72
584.169	26567.04
584.529	26636.87
584.889	27033.02
585.249	27023.98
585.609	27250.19
585.969	27515.94
586.329	27567.92
586.688	27810.17
587.048	27923.16
587.408	28170.62
587.768	28384.17
588.127	28519.53
588.487	28740.77
588.846	29028.45
589.206	29053.98
589.565	29330.13
589.925	29655.77
590.284	29746.39
590.643	30004.47
591.003	30297.79
591.362	30540.5
591.721	30496.66
592.08	30853.48
592.44	31248.5
592.799	31349.97
593.158	31443.52
593.517	31635.61
593.876	32014.58
594.235	32053.45
594.593	32309.49
594.952	32656.6
595.311	32656.37
595.67	32867.67
596.029	33164.38
596.387	33296.81
596.746	33593.3
597.104	33729.79
597.463	33841.65
597.822	34184.24
598.18	34243.45
598.538	34336.1
598.897	34587.17
599.255	34486.16
599.613	35172.69
599.972	35129.08
600.33	35426.92
600.688	35494.49
601.046	35732.9
601.404	35973.35
601.762	36031.2
602.12	36289.27
602.478	36489.72
602.836	36540.56
603.194	36493.79
603.552	36843.61
603.91	36850.61
604.268	37159.53
604.625	37208.12
604.983	37336.25
605.341	37431.39
605.698	37791.61
606.056	38018.49
606.413	37989.34
606.771	38197.47
607.128	38207.64
607.485	38225.72
607.843	38405.15
608.2	38752.03
608.557	38800.17
608.914	38895.98
609.272	39164
609.629	39303.88
609.986	39559.92
610.343	39546.59
610.7	39831.1
611.057	39765.34
611.414	39874.49
611.771	39906.58
612.127	40153.8
612.484	40172.56
612.841	40390.86
613.198	40320.8
613.554	40385.21
613.911	40745.65
614.267	40750.17
614.624	40876.95
614.98	40913.33
615.337	41261.12
615.693	41174.57
616.05	41133.89
616.406	41426.09
616.762	41353.32
617.118	41538.4
617.475	41471.51
617.831	41687.77
618.187	41797.83
618.543	41944.72
618.899	42105.16
619.255	42042.79
619.611	42185.84
619.967	42277.81
620.323	42396.23
620.678	42273.3
621.034	42234.88
621.39	42404.37
621.746	42451.14
622.101	42895.43
622.457	42587.19
622.812	42686.17
623.168	42873.96
623.523	42894.75
623.879	43021.98
624.234	42827.18
624.589	42990.56
624.945	43068.08
625.3	43049.77
625.655	43090.22
626.01	43089.32
626.365	43264.68
626.72	43117.57
627.075	43313.04
627.43	43181.75
627.785	43252.93
628.14	43312.59
628.495	43370.67
628.85	43312.59
629.205	43341.06
629.559	43512.58
629.914	43251.8
630.269	43382.87
630.623	43330.22
630.978	43293.38
631.332	43437.56
631.687	43516.88
632.041	43319.14
632.396	43331.12
632.75	43346.49
633.104	43341.29
633.459	43305.58
633.813	43292.25
634.167	43405.92
634.521	43317.79
634.875	43285.02
635.229	43294.29
635.583	43207.51
635.937	43097.91
636.291	43204.12
636.645	43199.6
636.999	43142.65
637.352	43190.56
637.706	42925.48
638.06	43157.79
638.413	43115.76
638.767	42980.4
639.121	43088.87
639.474	42743.57
639.828	42917.12
640.181	43068.75
640.534	42973.62
640.888	42874.64
641.241	42755.99
641.594	42849.33
641.947	42958.25
642.301	42851.59
642.654	42622.89
643.007	42977.23
643.36	42763.9
643.713	42721.87
644.066	42922.32
644.419	42519.62
644.771	42287.98
645.124	42073.3
645.477	41971.38
645.83	41810.03
646.182	41600.77
646.535	41387.89
646.888	41541.56
647.24	41363.04
647.593	41516.48
647.945	41453.43
648.298	41397.16
648.65	41153.1
649.002	41161.69
649.355	41276.49
649.707	41128.69
650.059	41441.23
650.411	42038.95
650.763	42011.83
651.115	42376.12
651.467	42244.6
651.819	42166.63
652.171	41985.85
652.523	41993.3
652.875	41894.55
653.227	41828.79
653.578	42107.88
653.93	41876.92
654.282	41910.14
654.633	41791.73
654.985	41841.89
655.337	41879.18
655.688	41808.45
656.039	41926.64
656.391	41591.51
656.742	41729.13
657.094	41766.87
657.445	41897.03
657.796	41772.97
658.147	41671.05
658.498	41817.49
658.849	41729.13
659.2	41625.4
659.551	41603.48
659.902	41769.35
660.253	41651.62
660.604	41811.16
660.955	41485.97
661.306	41623.82
661.656	41570.26
662.007	41667.89
662.358	41542.92
662.708	41426.76
663.059	41519.42
663.409	41216.83
663.76	41703.37
664.11	41537.04
664.461	41454.79
664.811	41590.83
665.161	41517.83
665.511	41361.91
665.862	41389.02
666.212	41569.36
666.562	41446.42
666.912	41562.58
667.262	41332.76
667.612	41461.34
667.962	41480.77
668.312	41472.86
668.662	41507.89
669.011	41466.08
669.361	41345.64
669.711	41341.79
670.06	41262.93
670.41	41246.88
670.76	41172.76
671.109	41410.04
671.459	41356.94
671.808	41264.28
672.157	41314.68
672.507	41007.11
672.856	41209.82
673.205	41111.74
673.554	41337.73
673.904	41087.11
674.253	41343.38
674.602	41094.34
674.951	40684.64
675.3	40359.45
675.649	41047.34
675.998	40902.26
676.346	41068.13
676.695	41165.53
677.044	40717.18
677.393	40945.87
677.741	40901.13
678.09	40852.77
678.438	40710.62
678.787	40805.76
679.135	40927.34
679.484	40570.74
679.832	40657.74
680.181	40586.79
680.529	40635.37
680.877	40513.57
681.225	40393.57
681.573	40677.86
681.922	40385.89
682.27	40285.55
682.618	40288.71
682.966	40112.67
683.314	40295.27
683.661	40073.13
684.009	40015.5
684.357	39864.77
684.705	39916.3
685.053	39873.81
685.4	39986.58
685.748	39577.09
686.095	39633.36
686.443	39480.83
686.79	39411.22
687.138	39682.63
687.485	39602.63
687.832	39383.43
688.18	39446.48
688.527	39213.71
688.874	39286.71
689.221	39084.9
689.568	39124
689.915	38877
690.262	39009.88
690.609	38664.8
690.956	38767.4
691.303	38760.39
691.65	38447.63
691.997	38526.5
692.344	38242.89
692.69	38188.88
693.037	38222.78
693.383	37998.61
693.73	38023.24
694.077	37954.09
694.423	37835.22
694.769	37694.21
695.116	37732.85
695.462	37668.67
695.808	37475.23
696.155	37462.57
696.501	37259.42
696.847	37272.52
697.193	36936.03
697.539	37176.03
697.885	36902.81
698.231	36680
698.577	36837.51
698.923	36730.16
699.269	36449.72
699.614	36377.63
699.96	36352.32
700.306	36338.99
700.651	36051.31
700.997	36139.22
701.342	36058.32
701.688	35912.33
702.033	35784.43
702.379	35710.08
702.724	35722.51
703.069	35695.39
703.415	35311.22
703.76	35294.27
704.105	35333.82
704.45	35295.4
704.795	34983.77
705.14	35032.36
705.485	34944
705.83	34811.8
706.175	34906.03
706.52	34733.38
706.865	34577.23
707.209	34674.4
707.554	34476.66
707.899	34637.56
708.243	34301.75
708.588	34414.52
708.932	34142.66
709.277	34128.42
709.621	34099.27
709.966	33884.82
710.31	34020.18
710.654	33795.55
710.998	33864.93
711.342	33759.17
711.687	33647.31
712.031	33539.29
712.375	33356.69
712.719	33504.94
713.063	33469.46
713.407	33485.73
713.75	33258.39
714.094	33270.37
714.438	33058.4
714.782	33045.97
715.125	32871.28
715.469	32985.4
715.812	32742.7
716.156	32702.02
716.499	32757.39
716.843	32690.27
717.186	32491.86
717.53	32755.81
717.873	32618.41
718.216	32518.75
718.559	32243.5
718.902	32268.59
719.246	32248.02
719.589	32177.74
719.932	32050.74
720.275	32072.66
720.617	31971.65
720.96	31949.95
721.303	31934.13
721.646	31920.57
721.989	31635.38
722.331	31875.15
722.674	31665.89
723.016	31822.95
723.359	31550.19
723.701	31515.61
724.044	31461.38
724.386	31367.59
724.729	31400.59
725.071	31236.75
725.413	31312
725.755	31290.53
726.097	31165.34
726.439	31019.58
726.782	31144.77
727.124	31151.33
727.465	30916.53
727.807	30945.46
728.149	30905.68
728.491	30889.87
728.833	30929.41
729.175	30695.97
729.516	30739.36
729.858	30668.63
730.199	30655.52
730.541	30611.91
730.882	30604.22
731.224	30571
731.565	30382.31
731.906	30473.15
732.248	30424.12
732.589	30234.06
732.93	30220.96
733.271	30171.92
733.612	30213.73
733.953	30188.87
734.294	29996.1
734.635	29934.41
734.976	30072.71
735.317	29828.2
735.658	30033.17
735.999	29891.02
736.339	29826.16
736.68	29888.31
737.021	29791.14
737.361	29709.33
737.702	29689.67
738.042	29664.14
738.383	29549.11
738.723	29694.42
739.063	29382.56
739.404	29506.4
739.744	29460.75
740.084	29367.19
740.424	29377.14
740.764	29429.11
741.104	29331.49
741.444	29124.94
741.784	29157.03
742.124	29158.84
742.464	29170.59
742.804	29086.75
743.143	29008.56
743.483	29015.11
743.823	28901.9
744.162	28867.09
744.502	28903.93
744.841	28698.51
745.181	28907.32
745.52	28863.25
745.86	28826.42
746.199	28727.44
746.538	28632.3
746.877	28697.61
747.216	28652.64
747.556	28465.97
747.895	28592.07
748.234	28394.56
748.573	28446.99
748.911	28318.18
749.25	28344.85
749.589	28314.11
749.928	28215.13
750.267	28270.5
750.605	28101.46
750.944	28029.83
751.283	28087.68
751.621	28010.85
751.96	27958.87
752.298	27822.38
752.636	27816.5
752.975	27706.67
753.313	27536.73
753.651	27705.77
753.989	27540.35
754.327	27468.49
754.666	27417.64
755.004	27455.38
755.342	27434.82
755.679	27439.11
756.017	27127.25
756.355	27319.34
756.693	27102.39
757.031	27099.68
