Data from hue_36_FLMS001491_00075.txt Node
Date: Tue Feb 07 17:30:16 GMT 2017
User: dcchb
Spectrometer: FLMS00149
Trigger mode: 0
Integration Time (sec): 2.000000E-2
Scans to average: 10
Electric dark correction enabled: true
Nonlinearity correction enabled: false
Boxcar width: 0
XAxis mode: Wavelengths
Number of Pixels in Spectrum: 2048
>>>>>Begin Spectral Data<<<<<
341.393	-20.61
341.776	-20.61
342.16	-20.61
342.543	-44.11
342.927	-63.09
343.31	-65.13
343.693	-65.35
344.077	-65.58
344.46	-84.11
344.843	-48.18
345.226	-45.46
345.61	-45.24
345.993	-8.63
346.376	0.41
346.759	-4.79
347.142	31.37
347.525	54.65
347.908	42.89
348.291	97.81
348.674	95.55
349.057	109.79
349.44	111.37
349.823	139.61
350.206	161.76
350.588	204.7
350.971	211.25
351.354	226.39
351.737	265.94
352.119	248.31
352.502	275.66
352.884	248.76
353.267	297.58
353.65	293.74
354.032	318.37
354.414	309.55
354.797	306.84
355.179	312.27
355.562	339.38
355.944	320.63
356.326	326.73
356.709	340.97
357.091	338.48
357.473	322.89
357.855	337.35
358.238	332.15
358.62	346.84
359.002	352.49
359.384	361.53
359.766	347.29
360.148	331.25
360.53	325.15
360.912	341.87
361.294	331.47
361.676	342.77
362.057	338.71
362.439	331.02
362.821	340.29
363.203	351.81
363.584	306.39
363.966	340.97
364.348	319.95
364.729	302.55
365.111	333.51
365.493	328.54
365.874	321.31
366.256	334.64
366.637	312.94
367.019	308.42
367.4	309.1
367.781	313.4
368.163	341.42
368.544	320.63
368.925	300.51
369.306	327.86
369.688	313.17
370.069	313.85
370.45	309.33
370.831	334.64
371.212	325.82
371.593	327.86
371.974	344.81
372.355	309.55
372.736	310.91
373.117	301.87
373.498	324.02
373.879	326.95
374.26	312.27
374.641	311.81
375.021	304.13
375.402	347.07
375.783	312.72
376.163	334.19
376.544	332.38
376.925	332.15
377.305	321.31
377.686	333.73
378.066	315.43
378.447	324.47
378.827	352.72
379.208	343.45
379.588	333.06
379.968	320.63
380.349	328.08
380.729	328.31
381.109	347.97
381.489	353.62
381.87	328.31
382.25	344.36
382.63	345.49
383.01	345.49
383.39	331.25
383.77	342.32
384.15	356.33
384.53	357.91
384.91	348.88
385.29	336.45
385.67	332.6
386.049	361.3
386.429	358.14
386.809	345.03
387.189	351.36
387.568	344.58
387.948	350.46
388.328	352.26
388.707	352.72
389.087	365.15
389.466	366.5
389.846	372.83
390.225	368.08
390.605	374.41
390.984	381.19
391.363	369.44
391.743	386.16
392.122	368.99
392.501	376.22
392.881	365.82
393.26	369.67
393.639	370.34
394.018	383
394.397	370.57
394.776	383.45
395.155	371.93
395.534	390.23
395.913	392.04
396.292	393.39
396.671	406.5
397.05	384.81
397.429	370.12
397.808	402.21
398.186	388.2
398.565	394.52
398.944	381.42
399.323	398.14
399.701	397.01
400.08	391.13
400.458	400.17
400.837	398.37
401.215	422.32
401.594	408.53
401.972	391.59
402.351	391.13
402.729	411.47
403.107	395.65
403.486	418.93
403.864	400.4
404.242	411.02
404.62	431.58
404.999	416.44
405.377	413.73
405.755	411.25
406.133	448.76
406.511	415.77
406.889	439.04
407.267	431.36
407.645	444.01
408.023	423
408.401	432.94
408.779	455.09
409.156	454.86
409.534	432.26
409.912	441.53
410.29	440.85
410.667	459.38
411.045	437.91
411.422	459.83
411.8	454.63
412.178	454.63
412.555	447.18
412.933	443.56
413.31	474.07
413.687	492.37
414.065	460.74
414.442	471.36
414.819	471.81
415.197	484.92
415.574	478.59
415.951	483.11
416.328	495.76
416.705	505.26
417.082	480.85
417.46	503.9
417.837	493.05
418.214	509.55
418.591	503.67
418.967	514.97
419.344	513.62
419.721	494.18
420.098	499.38
420.475	501.87
420.852	524.46
421.228	533.73
421.605	504.13
421.982	536.21
422.358	547.97
422.735	551.58
423.111	551.36
423.488	535.54
423.864	539.83
424.241	544.8
424.617	550.23
424.994	585.48
425.37	575.08
425.746	567.4
426.123	573.28
426.499	577.12
426.875	581.19
427.251	577.57
427.627	593.61
428.003	588.19
428.379	593.84
428.756	572.82
429.132	585.48
429.507	576.44
429.883	592.26
430.259	624.35
430.635	605.14
431.011	622.99
431.387	629.09
431.763	620.05
432.138	646.95
432.514	637.68
432.89	622.77
433.265	663.67
433.641	651.47
434.016	663.67
434.392	674.06
434.767	676.1
435.143	654.86
435.518	673.39
435.894	677.45
436.269	688.3
436.644	710.22
437.02	681.75
437.395	707.06
437.77	730.33
438.145	712.93
438.52	717.9
438.895	720.39
439.271	736.44
439.646	718.13
440.021	748.64
440.395	720.62
440.77	726.04
441.145	751.35
441.52	764.46
441.895	752.48
442.27	755.64
442.645	772.14
443.019	750.67
443.394	777.34
443.769	777.34
444.143	777.56
444.518	803.78
444.892	775.98
445.267	774.63
445.641	793.16
446.016	789.54
446.39	769.88
446.764	814.63
447.139	806.04
447.513	810.56
447.887	823.89
448.262	807.17
448.636	846.26
449.01	823.44
449.384	849.43
449.758	829.99
450.132	856.43
450.506	866.83
450.88	855.3
451.254	853.04
451.628	872.93
452.002	872.7
452.376	907.96
452.75	891.69
453.123	900.95
453.497	904.34
453.871	899.82
454.244	925.36
454.618	922.42
454.992	935.07
455.365	948.63
455.739	964.23
456.112	954.51
456.486	952.25
456.859	986.82
457.232	1010.33
457.606	1003.32
457.979	996.77
458.352	1012.13
458.725	1018.69
459.099	1030.21
459.472	1063.43
459.845	1073.38
460.218	1062.08
460.591	1064.79
460.964	1100.95
461.337	1107.27
461.71	1125.13
462.083	1132.36
462.456	1112.47
462.829	1140.49
463.201	1168.51
463.574	1158.35
463.947	1172.36
464.32	1202.41
464.692	1222.75
465.065	1217.78
465.438	1248.29
465.81	1267.04
466.183	1273.37
466.555	1312.24
466.928	1296.87
467.3	1285.57
467.672	1298.45
468.045	1382.75
468.417	1389.75
468.789	1369.64
469.161	1376.42
469.534	1425.68
469.906	1441.73
470.278	1451.67
470.65	1476.53
471.022	1551.78
471.394	1557.66
471.766	1559.24
472.138	1561.95
472.51	1606.02
472.882	1635.62
473.253	1688.95
473.625	1702.51
473.997	1731.66
474.369	1763.75
474.74	1799.68
475.112	1811.21
475.484	1859.57
475.855	1916.29
476.227	1925.56
476.598	2001.71
476.97	2043.75
477.341	2076.06
477.713	2142.73
478.084	2179.34
478.455	2247.13
478.827	2242.16
479.198	2304.98
479.569	2371.87
479.94	2437.18
480.311	2500.68
480.682	2542.49
481.053	2610.28
481.424	2678.53
481.795	2755.59
482.166	2827
482.537	2887.11
482.908	2979.54
483.279	3021.57
483.65	3097.96
484.021	3218.63
484.391	3222.7
484.762	3302.92
485.133	3400.32
485.503	3472.18
485.874	3558.51
486.244	3621.33
486.615	3768.45
486.985	3831.5
487.356	3934.09
487.726	4021.32
488.097	4106.52
488.467	4171.37
488.837	4314.42
489.207	4421.31
489.578	4487.07
489.948	4565.26
490.318	4699.95
490.688	4701.75
491.058	4807.97
491.428	4977.91
491.798	5064.68
492.168	5224.9
492.538	5273.72
492.908	5366.14
493.278	5459.48
493.648	5491.56
494.017	5668.51
494.387	5767.72
494.757	5856.98
495.126	5976.52
495.496	5971.1
495.866	6103.3
496.235	6202.73
496.605	6293.35
496.974	6415.61
497.344	6492.89
497.713	6576.51
498.082	6621.93
498.452	6774.02
498.821	6803.17
499.19	6842.04
499.559	6947.8
499.928	7043.16
500.298	7127.91
500.667	7325.87
501.036	7330.16
501.405	7371.74
501.774	7475.24
502.143	7583.71
502.512	7610.83
502.88	7702.35
503.249	7738.06
503.618	7801.11
503.987	7884.72
504.356	8038.16
504.724	8071.84
505.093	8164.04
505.462	8175.34
505.83	8303.47
506.199	8408.78
506.567	8456.91
506.936	8463.92
507.304	8614.65
507.672	8646.06
508.041	8738.03
508.409	8803.34
508.777	8919.5
509.145	8967.63
509.514	8993.17
509.882	9076.78
510.25	9127.18
510.618	9198.13
510.986	9251.69
511.354	9344.34
511.722	9420.95
512.09	9517
512.458	9508.18
512.826	9582.76
513.193	9726.48
513.561	9647.61
513.929	9771
514.297	9874.95
514.664	9947.04
515.032	10012.12
515.4	10091.9
515.767	10125.34
516.135	10192.23
516.502	10170.99
516.869	10347.03
517.237	10332.12
517.604	10314.49
517.972	10471.32
518.339	10567.14
518.706	10660.47
519.073	10713.12
519.44	10705.21
519.808	10809.39
520.175	10792.22
520.542	10967.8
520.909	11040.8
521.276	11086.67
521.643	11152.66
522.009	11222.71
522.376	11269.72
522.743	11324.41
523.11	11420.67
523.477	11481.01
523.843	11573.44
524.21	11661.12
524.577	11677.16
524.943	11762.81
525.31	11904.73
525.676	11907.44
526.043	12061.79
526.409	12157.6
526.776	12248.68
527.142	12232.63
527.508	12354.44
527.874	12396.92
528.241	12518.27
528.607	12516.92
528.973	12655.22
529.339	12590.36
529.705	12746.97
530.071	12852.95
530.437	12939.96
530.803	13008.66
531.169	13017.69
531.535	13010.69
531.901	13179.05
532.267	13163.68
532.632	13281.64
532.998	13346.27
533.364	13476.89
533.73	13449.1
534.095	13509.66
534.461	13643.89
534.826	13651.8
535.192	13706.04
535.557	13745.58
535.923	13799.59
536.288	13818.13
536.653	14033.49
537.019	13955.3
537.384	13991.45
537.749	14120.49
538.114	14112.13
538.479	14164.56
538.845	14248.4
539.21	14228.28
539.575	14316.42
539.94	14308.96
540.305	14496.53
540.67	14443.87
541.034	14556.64
541.399	14637.09
541.764	14615.17
542.129	14749.4
542.494	14777.42
542.858	14807.7
543.223	14871.43
543.587	14943.07
543.952	14972.9
544.316	15041.14
544.681	15050.64
545.045	15190.07
545.41	15248.82
545.774	15280.01
546.138	15294.7
546.503	15324.53
546.867	15290.63
547.231	15374.69
547.595	15547.35
547.959	15599.32
548.324	15647.46
548.688	15640.9
549.052	15684.74
549.416	15755.7
549.779	15764.29
550.143	15902.36
550.507	16025.75
550.871	15888.58
551.235	15950.05
551.599	16116.6
551.962	16078.18
552.326	16219.19
552.689	16317.95
553.053	16242.69
553.417	16345.74
553.78	16560.43
554.143	16477.72
554.507	16560.43
554.87	16568.11
555.234	16783.92
555.597	16661.44
555.96	16763.13
556.323	16780.99
556.686	16821.44
557.05	17017.59
557.413	17033.18
557.776	17096.23
558.139	17098.72
558.502	17244.7
558.865	17229.56
559.228	17412.83
559.59	17358.37
559.953	17357.24
560.316	17507.29
560.679	17612.15
561.041	17653.5
561.404	17785.48
561.767	17932.14
562.129	17788.64
562.492	18061.18
562.854	17908.87
563.217	18037.45
563.579	18156.77
563.941	18138.24
564.304	18298.69
564.666	18368.51
565.028	18359.93
565.39	18382.53
565.753	18533.48
566.115	18624.55
566.477	18637.89
566.839	18704.32
567.201	18939.8
567.563	18861.38
567.925	19087.37
568.287	19033.36
568.648	19062.96
569.01	19254.14
569.372	19325.55
569.734	19250.3
570.095	19351.99
570.457	19484.42
570.819	19544.75
571.18	19643.28
571.542	19678.99
571.903	19749.95
572.265	19833.79
572.626	19878.31
572.987	19961.01
573.349	20050.96
573.71	20257.73
574.071	20259.31
574.432	20395.58
574.794	20602.58
575.155	20536.37
575.516	20565.29
575.877	20717.6
576.238	20932.97
576.599	20899.07
576.96	21035.11
577.32	21206.63
577.681	21287.08
578.042	21336.35
578.403	21524.82
578.763	21613.4
579.124	21808.2
579.485	21875.99
579.845	22173.61
580.206	22206.38
580.566	22243.21
580.927	22392.82
581.287	22538.12
581.648	22742.41
582.008	23025.11
582.368	23138.78
582.728	23252.45
583.089	23420.13
583.449	23589.85
583.809	23754.36
584.169	23916.16
584.529	24088.36
584.889	24367.68
585.249	24616.71
585.609	24589.14
585.969	25049.24
586.329	25068
586.688	25256.47
587.048	25568.32
587.408	25657.36
587.768	25890.8
588.127	26041.08
588.487	26207.18
588.846	26631.8
589.206	26608.3
589.565	26865.69
589.925	27183.65
590.284	27285.79
590.643	27629.51
591.003	27939.34
591.362	28147.24
591.721	28314.69
592.08	28550.17
592.44	28839.65
592.799	28994.22
593.158	29112.64
593.517	29410.48
593.876	29660.87
594.235	29832.39
594.593	29989.68
594.952	30321.42
595.311	30527.74
595.67	30873.27
596.029	31243.66
596.387	31383.99
596.746	31584.66
597.104	31666.24
597.463	31974.03
597.822	32215.38
598.18	32282.27
598.538	32452.21
598.897	32784.86
599.255	32708.93
599.613	33328.57
599.972	33394.79
600.33	33515.69
600.688	33597.72
601.046	34089
601.404	34344.14
601.762	34377.58
602.12	34709.55
602.478	34768.76
602.836	35054.86
603.194	34958.59
603.552	35280.16
603.91	35239.71
604.268	35578.23
604.625	35691
604.983	36010.08
605.341	35996.75
605.698	36284.2
606.056	36464.31
606.413	36575.49
606.771	36753.12
607.128	36978.65
607.485	37022.94
607.843	37110.85
608.2	37422.02
608.557	37683.03
608.914	37624.96
609.272	37886.65
609.629	38086.19
609.986	38282.57
610.343	38295.45
610.7	38680.52
611.057	38673.07
611.414	38696.34
611.771	38805.49
612.127	39060.85
612.484	39324.8
612.841	39377.91
613.198	39289.09
613.554	39331.8
613.911	39758.69
614.267	39712.36
614.624	39818.57
614.98	40021.28
615.337	40139.69
615.693	40274.15
616.05	40213.36
616.406	40603.18
616.762	40456.3
617.118	40504.43
617.475	40722.73
617.831	40970.86
618.187	40951.2
618.543	40992.1
618.899	41249.72
619.255	41211.76
619.611	41319.55
619.967	41460.34
620.323	41603.38
620.678	41646.32
621.034	41606.77
621.39	41585.76
621.746	41544.63
622.101	42179.64
622.457	41863.04
622.812	41890.61
623.168	42031.85
623.523	42117.04
623.879	42270.26
624.234	42129.92
624.589	42376.92
624.945	42289.24
625.3	42424.15
625.655	42532.17
626.01	42435.45
626.365	42581.21
626.72	42562.23
627.075	42601.78
627.43	42477.94
627.785	42475.9
628.14	42794.76
628.495	42698.72
628.85	42762.45
629.205	42612.4
629.559	42869.56
629.914	42623.92
630.269	42677.25
630.623	42642.9
630.978	42608.33
631.332	42731.72
631.687	42830.24
632.041	42774.65
632.396	42898.94
632.75	42728.1
633.104	42824.82
633.459	42799.28
633.813	42782.56
634.167	42750.02
634.521	42731.04
634.875	42947.75
635.229	42745.5
635.583	42529.69
635.937	42736.24
636.291	42622.11
636.645	42681.55
636.999	42656.92
637.352	42919.28
637.706	42518.16
638.06	42821.88
638.413	42617.14
638.767	42507.77
639.121	42655.11
639.474	42486.07
639.828	42459.63
640.181	42526.07
640.534	42570.82
640.888	42402.68
641.241	42358.62
641.594	42433.64
641.947	42498.28
642.301	42394.55
642.654	42437.71
643.007	42385.51
643.36	42425.96
643.713	42320.43
644.066	42427.99
644.419	42120.21
644.771	41894
645.124	41545.98
645.477	41531.52
645.83	41310.28
646.182	41177.18
646.535	41170.17
646.888	41196.39
647.24	41012.89
647.593	41256.73
647.945	41102.15
648.298	40944.42
648.65	40965.43
649.002	40732.9
649.355	40918.2
649.707	40917.3
650.059	41222.83
650.411	41534.46
650.763	41569.03
651.115	42017.38
651.467	41769.71
651.819	41749.59
652.171	41791.85
652.523	41653.55
652.875	41715.47
653.227	41518.41
653.578	41801.34
653.93	41603.16
654.282	41412.65
654.633	41427.34
654.985	41594.34
655.337	41623.27
655.688	41507.57
656.039	41746.66
656.391	41420.79
656.742	41510.05
657.094	41402.48
657.445	41663.49
657.796	41592.76
658.147	41427.12
658.498	41429.6
658.849	41512.31
659.2	41442.94
659.551	41360.68
659.902	41536.72
660.253	41396.61
660.604	41366.1
660.955	41257.4
661.306	41422.37
661.656	41273.9
662.007	41273.67
662.358	41340.79
662.708	41259.44
663.059	41273.22
663.409	41084.98
663.76	41415.59
664.11	41456.27
664.461	41291.98
664.811	41212.89
665.161	41247.01
665.511	41091.53
665.862	41198.87
666.212	41298.31
666.562	41228.03
666.912	41041.82
667.262	40980.12
667.612	41087.46
667.962	41183.51
668.312	41201.81
668.662	41327.91
669.011	41037.75
669.361	41166.11
669.711	41091.53
670.06	40942.61
670.41	41114.13
670.76	40880.46
671.109	41202.72
671.459	40977.41
671.808	41082.49
672.157	41073
672.507	40795.27
672.856	40761.15
673.205	40986
673.554	40998.88
673.904	40878.88
674.253	41066.22
674.602	41122.04
674.951	40521.15
675.3	40267.6
675.649	40770.41
675.998	40800.69
676.346	40832.1
676.695	40889.73
677.044	40529.29
677.393	40738.1
677.741	40852.67
678.09	40868.71
678.438	40585.78
678.787	40595.05
679.135	40630.75
679.484	40398.67
679.832	40494.03
680.181	40315.96
680.529	40585.33
680.877	40355.96
681.225	40303.08
681.573	40498.78
681.922	40065.34
682.27	40151.67
682.618	40144.44
682.966	40090.43
683.314	40002.75
683.661	40113.25
684.009	39901.06
684.357	39813.37
684.705	39702.87
685.053	39659.71
685.4	39849.53
685.748	39650.67
686.095	39453.16
686.443	39520.95
686.79	39403.22
687.138	39359.15
687.485	39457.45
687.832	39176.78
688.18	39337.45
688.527	39135.2
688.874	39059.72
689.221	39027.18
689.568	38999.38
689.915	38877.35
690.262	38949.67
690.609	38662.44
690.956	38636.23
691.303	38540.19
691.65	38404.6
691.997	38278.5
692.344	38146.53
692.69	38168.22
693.037	38205.28
693.383	37934.33
693.73	38035.79
694.077	37849.58
694.423	37718.29
694.769	37663.83
695.116	37622.92
695.462	37638.97
695.808	37436.04
696.155	37586.54
696.501	37329.37
696.847	37276.72
697.193	37069.27
697.539	37129.38
697.885	36879.89
698.231	36809.39
698.577	36803.96
698.923	36690.29
699.269	36592.89
699.614	36366.01
699.96	36328.72
700.306	36357.19
700.651	36189.97
700.997	36107.48
701.342	35935.51
701.688	36019.12
702.033	35886.25
702.379	35822.52
702.724	35811.9
703.069	35837.21
703.415	35358.35
703.76	35411
704.105	35486.26
704.45	35465.24
704.795	35083.78
705.14	35041.3
705.485	34955.2
705.83	34891.47
706.175	34803.34
706.52	34702.32
706.865	34686.73
707.209	34713.4
707.554	34502.78
707.899	34667.52
708.243	34427.98
708.588	34339.39
708.932	34029.57
709.277	34244.25
709.621	34182.56
709.966	33996.58
710.31	34032.96
710.654	33667.32
710.998	33846.98
711.342	33851.5
711.687	33706.64
712.031	33666.87
712.375	33455.12
712.719	33453.54
713.063	33437.27
713.407	33534.44
713.75	33356.82
714.094	33393.43
714.438	33288.8
714.782	33117.96
715.125	33115.92
715.469	33048.58
715.812	33143.94
716.156	32814.91
716.499	32761.58
716.843	32758.42
717.186	32638.42
717.53	32807.91
717.873	32857.85
718.216	32732.88
718.559	32516.39
718.902	32444.75
719.246	32411.53
719.589	32236.4
719.932	32059.45
720.275	32112.79
720.617	32144.42
720.96	32027.59
721.303	32106.46
721.646	32016.52
721.989	31814.71
722.331	32072.33
722.674	31932.45
723.016	31817.88
723.359	31773.13
723.701	31814.94
724.044	31562.74
724.386	31431.67
724.729	31603.65
725.071	31557.55
725.413	31466.93
725.755	31434.39
726.097	31194.84
726.439	31169.08
726.782	31181.28
727.124	31237.55
727.465	31035.98
727.807	31208.4
728.149	31014.28
728.491	30942.87
728.833	30992.82
729.175	30925.47
729.516	30725.25
729.858	30778.81
730.199	30713.95
730.541	30824.68
730.882	30601.86
731.224	30729.77
731.565	30517.57
731.906	30593.05
732.248	30514.41
732.589	30457.46
732.93	30393.96
733.271	30344.92
733.612	30377.46
733.953	30412.94
734.294	30166.62
734.635	30309.22
734.976	30230.58
735.317	30017.47
735.658	30047.3
735.999	30051.82
736.339	30000.75
736.68	29939.06
737.021	29876.69
737.361	29686.86
737.702	29805.5
738.042	29841.21
738.383	29718.95
738.723	29626.98
739.063	29605.05
739.404	29668.78
739.744	29496.58
740.084	29614.32
740.424	29489.35
740.764	29465.17
741.104	29613.42
741.444	29315.12
741.784	29216.82
742.124	29310.6
742.464	29220.43
742.804	29279.87
743.143	29067.22
743.483	29135.91
743.823	29007.78
744.162	28913.55
744.502	29068.12
744.841	28945.64
745.181	29107.89
745.52	28849.82
745.86	28935.02
746.199	28737.06
746.538	28768.01
746.877	28667.45
747.216	28772.08
747.556	28590.84
747.895	28588.81
748.234	28523.95
748.573	28497.97
748.911	28455.71
749.25	28363.51
749.589	28339.78
749.928	28361.25
750.267	28332.77
750.605	28333.68
750.944	28261.14
751.283	28040.12
751.621	28158.54
751.96	27909.05
752.298	28066.56
752.636	28055.49
752.975	27809.62
753.313	27761.94
753.651	27886.68
753.989	27762.62
754.327	27608.95
754.666	27633.13
755.004	27639.68
755.342	27596.29
755.679	27560.14
756.017	27419.8
756.355	27447.82
756.693	27313.82
757.031	27317.88
