Data from hue_320_FLMS001491_74.txt Node
Date: Mon Feb 06 15:47:40 GMT 2017
User: dcchb
Spectrometer: FLMS00149
Trigger mode: 0
Integration Time (sec): 2.000000E-2
Scans to average: 10
Electric dark correction enabled: true
Nonlinearity correction enabled: false
Boxcar width: 0
XAxis mode: Wavelengths
Number of Pixels in Spectrum: 2048
>>>>>Begin Spectral Data<<<<<
341.393	-18.98
341.776	-18.98
342.16	-18.98
342.543	-80
342.927	-70.05
343.31	-68.7
343.693	-72.31
344.077	-83.84
344.46	-54.91
344.843	-49.26
345.226	-32.09
345.61	-34.8
345.993	-38.42
346.376	2.94
346.759	15.14
347.142	35.71
347.525	51.98
347.908	62.15
348.291	69.6
348.674	88.36
349.057	108.47
349.44	119.32
349.823	132.65
350.206	143.27
350.588	203.38
350.971	208.13
351.354	208.36
351.737	237.06
352.119	242.93
352.502	243.16
352.884	267.56
353.267	275.92
353.65	297.85
354.032	296.04
354.414	286.32
354.797	310.95
355.179	309.6
355.562	316.15
355.944	308.69
356.326	317.51
356.709	317.51
357.091	341.23
357.473	345.75
357.855	333.32
358.238	326.09
358.62	332.42
359.002	332.87
359.384	328.8
359.766	317.51
360.148	336.26
360.53	328.35
360.912	323.83
361.294	319.54
361.676	305.75
362.057	347.79
362.439	318.41
362.821	320.22
363.203	314.34
363.584	344.62
363.966	314.34
364.348	304.85
364.729	297.85
365.111	309.37
365.493	323.83
365.874	318.64
366.256	315.25
366.637	310.95
367.019	306.43
367.4	318.41
367.781	291.74
368.163	307.11
368.544	277.05
368.925	304.4
369.306	298.98
369.688	298.07
370.069	298.07
370.45	311.18
370.831	305.98
371.212	311.63
371.593	300.33
371.974	320.67
372.355	300.78
372.736	316.15
373.117	298.3
373.498	303.04
373.879	314.79
374.26	320.22
374.641	275.47
375.021	301.01
375.402	313.89
375.783	319.31
376.163	321.8
376.544	306.88
376.925	320.44
377.305	313.44
377.686	328.35
378.066	333.1
378.447	317.51
378.827	311.63
379.208	316.83
379.588	323.83
379.968	302.59
380.349	330.39
380.729	323.38
381.109	317.96
381.489	317.73
381.87	341.91
382.25	314.34
382.63	342.59
383.01	327
383.39	325.42
383.77	328.8
384.15	333.78
384.53	324.29
384.91	324.06
385.29	334.91
385.67	338.97
386.049	329.03
386.429	323.38
386.809	335.13
387.189	353.21
387.568	361.8
387.948	341.91
388.328	336.94
388.707	331.97
389.087	342.82
389.466	333.32
389.846	346.88
390.225	335.13
390.605	351.4
390.984	351.86
391.363	352.31
391.743	350.27
392.122	363.38
392.501	349.14
392.881	368.8
393.26	372.87
393.639	349.82
394.018	381.46
394.397	355.02
394.776	371.52
395.155	367.45
395.534	388.24
395.913	361.8
396.292	378.52
396.671	372.19
397.05	377.62
397.429	371.74
397.808	374.91
398.186	374.45
398.565	373.55
398.944	374
399.323	385.75
399.701	411.97
400.08	359.31
400.458	375.58
400.837	398.86
401.215	381.23
401.594	408.35
401.972	390.5
402.351	400.22
402.729	410.38
403.107	396.6
403.486	400.22
403.864	401.8
404.242	413.1
404.62	414
404.999	394.11
405.377	414.68
405.755	421.91
406.133	412.87
406.511	428.69
406.889	429.59
407.267	420.1
407.645	434.56
408.023	422.36
408.401	423.94
408.779	445.64
409.156	441.8
409.534	459.65
409.912	475.47
410.29	458.75
410.667	475.24
411.045	463.72
411.422	464.62
411.8	489.7
412.178	474.34
412.555	483.6
412.933	491.29
413.31	502.36
413.687	514.34
414.065	520.66
414.442	522.02
414.819	506.88
415.197	525.86
415.574	535.35
415.951	536.26
416.328	533.09
416.705	557.27
417.082	556.37
417.46	545.75
417.837	584.17
418.214	588.69
418.591	566.31
418.967	569.93
419.344	578.29
419.721	595.01
420.098	603.6
420.475	606.99
420.852	613.09
421.228	621.9
421.605	625.29
421.982	633.43
422.358	652.41
422.735	645.86
423.111	644.05
423.488	653.99
423.864	676.59
424.241	669.13
424.617	654.67
424.994	690.15
425.37	694.22
425.746	674.11
426.123	702.81
426.499	697.83
426.875	686.08
427.251	715.01
427.627	725.18
428.003	731.28
428.379	725.86
428.756	767.89
429.132	747.78
429.507	785.52
429.883	797.27
430.259	777.15
430.635	801.79
431.011	786.42
431.387	828
431.763	809.47
432.138	799.3
432.514	828.45
432.89	839.75
433.265	828.68
433.641	867.77
434.016	836.36
434.392	857.6
434.767	868.9
435.143	883.14
435.518	889.69
435.894	892.18
436.269	909.13
436.644	897.38
437.02	917.49
437.395	941.44
437.77	921.78
438.145	947.09
438.52	969.24
438.895	976.92
439.271	976.02
439.646	995.68
440.021	995.45
440.395	997.04
440.77	982.35
441.145	1028.9
441.52	1012.18
441.895	1018.5
442.27	1013.31
442.645	1001.33
443.019	1018.28
443.394	1024.61
443.769	1043.36
444.143	1045.85
444.518	1059.41
444.892	1048.33
445.267	1057.37
445.641	1032.29
446.016	1083.59
446.39	1058.96
446.764	1076.13
447.139	1061.44
447.513	1087.2
447.887	1068.9
448.262	1053.76
448.636	1061.67
449.01	1099.18
449.384	1102.57
449.758	1080.65
450.132	1110.25
450.506	1091.5
450.88	1127.88
451.254	1110.93
451.628	1156.35
452.002	1136.92
452.376	1136.02
452.75	1148.67
453.123	1156.35
453.497	1164.72
453.871	1139.63
454.244	1178.5
454.618	1198.61
454.992	1216.92
455.365	1206.07
455.739	1230.7
456.112	1226.86
456.486	1211.49
456.859	1251.94
457.232	1270.7
457.606	1258.5
457.979	1255.33
458.352	1289.01
458.725	1289.01
459.099	1286.75
459.472	1295.33
459.845	1308.89
460.218	1345.73
460.591	1310.7
460.964	1345.28
461.337	1348.89
461.71	1363.13
462.083	1387.76
462.456	1397.25
462.829	1391.38
463.201	1396.35
463.574	1415.78
463.947	1408.1
464.32	1440.64
464.692	1467.76
465.065	1467.76
465.438	1472.73
465.81	1488.55
466.183	1485.16
466.555	1518.6
466.928	1495.1
467.3	1526.74
467.672	1554.08
468.045	1559.06
468.417	1536.23
468.789	1568.09
469.161	1565.61
469.534	1577.59
469.906	1606.51
470.278	1627.3
470.65	1641.76
471.022	1671.82
471.394	1667.07
471.766	1678.83
472.138	1682.89
472.51	1722.21
472.882	1711.82
473.253	1768.77
473.625	1793.63
473.997	1828.88
474.369	1812.83
474.74	1817.35
475.112	1856.22
475.484	1848.76
475.855	1891.02
476.227	1915.43
476.598	1914.75
476.97	1935.09
477.341	1973.73
477.713	2010.79
478.084	2019.61
478.455	2049.66
478.827	2031.81
479.198	2120.17
479.569	2101.41
479.94	2144.8
480.311	2149.1
480.682	2207.17
481.053	2277.23
481.424	2265.93
481.795	2279.49
482.166	2285.82
482.537	2328.07
482.908	2334.85
483.279	2389.09
483.65	2379.15
484.021	2453.49
484.391	2488.75
484.762	2482.42
485.133	2502.08
485.503	2529.43
485.874	2525.13
486.244	2552.93
486.615	2617.56
486.985	2632.7
487.356	2686.03
487.726	2703.21
488.097	2708.4
488.467	2712.47
488.837	2746.82
489.207	2764.45
489.578	2775.07
489.948	2811.45
490.318	2848.06
490.688	2832.92
491.058	2888.51
491.428	2916.53
491.798	2980.94
492.168	2995.63
492.538	3005.57
492.908	3030.43
493.278	3061.61
493.648	3055.51
494.017	3035.4
494.387	3116.75
494.757	3127.38
495.126	3130.99
495.496	3128.51
495.866	3198.56
496.235	3210.76
496.605	3212.12
496.974	3219.8
497.344	3259.35
497.713	3267.26
498.082	3281.04
498.452	3324.88
498.821	3318.1
499.19	3320.59
499.559	3363.08
499.928	3340.93
500.298	3399.01
500.667	3398.55
501.036	3375.28
501.405	3390.42
501.774	3416.41
502.143	3466.35
502.512	3456.41
502.88	3441.94
503.249	3474.71
503.618	3488.95
503.987	3478.33
504.356	3519.91
504.724	3541.38
505.093	3490.76
505.462	3532.11
505.83	3563.07
506.199	3599.91
506.567	3638.1
506.936	3623.41
507.304	3640.13
507.672	3656.4
508.041	3683.52
508.409	3665.89
508.777	3717.87
509.145	3718.55
509.514	3727.59
509.882	3711.99
510.25	3703.41
510.618	3753.8
510.986	3774.82
511.354	3745.44
511.722	3810.3
512.09	3779.79
512.458	3799
512.826	3824.31
513.193	3798.32
513.561	3810.75
513.929	3853.23
514.297	3861.59
514.664	3859.79
515.032	3886.9
515.4	3915.6
515.767	3938.43
516.135	3939.56
516.502	3877.64
516.869	3982.95
517.237	3951.08
517.604	3895.94
517.972	3973.91
518.339	3968.26
518.706	3993.34
519.073	3955.83
519.44	4004.64
519.808	4055.26
520.175	4011.87
520.542	4051.87
520.909	4080.12
521.276	4049.84
521.643	4061.14
522.009	4118.99
522.376	4106.78
522.743	4137.29
523.11	4144.52
523.477	4163.51
523.843	4179.1
524.21	4180.23
524.577	4247.8
524.943	4220.91
525.31	4243.05
525.676	4311.75
526.043	4330.06
526.409	4324.18
526.776	4347.46
527.142	4377.96
527.508	4449.15
527.874	4423.61
528.241	4421.8
528.607	4452.76
528.973	4428.13
529.339	4457.06
529.705	4525.08
530.071	4551.07
530.437	4582.7
530.803	4542.71
531.169	4592.42
531.535	4581.57
531.901	4590.16
532.267	4620.67
532.632	4638.52
532.998	4682.81
533.364	4662.25
533.73	4686.43
534.095	4766.43
534.461	4750.61
534.826	4771.17
535.192	4801.91
535.557	4779.99
535.923	4873.54
536.288	4858.86
536.653	4912.19
537.019	4882.36
537.384	4868.35
537.749	4864.28
538.114	4940.21
538.479	4904.96
538.845	5005.74
539.21	4927.33
539.575	4968.91
539.94	4977.27
540.305	5038.51
540.67	5058.62
541.034	5031.96
541.399	5113.76
541.764	5082.58
542.129	5148.11
542.494	5158.73
542.858	5212.07
543.223	5172.75
543.587	5223.59
543.952	5179.98
544.316	5270.6
544.681	5289.8
545.045	5316.92
545.41	5355.57
545.774	5334.77
546.138	5366.41
546.503	5392.63
546.867	5435.56
547.231	5489.57
547.595	5471.04
547.959	5481.21
548.324	5477.14
548.688	5521.66
549.052	5550.81
549.416	5534.77
549.779	5581.55
550.143	5575.67
550.507	5632.39
550.871	5602.56
551.235	5581.32
551.599	5662.68
551.962	5661.09
552.326	5675.33
552.689	5706.52
553.053	5667.87
553.417	5720.3
553.78	5764.37
554.143	5753.97
554.507	5801.2
554.87	5794.42
555.234	5833.97
555.597	5813.63
555.96	5845.5
556.323	5889.56
556.686	5820.19
557.05	5843.69
557.413	5921.65
557.776	5941.99
558.139	5938.15
558.502	5996.45
558.865	5971.82
559.228	6006.62
559.59	6041.2
559.953	5998.03
560.316	6095.88
560.679	6085.94
561.041	6160.52
561.404	6179.27
561.767	6169.56
562.129	6164.81
562.492	6170.91
562.854	6253.39
563.217	6182.21
563.579	6216.33
563.941	6267.63
564.304	6255.88
564.666	6283.22
565.028	6301.53
565.39	6320.06
565.753	6387.18
566.115	6429.89
566.477	6427.4
566.839	6408.19
567.201	6486.16
567.563	6465.14
567.925	6530.68
568.287	6479.83
568.648	6600.28
569.01	6663.78
569.372	6628.98
569.734	6598.02
570.095	6657
570.457	6652.03
570.819	6680.95
571.18	6709.88
571.542	6759.6
571.903	6834.17
572.265	6860.16
572.626	6869.2
572.987	6875.53
573.349	6954.62
573.71	6978.12
574.071	7067.16
574.432	7083.66
574.794	7115.75
575.155	7155.97
575.516	7216.08
575.877	7288.62
576.238	7336.53
576.599	7412.91
576.96	7447.49
577.32	7471.67
577.681	7574.26
578.042	7699.91
578.403	7708.5
578.763	7836.18
579.124	7933.58
579.485	7972.45
579.845	8084.99
580.206	8153.01
580.566	8247.92
580.927	8384.41
581.287	8508.02
581.648	8600.23
582.008	8748.47
582.368	8872.08
582.728	9037.5
583.089	9101.23
583.449	9346.87
583.809	9448.34
584.169	9628.67
584.529	9790.48
584.889	10013.3
585.249	10093.07
585.609	10207.42
585.969	10529.89
586.329	10654.86
586.688	10847.17
587.048	11010.56
587.408	11281.29
587.768	11502.52
588.127	11734.83
588.487	11919.69
588.846	12173.69
589.206	12401.48
589.565	12622.04
589.925	12956.04
590.284	13078.53
590.643	13394.9
591.003	13615.46
591.362	13988.78
591.721	14186.52
592.08	14472.61
592.44	14775.66
592.799	14970.23
593.158	15291.8
593.517	15523.66
593.876	15768.4
594.235	15995.29
594.593	16336.75
594.952	16634.14
595.311	16921.81
595.67	17186.21
596.029	17610.38
596.387	17871.17
596.746	18223.02
597.104	18358.61
597.463	18712.95
597.822	18982.33
598.18	19243.11
598.538	19480.84
598.897	19836.54
599.255	20023.65
599.613	20585.22
599.972	20766.46
600.33	21020.69
600.688	21364.18
601.046	21683.95
601.404	21904.73
601.762	22061.11
602.12	22424.72
602.478	22692.96
602.836	23023.12
603.194	23158.94
603.552	23486.39
603.91	23651.58
604.268	23998.47
604.625	24268.06
604.983	24543.08
605.341	24659.24
605.698	25012
606.056	25330.63
606.413	25485.66
606.771	25769.04
607.128	25925.42
607.485	26113.21
607.843	26403.37
608.2	26776.02
608.557	26968.33
608.914	26964.94
609.272	27347.76
609.629	27547.52
609.986	28026.61
610.343	27953.84
610.7	28349.54
611.057	28496.43
611.414	28541.17
611.771	28813.71
612.127	29129.63
612.484	29187.03
612.841	29492.56
613.198	29515.38
613.554	29682.61
613.911	30097.74
614.267	30095.48
614.624	30342.48
614.98	30535.92
615.337	30759.42
615.693	30874.67
616.05	30944.5
616.406	31382
616.762	31276.92
617.118	31327.76
617.475	31487.99
617.831	31810.46
618.187	31957.8
618.543	32104.47
618.899	32292.94
619.255	32479.6
619.611	32492.48
619.967	32679.59
620.323	32802.53
620.678	32894.73
621.034	32858.8
621.39	33181.95
621.746	33124.33
622.101	33545.78
622.457	33437.54
622.812	33561.6
623.168	33682.05
623.523	33840.47
623.879	33910.29
624.234	33740.58
624.589	34005.66
624.945	34087.01
625.3	34343.96
625.655	34295.6
626.01	34402.03
626.365	34495.59
626.72	34416.72
627.075	34498.08
627.43	34662.14
627.785	34633.67
628.14	34651.29
628.495	34911.4
628.85	34885.86
629.205	34774.68
629.559	35064.61
629.914	34857.16
630.269	35107.33
630.623	34983.03
630.978	34997.5
631.332	35168.79
631.687	35217.15
632.041	35046.31
632.396	35275.91
632.75	35190.26
633.104	35374.21
633.459	35150.71
633.813	35332.63
634.167	35197.27
634.521	35307.77
634.875	35451.27
635.229	35282.69
635.583	35262.12
635.937	35308.68
636.291	35282.69
636.645	35384.61
636.999	35159.08
637.352	35451.05
637.706	35232.52
638.06	35369.24
638.413	35270.49
638.767	35296.7
639.121	35370.6
639.474	35242.24
639.828	35172.18
640.181	35221.9
640.534	35348.22
640.888	35149.36
641.241	35146.42
641.594	35134.22
641.947	35318.85
642.301	35203.59
642.654	35317.04
643.007	35259.86
643.36	35229.13
643.713	35194.55
644.066	35346.64
644.419	35130.6
644.771	34871.17
645.124	34617.39
645.477	34664.85
645.83	34495.59
646.182	34240.46
646.535	34109.16
646.888	34322.94
647.24	34156.39
647.593	34238.65
647.945	34302.6
648.298	34181.7
648.65	34236.84
649.002	34061.25
649.355	34185.77
649.707	34062.16
650.059	34271.64
650.411	34643.16
650.763	34662.14
651.115	34950.04
651.467	34939.42
651.819	34904.17
652.171	34802.93
652.523	34837.95
652.875	34802.25
653.227	34699.2
653.578	35037.95
653.93	34859.42
654.282	34796.37
654.633	34677.73
654.985	34705.75
655.337	34685.19
655.688	34757.73
656.039	34895.13
656.391	34614.46
656.742	34465.31
657.094	34569.26
657.445	34755.24
657.796	34675.7
658.147	34694.91
658.498	34641.35
658.849	34697.62
659.2	34605.64
659.551	34497.17
659.902	34695.58
660.253	34612.42
660.604	34588.47
660.955	34420.79
661.306	34664.4
661.656	34602.03
662.007	34490.17
662.358	34491.97
662.708	34473.9
663.059	34614.91
663.409	34398.87
663.76	34549.37
664.11	34522.03
664.461	34554.8
664.811	34620.78
665.161	34569.03
665.511	34533.78
665.862	34514.12
666.212	34658.75
666.562	34561.8
666.912	34532.88
667.262	34468.92
667.612	34461.47
667.962	34575.59
668.312	34563.84
668.662	34675.02
669.011	34399.32
669.361	34360
669.711	34415.37
670.06	34449.26
670.41	34363.39
670.76	34329.27
671.109	34552.09
671.459	34309.83
671.808	34390.51
672.157	34357.29
672.507	34226.22
672.856	34139.44
673.205	34296.95
673.554	34538.98
673.904	34258.08
674.253	34315.71
674.602	34274.35
674.951	33867.36
675.3	33686.12
675.649	34212.43
675.998	34094.24
676.346	34191.64
676.695	34364.52
677.044	33947.81
677.393	34061.48
677.741	34131.08
678.09	34104.41
678.438	33891.54
678.787	34103.96
679.135	34000.01
679.484	33807.92
679.832	33990.29
680.181	33763.41
680.529	33893.35
680.877	33694.48
681.225	33746.23
681.573	33936.73
681.922	33731.54
682.27	33609.96
682.618	33655.16
682.966	33500.36
683.314	33575.39
683.661	33453.36
684.009	33395.73
684.357	33362.29
684.705	33266.24
685.053	33355.73
685.4	33272.8
685.748	33135.4
686.095	33126.59
686.443	32956.65
686.79	32917.33
687.138	32954.84
687.485	33010.66
687.832	32853.83
688.18	33092.24
688.527	32799.14
688.874	32733.83
689.221	32688.18
689.568	32539.03
689.915	32567.73
690.262	32513.27
690.609	32346.27
690.956	32419.49
691.303	32230.11
691.65	31988.31
691.997	32071.02
692.344	31886.39
692.69	31803.91
693.037	31743.57
693.383	31676
693.73	31819.05
694.077	31734.31
694.423	31600.53
694.769	31496.8
695.116	31486.63
695.462	31460.87
695.808	31274.88
696.155	31332.28
696.501	31058.17
696.847	31048
697.193	30923.93
697.539	31060.88
697.885	30761
698.231	30696.14
698.577	30689.14
698.923	30636.03
699.269	30526.88
699.614	30445.53
699.96	30258.19
700.306	30350.61
700.651	30224.29
700.997	30057.06
701.342	30055.25
701.688	29990.17
702.033	29942.04
702.379	29924.41
702.724	29770.74
703.069	29693
703.415	29422.28
703.76	29577.98
704.105	29481.94
704.45	29508.15
704.795	29397.19
705.14	29259.12
705.485	29239.23
705.83	29157.43
706.175	29096.18
706.52	29087.6
706.865	28961.5
707.209	28946.36
707.554	28851.9
707.899	28962.18
708.243	28691.22
708.588	28768.74
708.932	28511.34
709.277	28570.32
709.621	28568.74
709.966	28368.07
710.31	28331.91
710.654	28313.61
710.998	28232.7
711.342	28203.55
711.687	28167.62
712.031	28071.35
712.375	27839.95
712.719	27953.84
713.063	27904.13
713.407	28058.47
713.75	27747.07
714.094	27777.8
714.438	27646.73
714.782	27758.37
715.125	27657.58
715.469	27555.43
715.812	27425.72
716.156	27191.83
716.499	27449.22
716.843	27358.83
717.186	27286.06
717.53	27368.09
717.873	27225.95
718.216	27238.15
718.559	27161.77
718.902	27016.46
719.246	27084.71
719.589	26940.99
719.932	26784.83
720.275	26787.77
720.617	26786.41
720.96	26688.11
721.303	26789.35
721.646	26776.7
721.989	26555.91
722.331	26690.15
722.674	26541
723.016	26501.22
723.359	26429.36
723.701	26506.87
724.044	26305.52
724.386	26204.28
724.729	26317.05
725.071	26355.01
725.413	26209.25
725.755	26166.77
726.097	26087
726.439	25879.55
726.782	25950.05
727.124	26035.93
727.465	25921.13
727.807	25840
728.149	25885.2
728.491	25770.4
728.833	25832.09
729.175	25714.13
729.516	25634.13
729.858	25668.93
730.199	25643.17
730.541	25595.03
730.882	25575.6
731.224	25647.69
731.565	25492.44
731.906	25410.18
732.248	25477.97
732.589	25184.42
732.93	25257.87
733.271	25299.22
733.612	25258.32
733.953	25345.77
734.294	25206.12
734.635	24996.18
734.976	25075.72
735.317	24957.54
735.658	24965.22
735.999	25030.3
736.339	24949.4
736.68	25059.23
737.021	24887.03
737.361	24818.1
737.702	24955.5
738.042	24874.83
738.383	24760.48
738.723	24812.23
739.063	24731.78
739.404	24847.93
739.744	24714.83
740.084	24605
740.424	24605.23
740.764	24653.36
741.104	24642.06
741.444	24517.77
741.784	24372.47
742.124	24417.21
742.464	24394.39
742.804	24259.02
743.143	24355.52
743.483	24337.89
743.823	24154.62
744.162	24190.78
744.502	24225.13
744.841	24107.39
745.181	24304.45
745.52	24097.22
745.86	24078.01
746.199	24129.31
746.538	23943.78
746.877	24021.97
747.216	24057.67
747.556	23838.92
747.895	23930.44
748.234	23697.68
748.573	23686.38
748.911	23687.51
749.25	23687.06
749.589	23588.98
749.928	23575.2
750.267	23646.16
750.605	23443.9
750.944	23567.06
751.283	23399.38
751.621	23428.54
751.96	23221.99
752.298	23350.35
752.636	23273.51
752.975	23221.31
753.313	23125.49
753.651	23215.66
753.989	23120.3
754.327	23016.57
754.666	22916.46
755.004	23041.43
755.342	22916.91
755.679	22843.69
756.017	22726.63
756.355	22749.68
756.693	22629.46
757.031	22745.62
757.368	22634.89
757.706	22510.14
758.044	22443.93
758.381	22538.39
758.719	22413.65
759.056	22454.32
759.394	22254.33
759.731	22207.33
760.068	22190.38
760.405	22134.11
760.743	21883.72
