Data from hue_240_FLMS001491_00016.txt Node
Date: Tue Feb 07 16:35:07 GMT 2017
User: dcchb
Spectrometer: FLMS00149
Trigger mode: 0
Integration Time (sec): 2.000000E-2
Scans to average: 10
Electric dark correction enabled: true
Nonlinearity correction enabled: false
Boxcar width: 0
XAxis mode: Wavelengths
Number of Pixels in Spectrum: 2048
>>>>>Begin Spectral Data<<<<<
341.393	-15.76
341.776	-15.76
342.16	-15.76
342.543	-53.05
342.927	-63.22
343.31	-69.32
343.693	-80.62
344.077	-58.93
344.46	-59.6
344.843	-60.51
345.226	-54.18
345.61	-24.35
345.993	-11.47
346.376	-8.3
346.759	5.71
347.142	43.9
347.525	64.69
347.908	62.65
348.291	61.75
348.674	86.38
349.057	102.2
349.44	137
349.823	155.76
350.206	170.22
350.588	180.84
350.971	211.12
351.354	209.54
351.737	253.38
352.119	223.55
352.502	268.98
352.884	261.74
353.267	271.69
353.65	275.76
354.032	292.25
354.414	283.89
354.797	319.14
355.179	323.66
355.562	329.54
355.944	311.91
356.326	321.18
356.709	316.43
357.091	331.57
357.473	335.41
357.855	351.69
358.238	337.67
358.62	310.1
359.002	335.19
359.384	317.34
359.766	321.63
360.148	349.88
360.53	327.28
360.912	322.31
361.294	331.35
361.676	337.22
362.057	337
362.439	317.79
362.821	329.31
363.203	327.05
363.584	288.86
363.966	338.35
364.348	328.41
364.729	325.47
365.111	330.22
365.493	301.07
365.874	308.3
366.256	318.47
366.637	307.39
367.019	314.85
367.4	311.01
367.781	294.06
368.163	303.33
368.544	306.04
368.925	309.43
369.306	310.56
369.688	313.95
370.069	302.2
370.45	301.97
370.831	299.94
371.212	276.21
371.593	302.65
371.974	308.52
372.355	291.8
372.736	303.1
373.117	321.63
373.498	326.6
373.879	291.57
374.26	307.62
374.641	307.17
375.021	293.16
375.402	310.1
375.783	320.95
376.163	320.95
376.544	298.81
376.925	310.33
377.305	336.54
377.686	356.43
378.066	306.94
378.447	330.67
378.827	327.05
379.208	310.78
379.588	299.71
379.968	329.99
380.349	344.23
380.729	329.54
381.109	340.61
381.489	332.93
381.87	317.11
382.25	326.38
382.63	351.46
383.01	358.24
383.39	351.69
383.77	344.91
384.15	326.83
384.53	339.03
384.91	342.42
385.29	356.21
385.67	328.18
386.049	352.14
386.429	351.69
386.809	353.27
387.189	341.06
387.568	350.78
387.948	370.22
388.328	344.45
388.707	375.87
389.087	357.34
389.466	367.05
389.846	351.46
390.225	366.6
390.605	353.04
390.984	360.95
391.363	385.81
391.743	370.44
392.122	360.72
392.501	387.39
392.881	356.43
393.26	386.04
393.639	377.22
394.018	393.49
394.397	374.74
394.776	368.63
395.155	377.9
395.534	386.04
395.913	386.26
396.292	384.68
396.671	383.78
397.05	381.97
397.429	377.9
397.808	385.81
398.186	389.88
398.565	380.16
398.944	387.16
399.323	398.46
399.701	413.6
400.08	400.5
400.458	405.47
400.837	402.31
401.215	416.09
401.594	431.46
401.972	412.7
402.351	418.8
402.729	435.07
403.107	430.55
403.486	419.03
403.864	409.31
404.242	437.33
404.62	447.73
404.999	436.43
405.377	433.94
405.755	439.59
406.133	450.67
406.511	454.28
406.889	460.84
407.267	470.78
407.645	462.19
408.023	470.33
408.401	477.33
408.779	497.22
409.156	463.55
409.534	480.5
409.912	495.41
410.29	492.92
410.667	502.87
411.045	495.64
411.422	513.94
411.8	504
412.178	521.85
412.555	534.96
412.933	517.56
413.31	549.87
413.687	542.42
414.065	545.8
414.442	553.71
414.819	558.01
415.197	574.73
415.574	590.78
415.951	574.96
416.328	600.94
416.705	616.99
417.082	601.62
417.46	613.15
417.837	606.37
418.214	646.59
418.591	635.29
418.967	624.67
419.344	645.46
419.721	642.75
420.098	637.33
420.475	664.22
420.852	657.67
421.228	641.62
421.605	677.78
421.982	669.87
422.358	692.92
422.735	716.42
423.111	731.79
423.488	690.89
423.864	711.22
424.241	739.92
424.617	750.55
424.994	763.2
425.37	772.69
425.746	774.05
426.123	786.48
426.499	780.15
426.875	789.87
427.251	794.61
427.627	814.95
428.003	818.57
428.379	860.37
428.756	851.56
429.132	848.62
429.507	838.9
429.883	864.89
430.259	865.34
430.635	889.07
431.011	897.66
431.387	892.01
431.763	922.07
432.138	932.91
432.514	946.25
432.89	947.6
433.265	950.77
433.641	986.7
434.016	990.99
434.392	1021.05
434.767	1031.89
435.143	1047.49
435.518	1060.14
435.894	1053.36
436.269	1090.65
436.644	1082.06
437.02	1091.33
437.395	1125
437.77	1134.94
438.145	1163.42
438.52	1165.9
438.895	1159.12
439.271	1194.6
439.646	1209.74
440.021	1199.8
440.395	1222.85
440.77	1222.4
441.145	1229.4
441.52	1276.86
441.895	1268.72
442.27	1288.38
442.645	1295.39
443.019	1296.52
443.394	1299.68
443.769	1332.45
444.143	1324.32
444.518	1333.35
444.892	1358.66
445.267	1373.81
445.641	1384.2
446.016	1386.01
446.39	1373.58
446.764	1374.03
447.139	1381.72
447.513	1426.69
447.887	1422.62
448.262	1435.72
448.636	1434.6
449.01	1477.31
449.384	1477.53
449.758	1473.46
450.132	1527.7
450.506	1508.72
450.88	1495.84
451.254	1480.24
451.628	1538.77
452.002	1541.03
452.376	1550.3
452.75	1580.58
453.123	1603.86
453.497	1597.75
453.871	1604.99
454.244	1636.17
454.618	1679.11
454.992	1668.26
455.365	1687.24
455.739	1727.02
456.112	1722.05
456.486	1737.41
456.859	1734.7
457.232	1778.77
457.606	1745.1
457.979	1791.42
458.352	1871.65
458.725	1846.56
459.099	1863.96
459.472	1879.56
459.845	1933.56
460.218	1913.45
460.591	1917.97
460.964	1940.34
461.337	1957.29
461.71	2018.31
462.083	2057.63
462.456	2052.88
462.829	2051.75
463.201	2086.1
463.574	2125.88
463.947	2110.96
464.32	2137.18
464.692	2141.7
465.065	2180.56
465.438	2180.34
465.81	2196.83
466.183	2248.58
466.555	2296.49
466.928	2282.03
467.3	2323.61
467.672	2313.22
468.045	2398.19
468.417	2407.68
468.789	2425.98
469.161	2444.06
469.534	2480.22
469.906	2515.47
470.278	2557.73
470.65	2574.9
471.022	2571.06
471.394	2638.86
471.766	2660.78
472.138	2709.82
472.51	2746.88
472.882	2790.72
473.253	2780.77
473.625	2849.25
473.997	2901.9
474.369	2915.23
474.74	2964.72
475.112	3000.2
475.484	3051.5
475.855	3074.1
476.227	3128.34
476.598	3181.67
476.97	3181.89
477.341	3272.29
477.713	3288.56
478.084	3291.95
478.455	3383.47
478.827	3430.47
479.198	3508.44
479.569	3472.06
479.94	3540.08
480.311	3609.68
480.682	3675.67
481.053	3788.43
481.424	3754.31
481.795	3818.26
482.166	3912.5
482.537	3899.61
482.908	4001.31
483.279	3961.99
483.65	4098.93
484.021	4140.74
484.391	4210.57
484.762	4231.13
485.133	4242.2
485.503	4285.14
485.874	4368.3
486.244	4404.46
486.615	4451.24
486.985	4591.8
487.356	4570.11
487.726	4655.08
488.097	4681.06
488.467	4713.83
488.837	4784.56
489.207	4852.36
489.578	4847.61
489.948	4938.68
490.318	5040.38
490.688	5039.92
491.058	5094.84
491.428	5156.08
491.798	5178.45
492.168	5289.41
492.538	5304.55
492.908	5412.8
493.278	5377.09
493.648	5403.53
494.017	5461.61
494.387	5511.1
494.757	5494.15
495.126	5552.45
495.496	5556.97
495.866	5587.03
496.235	5673.13
496.605	5737.53
496.974	5769.85
497.344	5791.77
497.713	5813.91
498.082	5869.96
498.452	5917.42
498.821	5963.74
499.19	5931.65
499.559	5968.04
499.928	6040.12
500.298	6044.19
500.667	6100.69
501.036	6046.45
501.405	6137.52
501.774	6143.85
502.143	6139.78
502.512	6218.2
502.88	6248.48
503.249	6241.47
503.618	6243.96
503.987	6298.65
504.356	6335.48
504.724	6316.73
505.093	6359.21
505.462	6398.53
505.83	6449.83
506.199	6429.27
506.567	6453.9
506.936	6549.04
507.304	6532.77
507.672	6521.69
508.041	6576.38
508.409	6644.18
508.777	6587.45
509.145	6678.52
509.514	6727.11
509.882	6639.43
510.25	6711.29
510.618	6708.13
510.986	6770.5
511.354	6773.89
511.722	6847.11
512.09	6864.73
512.458	6828.13
512.826	6892.76
513.193	6914.9
513.561	6907.45
513.929	6902.47
514.297	7031.51
514.664	6988.35
515.032	7045.75
515.4	7065.41
515.767	7097.05
516.135	7096.82
516.502	7091.4
516.869	7175.01
517.237	7120.1
517.604	7109.93
517.972	7170.26
518.339	7171.85
518.706	7232.63
519.073	7147.67
519.44	7231.96
519.808	7300.2
520.175	7248.68
520.542	7329.36
520.909	7317.15
521.276	7334.33
521.643	7365.74
522.009	7353.54
522.376	7403.93
522.743	7430.6
523.11	7492.51
523.477	7554.43
523.843	7519.86
524.21	7536.36
524.577	7669.46
524.943	7655
525.31	7627.43
525.676	7676.46
526.043	7655.9
526.409	7745.84
526.776	7736.8
527.142	7749.23
527.508	7742.45
527.874	7829.91
528.241	7845.27
528.607	7791.49
528.973	7824.94
529.339	7814.99
529.705	7880.08
530.071	7935.67
530.437	7932.28
530.803	7938.38
531.169	7913.97
531.535	7947.19
531.901	7934.31
532.267	7999.17
532.632	8017.02
532.998	7991.94
533.364	7974.08
533.73	8014.31
534.095	8069.67
534.461	8052.5
534.826	7947.42
535.192	8032.84
535.557	8053.18
535.923	8010.47
536.288	8001.65
536.653	8079.84
537.019	7992.39
537.384	8038.94
537.749	8057.92
538.114	8085.49
538.479	7996.23
538.845	8066.06
539.21	8003.69
539.575	8076.91
539.94	8098.15
540.305	8077.13
540.67	8003.46
541.034	7958.27
541.399	7943.35
541.764	8037.13
542.129	8047.98
542.494	8008.43
542.858	8002.78
543.223	7981.77
543.587	8008.43
543.952	8008.43
544.316	7981.99
544.681	8023.12
545.045	8050.69
545.41	8007.98
545.774	8045.95
546.138	8072.84
546.503	8016.57
546.867	7953.97
547.231	7985.16
547.595	8006.63
547.959	8053.86
548.324	7971.82
548.688	7973.63
549.052	7984.48
549.416	8010.02
549.779	7997.13
550.143	8029.22
550.507	7972.05
550.871	7999.17
551.235	7988.1
551.599	8045.72
551.962	7972.28
552.326	8022.9
552.689	8035.55
553.053	7969.11
553.417	7937.47
553.78	8042.78
554.143	8021.31
554.507	8074.19
554.87	8065.38
555.234	8099.96
555.597	8043.46
555.96	8042.56
556.323	8031.94
556.686	8043.01
557.05	8126.4
557.413	8097.47
557.776	8065.16
558.139	8084.59
558.502	8136.11
558.865	8081.65
559.228	8188.54
559.59	8126.62
559.953	8167.07
560.316	8214.76
560.679	8189.67
561.041	8253.62
561.404	8167.75
561.767	8254.53
562.129	8264.25
562.492	8288.2
562.854	8264.92
563.217	8309.67
563.579	8304.24
563.941	8418.37
564.304	8416.11
564.666	8457.01
565.028	8459.5
565.39	8451.13
565.753	8415.88
566.115	8469.44
566.477	8483.45
566.839	8501.98
567.201	8557.35
567.563	8505.82
567.925	8626.5
568.287	8564.58
568.648	8581.98
569.01	8675.08
569.372	8655.87
569.734	8634.86
570.095	8664.24
570.457	8721.18
570.819	8758.47
571.18	8726.61
571.542	8748.3
571.903	8788.98
572.265	8846.38
572.626	8781.52
572.987	8826.27
573.349	8844.57
573.71	8912.59
574.071	8941.52
574.432	8922.31
574.794	9014.51
575.155	8984.68
575.516	8921.86
575.877	8949.43
576.238	8981.29
576.599	9056.99
576.96	9026.26
577.32	9045.92
577.681	9045.47
578.042	9111
578.403	9112.59
578.763	9159.59
579.124	9089.31
579.485	9164.34
579.845	9202.53
580.206	9273.26
580.566	9222.86
580.927	9150.1
581.287	9271.45
581.648	9230.32
582.008	9265.12
582.368	9308.06
582.728	9394.16
583.089	9264.9
583.449	9290.43
583.809	9309.42
584.169	9339.92
584.529	9290.89
584.889	9442.29
585.249	9392.58
585.609	9405.46
585.969	9382.41
586.329	9403.2
586.688	9397.78
587.048	9391.22
587.408	9346.7
587.768	9402.52
588.127	9365.46
588.487	9388.28
588.846	9514.61
589.206	9430.09
589.565	9458.34
589.925	9513.93
590.284	9501.05
590.643	9477.77
591.003	9511.67
591.362	9491.11
591.721	9529.3
592.08	9556.19
592.44	9510.09
592.799	9571.1
593.158	9529.75
593.517	9562.74
593.876	9546.92
594.235	9625.57
594.593	9596.87
594.952	9593.02
595.311	9566.13
595.67	9622.4
596.029	9591.44
596.387	9594.15
596.746	9667.82
597.104	9654.27
597.463	9616.75
597.822	9652.68
598.18	9668.73
598.538	9569.3
598.897	9670.99
599.255	9688.16
599.613	9706.24
599.972	9664.89
600.33	9688.62
600.688	9649.52
601.046	9748.95
601.404	9805.9
601.762	9710.08
602.12	9721.61
602.478	9723.64
602.836	9736.98
603.194	9656.75
603.552	9670.31
603.91	9703.3
604.268	9782.62
604.625	9722.74
604.983	9725.68
605.341	9743.3
605.698	9771.55
606.056	9794.83
606.413	9774.94
606.771	9769.74
607.128	9815.17
607.485	9806.13
607.843	9734.49
608.2	9838.22
608.557	9852.9
608.914	9807.48
609.272	9866.46
609.629	9863.98
609.986	9939.23
610.343	9840.48
610.7	9936.52
611.057	9930.19
611.414	9927.25
611.771	9932.9
612.127	9964.99
612.484	9988.27
612.841	9974.94
613.198	9929.06
613.554	9996.86
613.911	10013.58
614.267	9966.12
614.624	9991.88
614.98	10007.7
615.337	10012.22
615.693	10021.26
616.05	10025.78
616.406	10054.03
616.762	10066.68
617.118	10009.74
617.475	10021.04
617.831	10084.76
618.187	10055.39
618.543	10110.98
618.899	10128.83
619.255	10104.88
619.611	10089.51
619.967	10131.54
620.323	10149.17
620.678	10111.66
621.034	10080.7
621.39	10047.48
621.746	10039.57
622.101	10159.56
622.457	10105.33
622.812	10113.01
623.168	10154.59
623.523	10135.61
623.879	10149.62
624.234	10121.37
624.589	10075.72
624.945	10143.97
625.3	10153.69
625.655	10073.69
626.01	10005.44
626.365	10131.54
626.72	10055.39
627.075	10058.55
627.43	10096.06
627.785	10077.76
628.14	10115.72
628.495	10069.62
628.85	10059.9
629.205	10078.66
629.559	10134.03
629.914	10035.5
630.269	10035.27
630.623	9938.33
630.978	10023.52
631.332	10017.65
631.687	10019.45
632.041	9960.02
632.396	10003.41
632.75	9928.38
633.104	9941.94
633.459	9923.41
633.813	9950.08
634.167	9971.09
634.521	9852
634.875	9917.08
635.229	9935.61
635.583	9841.15
635.937	9819.46
636.291	9852
636.645	9860.14
636.999	9847.71
637.352	9844.77
637.706	9793.02
638.06	9836.86
638.413	9806.58
638.767	9810.42
639.121	9736.98
639.474	9742.17
639.828	9706.92
640.181	9748.95
640.534	9697.88
640.888	9692.23
641.241	9730.65
641.594	9655.62
641.947	9743.08
642.301	9707.15
642.654	9692.68
643.007	9673.93
643.36	9646.58
643.713	9603.19
644.066	9642.06
644.419	9619.01
644.771	9541.5
645.124	9475.29
645.477	9412.24
645.83	9357.32
646.182	9328.62
646.535	9333.6
646.888	9321.17
647.24	9287.5
647.593	9406.14
647.945	9305.12
648.298	9240.72
648.65	9276.2
649.002	9196.2
649.355	9260.38
649.707	9271.68
650.059	9353.71
650.411	9426.02
650.763	9434.16
651.115	9547.15
651.467	9527.72
651.819	9475.06
652.171	9455.85
652.523	9446.14
652.875	9442.29
653.227	9418.11
653.578	9437.1
653.93	9401.84
654.282	9334.27
654.633	9426.48
654.985	9330.21
655.337	9344.44
655.688	9347.16
656.039	9449.75
656.391	9342.64
656.742	9320.26
657.094	9368.4
657.445	9441.84
657.796	9432.58
658.147	9444.33
658.498	9405.46
658.849	9403.88
659.2	9405.23
659.551	9388.28
659.902	9405.68
660.253	9445.23
660.604	9372.01
660.955	9387.83
661.306	9361.39
661.656	9410.43
662.007	9352.13
662.358	9374.27
662.708	9318.68
663.059	9379.7
663.409	9366.59
663.76	9385.12
664.11	9469.86
664.461	9333.6
664.811	9347.83
665.161	9419.92
665.511	9344.9
665.862	9365.46
666.212	9414.5
666.562	9403.2
666.912	9330.43
667.262	9368.17
667.612	9365.91
667.962	9351.22
668.312	9321.17
668.662	9447.94
669.011	9412.69
669.361	9422.41
669.711	9393.93
670.06	9322.3
670.41	9325.24
670.76	9258.8
671.109	9410.2
671.459	9298.57
671.808	9296.54
672.157	9381.28
672.507	9286.14
672.856	9241.85
673.205	9272.36
673.554	9332.01
673.904	9304.44
674.253	9341.05
674.602	9313.71
674.951	9193.04
675.3	9103.09
675.649	9253.82
675.998	9219.02
676.346	9237.78
676.695	9281.85
677.044	9160.27
677.393	9265.35
677.741	9216.76
678.09	9199.59
678.438	9180.15
678.787	9196.2
679.135	9172.92
679.484	9108.07
679.832	9169.76
680.181	9112.13
680.529	9124.56
680.877	9074.39
681.225	9093.15
681.573	9128.86
681.922	9016.99
682.27	9024.45
682.618	9062.42
682.966	9006.83
683.314	9074.17
683.661	8969.76
684.009	8987.62
684.357	8908.52
684.705	8886.38
685.053	8880.95
685.4	8861.52
685.748	8887.28
686.095	8792.14
686.443	8829.65
686.79	8778.36
687.138	8841.41
687.485	8768.19
687.832	8708.98
688.18	8741.97
688.527	8706.04
688.874	8673.05
689.221	8646.16
689.568	8553.28
689.915	8564.13
690.262	8595.76
690.609	8572.03
690.956	8549.21
691.303	8527.52
691.65	8535.88
691.997	8523.22
692.344	8445.94
692.69	8411.81
693.037	8411.81
693.383	8395.54
693.73	8384.92
694.077	8310.8
694.423	8299.73
694.769	8314.64
695.116	8259.5
695.462	8213.63
695.808	8220.18
696.155	8186.96
696.501	8174.3
696.847	8135.21
697.193	8130.69
697.539	8126.62
697.885	8040.98
698.231	7989.45
698.577	7983.35
698.923	7963.46
699.269	7919.62
699.614	7906.74
699.96	7868.78
700.306	7970.47
700.651	7897.25
700.997	7841.66
701.342	7797.82
701.688	7787.42
702.033	7770.02
702.379	7767.54
702.724	7712.4
703.069	7689.35
703.415	7633.53
703.76	7680.76
704.105	7659.74
704.45	7702.68
704.795	7525.28
705.14	7517.6
705.485	7509.46
705.83	7515.34
706.175	7497.94
706.52	7449.35
706.865	7411.84
707.209	7414.55
707.554	7400.54
707.899	7414.1
708.243	7346.98
708.588	7358.28
708.932	7309.02
709.277	7267.89
709.621	7273.99
709.966	7255.23
710.31	7228.57
710.654	7198.06
710.998	7226.53
711.342	7228.57
711.687	7200.32
712.031	7156.7
712.375	7128.68
712.719	7098.63
713.063	7128
713.407	7116.48
713.75	7083.71
714.094	7050.49
714.438	7090.72
714.782	7073.32
715.125	7032.41
715.469	7026.09
715.812	6985.64
716.156	7021.79
716.499	6941.34
716.843	6947.44
717.186	6928.24
717.53	6953.77
717.873	6919.87
718.216	6901.34
718.559	6944.96
718.902	6860.67
719.246	6848.01
719.589	6918.29
719.932	6815.47
720.275	6854.34
720.617	6830.16
720.96	6850.27
721.303	6807.34
721.646	6847.79
721.989	6814.57
722.331	6797.39
722.674	6771.63
723.016	6752.2
723.359	6755.36
723.701	6723.5
724.044	6722.59
724.386	6757.39
724.729	6719.2
725.071	6775.92
725.413	6739.99
725.755	6684.63
726.097	6661.12
726.439	6702.03
726.782	6692.54
727.124	6708.35
727.465	6681.69
727.807	6673.55
728.149	6663.61
728.491	6665.87
728.833	6640.56
729.175	6631.07
729.516	6637.85
729.858	6691.18
730.199	6594.23
730.541	6623.39
730.882	6643.72
731.224	6631.75
731.565	6603.27
731.906	6587.45
732.248	6689.6
732.589	6596.27
732.93	6593.33
733.271	6579.32
733.612	6556.49
733.953	6613.44
734.294	6605.98
734.635	6602.82
734.976	6580
735.317	6542.48
735.658	6636.94
735.999	6561.47
736.339	6553.78
736.68	6640.56
737.021	6580.45
737.361	6570.05
737.702	6608.7
738.042	6582.26
738.383	6565.99
738.723	6614.35
739.063	6544.07
739.404	6583.84
739.744	6578.64
740.084	6569.83
740.424	6625.64
740.764	6616.61
741.104	6598.98
741.444	6565.76
741.784	6623.84
742.124	6624.06
742.464	6676.27
742.804	6658.41
743.143	6649.37
743.483	6716.04
743.823	6605.31
744.162	6623.39
744.502	6631.97
744.841	6676.72
745.181	6734.34
745.52	6727.34
745.86	6756.26
746.199	6710.84
746.538	6733.89
746.877	6849.14
747.216	6851.63
747.556	6871.51
747.895	6867.67
748.234	6910.38
748.573	6963.04
748.911	6939.99
749.25	7031.96
749.589	7041.23
749.928	7021.79
750.267	7084.16
750.605	7120.1
750.944	7114.22
751.283	7196.25
751.621	7231.96
751.96	7235.8
752.298	7277.83
752.636	7367.55
752.975	7443.25
753.313	7471.27
753.651	7616.81
753.989	7592.63
754.327	7609.8
754.666	7730.93
755.004	7795.11
755.342	7835.1
755.679	7986.06
756.017	7989
756.355	8095.44
756.693	8184.02
757.031	8233.74
757.368	8267.18
757.706	8348.31
758.044	8398.03
758.381	8519.61
758.719	8575.42
759.056	8644.8
759.394	8726.38
759.731	8812.48
760.068	8900.39
760.405	9041.4
760.743	9104.22
761.08	9208.85
761.417	9303.77
761.754	9387.83
762.091	9427.15
762.428	9498.34
762.765	9525.23
763.102	9700.14
763.438	9784.88
763.775	9843.19
764.112	9967.03
764.449	10091.09
764.785	10092.67
765.122	10145.78
765.458	10256.06
765.795	10364.53
766.131	10412.89
766.467	10424.42
766.804	10546.22
767.14	10621.7
767.476	10655.14
767.812	10739.89
768.148	10797.06
768.485	10843.16
768.821	10882.93
