Data from hue_00_FLMS001491_37.txt Node
Date: Mon Feb 06 15:29:37 GMT 2017
User: dcchb
Spectrometer: FLMS00149
Trigger mode: 0
Integration Time (sec): 2.000000E-2
Scans to average: 10
Electric dark correction enabled: true
Nonlinearity correction enabled: false
Boxcar width: 0
XAxis mode: Wavelengths
Number of Pixels in Spectrum: 2048
>>>>>Begin Spectral Data<<<<<
341.393	-8.49
341.776	-8.49
342.16	-8.49
342.543	-48.94
342.927	-62.95
343.31	-86.23
343.693	-41.71
344.077	-71.09
344.46	-61.59
344.843	-42.16
345.226	-40.13
345.61	-38.54
345.993	-32.22
346.376	1.23
346.759	0.78
347.142	31.28
347.525	41.23
347.908	62.24
348.291	69.25
348.674	78.51
349.057	129.14
349.44	109.7
349.823	153.09
350.206	161.22
350.588	179.98
350.971	213.43
351.354	225.18
351.737	244.39
352.119	250.71
352.502	262.92
352.884	292.07
353.267	299.53
353.65	290.71
354.032	304.5
354.414	296.81
354.797	311.5
355.179	316.7
355.562	324.16
355.944	329.13
356.326	317.6
356.709	326.19
357.091	323.25
357.473	328.9
357.855	331.84
358.238	339.3
358.62	329.81
359.002	335.01
359.384	341.78
359.766	330.94
360.148	357.15
360.53	339.52
360.912	352.18
361.294	335.91
361.676	318.51
362.057	340.43
362.439	335.01
362.821	323.93
363.203	330.26
363.584	329.81
363.966	312.86
364.348	331.62
364.729	284.16
365.111	328.23
365.493	319.41
365.874	306.76
366.256	305.63
366.637	323.71
367.019	313.54
367.4	290.49
367.781	306.08
368.163	311.96
368.544	297.27
368.925	299.98
369.306	320.77
369.688	304.05
370.069	297.49
370.45	299.98
370.831	309.47
371.212	318.96
371.593	302.01
371.974	322.35
372.355	316.02
372.736	309.02
373.117	317.6
373.498	329.81
373.879	301.79
374.26	308.57
374.641	310.37
375.021	302.46
375.402	323.48
375.783	312.41
376.163	344.27
376.544	325.51
376.925	319.41
377.305	296.59
377.686	312.86
378.066	307.21
378.447	322.35
378.827	314.89
379.208	310.37
379.588	315.12
379.968	314.67
380.349	330.49
380.729	320.09
381.109	313.76
381.489	321.9
381.87	334.1
382.25	340.2
382.63	316.7
383.01	316.7
383.39	323.25
383.77	334.33
384.15	336.36
384.53	333.65
384.91	338.62
385.29	339.98
385.67	311.96
386.049	352.41
386.429	348.34
386.809	340.2
387.189	336.36
387.568	338.4
387.948	331.62
388.328	355.8
388.707	358.96
389.087	335.23
389.466	319.86
389.846	342.91
390.225	346.53
390.605	341.78
390.984	357.6
391.363	353.54
391.743	355.8
392.122	365.06
392.501	336.81
392.881	361.45
393.26	361.67
393.639	354.21
394.018	356.02
394.397	355.8
394.776	363.48
395.155	381.11
395.534	397.83
395.913	375
396.292	375
396.671	371.39
397.05	368.9
397.429	352.86
397.808	381.11
398.186	372.07
398.565	370.94
398.944	363.03
399.323	369.81
399.701	361.67
400.08	394.89
400.458	387.43
400.837	410.26
401.215	401.9
401.594	400.09
401.972	390.6
402.351	391.73
402.729	400.77
403.107	391.05
403.486	428.11
403.864	379.52
404.242	392.4
404.62	388.34
404.999	378.85
405.377	395.12
405.755	398.96
406.133	404.61
406.511	410.71
406.889	408.9
407.267	398.96
407.645	410.26
408.023	399.64
408.401	418.17
408.779	403.93
409.156	426.3
409.534	398.28
409.912	421.1
410.29	426.3
410.667	438.05
411.045	425.85
411.422	438.73
411.8	433.99
412.178	439.18
412.555	451.39
412.933	449.58
413.31	462.91
413.687	465.85
414.065	471.5
414.442	490.71
414.819	482.35
415.197	482.12
415.574	466.53
415.951	466.75
416.328	464.72
416.705	489.58
417.082	472.63
417.46	497.03
417.837	492.06
418.214	490.26
418.591	491.61
418.967	465.85
419.344	479.63
419.721	523.47
420.098	492.52
420.475	506.3
420.852	517.83
421.228	504.49
421.605	522.12
421.982	517.37
422.358	508.56
422.735	524.83
423.111	521.22
423.488	511.72
423.864	515.79
424.241	534.77
424.617	556.92
424.994	551.72
425.37	549.91
425.746	547.43
426.123	546.53
426.499	559.86
426.875	569.8
427.251	558.95
427.627	567.32
428.003	561.44
428.379	572.97
428.756	571.16
429.132	600.76
429.507	590.37
429.883	583.36
430.259	594.66
430.635	596.92
431.011	583.81
431.387	617.94
431.763	619.07
432.138	635.79
432.514	624.49
432.89	610.03
433.265	650.03
433.641	619.74
434.016	653.87
434.392	635.11
434.767	669.23
435.143	659.52
435.518	683.02
435.894	662.68
436.269	683.02
436.644	671.95
437.02	699.74
437.395	692.28
437.77	686.63
438.145	698.61
438.52	711.49
438.895	712.85
439.271	703.58
439.646	721.89
440.021	706.75
440.395	717.59
440.77	720.53
441.145	737.48
441.52	739.97
441.895	726.86
442.27	737.93
442.645	743.81
443.019	737.71
443.394	758.5
443.769	773.64
444.143	744.94
444.518	758.72
444.892	774.32
445.267	783.58
445.641	783.81
446.016	783.36
446.39	771.6
446.764	790.59
447.139	783.13
447.513	790.36
447.887	790.36
448.262	795.56
448.636	800.76
449.01	805.28
449.384	846.4
449.758	851.6
450.132	844.6
450.506	832.39
450.88	854.31
451.254	832.85
451.628	837.59
452.002	854.54
452.376	877.59
452.75	857.93
453.123	862
453.497	892.28
453.871	878.72
454.244	886.18
454.618	899.96
454.992	886.63
455.365	891.37
455.739	925.72
456.112	940.64
456.486	907.65
456.859	920.53
457.232	956.68
457.606	960.53
457.979	953.29
458.352	993.29
458.725	972.95
459.099	993.75
459.472	1014.99
459.845	1007.98
460.218	1027.87
460.591	1038.94
460.964	1017.7
461.337	1034.65
461.71	1031.94
462.083	1103.12
462.456	1059.96
462.829	1068.32
463.201	1086.17
463.574	1092.05
463.947	1072.39
464.32	1144.02
464.692	1127.98
465.065	1130.92
465.438	1120.97
465.81	1146.51
466.183	1170.69
466.555	1186.73
466.928	1196
467.3	1238.94
467.672	1253.63
468.045	1256.56
468.417	1252.95
468.789	1280.29
469.161	1278.71
469.534	1298.37
469.906	1319.39
470.278	1349.44
470.65	1325.49
471.022	1339.72
471.394	1386.73
471.766	1400.97
472.138	1412.27
472.51	1452.49
472.882	1457.24
473.253	1478.48
473.625	1499.49
473.997	1535.2
474.369	1551.92
474.74	1563.45
475.112	1588.76
475.484	1630.56
475.855	1641.86
476.227	1638.25
476.598	1682.54
476.97	1705.14
477.341	1722.31
477.713	1785.81
478.084	1788.53
478.455	1818.36
478.827	1875.53
479.198	1877.34
479.569	1909.65
479.94	1957.79
480.311	1974.74
480.682	2025.81
481.053	2060.61
481.424	2088.18
481.795	2104.68
482.166	2194.84
482.537	2171.34
482.908	2255.41
483.279	2306.03
483.65	2340.15
484.021	2365.69
484.391	2389.64
484.762	2419.24
485.133	2487.49
485.503	2494.27
485.874	2513.48
486.244	2573.59
486.615	2631.44
486.985	2687.49
487.356	2706.02
487.726	2732.91
488.097	2769.52
488.467	2809.52
488.837	2839.57
489.207	2925.67
489.578	2938.1
489.948	2937.42
490.318	3028.49
490.688	3040.7
491.058	3104.65
491.428	3161.82
491.798	3157.08
492.168	3225.1
492.538	3239.11
492.908	3262.61
493.278	3331.99
493.648	3330.18
494.017	3389.84
494.387	3388.48
494.757	3428.26
495.126	3518.88
495.496	3477.3
495.866	3517.29
496.235	3567.91
496.605	3588.93
496.974	3625.54
497.344	3654.69
497.713	3649.72
498.082	3714.35
498.452	3759.55
498.821	3762.49
499.19	3800.9
499.559	3796.84
499.928	3881.13
500.298	3861.69
500.667	3916.15
501.036	3884.29
501.405	3957.96
501.774	3962.48
502.143	3985.08
502.512	3985.3
502.88	4030.05
503.249	4014.46
503.618	4065.98
503.987	4061.24
504.356	4070.05
504.724	4113.21
505.093	4156.83
505.462	4127.67
505.83	4196.6
506.199	4208.35
506.567	4255.58
506.936	4264.85
507.304	4278.86
507.672	4272.98
508.041	4349.36
508.409	4374.22
508.777	4392.07
509.145	4306.2
509.514	4369.93
509.882	4354.79
510.25	4364.96
510.618	4437.5
510.986	4419.42
511.354	4476.14
511.722	4522.47
512.09	4531.28
512.458	4523.6
512.826	4504.84
513.193	4536.48
513.561	4588.45
513.929	4576.7
514.297	4610.37
514.664	4636.59
515.032	4633.88
515.4	4684.95
515.767	4690.15
516.135	4709.81
516.502	4695.79
516.869	4731.73
517.237	4748
517.604	4736.25
517.972	4830.25
518.339	4799.29
518.706	4805.4
519.073	4804.72
519.44	4828.67
519.808	4840.42
520.175	4895.79
520.542	4889.69
520.909	4955.22
521.276	4915.68
521.643	4916.13
522.009	4971.95
522.376	5008.33
522.743	5031.38
523.11	5035.9
523.477	5079.51
523.843	5111.38
524.21	5161.32
524.577	5131.04
524.943	5198.38
525.31	5214.43
525.676	5266.85
526.043	5272.95
526.409	5266.4
526.776	5319.06
527.142	5394.76
527.508	5326.74
527.874	5399.73
528.241	5429.56
528.607	5451.48
528.973	5483.12
529.339	5490.35
529.705	5537.13
530.071	5559.5
530.437	5531.03
530.803	5638.59
531.169	5626.17
531.535	5630.69
531.901	5672.94
532.267	5611.7
532.632	5665.26
532.998	5710.68
533.364	5747.74
533.73	5791.13
534.095	5832.94
534.461	5842.43
534.826	5887.4
535.192	5881.07
535.557	5989.55
535.923	5906.38
536.288	5930.11
536.653	6000.62
537.019	5972.82
537.384	6017.57
537.749	6085.81
538.114	6028.19
538.479	6123.55
538.845	6127.4
539.21	6079.49
539.575	6176.21
539.94	6185.02
540.305	6204.46
540.67	6146.38
541.034	6237.67
541.399	6222.08
541.764	6254.85
542.129	6322.64
542.494	6366.03
542.858	6374.39
543.223	6393.15
543.587	6453.71
543.952	6401.51
544.316	6459.59
544.681	6446.48
545.045	6524.9
545.41	6510.21
545.774	6572.13
546.138	6606.48
546.503	6593.37
546.867	6650.55
547.231	6704.1
547.595	6675.18
547.959	6712.24
548.324	6745.68
548.688	6812.8
549.052	6798.56
549.416	6771.67
549.779	6822.29
550.143	6865.68
550.507	6899.35
550.871	6909.75
551.235	6945.23
551.599	6972.8
551.962	6969.63
552.326	6969.18
552.689	7046.02
553.053	7053.7
553.417	7033.36
553.78	7168.05
554.143	7063.87
554.507	7131.44
554.87	7153.36
555.234	7242.17
555.597	7136.86
555.96	7242.85
556.323	7216.41
556.686	7230.64
557.05	7283.75
557.413	7320.58
557.776	7371.43
558.139	7442.16
558.502	7359
558.865	7424.99
559.228	7375.95
559.59	7399.68
559.953	7442.16
560.316	7535.04
560.679	7493.46
561.041	7524.19
561.404	7567.58
561.767	7627.24
562.129	7619.33
562.492	7666.56
562.854	7684.42
563.217	7709.27
563.579	7723.51
563.941	7781.36
564.304	7824.3
564.666	7833.11
565.028	7849.38
565.39	7903.17
565.753	7916.27
566.115	7924.86
566.477	7944.52
566.839	8001.24
567.201	8070.85
567.563	8032.2
567.925	8064.75
568.287	8095.48
568.648	8161.24
569.01	8187
569.372	8260.9
569.734	8192.65
570.095	8234.01
570.457	8263.61
570.819	8341.12
571.18	8346.77
571.542	8410.5
571.903	8461.8
572.265	8502.47
572.626	8552.64
572.987	8535.02
573.349	8669.25
573.71	8682.58
574.071	8723.26
574.432	8756.93
574.794	8964.16
575.155	8851.62
575.516	8970.94
575.877	8984.72
576.238	9002.8
576.599	9173.19
576.96	9265.39
577.32	9299.52
577.681	9332.73
578.042	9379.06
578.403	9523.24
578.763	9613.41
579.124	9724.14
579.485	9856.34
579.845	9963
580.206	10014.3
580.566	10101.53
580.927	10262.2
581.287	10426.27
581.648	10507.39
582.008	10690.89
582.368	10729.08
582.728	10968.62
583.089	11066.25
583.449	11199.8
583.809	11381.49
584.169	11556.86
584.529	11717.3
584.889	12022.61
585.249	12120.46
585.609	12296.05
585.969	12580.56
586.329	12748.46
586.688	12955.01
587.048	13110.26
587.408	13325.17
587.768	13757.48
588.127	13931.71
588.487	14093.74
588.846	14430.68
589.206	14629.77
589.565	14841.97
589.925	15174.39
590.284	15372.58
590.643	15735.73
591.003	15972.11
591.362	16282.16
591.721	16565.54
592.08	16898.64
592.44	17102.25
592.799	17513.31
593.158	17712.85
593.517	17970.7
593.876	18271.71
594.235	18585.82
594.593	18911.47
594.952	19334.96
595.311	19512.13
595.67	19845
596.029	20352.11
596.387	20575.83
596.746	20796.39
597.104	21049.49
597.463	21359.54
597.822	21832.29
598.18	21980.99
598.538	22329.91
598.897	22835.43
599.255	22910.23
599.613	23514.73
599.972	23604.22
600.33	24039.69
600.688	24192.23
601.046	24572.56
601.404	25010.51
601.762	25156.27
602.12	25545.19
602.478	25770.72
602.836	26092.52
603.194	26199.64
603.552	26582.45
603.91	26767.3
604.268	27112.15
604.625	27425.59
604.983	27764.57
605.341	27874.39
605.698	28245.46
606.056	28583.98
606.413	28699.68
606.771	29095.38
607.128	29327.46
607.485	29385.54
607.843	29705.76
608.2	30017.61
608.557	30408.56
608.914	30529.47
609.272	30854.2
609.629	31053.52
609.986	31373.06
610.343	31401.99
610.7	31975.3
611.057	31903.21
611.414	32156.32
611.771	32524.67
612.127	32733.93
612.484	33081.71
612.841	33285.55
613.198	33293.69
613.554	33387.47
613.911	33700.68
614.267	34061.8
614.624	34052.08
614.98	34186.09
615.337	34589.02
615.693	34674.44
616.05	34710.82
616.406	35101.1
616.762	35128.67
617.118	35167.31
617.475	35352.16
617.831	35682.78
618.187	35652.27
618.543	35867.63
618.899	36239.37
619.255	36311.69
619.611	36405.47
619.967	36611.34
620.323	36787.83
620.678	36762.52
621.034	36722.3
621.39	36943.31
621.746	37058.11
622.101	37528.15
622.457	37437.76
622.812	37678.43
623.168	37717.53
623.523	37751.2
623.879	37873.68
624.234	37757.98
624.589	37955.49
624.945	38033.68
625.3	38232.31
625.655	38127.68
626.01	38293.56
626.365	38477.28
626.72	38480.44
627.075	38455.36
627.43	38654.68
627.785	38628.01
628.14	38760.66
628.495	38753.2
628.85	38777.84
629.205	38771.73
629.559	38971.05
629.914	39007.66
630.269	38933.54
630.623	38893.09
630.978	38762.7
631.332	39213.53
631.687	39276.58
632.041	39150.26
632.396	39149.58
632.75	39194.32
633.104	39388.44
633.459	39143.25
633.813	39242.68
634.167	39151.39
634.521	39244.72
634.875	39352.96
635.229	39260.08
635.583	39153.42
635.937	39294.88
636.291	39223.25
636.645	39270.93
636.999	39127.21
637.352	39349.35
637.706	39179.18
638.06	39347.99
638.413	39277.26
638.767	39126.53
639.121	39301.21
639.474	39017.83
639.828	39252.4
640.181	39233.87
640.534	39241.78
640.888	39089.92
641.241	38946.19
641.594	39227.32
641.947	39397.48
642.301	39204.49
642.654	39122.46
643.007	39185.96
643.36	39072.74
643.713	39199.52
644.066	39279.52
644.419	39117.49
644.771	38846.76
645.124	38443.16
645.477	38354.12
645.83	38163.62
646.182	38047.01
646.535	38043.39
646.888	38122.49
647.24	37835.71
647.593	38145.99
647.945	38087.01
648.298	37755.49
648.65	37858.54
649.002	37654.7
649.355	37870.52
649.707	37801.14
650.059	37986.9
650.411	38421.01
650.763	38493.32
651.115	38870.94
651.467	38667.1
651.819	38858.06
652.171	38679.53
652.523	38741.23
652.875	38655.35
653.227	38524.06
653.578	38771.06
653.93	38706.43
654.282	38565.41
654.633	38519.99
654.985	38619.65
655.337	38473.44
655.688	38543.27
656.039	38776.93
656.391	38354.12
656.742	38484.51
657.094	38428.47
657.445	38597.73
657.796	38410.61
658.147	38481.57
658.498	38281.58
658.849	38522.7
659.2	38251.75
659.551	38388.02
659.902	38581.23
660.253	38364.06
660.604	38447
660.955	38400.67
661.306	38348.24
661.656	38512.31
662.007	38324.97
662.358	38307.34
662.708	38310.73
663.059	38269.83
663.409	38151.86
663.76	38378.52
664.11	38339.2
664.461	38375.36
664.811	38266.44
665.161	38398.86
665.511	38186.21
665.862	38334.91
666.212	38402.25
666.562	38377.17
666.912	38302.37
667.262	38226.44
667.612	38291.07
667.962	38285.65
668.312	38258.53
668.662	38348.92
669.011	38193.67
669.361	38259.88
669.711	38122.94
670.06	38074.13
670.41	38053.56
670.76	38034.58
671.109	38096.5
671.459	38025.09
671.808	38195.25
672.157	38150.96
672.507	37858.31
672.856	37878.65
673.205	37948.93
673.554	38130.62
673.904	38018.53
674.253	38208.81
674.602	37997.52
674.951	37484.54
675.3	37416.06
675.649	37945.99
675.998	37915.26
676.346	37900.8
676.695	37934.47
677.044	37633.23
677.393	37843.4
677.741	37731.54
678.09	37704.42
678.438	37700.8
678.787	37595.04
679.135	37762.5
679.484	37535.84
679.832	37523.63
680.181	37452
680.529	37571.09
680.877	37450.64
681.225	37467.59
681.573	37663.74
681.922	37424.43
682.27	37147.6
682.618	37320.25
682.966	37235.96
683.314	37333.58
683.661	37211.55
684.009	36998.45
684.357	36907.15
684.705	36923.2
685.053	36999.13
685.4	36805.23
685.748	36682.98
686.095	36794.16
686.443	36412.93
686.79	36656.76
687.138	36586.03
687.485	36680.94
687.832	36459.93
688.18	36484.34
688.527	36347.17
688.874	36358.01
689.221	36159.83
689.568	36098.36
689.915	36079.83
690.262	36022.43
690.609	35918.02
690.956	35710.35
691.303	35635.32
691.65	35565.72
691.997	35647.52
692.344	35416.34
692.69	35329.34
693.037	35445.49
693.383	35035.56
693.73	35237.59
694.077	34983.36
694.423	35123.47
694.769	35063.58
695.116	34875.34
695.462	34805.06
695.808	34739.3
696.155	34816.81
696.501	34410.95
696.847	34586.99
697.193	34214.34
697.539	34313.32
697.885	34098.41
698.231	34180.67
698.577	34011.41
698.923	34021.8
699.269	33852.77
699.614	33710.62
699.96	33661.13
700.306	33550.18
700.651	33476.05
700.997	33422.04
701.342	33342.72
701.688	33323.97
702.033	33098.44
702.379	33321.48
702.724	33090.98
703.069	33082.17
703.415	32697.54
703.76	32768.05
704.105	32784.55
704.45	32659.81
704.795	32475.4
705.14	32424.78
705.485	32472.24
705.83	32323.77
706.175	32359.7
706.52	32101.4
706.865	32074.28
707.209	32083.32
707.554	31987.28
707.899	32156.09
708.243	31834.52
708.588	31866.15
708.932	31674.07
709.277	31496.22
709.621	31675.88
709.966	31462.55
710.31	31507.97
710.654	31183.69
710.998	31410.35
711.342	31338.48
711.687	31152.73
712.031	31113.86
712.375	30930.81
712.719	31143.46
713.063	30959.51
713.407	30898.27
713.75	30895.33
714.094	30710.7
714.438	30616.47
714.782	30689.46
715.125	30594.1
715.469	30563.59
715.812	30379.87
716.156	30324.5
716.499	30223.94
716.843	30416.02
717.186	30117.05
717.53	30249.47
717.873	30280.21
718.216	30120.66
718.559	30093.77
718.902	29671.86
719.246	29925.64
719.589	29753.21
719.932	29695.82
720.275	29743.05
720.617	29577.17
720.96	29640.68
721.303	29607.23
721.646	29648.13
721.989	29469.61
722.331	29560.9
722.674	29414.69
723.016	29390.29
723.359	29344.19
723.701	29362.04
724.044	29160.01
724.386	28956.85
724.729	29117.75
725.071	28963.86
725.413	29122.05
725.755	29026
726.097	28951.2
726.439	28703.3
726.782	28850.87
727.124	28821.94
727.465	28806.8
727.807	28841.6
728.149	28660.14
728.491	28562.29
728.833	28681.83
729.175	28487.71
729.516	28479.35
729.858	28459.46
730.199	28545.34
730.541	28477.09
730.882	28327.04
731.224	28388.05
731.565	28205.01
731.906	28310.99
732.248	28275.97
732.589	28135.63
732.93	28107.83
733.271	28007.72
733.612	28024.45
733.953	28004.79
734.294	27908.52
734.635	27774.06
734.976	27822.87
735.317	27773.38
735.658	27767.28
735.999	27638.02
736.339	27678.92
736.68	27786.94
737.021	27621.97
737.361	27558.02
737.702	27574.06
738.042	27566.15
738.383	27513.27
738.723	27558.92
739.063	27373.62
739.404	27490
739.744	27308.99
740.084	27217.01
740.424	27297.46
740.764	27189.89
741.104	27323.45
741.444	27125.04
741.784	27138.82
742.124	27228.54
742.464	27107.18
742.804	27033.74
743.143	26931.59
743.483	26925.27
743.823	26869.67
744.162	26966.62
744.502	26874.42
744.841	26681.88
745.181	26883.69
745.52	26561.66
745.86	26730.47
746.199	26606.4
746.538	26614.31
746.877	26638.95
747.216	26574.09
747.556	26490.25
747.895	26523.92
748.234	26341.55
748.573	26363.25
748.911	26352.4
749.25	26438.5
749.589	26260.43
749.928	26239.41
750.267	26203.25
750.605	26126.19
750.944	26102.92
751.283	25953.99
751.621	26011.17
751.96	25871.06
752.298	25843.94
752.636	25835.8
752.975	25737.05
753.313	25720.1
753.651	25843.94
753.989	25743.6
754.327	25491.86
754.666	25516.26
755.004	25508.58
755.342	25592.19
755.679	25404.18
756.017	25271.52
756.355	25339.09
756.693	25273.11
757.031	25292.54
757.368	25140
757.706	25037.18
758.044	24994.47
758.381	24984.98
758.719	25022.27
759.056	24955.37
759.394	24894.13
759.731	24740.69
760.068	24661.82
760.405	24566.68
760.743	24490.08
761.08	24596.74
