Data from hue_50_FLMS001491_16.txt Node
Date: Mon Feb 06 15:09:40 GMT 2017
User: dcchb
Spectrometer: FLMS00149
Trigger mode: 0
Integration Time (sec): 2.000000E-2
Scans to average: 10
Electric dark correction enabled: true
Nonlinearity correction enabled: false
Boxcar width: 0
XAxis mode: Wavelengths
Number of Pixels in Spectrum: 2048
>>>>>Begin Spectral Data<<<<<
341.393	4.22
341.776	4.22
342.16	4.22
342.543	-42.1
342.927	-75.32
343.31	-68.32
343.693	-61.09
344.077	-77.81
344.46	-61.76
344.843	-56.57
345.226	-44.36
345.61	-25.61
345.993	-5.72
346.376	-33.29
346.759	7.61
347.142	24.34
347.525	26.14
347.908	42.19
348.291	89.64
348.674	100.27
349.057	144.33
349.44	149.76
349.823	136.65
350.206	166.48
350.588	213.03
350.971	196.53
351.354	236.31
351.737	244.44
352.119	259.58
352.502	255.29
352.884	270.2
353.267	289.87
353.65	289.87
354.032	282.18
354.414	292.8
354.797	310.88
355.179	309.53
355.562	319.02
355.944	319.47
356.326	336.64
356.709	331.67
357.091	346.36
357.473	338.23
357.855	354.95
358.238	350.65
358.62	315.63
359.002	339.13
359.384	339.36
359.766	349.75
360.148	340.71
360.53	346.13
360.912	329.19
361.294	349.07
361.676	341.84
362.057	352.46
362.439	343.88
362.821	329.41
363.203	312.24
363.584	333.03
363.966	340.94
364.348	335.51
364.729	328.73
365.111	330.54
365.493	331.67
365.874	319.92
366.256	311.33
366.637	314.5
367.019	335.06
367.4	316.08
367.781	317.44
368.163	324.89
368.544	334.84
368.925	315.18
369.306	329.41
369.688	305.01
370.069	310.88
370.45	309.53
370.831	327.15
371.212	327.15
371.593	280.83
371.974	292.58
372.355	337.1
372.736	303.65
373.117	310.88
373.498	330.09
373.879	293.26
374.26	333.03
374.641	339.36
375.021	324.21
375.402	328.96
375.783	320.82
376.163	327.15
376.544	319.47
376.925	326.25
377.305	333.25
377.686	317.89
378.066	293.93
378.447	339.81
378.827	324.21
379.208	311.56
379.588	323.31
379.968	326.25
380.349	313.14
380.729	328.73
381.109	340.26
381.489	341.62
381.87	341.62
382.25	323.76
382.63	338.68
383.01	355.63
383.39	345.68
383.77	343.65
384.15	343.2
384.53	336.64
384.91	335.97
385.29	361.28
385.67	361.95
386.049	357.43
386.429	353.82
386.809	365.57
387.189	343.2
387.568	342.75
387.948	333.03
388.328	360.15
388.707	342.97
389.087	364.89
389.466	350.43
389.846	362.18
390.225	356.08
390.605	347.49
390.984	358.79
391.363	352.69
391.743	354.72
392.122	365.34
392.501	359.69
392.881	353.59
393.26	359.92
393.639	369.86
394.018	372.12
394.397	374.61
394.776	361.95
395.155	377.09
395.534	348.85
395.913	385.46
396.292	363.54
396.671	375.96
397.05	380.48
397.429	394.95
397.808	369.64
398.186	358.79
398.565	385
398.944	382.29
399.323	379.13
399.701	389.98
400.08	395.17
400.458	372.35
400.837	402.18
401.215	393.59
401.594	386.59
401.972	376.87
402.351	373.48
402.729	389.52
403.107	395.4
403.486	396.53
403.864	401.95
404.242	399.69
404.62	409.64
404.999	425.91
405.377	399.24
405.755	423.42
406.133	424.55
406.511	409.64
406.889	404.21
407.267	418.22
407.645	403.76
408.023	425.91
408.401	428.39
408.779	421.39
409.156	414.61
409.534	406.25
409.912	450.54
410.29	439.92
410.667	448.73
411.045	428.39
411.422	436.3
411.8	427.71
412.178	419.81
412.555	447.38
412.933	457.09
413.31	449.41
413.687	452.12
414.065	462.74
414.442	459.8
414.819	424.55
415.197	457.77
415.574	466.58
415.951	446.7
416.328	480.59
416.705	450.54
417.082	471.1
417.46	463.42
417.837	476.53
418.214	487.15
418.591	481.5
418.967	470.65
419.344	477.43
419.721	487.83
420.098	486.7
420.475	493.7
420.852	473.59
421.228	496.87
421.605	490.31
421.982	485.79
422.358	484.44
422.735	511.78
423.111	487.83
423.488	525.34
423.864	493.7
424.241	515.85
424.617	516.07
424.994	495.28
425.37	534.83
425.746	526.7
426.123	534.15
426.499	551.33
426.875	523.53
427.251	523.53
427.627	526.02
428.003	537.54
428.379	554.49
428.756	523.98
429.132	546.36
429.507	560.37
429.883	555.85
430.259	551.1
430.635	549.97
431.011	567.15
431.387	564.89
431.763	559.91
432.138	572.8
432.514	557.43
432.89	581.16
433.265	612.79
433.641	613.02
434.016	603.76
434.392	600.37
434.767	615.05
435.143	603.53
435.518	626.81
435.894	609.86
436.269	616.64
436.644	628.61
437.02	618.67
437.395	630.87
437.77	636.52
438.145	631.78
438.52	640.82
438.895	672.68
439.271	658.22
439.646	663.41
440.021	673.13
440.395	658.9
440.77	659.8
441.145	666.8
441.52	703.19
441.895	668.16
442.27	696.63
442.645	697.76
443.019	680.14
443.394	673.81
443.769	684.21
444.143	686.47
444.518	691.66
444.892	717.88
445.267	726.24
445.641	719.46
446.016	728.05
446.39	719.68
446.764	732.79
447.139	710.19
447.513	708.61
447.887	731.44
448.262	736.86
448.636	714.94
449.01	734.6
449.384	749.97
449.758	745.45
450.132	768.27
450.506	750.87
450.88	755.84
451.254	744.77
451.628	787.25
452.002	784.77
452.376	773.47
452.75	779.57
453.123	781.83
453.497	806.01
453.871	822.51
454.244	802.17
454.618	817.54
454.992	817.99
455.365	826.57
455.739	829.29
456.112	862.96
456.486	864.31
456.859	859.79
457.232	875.61
457.606	872.45
457.979	888.04
458.352	908.38
458.725	893.69
459.099	923.52
459.472	957.87
459.845	936.4
460.218	941.6
460.591	950.41
460.964	945.22
461.337	979.79
461.71	970.07
462.083	987.7
462.456	1017.98
462.829	1027.25
463.201	1005.33
463.574	1034.25
463.947	1046
464.32	1062.95
464.692	1058.43
465.065	1076.06
465.438	1111.99
465.81	1122.39
466.183	1109.96
466.555	1166.9
466.928	1154.02
467.3	1168.26
467.672	1165.55
468.045	1194.02
468.417	1212.33
468.789	1222.95
469.161	1250.52
469.534	1271.31
469.906	1306.56
470.278	1319.89
470.65	1335.94
471.022	1359.44
471.394	1402.15
471.766	1425.2
472.138	1442.6
472.51	1471.98
472.882	1513.11
473.253	1510.4
473.625	1556.95
473.997	1585.88
474.369	1639.89
474.74	1638.76
475.112	1661.58
475.484	1730.28
475.855	1755.14
476.227	1785.65
476.598	1857.51
476.97	1921.91
477.341	1949.48
477.713	1999.42
478.084	2035.81
478.455	2103.83
478.827	2180.44
479.198	2229.7
479.569	2261.79
479.94	2342.92
480.311	2399.19
480.682	2509.24
481.053	2547.21
481.424	2634.66
481.795	2729.58
482.166	2773.42
482.537	2845.5
482.908	2918.5
483.279	2980.64
483.65	3059.96
484.021	3195.78
484.391	3281.2
484.762	3370.24
485.133	3412.04
485.503	3543.34
485.874	3673.73
486.244	3742.43
486.615	3878.25
486.985	3924.35
487.356	4091.35
487.726	4176.54
488.097	4283.21
488.467	4413.15
488.837	4540.37
489.207	4640.03
489.578	4796.41
489.948	4882.51
490.318	5041.15
490.688	5128.38
491.058	5261.94
491.428	5362.95
491.798	5502.16
492.168	5617.86
492.538	5796.16
492.908	5882.26
493.278	6001.13
493.648	6133.33
494.017	6250.61
494.387	6363.83
494.757	6481.79
495.126	6661.9
495.496	6724.05
495.866	6823.03
496.235	7026.86
496.605	7153.87
496.974	7266.86
497.344	7359.74
497.713	7482.44
498.082	7624.81
498.452	7715.43
498.821	7899.38
499.19	7962.21
499.559	8079.04
499.928	8215.53
500.298	8401.97
500.667	8482.87
501.036	8564
501.405	8766.48
501.774	8859.58
502.143	8911.11
502.512	9072.23
502.88	9185.45
503.249	9236.97
503.618	9349.97
503.987	9443.97
504.356	9535.95
504.724	9684.42
505.093	9709.73
505.462	9819.78
505.83	9963.74
506.199	10110.62
506.567	10267.46
506.936	10250.06
507.304	10457.96
507.672	10578.18
508.041	10571.4
508.409	10749.25
508.777	10884.61
509.145	10922.35
509.514	11012.07
509.882	11181.56
510.25	11169.58
510.618	11346.98
510.986	11430.36
511.354	11509.01
511.722	11691.37
512.09	11774.31
512.458	11833.74
512.826	11959.61
513.193	11972.27
513.561	12106.96
513.929	12158.93
514.297	12361.41
514.664	12504.91
515.032	12529.77
515.4	12643.21
515.767	12781.06
516.135	12846.37
516.502	12824.45
516.869	13090.88
517.237	13157.1
517.604	13127.72
517.972	13242.29
518.339	13368.39
518.706	13414.94
519.073	13560.7
519.44	13645.9
519.808	13819.9
520.175	13808.15
520.542	14000.92
520.909	14112.1
521.276	14209.95
521.643	14281.59
522.009	14380.34
522.376	14466.67
522.743	14609.26
523.11	14715.02
523.477	14804.06
523.843	14989.14
524.21	15067.56
524.577	15237.72
524.943	15298.96
525.31	15385.74
525.676	15563.59
526.043	15618.73
526.409	15746.41
526.776	15859.85
527.142	15963.35
527.508	16076.12
527.874	16204.93
528.241	16234.98
528.607	16306.39
528.973	16463.68
529.339	16477.91
529.705	16662.32
530.071	16786.83
530.437	16837.68
530.803	17064.57
531.169	17074.73
531.535	17114.51
531.901	17210.32
532.267	17240.38
532.632	17409.19
532.998	17448.51
533.364	17542.29
533.73	17575.29
534.095	17767.6
534.461	17854.6
534.826	17855.28
535.192	17926.24
535.557	18075.84
535.923	18119.68
536.288	18217.98
536.653	18247.13
537.019	18241.71
537.384	18326.68
537.749	18443.74
538.114	18589.05
538.479	18581.81
538.845	18557.41
539.21	18685.77
539.575	18697.74
539.94	18793.11
540.305	18929.6
540.67	18848.02
541.034	19064.96
541.399	19201.91
541.764	19116.71
542.129	19294.11
542.494	19314.45
542.858	19389.7
543.223	19491.62
543.587	19581.34
543.952	19474.45
544.316	19593.54
544.681	19599.64
545.045	19716.7
545.41	19845.28
545.774	19915.11
546.138	19919.41
546.503	19956.47
546.867	20036.01
547.231	20126.63
547.595	20213.64
547.959	20261.09
548.324	20280.53
548.688	20286.4
549.052	20534.98
549.416	20450.01
549.779	20530.46
550.143	20694.3
550.507	20746.73
550.871	20805.48
551.235	20799.61
551.599	20959.83
551.962	21048.42
552.326	21108.53
552.689	21204.8
553.053	21151.69
553.417	21198.69
553.78	21454.96
554.143	21331.35
554.507	21561.62
554.87	21563.66
555.234	21820.82
555.597	21662.41
555.96	21803.88
556.323	21801.39
556.686	21857.21
557.05	22036.64
557.413	22198.89
557.776	22247.25
558.139	22388.49
558.502	22473.46
558.865	22341.04
559.228	22694.25
559.59	22578.32
559.953	22637.98
560.316	22887.01
560.679	22881.81
561.041	23075.48
561.404	23224.63
561.767	23350.28
562.129	23197.51
562.492	23482.48
562.854	23496.26
563.217	23489.71
563.579	23589.59
563.941	23693.77
564.304	23862.13
564.666	23969.69
565.028	24011.28
565.39	24226.19
565.753	24244.94
566.115	24388.89
566.477	24550.24
566.839	24511.38
567.201	24671.82
567.563	24679.73
567.925	24973.96
568.287	24884.7
568.648	24933.06
569.01	25162.43
569.372	25213.5
569.734	25220.06
570.095	25392.48
570.457	25556.77
570.819	25649.2
571.18	25589.77
571.542	25824.11
571.903	25915.86
572.265	25925.35
572.626	26032.47
572.987	26086.02
573.349	26192.69
573.71	26332.57
574.071	26466.58
574.432	26323.98
574.794	26599
575.155	26599.23
575.516	26503.19
575.877	26702.05
576.238	26824.31
576.599	26897.75
576.96	26984.76
577.32	27127.35
577.681	27200.34
578.042	27312.88
578.403	27323.05
578.763	27402.15
579.124	27494.8
579.485	27593.33
579.845	27768.46
580.206	27799.42
580.566	27875.58
580.927	28026.31
581.287	28255.46
581.648	28116.93
582.008	28395.34
582.368	28389.69
582.728	28422.23
583.089	28443.48
583.449	28644.6
583.809	28730.7
584.169	28911.94
584.529	28793.52
584.889	29248.88
585.249	29108.32
585.609	29014.31
585.969	29388.31
586.329	29388.31
586.688	29506.5
587.048	29455.43
587.408	29484.58
587.768	29671.47
588.127	29760.28
588.487	29805.7
588.846	30100.38
589.206	29846.15
589.565	30069.42
589.925	30336.76
590.284	30225.8
590.643	30459.69
591.003	30672.12
591.362	30807.93
591.721	30720.93
592.08	30730.87
592.44	30895.84
592.799	31059.9
593.158	31019.68
593.517	31222.16
593.876	31282.27
594.235	31291.76
594.593	31528.37
594.952	31633.9
595.311	31509.84
595.67	31716.84
596.029	31969.26
596.387	32083.15
596.746	32025.53
597.104	31953.67
597.463	32103.94
597.822	32220.78
598.18	32292.64
598.538	32280.66
598.897	32563.82
599.255	32340.1
599.613	32985.95
599.972	32686.75
600.33	32850.59
600.688	32871.16
601.046	32970.59
601.404	33175.78
601.762	33184.37
602.12	33329
602.478	33570.57
602.836	33589.78
603.194	33477.47
603.552	33497.13
603.91	33506.17
604.268	33771.7
604.625	33550.01
604.983	33825.48
605.341	33748.42
605.698	34007.85
606.056	34184.12
606.413	34024.57
606.771	34337.33
607.128	34397.89
607.485	34257.56
607.843	34229.31
608.2	34636.76
608.557	34646.02
608.914	34650.54
609.272	34934.15
609.629	34880.59
609.986	35014.38
610.343	34851.44
610.7	35199.23
611.057	35119.91
611.414	35160.13
611.771	35313.58
612.127	35343.41
612.484	35378.21
612.841	35493.69
613.198	35473.35
613.554	35495.27
613.911	35675.83
614.267	35712.21
614.624	35817.97
614.98	35779.55
615.337	36139.09
615.693	35954.46
616.05	35970.06
616.406	36321.23
616.762	36214.8
617.118	36159.66
617.475	36222.93
617.831	36338.63
618.187	36481
618.543	36490.5
618.899	36734.78
619.255	36810.03
619.611	36748.57
619.967	36860.88
620.323	36882.12
620.678	36794.89
621.034	36759.19
621.39	36821.79
621.746	36884.61
622.101	37321.43
622.457	36952.4
622.812	37097.71
623.168	37182.68
623.523	37187.88
623.879	37238.27
624.234	37190.14
624.589	37284.15
624.945	37320.53
625.3	37192.17
625.655	37313.98
626.01	37389
626.365	37473.52
626.72	37403.24
627.075	37377.25
627.43	37257.48
627.785	37307.65
628.14	37317.37
628.495	37494.54
628.85	37395.78
629.205	37426.29
629.559	37706.96
629.914	37432.39
630.269	37369.57
630.623	37379.29
630.978	37369.12
631.332	37450.02
631.687	37594.2
632.041	37453.41
632.396	37457.7
632.75	37254.77
633.104	37285.73
633.459	37098.84
633.813	37248.67
634.167	37183.13
634.521	37357.14
634.875	37311.72
635.229	37284.6
635.583	37186.3
635.937	37119.86
636.291	37103.59
636.645	37116.47
636.999	37128.22
637.352	37282.79
637.706	36949.24
638.06	37159.18
638.413	36981.33
638.767	36912.18
639.121	37022.01
639.474	36955.79
639.828	36793.09
640.181	36980.88
640.534	36965.96
640.888	36735.46
641.241	36762.58
641.594	36839.64
641.947	36877.83
642.301	36806.65
642.654	36718.96
643.007	36800.77
643.36	36743.6
643.713	36702.69
644.066	36880.77
644.419	36627.21
644.771	36488.91
645.124	36163.05
645.477	35935.48
645.83	35696.17
646.182	35720.8
646.535	35685.54
646.888	35606.22
647.24	35426.34
647.593	35666.79
647.945	35636.28
648.298	35493.69
648.65	35402.84
649.002	35321.26
649.355	35531.2
649.707	35413.91
650.059	35530.75
650.411	35829.72
650.763	35920.34
651.115	36438.75
651.467	36217.96
651.819	36212.54
652.171	35993.56
652.523	36010.96
652.875	35988.36
653.227	35966.44
653.578	36173.67
653.93	36003.95
654.282	35949.94
654.633	35853.22
654.985	35955.14
655.337	35923.5
655.688	36174.8
656.039	36249.6
656.391	35817.52
656.742	35851.87
657.094	35972.09
657.445	35900.91
657.796	35889.16
658.147	35803.73
658.498	35796.5
658.849	35917.4
659.2	35820.23
659.551	35840.34
659.902	35942.26
660.253	35677.86
660.604	35782.27
660.955	35747.01
661.306	35780.46
661.656	35695.26
662.007	35790.17
662.358	35657.07
662.708	35682.83
663.059	35749.05
663.409	35479.22
663.76	35721.93
664.11	35649.61
664.461	35731.42
664.811	35681.03
665.161	35633.34
665.511	35655.04
665.862	35844.86
666.212	35703.17
666.562	35759.44
666.912	35689.39
667.262	35522.84
667.612	35633.57
667.962	35641.7
668.312	35478.77
668.662	35700.01
669.011	35515.61
669.361	35452.56
669.711	35534.36
670.06	35472.22
670.41	35320.58
670.76	35287.36
671.109	35518.54
671.459	35471.09
671.808	35331.2
672.157	35504.31
672.507	35367.14
672.856	35069.97
673.205	35276.06
673.554	35407.81
673.904	35160.59
674.253	35393.12
674.602	35402.61
674.951	34854.38
675.3	34766.92
675.649	35179.57
675.998	35175.05
676.346	35229.51
676.695	35342.05
677.044	35061.38
677.393	35186.8
677.741	35307.25
678.09	35164.43
678.438	34989.29
678.787	35102.28
679.135	35083.07
679.484	34820.03
679.832	35001.95
680.181	34661.84
680.529	34995.39
680.877	34761.73
681.225	34701.62
681.573	34766.47
681.922	34752.24
682.27	34624.56
682.618	34599.25
682.966	34456.42
683.314	34629.98
683.661	34453.71
684.009	34371.46
684.357	34292.81
684.705	34263.44
685.053	34130.56
685.4	34133.04
685.748	34000.62
686.095	34017.34
686.443	33897.34
686.79	33811.24
687.138	33841.75
687.485	33908.42
687.832	33733.05
688.18	33767.86
688.527	33566.5
688.874	33624.13
689.221	33476.56
689.568	33486.73
689.915	33355.89
690.262	33332.16
690.609	33331.93
690.956	33145.05
691.303	33100.3
691.65	32891.04
691.997	33069.12
692.344	32990.02
692.69	32889.23
693.037	32926.52
693.383	32693.31
693.73	32778.28
694.077	32582.12
694.423	32661.9
694.769	32395.46
695.116	32416.7
695.462	32372.64
695.808	32072.31
696.155	32248.12
696.501	31995.7
696.847	31954.34
697.193	31756.38
697.539	31911.41
697.885	31675.48
698.231	31504.19
698.577	31560.23
698.923	31535.15
699.269	31429.61
699.614	31226.45
699.96	31178.09
700.306	31219.67
700.651	31059.45
700.997	31016.06
701.342	30948.72
701.688	30778.56
702.033	30851.1
702.379	30749.63
702.724	30651.1
703.069	30732.91
703.415	30247.5
703.76	30243.88
704.105	30439.13
704.45	30305.8
704.795	30115.97
705.14	29953.04
705.485	29987.62
705.83	29941.51
706.175	30025.58
706.52	29937.22
706.865	29741.29
707.209	29755.53
707.554	29607.96
707.899	29709.43
708.243	29494.75
708.588	29514.63
708.932	29364.58
709.277	29316.67
709.621	29272.61
709.966	29105.6
710.31	29106.28
710.654	29012.5
710.998	28925.5
711.342	29053.85
711.687	28888.89
712.031	28794.88
712.375	28662.45
712.719	28736.35
713.063	28618.61
713.407	28729.8
713.75	28497.71
714.094	28482.8
714.438	28300.43
714.782	28519.41
715.125	28219.75
715.469	28294.78
715.812	28144.5
716.156	28016.82
716.499	27985.41
716.843	28160.32
717.186	27894.34
717.53	28088
717.873	27943.6
718.216	27880.33
718.559	27785.87
718.902	27591.29
719.246	27677.39
719.589	27526.66
719.932	27422.26
720.275	27431.07
720.617	27523.05
720.96	27356.72
721.303	27392.88
721.646	27253.45
721.989	27188.14
722.331	27367.12
722.674	27190.4
723.016	27290.96
723.359	27116.96
723.701	27171.42
724.044	27005.77
724.386	26941.82
724.729	27013.23
725.071	26982.5
725.413	26946.11
725.755	26938.66
726.097	26796.06
726.439	26599.91
726.782	26594.26
727.124	26780.24
727.465	26646.23
727.807	26650.3
728.149	26425.22
728.491	26424.32
728.833	26472
729.175	26380.7
729.516	26394.94
729.858	26353.81
730.199	26355.85
730.541	26274.04
730.882	26202.63
731.224	26369.18
731.565	26177.55
731.906	26079.7
732.248	26076.31
732.589	26032.69
732.93	25896.65
733.271	25885.12
733.612	25987.49
733.953	25903.66
734.294	25814.62
734.635	25722.87
734.976	25812.13
735.317	25650.1
735.658	25729.42
735.999	25670.44
736.339	25535.08
736.68	25657.56
737.021	25524
737.361	25603.78
737.702	25592.7
738.042	25518.81
738.383	25432.03
738.723	25400.39
739.063	25430.22
739.404	25419.15
739.744	25243.33
740.084	25312.71
740.424	25250.11
740.764	25146.61
741.104	25217.12
741.444	25073.62
741.784	25050.8
742.124	25033.4
742.464	24995.43
742.804	24924.25
743.143	24907.75
743.483	24864.81
743.823	24858.48
744.162	24817.58
744.502	24865.94
744.841	24748.88
745.181	24852.16
745.52	24735.1
745.86	24693.29
746.199	24701.65
746.538	24581.66
746.877	24618.49
747.216	24613.97
747.556	24559.96
747.895	24559.06
748.234	24219.63
748.573	24356.8
748.911	24365.84
749.25	24284.71
749.589	24139.86
749.928	24196.58
750.267	24282.45
750.605	24134.66
750.944	24006.3
751.283	23937.38
751.621	24129.01
751.96	23917.04
752.298	23883.14
752.636	23897.15
752.975	23763.82
753.313	23654.22
753.651	23860.32
753.989	23623.26
754.327	23636.82
754.666	23465.75
755.004	23637.95
755.342	23472.76
755.679	23470.05
756.017	23330.39
756.355	23427.56
756.693	23311.18
757.031	23388.47
757.368	23132.88
