Data from hue_24_FLMS001491_00035.txt Node
Date: Tue Feb 07 17:12:11 GMT 2017
User: dcchb
Spectrometer: FLMS00149
Trigger mode: 0
Integration Time (sec): 2.000000E-2
Scans to average: 10
Electric dark correction enabled: true
Nonlinearity correction enabled: false
Boxcar width: 0
XAxis mode: Wavelengths
Number of Pixels in Spectrum: 2048
>>>>>Begin Spectral Data<<<<<
341.393	-16.96
341.776	-16.96
342.16	-16.96
342.543	-60.35
342.927	-65.78
343.31	-50.86
343.693	-62.16
344.077	-75.49
344.46	-71.88
344.843	-47.24
345.226	-40.24
345.61	-48.15
345.993	-30.97
346.376	2.7
346.759	11.06
347.142	43.15
347.525	47.89
347.908	55.35
348.291	74.79
348.674	88.12
349.057	103.94
349.44	136.48
349.823	159.98
350.206	174.44
350.588	226.87
350.971	211.28
351.354	241.34
351.737	239.75
352.119	249.24
352.502	272.07
352.884	288.34
353.267	288.11
353.65	288.57
354.032	293.76
354.414	326.53
354.797	317.94
355.179	308
355.562	344.16
355.944	336.93
356.326	337.38
356.709	326.98
357.091	346.42
357.473	315.46
357.855	336.25
358.238	350.03
358.62	334.67
359.002	338.28
359.384	350.26
359.766	341.45
360.148	340.32
360.53	345.97
360.912	341.45
361.294	358.85
361.676	343.71
362.057	345.74
362.439	344.16
362.821	332.41
363.203	329.69
363.584	336.7
363.966	304.38
364.348	342.35
364.729	323.37
365.111	313.88
365.493	329.69
365.874	340.32
366.256	299.64
366.637	330.15
367.019	321.79
367.4	304.61
367.781	301.45
368.163	311.62
368.544	324.95
368.925	324.95
369.306	326.08
369.688	308.45
370.069	322.01
370.45	316.81
370.831	310.49
371.212	330.6
371.593	331.73
371.974	316.36
372.355	321.11
372.736	306.19
373.117	321.79
373.498	330.15
373.879	326.53
374.26	309.58
374.641	342.58
375.021	319.3
375.402	336.47
375.783	330.15
376.163	324.05
376.544	324.5
376.925	339.64
377.305	344.16
377.686	335.57
378.066	332.18
378.447	350.71
378.827	334.44
379.208	317.27
379.588	324.72
379.968	348.23
380.349	322.92
380.729	337.38
381.109	359.3
381.489	353.65
381.87	337.83
382.25	353.2
382.63	337.83
383.01	363.37
383.39	350.94
383.77	336.7
384.15	353.87
384.53	345.74
384.91	343.03
385.29	355.46
385.67	343.03
386.049	385.51
386.429	367.89
386.809	369.24
387.189	366.53
387.568	359.98
387.948	346.64
388.328	341.22
388.707	358.85
389.087	380.31
389.466	371.5
389.846	362.24
390.225	392.52
390.605	362.91
390.984	391.61
391.363	395.91
391.743	381.22
392.122	383.7
392.501	390.26
392.881	380.99
393.26	376.25
393.639	377.38
394.018	378.96
394.397	391.16
394.776	385.51
395.155	388.9
395.534	396.59
395.913	390.48
396.292	416.47
396.671	389.81
397.05	419.86
397.429	409.01
397.808	390.26
398.186	409.47
398.565	410.6
398.944	408.34
399.323	425.51
399.701	413.99
400.08	409.47
400.458	399.52
400.837	427.09
401.215	419.86
401.594	425.74
401.972	432.97
402.351	399.98
402.729	449.47
403.107	414.66
403.486	414.66
403.864	413.31
404.242	445.4
404.62	426.42
404.999	446.3
405.377	442.23
405.755	448.34
406.133	426.42
406.511	440.43
406.889	442.01
407.267	465.28
407.645	451.95
408.023	466.87
408.401	466.41
408.779	473.65
409.156	473.42
409.534	468.9
409.912	474.32
410.29	481.56
410.667	455.79
411.045	494.89
411.422	493.98
411.8	498.05
412.178	498.73
412.555	471.16
412.933	499.63
413.31	489.69
413.687	494.66
414.065	525.62
414.442	516.36
414.819	519.52
415.197	528.11
415.574	517.26
415.951	530.14
416.328	517.71
416.705	531.05
417.082	500.09
417.46	526.98
417.837	544.6
418.214	536.47
418.591	539.86
418.967	549.35
419.344	536.02
419.721	550.93
420.098	550.03
420.475	561.78
420.852	574.89
421.228	577.15
421.605	580.99
421.982	560.2
422.358	576.69
422.735	553.87
423.111	579.63
423.488	583.02
423.864	583.7
424.241	581.21
424.617	596.81
424.994	611.04
425.37	592.96
425.746	607.88
426.123	609.01
426.499	601.1
426.875	630.48
427.251	613.76
427.627	612.63
428.003	624.6
428.379	649.01
428.756	630.25
429.132	656.47
429.507	656.01
429.883	645.39
430.259	663.47
430.635	662.34
431.011	670.48
431.387	692.62
431.763	691.27
432.138	693.98
432.514	693.3
432.89	710.93
433.265	712.28
433.641	721.55
434.016	730.36
434.392	715
434.767	740.98
435.143	757.71
435.518	743.47
435.894	754.77
436.269	766.75
436.644	761.32
437.02	770.81
437.395	770.14
437.77	773.75
438.145	799.96
438.52	775.56
438.895	806.07
439.271	811.26
439.646	837.03
440.021	823.24
440.395	803.81
440.77	828.44
441.145	813.07
441.52	834.77
441.895	839.74
442.27	849
442.645	859.85
443.019	863.47
443.394	859.17
443.769	881.54
444.143	861.88
444.518	887.87
444.892	876.8
445.267	843.35
445.641	871.83
446.016	892.62
446.39	891.71
446.764	906.4
447.139	921.09
447.513	902.79
447.887	900.53
448.262	897.82
448.636	928.32
449.01	932.16
449.384	945.95
449.758	915.67
450.132	971.49
450.506	954.09
450.88	980.75
451.254	971.26
451.628	969.45
452.002	1007.19
452.376	984.37
452.75	1004.71
453.123	992.05
453.497	1026.17
453.871	1015.1
454.244	1059.62
454.618	1077.25
454.992	1034.08
455.365	1064.14
455.739	1058.49
456.112	1074.99
456.486	1076.57
456.859	1098.71
457.232	1125.15
457.606	1140.29
457.979	1144.59
458.352	1142.78
458.725	1158.15
459.099	1155.89
459.472	1176.45
459.845	1191.59
460.218	1230.69
460.591	1199.28
460.964	1209.22
461.337	1242.89
461.71	1274.08
462.083	1276.11
462.456	1276.34
462.829	1296
463.201	1286.05
463.574	1350.68
463.947	1336.45
464.32	1358.59
464.692	1351.81
465.065	1401.3
465.438	1396.33
465.81	1419.84
466.183	1440.4
466.555	1463.68
466.928	1453.96
467.3	1471.36
467.672	1513.62
468.045	1534.18
468.417	1517.23
468.789	1551.13
469.161	1585.71
469.534	1593.84
469.906	1590.9
470.278	1642.65
470.65	1625.03
471.022	1655.54
471.394	1726.27
471.766	1731.92
472.138	1732.82
472.51	1782.09
472.882	1802.88
473.253	1805.14
473.625	1859.82
473.997	1924.91
474.369	1918.58
474.74	1953.15
475.112	1966.49
475.484	2017.11
475.855	2051.91
476.227	2055.07
476.598	2118.35
476.97	2114.96
477.341	2136.65
477.713	2229.53
478.084	2251.9
478.455	2311.11
478.827	2379.36
479.198	2415.97
479.569	2415.06
479.94	2499.36
480.311	2521.28
480.682	2565.34
481.053	2644.66
481.424	2721.5
481.795	2717.43
482.166	2761.72
482.537	2789.29
482.908	2865.9
483.279	2890.08
483.65	2987.7
484.021	3016.4
484.391	3064.54
484.762	3101.15
485.133	3149.28
485.503	3174.59
485.874	3268.83
486.244	3306.34
486.615	3385.89
486.985	3394.25
487.356	3492.1
487.726	3536.84
488.097	3622.49
488.467	3670.17
488.837	3688.02
489.207	3740.45
489.578	3800.34
489.948	3850.73
490.318	3897.96
490.688	3973.89
491.058	4030.61
491.428	4082.36
491.798	4085.53
492.168	4185.86
492.538	4198.07
492.908	4264.96
493.278	4332.75
493.648	4359.65
494.017	4451.17
494.387	4460.43
494.757	4568
495.126	4567.1
495.496	4597.15
495.866	4669.92
496.235	4707.88
496.605	4726.87
496.974	4808
497.344	4828.56
497.713	4849.35
498.082	4921.21
498.452	4972.06
498.821	4953.75
499.19	4991.72
499.559	5060.87
499.928	5046.41
500.298	5139.74
500.667	5146.29
501.036	5143.13
501.405	5228.1
501.774	5262.22
502.143	5269.23
502.512	5301.54
502.88	5382.22
503.249	5389.67
503.618	5414.98
503.987	5412.72
504.356	5434.87
504.724	5436.91
505.093	5517.58
505.462	5525.49
505.83	5609.1
506.199	5598.03
506.567	5656.79
506.936	5687.75
507.304	5770.46
507.672	5793.73
508.041	5800.29
508.409	5805.48
508.777	5863.11
509.145	5919.6
509.514	5945.59
509.882	5946.04
510.25	5944.46
510.618	6017
510.986	6063.56
511.354	6114.63
511.722	6136.55
512.09	6174.29
512.458	6166.83
512.826	6223.1
513.193	6187.62
513.561	6214.51
513.929	6309.65
514.297	6298.35
514.664	6371.8
515.032	6424.45
515.4	6419.25
515.767	6466.48
516.135	6488.63
516.502	6456.31
516.869	6515.07
517.237	6600.72
517.604	6530.66
517.972	6653.82
518.339	6560.04
518.706	6616.08
519.073	6668.51
519.44	6656.99
519.808	6801.16
520.175	6733.14
520.542	6790.32
520.909	6872.12
521.276	6836.42
521.643	6916.41
522.009	6900.6
522.376	6932.46
522.743	6999.8
523.11	7073.92
523.477	7109.86
523.843	7174.03
524.21	7223.52
524.577	7239.8
524.943	7326.8
525.31	7344.65
525.676	7358.44
526.043	7385.33
526.409	7440.02
526.776	7552.1
527.142	7513.01
527.508	7590.29
527.874	7581.26
528.241	7663.29
528.607	7677.3
528.973	7761.82
529.339	7735.38
529.705	7834.13
530.071	7935.37
530.437	7902.15
530.803	7912.09
531.169	8042.26
531.535	8002.94
531.901	8039.55
532.267	8057.85
532.632	8102.82
532.998	8128.81
533.364	8225.53
533.73	8215.36
534.095	8315.7
534.461	8249.03
534.826	8356.83
535.192	8360.44
535.557	8413.32
535.923	8424.62
536.288	8496.94
536.653	8530.84
537.019	8469.82
537.384	8615.8
537.749	8623.26
538.114	8618.29
538.479	8635.47
538.845	8694.45
539.21	8671.85
539.575	8771.96
539.94	8744.84
540.305	8843.14
540.67	8821.22
541.034	8824.61
541.399	8906.19
541.764	8926.98
542.129	8988.22
542.494	9015.12
542.858	9044.95
543.223	9028.68
543.587	9133.76
543.952	9150.25
544.316	9173.76
544.681	9152.51
545.045	9278.61
545.41	9270.48
545.774	9328.1
546.138	9316.8
546.503	9371.94
546.867	9352.51
547.231	9516.57
547.595	9480.64
547.959	9525.61
548.324	9507.76
548.688	9549.34
549.052	9564.03
549.416	9623.24
549.779	9596.34
550.143	9712.5
550.507	9737.81
550.871	9821.42
551.235	9756.57
551.599	9844.25
551.962	9915.43
552.326	9928.09
552.689	9949.1
553.053	9966.5
553.417	9946.17
553.78	10094.64
554.143	10033.17
554.507	10050.34
554.87	10128.76
555.234	10159.04
555.597	10126.73
555.96	10192.49
556.323	10198.59
556.686	10251.69
557.05	10396.77
557.413	10373.5
557.776	10359.26
558.139	10376.66
558.502	10446.72
558.865	10521.07
559.228	10626.6
559.59	10600.39
559.953	10552.25
560.316	10740.04
560.679	10688.74
561.041	10730.33
561.404	10776.88
561.767	10833.83
562.129	10706.15
562.492	10888.74
562.854	10960.15
563.217	10892.35
563.579	11036.31
563.941	11081.95
564.304	11113.37
564.666	11167.6
565.028	11164.21
565.39	11250.54
565.753	11281.72
566.115	11342.06
566.477	11263.64
566.839	11361.72
567.201	11387.48
567.563	11357.2
567.925	11487.37
568.287	11472.45
568.648	11545.9
569.01	11567.82
569.372	11648.04
569.734	11625.22
570.095	11745.67
570.457	11790.41
570.819	11801.26
571.18	11840.8
571.542	11933.23
571.903	11993.34
572.265	11924.42
572.626	12099.1
572.987	12163.51
573.349	12151.53
573.71	12236.5
574.071	12286.67
574.432	12291.41
574.794	12431.07
575.155	12489.15
575.516	12555.81
575.877	12598.3
576.238	12685.98
576.599	12762.14
576.96	12813.43
577.32	12869.25
577.681	12998.97
578.042	13086.2
578.403	13169.13
578.763	13257.04
579.124	13403.48
579.485	13517.14
579.845	13626.52
580.206	13734.54
580.566	13758.49
580.927	13948.55
581.287	14111.71
581.648	14105.6
582.008	14330.46
582.368	14511.69
582.728	14671.24
583.089	14803.44
583.449	14944.45
583.809	15099.02
584.169	15288.62
584.529	15417.43
584.889	15653.13
585.249	15796.63
585.609	15941.49
585.969	16169.96
586.329	16393.23
586.688	16705.31
587.048	16814.23
587.408	17028.46
587.768	17323.37
588.127	17514.1
588.487	17759.29
588.846	18131.94
589.206	18277.02
589.565	18447.64
589.925	18848.98
590.284	19065.93
590.643	19288.97
591.003	19704.78
591.362	19902.74
591.721	20149.06
592.08	20511.99
592.44	20770.06
592.799	21131.41
593.158	21340.22
593.517	21638.74
593.876	22012.06
594.235	22268.1
594.593	22562.78
594.952	23005.03
595.311	23151.02
595.67	23493.15
596.029	23899.47
596.387	24315.5
596.746	24522.5
597.104	24704.2
597.463	25088.37
597.822	25454.23
598.18	25616.94
598.538	25824.84
598.897	26462.57
599.255	26474.77
599.613	27155.2
599.972	27279.04
600.33	27554.29
600.688	27790.44
601.046	28226.59
601.404	28446.02
601.762	28833.13
602.12	29259.1
602.478	29469.49
602.836	29685.31
603.194	29870.84
603.552	30254.11
603.91	30375.01
604.268	30878.72
604.625	31064.48
604.983	31409.78
605.341	31573.62
605.698	31978.35
606.056	32249.08
606.413	32371.56
606.771	32702.63
607.128	33023.52
607.485	33093.8
607.843	33380.8
608.2	33713.9
608.557	34085.87
608.914	34177.17
609.272	34564.73
609.629	34783.48
609.986	35127.2
610.343	35165.61
610.7	35585.94
611.057	35718.82
611.414	35845.15
611.771	36145.7
612.127	36361.74
612.484	36731
612.841	36857.77
613.198	37088.28
613.554	37212.34
613.911	37470.87
614.267	37704.76
614.624	37711.54
614.98	37933.45
615.337	38424.96
615.693	38517.39
616.05	38584.28
616.406	38900.43
616.762	38918.96
617.118	38963.93
617.475	39184.94
617.831	39520.98
618.187	39485.95
618.543	39709.22
618.899	40096.78
619.255	40087.52
619.611	40264.69
619.967	40374.07
620.323	40694.74
620.678	40654.74
621.034	40643.44
621.39	40863.77
621.746	40976.99
622.101	41384.43
622.457	41228.73
622.812	41370.65
623.168	41483.19
623.523	41638.89
623.879	41824.65
624.234	41673.69
624.589	41834.37
624.945	41968.83
625.3	42086.56
625.655	42023.97
626.01	42150.97
626.365	42206.11
626.72	42231.87
627.075	42268.03
627.43	42439.32
627.785	42401.13
628.14	42523.16
628.495	42713.67
628.85	42701.01
629.205	42554.57
629.559	42876.37
629.914	42718.41
630.269	42767.22
630.623	42658.53
630.978	42694
631.332	43042.47
631.687	43106.2
632.041	42985.97
632.396	42978.74
632.75	43041.34
633.104	43073.2
633.459	42967.9
633.813	42891.29
634.167	42990.04
634.521	43142.58
634.875	43222.58
635.229	43182.81
635.583	42966.09
635.937	43149.59
636.291	43065.75
636.645	43160.43
636.999	42966.54
637.352	43156.59
637.706	42875.69
638.06	43150.94
638.413	43170.15
638.767	43066.2
639.121	43041.79
639.474	42896.03
639.828	42971.29
640.181	43080.21
640.534	43066.42
640.888	42905.75
641.241	42802.25
641.594	43098.74
641.947	42971.29
642.301	42905.52
642.654	43076.59
643.007	43063.71
643.36	43032.07
643.713	42808.8
644.066	43209.92
644.419	42864.17
644.771	42733.1
645.124	42314.13
645.477	42227.35
645.83	42016.73
646.182	41984.64
646.535	41776.06
646.888	41848.38
647.24	41552.79
647.593	41880.69
647.945	41634.37
648.298	41557.09
648.65	41591.43
649.002	41423.3
649.355	41726.35
649.707	41651.09
650.059	41855.61
650.411	42231.87
650.763	42284.52
651.115	42712.76
651.467	42576.95
651.819	42594.57
652.171	42501.92
652.523	42414.69
652.875	42361.13
653.227	42264.86
653.578	42634.57
653.93	42394.58
654.282	42303.05
654.633	42248.37
654.985	42353.67
655.337	42455.82
655.688	42403.84
656.039	42604.97
656.391	42144.64
656.742	42337.18
657.094	42337.86
657.445	42498.98
657.796	42351.87
658.147	42242.04
658.498	42236.62
658.849	42187.8
659.2	42276.39
659.551	42213.34
659.902	42392.09
660.253	42177.63
660.604	42253.34
660.955	42081.14
661.306	42369.49
661.656	42173.57
662.007	42292.66
662.358	42199.55
662.708	42178.31
663.059	42146.9
663.409	41890.18
663.76	42195.71
664.11	42222.15
664.461	42327.46
664.811	42337.18
665.161	42176.73
665.511	42136.28
665.862	42182.61
666.212	42329.27
666.562	42216.5
666.912	42138.76
667.262	42145.32
667.612	42096.73
667.962	42173.79
668.312	42034.13
668.662	42303.28
669.011	42077.98
669.361	42022.84
669.711	42052.44
670.06	41982.84
670.41	41953.23
670.76	41775.16
671.109	42071.2
671.459	41864.65
671.808	41837.98
672.157	41969.05
672.507	41679.12
672.856	41853.8
673.205	41811.54
673.554	41980.12
673.904	41791.88
674.253	42068.03
674.602	41882.5
674.951	41308.96
675.3	41201.84
675.649	41700.58
675.998	41690.42
676.346	41715.27
676.695	41708.04
677.044	41500.14
677.393	41604.09
677.741	41713.69
678.09	41476.18
678.438	41546.46
678.787	41518.44
679.135	41533.58
679.484	41229.41
679.832	41393.47
680.181	41234.61
680.529	41310.76
680.877	41296.53
681.225	41136.31
681.573	41355.06
681.922	41051.56
682.27	41084.33
682.618	41008.17
682.966	40916.42
683.314	41077.78
683.661	40811.79
684.009	40651.35
684.357	40763.21
684.705	40534.29
685.053	40843.43
685.4	40595.08
685.748	40652.7
686.095	40588.3
686.443	40380.62
686.79	40360.73
687.138	40368.64
687.485	40412.03
687.832	40102.89
688.18	40196.67
688.527	40002.1
688.874	39992.61
689.221	39878.94
689.568	39833.74
689.915	39818.83
690.262	39809.56
690.609	39473.07
690.956	39508.55
691.303	39411.83
691.65	39210.25
691.997	39270.14
692.344	39111.5
692.69	39065.4
693.037	39004.38
693.383	38736.37
693.73	38888.91
694.077	38584.28
694.423	38687.56
694.769	38509.03
695.116	38334.8
695.462	38323.5
695.808	38315.36
696.155	38357.62
696.501	37936.84
696.847	38105.88
697.193	37760.8
697.539	37988.14
697.885	37564.65
698.231	37617.3
698.577	37697.07
698.923	37510.19
699.269	37440.36
699.614	37215.73
699.96	37188.16
700.306	37248.72
700.651	37016.64
700.997	36975.96
701.342	36898.45
701.688	36769.19
702.033	36676.31
702.379	36723.09
702.724	36500.5
703.069	36484.45
703.415	36228.64
703.76	36249.43
704.105	36185.25
704.45	36210.11
704.795	35906.84
705.14	35877.01
705.485	35767.18
705.83	35637.47
706.175	35782.32
706.52	35533.06
706.865	35545.27
707.209	35540.97
707.554	35331.94
707.899	35496.23
708.243	35227.99
708.588	35221.66
708.932	34982.79
709.277	34951.84
709.621	35107.09
709.966	34793.42
710.31	34869.58
710.654	34489.93
710.998	34618.96
711.342	34654.44
711.687	34520.43
712.031	34256.03
712.375	34251.06
712.719	34363.15
713.063	34197.28
713.407	34340.55
713.75	34095.36
714.094	34080.67
714.438	33894.01
714.782	34015.59
715.125	33798.65
715.469	33807.46
715.812	33675.94
716.156	33588.48
716.499	33464.19
716.843	33441.59
717.186	33287.7
717.53	33503.96
717.873	33442.95
718.216	33363.18
718.559	33168.15
718.902	32982.4
719.246	33114.14
719.589	32899.23
719.932	32918.44
720.275	32812.46
720.617	32949.4
720.96	32811.55
721.303	32889.52
721.646	32778.11
721.989	32490.66
722.331	32606.59
722.674	32548.96
723.016	32590.77
723.359	32462.41
723.701	32527.27
724.044	32310.55
724.386	32235.07
724.729	32379.25
725.071	32184.68
725.413	32183.77
725.755	32008.86
726.097	32048.63
726.439	31857.45
726.782	31838.47
727.124	31948.3
727.465	31759.15
727.807	31776.33
728.149	31823.1
728.491	31580.17
728.833	31741.07
729.175	31526.61
729.516	31551.02
729.858	31353.96
730.199	31480.06
730.541	31441.87
730.882	31337.24
731.224	31499.04
731.565	31226.96
731.906	31304.25
732.248	31244.36
732.589	31164.82
732.93	30904.94
733.271	30960.53
733.612	31019.06
733.953	31047.08
734.294	30954.88
734.635	30896.57
734.976	30827.65
735.317	30693.42
735.658	30785.84
735.999	30849.57
736.339	30679.18
736.68	30816.58
737.021	30598.5
737.361	30449.35
737.702	30611.84
738.042	30458.39
738.383	30515.57
738.723	30450.48
739.063	30417.72
739.404	30446.42
739.744	30270.38
740.084	30182.7
740.424	30300.66
740.764	30098.4
741.104	30311.51
741.444	30019.99
741.784	29981.12
742.124	29961.46
742.464	30123.49
742.804	29973.44
743.143	29847.56
743.483	29818.41
743.823	29760.56
744.162	29737.74
744.502	29769.15
744.841	29709.04
745.181	29720.11
745.52	29565.08
745.86	29776.38
746.199	29666.32
746.538	29460.23
746.877	29445.31
747.216	29466.33
747.556	29549.27
747.895	29507.46
748.234	29371.42
748.573	29283.51
748.911	29237.86
749.25	29301.36
749.589	29133.68
749.928	29288.93
750.267	29212.55
750.605	29108.15
750.944	29012.78
751.283	29004.65
751.621	29000.13
751.96	28945.89
752.298	28989.73
752.636	28828.83
752.975	28704.77
753.313	28623.64
753.651	28641.27
753.989	28635.39
754.327	28544.32
754.666	28406.47
755.004	28463.64
755.342	28442.63
755.679	28384.55
756.017	28362.4
756.355	28269.98
756.693	28032.47
757.031	28231.11
757.368	28074.5
757.706	28001.96
758.044	28005.13
758.381	27959.25
758.719	27858.46
759.056	27874.28
