Data from hue_310_FLMS001491_12.txt Node
Date: Mon Feb 06 15:48:53 GMT 2017
User: dcchb
Spectrometer: FLMS00149
Trigger mode: 0
Integration Time (sec): 2.000000E-2
Scans to average: 10
Electric dark correction enabled: true
Nonlinearity correction enabled: false
Boxcar width: 0
XAxis mode: Wavelengths
Number of Pixels in Spectrum: 2048
>>>>>Begin Spectral Data<<<<<
341.393	-21.65
341.776	-21.65
342.16	-21.65
342.543	-63.01
342.927	-60.97
343.31	-75.66
343.693	-75.21
344.077	-63.23
344.46	-51.71
344.843	-51.03
345.226	-37.47
345.61	-20.75
345.993	-16.23
346.376	-6.96
346.759	17.9
347.142	10.66
347.525	35.07
347.908	68.06
348.291	69.19
348.674	81.17
349.057	116.2
349.44	125.91
349.823	122.75
350.206	181.73
350.588	190.32
350.971	200.49
351.354	237.55
351.737	230.09
352.119	242.75
352.502	245.46
352.884	278
353.267	268.74
353.65	260.83
354.032	299.47
354.414	306.47
354.797	308.96
355.179	328.4
355.562	322.07
355.944	307.83
356.326	343.99
356.709	326.14
357.091	348.51
357.473	333.82
357.855	328.85
358.238	348.96
358.62	328.62
359.002	331.56
359.384	348.51
359.766	333.37
360.148	329.98
360.53	327.94
360.912	342.41
361.294	303.31
361.676	333.82
362.057	328.62
362.439	335.63
362.821	321.16
363.203	334.27
363.584	321.84
363.966	314.84
364.348	303.54
364.729	324.33
365.111	322.75
365.493	309.64
365.874	314.84
366.256	309.19
366.637	319.13
367.019	320.26
367.4	310.54
367.781	309.64
368.163	313.48
368.544	317.1
368.925	314.84
369.306	317.77
369.688	306.47
370.069	332.24
370.45	315.29
370.831	306.7
371.212	306.02
371.593	299.47
371.974	326.59
372.355	301.05
372.736	314.61
373.117	329.75
373.498	322.52
373.879	326.14
374.26	309.19
374.641	312.8
375.021	291.56
375.402	307.83
375.783	316.87
376.163	326.81
376.544	334.95
376.925	312.12
377.305	312.12
377.686	330.66
378.066	313.93
378.447	337.43
378.827	335.17
379.208	326.14
379.588	329.53
379.968	314.61
380.349	316.42
380.729	334.04
381.109	341.5
381.489	340.82
381.87	314.38
382.25	329.3
382.63	342.41
383.01	337.89
383.39	350.99
383.77	345.8
384.15	347.15
384.53	336.76
384.91	350.77
385.29	330.2
385.67	344.67
386.049	336.53
386.429	348.06
386.809	351.67
387.189	366.13
387.568	356.19
387.948	336.98
388.328	369.07
388.707	353.25
389.087	327.27
389.466	355.97
389.846	371.56
390.225	356.42
390.605	352.12
390.984	341.05
391.363	352.12
391.743	375.63
392.122	360.48
392.501	373.59
392.881	377.21
393.26	373.37
393.639	357.77
394.018	383.99
394.397	379.47
394.776	383.99
395.155	381.28
395.534	379.92
395.913	364.33
396.292	363.65
396.671	405.68
397.05	380.37
397.429	374.95
397.808	385.57
398.186	388.05
398.565	395.74
398.944	393.03
399.323	388.05
399.701	396.64
400.08	383.76
400.458	392.8
400.837	393.03
401.215	411.11
401.594	412.46
401.972	406.81
402.351	413.59
402.729	429.18
403.107	431.67
403.486	412.69
403.864	428.05
404.242	446.36
404.62	439.35
404.999	413.59
405.377	435.51
405.755	432.57
406.133	445.91
406.511	454.72
406.889	456.08
407.267	458.11
407.645	456.53
408.023	472.35
408.401	451.33
408.779	467.15
409.156	480.03
409.534	464.89
409.912	487.94
410.29	480.71
410.667	507.37
411.045	503.53
411.422	517.09
411.8	513.93
412.178	501.95
412.555	527.26
412.933	555.06
413.31	553.7
413.687	531.55
414.065	552.34
414.442	544.43
414.819	575.62
415.197	578.11
415.574	581.72
415.951	611.55
416.328	588.5
416.705	610.2
417.082	613.59
417.46	619.69
417.837	611.1
418.214	625.56
418.591	653.36
418.967	636.86
419.344	637.09
419.721	661.95
420.098	692.68
420.475	666.92
420.852	670.08
421.228	700.59
421.605	682.28
421.982	710.76
422.358	714.6
422.735	701.27
423.111	715.28
423.488	729.06
423.864	761.38
424.241	741.49
424.617	742.62
424.994	749.4
425.37	756.41
425.746	776.07
426.123	776.97
426.499	782.17
426.875	797.99
427.251	777.42
427.627	826.46
428.003	828.5
428.379	849.96
428.756	816.74
429.132	843.41
429.507	874.37
429.883	856.07
430.259	868.72
430.635	866.01
431.011	889.96
431.387	889.06
431.763	917.53
432.138	910.75
432.514	940.58
432.89	929.74
433.265	946.68
433.641	945.1
434.016	965.44
434.392	980.36
434.767	996.17
435.143	986.46
435.518	1022.39
435.894	1040.47
436.269	1022.16
436.644	1052.9
437.02	1066
437.395	1054.93
437.77	1074.36
438.145	1068.04
438.52	1096.51
438.895	1089.96
439.271	1107.36
439.646	1124.08
440.021	1122.27
440.395	1134.02
440.77	1139
441.145	1173.8
441.52	1175.38
441.895	1171.09
442.27	1170.63
442.645	1166.34
443.019	1151.65
443.394	1188.94
443.769	1181.93
444.143	1179.22
444.518	1212.21
444.892	1197.07
445.267	1175.38
445.641	1208.37
446.016	1184.87
446.39	1221.03
446.764	1209.95
447.139	1216.51
447.513	1240.69
447.887	1248.82
448.262	1252.21
448.636	1249.73
449.01	1248.82
449.384	1256.05
449.758	1255.38
450.132	1290.4
450.506	1275.49
450.88	1286.34
451.254	1286.79
451.628	1304.64
452.002	1279.33
452.376	1319.33
452.75	1299.22
453.123	1345.32
453.497	1376.96
453.871	1339.89
454.244	1341.93
454.618	1359.55
454.992	1386.45
455.365	1412.43
455.739	1381.93
456.112	1401.14
456.486	1416.5
456.859	1423.73
457.232	1429.61
457.606	1413.11
457.979	1442.94
458.352	1463.05
458.725	1476.61
459.099	1470.96
459.472	1474.35
459.845	1536.05
460.218	1521.58
460.591	1509.16
460.964	1485.65
461.337	1553
461.71	1569.94
462.083	1627.12
462.456	1574.92
462.829	1562.71
463.201	1606.78
463.574	1578.76
463.947	1596.16
464.32	1626.44
464.692	1655.59
465.065	1653.11
465.438	1683.61
465.81	1695.14
466.183	1689.26
466.555	1717.06
466.928	1710.96
467.3	1756.83
467.672	1753.22
468.045	1786.44
468.417	1762.71
468.789	1773.1
469.161	1785.08
469.534	1834.8
469.906	1844.29
470.278	1836.38
470.65	1850.16
471.022	1868.02
471.394	1893.33
471.766	1931.97
472.138	1963.83
472.51	1972.65
472.882	1963.83
473.253	2000.89
473.625	2004.28
473.997	2068.46
474.369	2072.76
474.74	2108.01
475.112	2070.5
475.484	2111.4
475.855	2143.71
476.227	2155.47
476.598	2164.51
476.97	2198.85
477.341	2225.07
477.713	2241.11
478.084	2256.03
478.455	2322.02
478.827	2296.48
479.198	2367.66
479.569	2340.77
479.94	2413.09
480.311	2405.85
480.682	2454.89
481.053	2455.8
481.424	2520.2
481.795	2512.97
482.166	2549.35
482.537	2594.32
482.908	2668.22
483.279	2628.45
483.65	2666.41
484.021	2686.53
484.391	2723.13
484.762	2782.12
485.133	2735.79
485.503	2783.25
485.874	2808.33
486.244	2823.24
486.615	2850.81
486.985	2883.81
487.356	2939.17
487.726	2923.58
488.097	2994.77
488.467	2989.12
488.837	3060.53
489.207	3058.72
489.578	3078.38
489.948	3138.26
490.318	3182.78
490.688	3158.38
491.058	3211.03
491.428	3204.03
491.798	3249
492.168	3323.12
492.538	3285.15
492.908	3351.82
493.278	3358.6
493.648	3335.1
494.017	3401.53
494.387	3414.42
494.757	3433.85
495.126	3446.73
495.496	3473.17
495.866	3483.34
496.235	3548.65
496.605	3553.17
496.974	3539.84
497.344	3583
497.713	3545.94
498.082	3572.38
498.452	3607.41
498.821	3616.22
499.19	3611.7
499.559	3647.4
499.928	3665.26
500.298	3697.57
500.667	3739.38
501.036	3724.46
501.405	3752.49
501.774	3763.33
502.143	3779.83
502.512	3780.96
502.88	3850.56
503.249	3800.62
503.618	3837.68
503.987	3804.46
504.356	3863.22
504.724	3841.75
505.093	3859.38
505.462	3873.39
505.83	3928.07
506.199	3886.95
506.567	3947.06
506.936	3946.83
507.304	4020.28
507.672	3990.22
508.041	4021.41
508.409	4044.68
508.777	4056.66
509.145	4104.79
509.514	4011.01
509.882	4034.29
510.25	4062.08
510.618	4084.91
510.986	4105.25
511.354	4168.07
511.722	4151.57
512.09	4154.06
512.458	4170.1
512.826	4145.47
513.193	4226.15
513.561	4185.02
513.929	4185.7
514.297	4227.73
514.664	4228.18
515.032	4306.6
515.4	4316.31
515.767	4284.45
516.135	4294.17
516.502	4300.04
516.869	4331.23
517.237	4318.35
517.604	4301.17
517.972	4332.36
518.339	4345.01
518.706	4355.41
519.073	4343.88
519.44	4411
519.808	4411.9
520.175	4390.89
520.542	4404.22
520.909	4439.02
521.276	4457.1
521.643	4449.19
522.009	4520.15
522.376	4514.5
522.743	4555.63
523.11	4534.39
523.477	4587.04
523.843	4589.98
524.21	4582.29
524.577	4610.09
524.943	4691.67
525.31	4624.33
525.676	4680.37
526.043	4735.06
526.409	4722.63
526.776	4740.26
527.142	4755.85
527.508	4827.49
527.874	4811.22
528.241	4829.29
528.607	4876.3
528.973	4907.48
529.339	4921.27
529.705	4959.23
530.071	4955.17
530.437	4993.81
530.803	5005.33
531.169	5028.84
531.535	5045.11
531.901	5035.84
532.267	5091.43
532.632	5127.59
532.998	5151.55
533.364	5174.6
533.73	5165.33
534.095	5206.69
534.461	5222.73
534.826	5291.43
535.192	5271.32
535.557	5296.17
535.923	5325.1
536.288	5283.75
536.653	5333.24
537.019	5302.95
537.384	5325.33
537.749	5373.23
538.114	5380.47
538.479	5408.04
538.845	5370.75
539.21	5496.85
539.575	5446
539.94	5548.15
540.305	5542.27
540.67	5532.78
541.034	5522.16
541.399	5570.97
541.764	5616.84
542.129	5611.19
542.494	5646.22
542.858	5703.85
543.223	5660.91
543.587	5727.12
543.952	5741.13
544.316	5817.06
544.681	5740.46
545.045	5808.7
545.41	5828.14
545.774	5851.41
546.138	5896.16
546.503	5900
546.867	5952.2
547.231	6009.6
547.595	5989.04
547.959	6002.37
548.324	5982.48
548.688	6017.96
549.052	6044.86
549.416	6055.7
549.779	6078.98
550.143	6107
550.507	6106.32
550.871	6128.47
551.235	6084.85
551.599	6242.59
551.962	6198.07
552.326	6225.64
552.689	6261.8
553.053	6272.65
553.417	6327.79
553.78	6347.22
554.143	6307
554.507	6309.93
554.87	6398.52
555.234	6422.92
555.597	6399.42
555.96	6424.73
556.323	6417.05
556.686	6468.12
557.05	6475.35
557.413	6489.36
557.776	6486.65
558.139	6522.58
558.502	6533.66
558.865	6552.86
559.228	6624.5
559.59	6611.62
559.953	6610.04
560.316	6650.04
560.679	6703.37
561.041	6729.81
561.404	6699.08
561.767	6761.45
562.129	6721.67
562.492	6818.17
562.854	6834.89
563.217	6812.29
563.579	6854.1
563.941	6863.59
564.304	6868.11
564.666	6942.68
565.028	6938.17
565.39	6959.41
565.753	6980.2
566.115	6939.29
566.477	7000.99
566.839	7034.21
567.201	7102.45
567.563	7102
567.925	7196.92
568.287	7167.99
568.648	7131.61
569.01	7223.36
569.372	7260.19
569.734	7233.52
570.095	7266.74
570.457	7358.72
570.819	7318.04
571.18	7351.04
571.542	7430.13
571.903	7429.68
572.265	7557.58
572.626	7542.44
572.987	7532.05
573.349	7648.2
573.71	7598.94
574.071	7671.03
574.432	7725.04
574.794	7790.35
575.155	7827.63
575.516	7850.01
575.877	7931.59
576.238	7954.64
576.599	8056.1
576.96	8175.87
577.32	8197.34
577.681	8250.9
578.042	8360.05
578.403	8440.5
578.763	8527.28
579.124	8618.8
579.485	8721.62
579.845	8845.01
580.206	8961.61
580.566	9021.5
580.927	9166.58
581.287	9280.93
581.648	9385.56
582.008	9474.82
582.368	9681.6
582.728	9746
583.089	9899.67
583.449	10048.37
583.809	10258.98
584.169	10427.34
584.529	10613.1
584.889	10789.59
585.249	10963.82
585.609	11092.18
585.969	11325.62
586.329	11570.36
586.688	11785.72
587.048	11962.44
587.408	12160.17
587.768	12374.86
588.127	12686.94
588.487	12783.21
588.846	13154.72
589.206	13321.5
589.565	13589.52
589.925	13893.91
590.284	14129.61
590.643	14368.25
591.003	14671.75
591.362	15003.72
591.721	15213.65
592.08	15370.26
592.44	15847.99
592.799	16057.02
593.158	16344.47
593.517	16736.33
593.876	16974.06
594.235	17212.25
594.593	17563.2
594.952	17783.08
595.311	18126.57
595.67	18485.21
596.029	18818.53
596.387	19068.24
596.746	19390.49
597.104	19679.07
597.463	19898.73
597.822	20251.94
598.18	20415.78
598.538	20687.86
598.897	21189.99
599.255	21260.95
599.613	21902.52
599.972	22020.03
600.33	22345.22
600.688	22540.92
601.046	22979.1
601.404	23202.82
601.762	23488.69
602.12	23810.94
602.478	24143.81
602.836	24422.45
603.194	24540.87
603.552	24859.5
603.91	25047.07
604.268	25395.76
604.625	25673.49
604.983	25905.8
605.341	26084.1
605.698	26382.63
606.056	26638.44
606.413	26950.75
606.771	27330.17
607.128	27460.11
607.485	27654.23
607.843	27845.41
608.2	28230.26
608.557	28556.81
608.914	28635.22
609.272	28912.5
609.629	29164.93
609.986	29440.85
610.343	29484.46
610.7	29990.21
611.057	30148.4
611.414	30265.24
611.771	30430.43
612.127	30774.6
612.484	30969.17
612.841	31173.91
613.198	30994.48
613.554	31321.7
613.911	31752.43
614.267	31745.42
614.624	31987.68
614.98	32181.8
615.337	32469.92
615.693	32606.19
616.05	32640.99
616.406	32853.42
616.762	32876.24
617.118	33115.33
617.475	33201.66
617.831	33453.4
618.187	33594.87
618.543	33737.01
618.899	34065.81
619.255	34044.12
619.611	34156.88
619.967	34510.1
620.323	34649.75
620.678	34456.54
621.034	34600.94
621.39	34663.54
621.746	34749.86
622.101	35233.69
622.457	35110.31
622.812	35259.68
623.168	35396.63
623.523	35494.93
623.879	35629.39
624.234	35408.15
624.589	35610.63
624.945	35730.85
625.3	36002.03
625.655	35953
626.01	35992.32
626.365	36233.44
626.72	36235.93
627.075	36298.3
627.43	36326.32
627.785	36284.29
628.14	36474.56
628.495	36524.28
628.85	36615.12
629.205	36480.21
629.559	36719.08
629.914	36601.57
630.269	36763.14
630.623	36698.74
630.978	36582.81
631.332	36731.28
631.687	36942.8
632.041	36711.17
632.396	36848.34
632.75	36802.01
633.104	37006.53
633.459	36815.12
633.813	36857.15
634.167	36895.8
634.521	36889.02
634.875	37034.1
635.229	36966.53
635.583	36879.98
635.937	36955
636.291	36879.52
636.645	36850.6
636.999	36882.01
637.352	37116.81
637.706	36875.46
638.06	36994.78
638.413	36982.57
638.767	36834.1
639.121	36965.17
639.474	36831.62
639.828	36821.22
640.181	37033.19
640.534	36862.12
640.888	36920.88
641.241	36715.69
641.594	36903.03
641.947	37006.98
642.301	36769.47
642.654	36968.34
643.007	36769.47
643.36	36868.68
643.713	36790.94
644.066	36946.19
644.419	36907.09
644.771	36456.26
645.124	36136.49
645.477	36348.92
645.83	35903.51
646.182	35879.78
646.535	35585.77
646.888	35866.44
647.24	35802.04
647.593	35852.88
647.945	35704.64
648.298	35661.7
648.65	35536.96
649.002	35373.8
649.355	35650.86
649.707	35626
650.059	35834.13
650.411	36303.49
650.763	36341.91
651.115	36604.5
651.467	36478.86
651.819	36588.46
652.171	36439.31
652.523	36367.22
652.875	36398.41
653.227	36276.6
653.578	36463.72
653.93	36414
654.282	36289.94
654.633	36140.56
654.985	36241.8
655.337	36361.57
655.688	36278.86
656.039	36380.33
656.391	36039.32
656.742	36122.93
657.094	36148.7
657.445	36235.47
657.796	36050.85
658.147	36091.3
658.498	36138.75
658.849	36165.19
659.2	36151.41
659.551	36105.08
659.902	36183.27
660.253	36170.39
660.604	36256.94
660.955	35939.89
661.306	36009.72
661.656	35983.5
662.007	36104.18
662.358	36141.92
662.708	36116.15
663.059	36001.58
663.409	35718.88
663.76	36163.39
664.11	36132.43
664.461	36057.4
664.811	36012.88
665.161	36006.33
665.511	35841.59
665.862	35936.27
666.212	36151.86
666.562	35976.95
666.912	35893.34
667.262	35908.02
667.612	36029.83
667.962	36117.96
668.312	35910.06
668.662	36003.84
669.011	35957.29
669.361	35984.63
669.711	35876.84
670.06	35799.1
670.41	35842.94
670.76	35773.57
671.109	35970.62
671.459	35911.64
671.808	35822.15
672.157	35844.07
672.507	35695.83
672.856	35570.63
673.205	35723.17
673.554	35931.53
673.904	35641.14
674.253	35779.67
674.602	35794.81
674.951	35198.89
675.3	35048.61
675.649	35713.45
675.998	35591.65
676.346	35581.25
676.695	35598.88
677.044	35473.46
677.393	35586.9
677.741	35575.6
678.09	35397.3
678.438	35498.54
678.787	35490.86
679.135	35491.54
679.484	35307.36
679.832	35481.6
680.181	35315.05
680.529	35388.72
680.877	35184.43
681.225	35203.41
681.573	35409.28
681.922	35222.62
682.27	35070.98
682.618	35162.28
682.966	34943.53
683.314	35082.51
683.661	34988.95
684.009	34647.94
684.357	34783.99
684.705	34631.22
685.053	34703.54
685.4	34735.17
685.748	34534.05
686.095	34511.9
686.443	34324.34
686.79	34400.72
687.138	34460.15
687.485	34329.76
687.832	34265.58
688.18	34308.29
688.527	34161.18
688.874	34161.4
689.221	33970
689.568	33869.21
689.915	33929.09
690.262	33875.54
690.609	33769.78
690.956	33655.88
691.303	33616.56
691.65	33518.26
691.997	33445.26
692.344	33205.72
692.69	33200.07
693.037	33288.66
693.383	32986.75
693.73	33168.44
694.077	32916.69
694.423	32850.7
694.769	32778.62
695.116	32742.23
695.462	32681.22
695.808	32620.2
696.155	32675.34
696.501	32381.34
696.847	32492.52
697.193	32214.34
697.539	32226.99
697.885	32061.57
698.231	32122.14
698.577	31907.68
698.923	31915.14
699.269	31761.24
699.614	31701.36
699.96	31564.86
700.306	31639.89
700.651	31532.55
700.997	31417.3
701.342	31237.64
701.688	31323.06
702.033	31204.19
702.379	31145.66
702.724	30982.73
703.069	31118.77
703.415	30730.31
703.76	30748.61
704.105	30912
704.45	30758.33
704.795	30566.47
705.14	30501.16
705.485	30534.15
705.83	30372.13
706.175	30379.13
706.52	30161.06
706.865	30124.22
707.209	30187.5
707.554	30034.51
707.899	30198.34
708.243	29945.7
708.588	29837.22
708.932	29691.47
709.277	29700.28
709.621	29603.11
709.966	29587.29
710.31	29502.54
710.654	29355.2
710.998	29460.51
711.342	29382.32
711.687	29331.47
712.031	29179.84
712.375	29153.63
712.719	29120.18
713.063	29035.66
713.407	29206.05
713.75	28934.42
714.094	28961.77
714.438	28945.95
714.782	28817.36
715.125	28585.96
715.469	28756.35
715.812	28660.53
716.156	28399.97
716.499	28519.29
716.843	28528.56
717.186	28254.21
717.53	28400.43
717.873	28449.69
718.216	28374.21
718.559	28192.97
718.902	27992.07
719.246	28149.13
719.589	27992.53
719.932	27861.46
720.275	27952.53
720.617	27893.09
720.96	27901.23
721.303	27834.79
721.646	27746.43
721.989	27606.32
722.331	27715.02
722.674	27739.2
723.016	27630.28
723.359	27541.01
723.701	27647.9
724.044	27356.84
724.386	27219.67
724.729	27427.34
725.071	27267.12
725.413	27208.14
725.755	27307.12
726.097	27132.44
726.439	27021.03
726.782	27088.14
727.124	27183.28
727.465	27129.72
727.807	27000.01
728.149	26883.86
728.491	26853.12
728.833	26966.34
729.175	26806.8
729.516	26781.03
729.858	26693.13
730.199	26772.22
730.541	26651.09
730.882	26666.91
731.224	26647.93
731.565	26561.6
731.906	26396.64
732.248	26547.14
732.589	26265.79
732.93	26205.23
733.271	26384.43
733.612	26257.88
733.953	26396.18
734.294	26237.77
734.635	26105.8
734.976	26224.21
735.317	26060.83
735.658	25927.72
735.999	26038.23
736.339	25993.26
736.68	26078.23
737.021	25967.04
737.361	25879.36
737.702	25927.27
738.042	25881.62
738.383	25767.95
738.723	25829.42
739.063	25824.9
739.404	25807.27
739.744	25736.77
740.084	25598.24
740.424	25612.25
740.764	25520.28
741.104	25634.85
741.444	25471.24
741.784	25446.38
742.124	25383.56
742.464	25414.29
742.804	25282.77
743.143	25229.66
743.483	25225.37
743.823	25107.86
744.162	25097.69
744.502	25136.78
744.841	25137.91
745.181	25181.75
745.52	24990.57
745.86	25062.21
746.199	24880.07
746.538	24912.61
746.877	24929.56
747.216	24983.34
747.556	24727.3
747.895	24914.87
748.234	24776.34
748.573	24740.63
748.911	24673.74
749.25	24760.75
749.589	24584.25
749.928	24545.39
750.267	24606.4
750.605	24577.25
750.944	24454.54
751.283	24455.44
751.621	24506.06
751.96	24301.32
752.298	24342.23
752.636	24348.78
752.975	24287.54
753.313	24048.9
753.651	24224.72
753.989	24066.98
754.327	23919.64
754.666	23844.16
755.004	24023.82
755.342	23921.45
755.679	23796.48
756.017	23646.65
756.355	23773.2
756.693	23648.91
757.031	23664.5
757.368	23487.33
757.706	23519.65
758.044	23330.28
758.381	23340.9
758.719	23203.5
759.056	23331.63
759.394	23305.64
759.731	23119.21
760.068	23036.72
760.405	23068.14
