Data from hue_140_FLMS001491_00085.txt Node
Date: Tue Feb 07 16:56:31 GMT 2017
User: dcchb
Spectrometer: FLMS00149
Trigger mode: 0
Integration Time (sec): 2.000000E-2
Scans to average: 10
Electric dark correction enabled: true
Nonlinearity correction enabled: false
Boxcar width: 0
XAxis mode: Wavelengths
Number of Pixels in Spectrum: 2048
>>>>>Begin Spectral Data<<<<<
341.393	-13.95
341.776	-13.95
342.16	-13.95
342.543	-72.03
342.927	-68.87
343.31	-54.86
343.693	-65.93
344.077	-78.13
344.46	-68.42
344.843	-66.38
345.226	-44.01
345.61	-20.28
345.993	-27.29
346.376	6.61
346.759	10.45
347.142	32.15
347.525	48.87
347.908	57
348.291	76.66
348.674	80.28
349.057	113.27
349.44	132.71
349.823	131.13
350.206	164.35
350.588	191.24
350.971	206.6
351.354	231.91
351.737	237.11
352.119	232.82
352.502	268.07
352.884	271.01
353.267	293.61
353.65	286.15
354.032	303.78
354.414	312.82
354.797	318.47
355.179	325.7
355.562	320.5
355.944	325.92
356.326	307.17
356.709	342.19
357.091	324.57
357.473	343.1
357.855	336.54
358.238	334.06
358.62	341.52
359.002	331.8
359.384	355.08
359.766	345.81
360.148	334.51
360.53	361.4
360.912	311.69
361.294	318.92
361.676	334.06
362.057	322.53
362.439	317.34
362.821	323.66
363.203	338.13
363.584	324.57
363.966	315.3
364.348	324.57
364.729	311.23
365.111	334.28
365.493	324.34
365.874	294.74
366.256	318.24
366.637	304.91
367.019	310.56
367.4	306.04
367.781	319.14
368.163	288.41
368.544	310.78
368.925	304
369.306	314.62
369.688	307.39
370.069	321.4
370.45	312.14
370.831	315.08
371.212	294.51
371.593	311.01
371.974	288.18
372.355	308.3
372.736	299.48
373.117	311.46
373.498	320.73
373.879	313.72
374.26	335.41
374.641	322.31
375.021	309.88
375.402	318.92
375.783	318.47
376.163	315.53
376.544	333.83
376.925	338.58
377.305	325.92
377.686	343.78
378.066	323.66
378.447	344.45
378.827	339.03
379.208	330.22
379.588	338.58
379.968	336.32
380.349	338.58
380.729	326.38
381.109	336.32
381.489	346.71
381.87	313.27
382.25	331.8
382.63	336.54
383.01	345.81
383.39	334.51
383.77	323.21
384.15	338.13
384.53	339.93
384.91	343.78
385.29	358.47
385.67	331.12
386.049	351.46
386.429	344.23
386.809	333.38
387.189	347.62
387.568	366.15
387.948	359.14
388.328	360.95
388.707	366.15
389.087	372.25
389.466	341.06
389.846	369.09
390.225	355.08
390.605	370.89
390.984	382.42
391.363	360.5
391.743	359.6
392.122	360.27
392.501	357.79
392.881	359.14
393.26	358.92
393.639	370.44
394.018	374.74
394.397	377.22
394.776	378.35
395.155	370.44
395.534	375.19
395.913	366.15
396.292	377.22
396.671	382.42
397.05	392.59
397.429	373.61
397.808	387.16
398.186	380.61
398.565	381.29
398.944	393.04
399.323	391.46
399.701	385.36
400.08	382.65
400.458	377.22
400.837	413.83
401.215	399.37
401.594	404.34
401.972	407.96
402.351	381.97
402.729	403.66
403.107	418.12
403.486	408.18
403.864	411.35
404.242	402.53
404.62	424.23
404.999	411.57
405.377	411.8
405.755	424.68
406.133	410.44
406.511	392.36
406.889	431.01
407.267	440.04
407.645	440.5
408.023	421.51
408.401	442.3
408.779	440.72
409.156	431.91
409.534	454.96
409.912	445.92
410.29	445.92
410.667	435.75
411.045	448.41
411.422	448.41
411.8	440.5
412.178	464
412.555	456.99
412.933	455.19
413.31	475.07
413.687	464.68
414.065	469.87
414.442	464.23
414.819	484.79
415.197	492.47
415.574	503.55
415.951	480.5
416.328	496.54
416.705	475.3
417.082	485.92
417.46	504.68
417.837	492.92
418.214	512.59
418.591	491.57
418.967	488.18
419.344	504
419.721	515.3
420.098	513.04
420.475	520.72
420.852	518.69
421.228	519.82
421.605	518.46
421.982	529.53
422.358	530.21
422.735	548.06
423.111	539.7
423.488	534.51
423.864	511.91
424.241	541.96
424.617	539.03
424.994	548.74
425.37	589.19
425.746	556.2
426.123	552.13
426.499	564.79
426.875	593.26
427.251	582.19
427.627	576.09
428.003	582.19
428.379	626.25
428.756	598.68
429.132	593.04
429.507	609.98
429.883	591
430.259	621.74
430.635	617.67
431.011	625.12
431.387	631.45
431.763	634.62
432.138	637.55
432.514	639.36
432.89	643.88
433.265	647.27
433.641	661.28
434.016	631.68
434.392	670.77
434.767	686.82
435.143	692.69
435.518	683.43
435.894	684.11
436.269	706.03
436.644	720.49
437.02	715.29
437.395	715.29
437.77	721.17
438.145	736.08
438.52	734.5
438.895	731.56
439.271	731.34
439.646	758.45
440.021	747.61
440.395	755.29
440.77	772.47
441.145	781.96
441.52	762.52
441.895	793.71
442.27	758.68
442.645	781.28
443.019	797.32
443.394	793.48
443.769	807.49
444.143	789.87
444.518	806.36
444.892	814.72
445.267	810.2
445.641	830.32
446.016	824.44
446.39	840.03
446.764	830.77
447.139	828.28
447.513	844.78
447.887	837.32
448.262	849.3
448.636	844.55
449.01	874.84
449.384	873.48
449.758	871.22
450.132	858.11
450.506	885.46
450.88	888.62
451.254	897.43
451.628	911.9
452.002	909.19
452.376	918.9
452.75	914.38
453.123	945.34
453.497	940.82
453.871	959.35
454.244	968.17
454.618	978.34
454.992	989.18
455.365	984.89
455.739	983.53
456.112	1035.06
456.486	1019.24
456.859	1054.04
457.232	1075.51
457.606	1055.85
457.979	1056.07
458.352	1103.53
458.725	1084.77
459.099	1097.88
459.472	1125.68
459.845	1151.21
460.218	1138.56
460.591	1123.19
460.964	1150.76
461.337	1185.79
461.71	1186.47
462.083	1220.82
462.456	1224.88
462.829	1222.85
463.201	1241.83
463.574	1230.53
463.947	1280.02
464.32	1330.19
464.692	1309.17
465.065	1343.07
465.438	1362.28
465.81	1399.12
466.183	1358.21
466.555	1410.87
466.928	1421.26
467.3	1441.37
467.672	1470.98
468.045	1505.33
468.417	1537.87
468.789	1521.37
469.161	1565.44
469.534	1599.11
469.906	1648.15
470.278	1620.58
470.65	1690.86
471.022	1712.1
471.394	1756.39
471.766	1786.22
472.138	1788.48
472.51	1821.48
472.882	1874.58
473.253	1892.44
473.625	1953.68
473.997	2006.56
474.369	2048.36
474.74	2064.18
475.112	2081.13
475.484	2183.28
475.855	2209.49
476.227	2251.52
476.598	2325.87
476.97	2355.25
477.341	2467.56
477.713	2511.18
478.084	2560.44
478.455	2599.99
478.827	2680.89
479.198	2773.32
479.569	2797.72
479.94	2881.11
480.311	2962.92
480.682	3039.75
481.053	3146.64
481.424	3246.3
481.795	3327.43
482.166	3409.46
482.537	3476.8
482.908	3606.74
483.279	3669.34
483.65	3775.32
484.021	3900.07
484.391	3952.27
484.762	4070.01
485.133	4143.68
485.503	4269.1
485.874	4407.4
486.244	4525.81
486.615	4643.78
486.985	4765.13
487.356	4908.63
487.726	4952.69
488.097	5078.57
488.467	5169.19
488.837	5386.58
489.207	5462.51
489.578	5579.8
489.948	5728.72
490.318	5825.89
490.688	5976.62
491.058	6107.24
491.428	6241.02
491.798	6395.37
492.168	6551.52
492.538	6661.35
492.908	6708.81
493.278	6884.17
493.648	7008.91
494.017	7176.36
494.387	7249.13
494.757	7364.16
495.126	7495.9
495.496	7587.43
495.866	7706.97
496.235	7874.65
496.605	7896.35
496.974	8051.6
497.344	8182.44
497.713	8292.27
498.082	8411.36
498.452	8555.99
498.821	8556.89
499.19	8715.31
499.559	8918.69
499.928	8930.44
500.298	9014.28
500.667	9152.13
501.036	9165.01
501.405	9366.82
501.774	9333.37
502.143	9419.92
502.512	9555.51
502.88	9652.91
503.249	9686.81
503.618	9805.45
503.987	9818.1
504.356	9926.8
504.724	10030.98
505.093	10079.34
505.462	10138.32
505.83	10206.57
506.199	10289.73
506.567	10446.34
506.936	10454.02
507.304	10597.29
507.672	10638.87
508.041	10635.71
508.409	10783.05
508.777	10766.78
509.145	10941.92
509.514	10924.74
509.882	11020.56
510.25	11057.62
510.618	11141.01
510.986	11113.66
511.354	11286.09
511.722	11303.94
512.09	11441.56
512.458	11367.22
512.826	11459.87
513.193	11515.01
513.561	11444.5
513.929	11551.84
514.297	11621.45
514.664	11684.27
515.032	11718.62
515.4	11850.59
515.767	11811.95
516.135	11826.86
516.502	11751.39
516.869	12011.72
517.237	12013.75
517.604	11920.65
517.972	11997.93
518.339	12051.04
518.706	12040.42
519.073	12121.55
519.44	12124.48
519.808	12162
520.175	12150.25
520.542	12269.56
520.909	12346.17
521.276	12286.29
521.643	12389.11
522.009	12357.25
522.376	12383.46
522.743	12440.41
523.11	12530.12
523.477	12628.65
523.843	12563.79
524.21	12618.03
524.577	12662.32
524.943	12738.93
525.31	12608.54
525.676	12813.28
526.043	12797.91
526.409	12790.68
526.776	12885.82
527.142	12839.04
527.508	12854.86
527.874	12972.14
528.241	12882.43
528.607	12906.16
528.973	12940.28
529.339	12888.08
529.705	12933.5
530.071	13004.46
530.437	12981.64
530.803	13001.75
531.169	13020.73
531.535	12852.6
531.901	12896.67
532.267	12936.67
532.632	12949.77
532.998	12912.26
533.364	12886.27
533.73	12940.51
534.095	12980.05
534.461	12935.08
534.826	12981.41
535.192	13024.57
535.557	12939.15
535.923	12841.07
536.288	12848.76
536.653	12918.59
537.019	12831.81
537.384	12823.22
537.749	12773.96
538.114	12750.68
538.479	12790
538.845	12655.32
539.21	12683.34
539.575	12615.32
539.94	12649.67
540.305	12591.59
540.67	12603.79
541.034	12575.55
541.399	12533.96
541.764	12524.92
542.129	12560.86
542.494	12485.83
542.858	12398.83
543.223	12364.48
543.587	12437.02
543.952	12373.52
544.316	12345.27
544.681	12195.89
545.045	12251.94
545.41	12213.52
545.774	12169.91
546.138	12209
546.503	12129.46
546.867	12082
547.231	12146.86
547.595	12088.33
547.959	12085.61
548.324	12066.41
548.688	12035.9
549.052	12004.49
549.416	11964.94
549.779	11910.25
550.143	11864.15
550.507	11852.4
550.871	11806.53
551.235	11767.88
551.599	11745.06
551.962	11783.48
552.326	11762.46
552.689	11688.34
553.053	11616.25
553.417	11737.6
553.78	11757.94
554.143	11604.05
554.507	11573.76
554.87	11611.05
555.234	11639.98
555.597	11604.5
555.96	11601.79
556.323	11546.65
556.686	11575.12
557.05	11634.55
557.413	11552.75
557.776	11486.99
558.139	11511.62
558.502	11453.99
558.865	11471.39
559.228	11511.84
559.59	11505.29
559.953	11453.54
560.316	11557.49
560.679	11489.47
561.041	11538.06
561.404	11495.12
561.767	11524.5
562.129	11477.95
562.492	11582.58
562.854	11504.16
563.217	11435.24
563.579	11408.34
563.941	11524.73
564.304	11565.4
564.666	11658.73
565.028	11628.23
565.39	11651.73
565.753	11656.93
566.115	11691.27
566.477	11651.28
566.839	11590.71
567.201	11692.86
567.563	11594.78
567.925	11607.89
568.287	11664.16
568.648	11646.98
569.01	11783.93
569.372	11686.3
569.734	11659.41
570.095	11710.26
570.457	11734.89
570.819	11751.84
571.18	11723.59
571.542	11793.64
571.903	11783.7
572.265	11789.8
572.626	11837.71
572.987	11827.32
573.349	11875.68
573.71	11877.48
574.071	11811.27
574.432	11839.07
574.794	11895.79
575.155	11908.9
575.516	11900.53
575.877	11835
576.238	11862.34
576.599	11973.98
576.96	11882.68
577.32	11968.33
577.681	11951.83
578.042	11935.34
578.403	11895.34
578.763	11945.51
579.124	11952.74
579.485	11904.15
579.845	11929.69
580.206	12002.9
580.566	11953.19
580.927	11871.83
581.287	11992.28
581.648	11900.99
582.008	11903.92
582.368	11919.07
582.728	11967.65
583.089	11945.73
583.449	11861.21
583.809	11925.62
584.169	11922.68
584.529	11901.21
584.889	11964.49
585.249	11915.22
585.609	11877.94
585.969	11911.61
586.329	11882.68
586.688	11869.35
587.048	11820.76
587.408	11794.55
587.768	11745.96
588.127	11788
588.487	11765.17
588.846	11864.38
589.206	11757.94
589.565	11772.4
589.925	11804.27
590.284	11769.01
590.643	11799.52
591.003	11840.2
591.362	11760.88
591.721	11718.84
592.08	11772.18
592.44	11811.27
592.799	11757.26
593.158	11733.08
593.517	11721.33
593.876	11746.87
594.235	11744.15
594.593	11711.16
594.952	11699.86
595.311	11671.84
595.67	11719.75
596.029	11757.04
596.387	11760.88
596.746	11772.63
597.104	11649.02
597.463	11632.97
597.822	11722.01
598.18	11644.5
598.538	11634.78
598.897	11649.47
599.255	11608.56
599.613	11766.98
599.972	11684.27
600.33	11668.9
600.688	11641.11
601.046	11698.73
601.404	11745.96
601.762	11724.27
602.12	11735.79
602.478	11745.28
602.836	11696.25
603.194	11664.16
603.552	11734.66
603.91	11711.39
604.268	11625.74
604.625	11608.11
604.983	11620.77
605.341	11575.57
605.698	11701.67
606.056	11674.1
606.413	11631.62
606.771	11697.83
607.128	11791.38
607.485	11627.77
607.843	11692.63
608.2	11694.66
608.557	11806.3
608.914	11698.05
609.272	11757.04
609.629	11753.19
609.986	11718.39
610.343	11776.47
610.7	11817.82
611.057	11781.89
611.414	11807.2
611.771	11772.4
612.127	11767.66
612.484	11874.32
612.841	11770.59
613.198	11744.15
613.554	11801.1
613.911	11880.2
614.267	11865.28
614.624	11847.88
614.98	11799.52
615.337	11891.27
615.693	11905.28
616.05	11843.59
616.406	12013.07
616.762	11878.39
617.118	11844.94
617.475	11899.86
617.831	11890.14
618.187	11976.92
618.543	11957.03
618.899	12058.5
619.255	12012.17
619.611	12012.4
619.967	12106.4
620.323	12019.63
620.678	12061.89
621.034	11930.36
621.39	11919.52
621.746	11931.95
622.101	12110.7
622.457	12024.6
622.812	12056.24
623.168	12053.07
623.523	12066.86
623.879	12019.63
624.234	12001.1
624.589	12045.39
624.945	12066.86
625.3	12038.61
625.655	12042
626.01	12042.9
626.365	11987.09
626.72	11959.06
627.075	11969.23
627.43	12030.93
627.785	11995.45
628.14	11946.86
628.495	12005.16
628.85	12035.45
629.205	11909.35
629.559	12002
629.914	11943.02
630.269	12025.05
630.623	11891.5
630.978	11982.57
631.332	11964.94
631.687	11971.95
632.041	11912.74
632.396	11964.94
632.75	11939.63
633.104	11980.08
633.459	11725.85
633.813	11853.53
634.167	11779.41
634.521	11809.01
634.875	11831.84
635.229	11811.95
635.583	11728.11
635.937	11732.18
636.291	11702.12
636.645	11685.17
636.999	11693.08
637.352	11741.44
637.706	11630.94
638.06	11693.08
638.413	11707.32
638.767	11663.03
639.121	11606.3
639.474	11529.92
639.828	11570.37
640.181	11632.52
640.534	11490.83
640.888	11510.94
641.241	11538.96
641.594	11570.37
641.947	11550.26
642.301	11525.4
642.654	11601.79
643.007	11553.88
643.36	11533.99
643.713	11535.57
644.066	11543.03
644.419	11533.54
644.771	11413.54
645.124	11358.18
645.477	11420.55
645.83	11246.09
646.182	11217.39
646.535	11087.45
646.888	11233.89
647.24	11090.84
647.593	11170.61
647.945	11113.66
648.298	11032.08
648.65	11001.8
649.002	10985.76
649.355	11118.18
649.707	11161.12
650.059	11239.76
650.411	11258.07
650.763	11293.54
651.115	11427.78
651.467	11337.16
651.819	11346.42
652.171	11361.34
652.523	11265.97
652.875	11289.48
653.227	11295.8
653.578	11335.8
653.93	11394.56
654.282	11238.41
654.633	11263.26
654.985	11333.32
655.337	11321.57
655.688	11317.5
656.039	11336.03
656.391	11325.41
656.742	11361.34
657.094	11371.96
657.445	11353.88
657.796	11396.14
658.147	11404.95
658.498	11292.19
658.849	11367.67
659.2	11289.03
659.551	11321.11
659.902	11389.81
660.253	11371.96
660.604	11406.08
660.955	11319.76
661.306	11376.03
661.656	11331.28
662.007	11331.51
662.358	11383.26
662.708	11443.37
663.059	11338.74
663.409	11289.03
663.76	11426.87
664.11	11449.7
664.461	11401.11
664.811	11386.88
665.161	11404.28
665.511	11367.67
665.862	11402.47
666.212	11402.69
666.562	11389.36
666.912	11383.71
667.262	11355.01
667.612	11373.09
667.962	11443.82
668.312	11451.28
668.662	11465.74
669.011	11456.25
669.361	11381.45
669.711	11321.57
670.06	11359.53
670.41	11346.42
670.76	11372.64
671.109	11388.68
671.459	11275.69
671.808	11220.55
672.157	11316.6
672.507	11272.98
672.856	11271.17
673.205	11291.74
673.554	11235.47
673.904	11287.9
674.253	11264.17
674.602	11329.48
674.951	11090.39
675.3	11047.68
675.649	11298.06
675.998	11231.63
676.346	11206.32
676.695	11287.9
677.044	11123.38
677.393	11191.85
677.741	11229.82
678.09	11177.62
678.438	11176.94
678.787	11072.31
679.135	11118.86
679.484	11028.92
679.832	11119.31
680.181	11058.97
680.529	11063.95
680.877	11049.48
681.225	10992.99
681.573	11074.34
681.922	10998.41
682.27	10966.77
682.618	10916.61
682.966	10902.14
683.314	10881.58
683.661	10901.01
684.009	10904.85
684.357	10848.13
684.705	10872.09
685.053	10848.81
685.4	10771.3
685.748	10737.63
686.095	10761.13
686.443	10693.56
686.79	10640.91
687.138	10659.21
687.485	10729.94
687.832	10609.5
688.18	10666.89
688.527	10543.96
688.874	10557.74
689.221	10512.1
689.568	10516.16
689.915	10469.16
690.262	10417.18
690.609	10370.63
690.956	10380.8
691.303	10423.29
691.65	10261.71
691.997	10214.7
692.344	10196.17
692.69	10214.25
693.037	10247.7
693.383	10164.31
693.73	10140.13
694.077	10056.97
694.423	10058.78
694.769	10007.03
695.116	10027.82
695.462	9957.76
695.808	9918.67
696.155	9936.97
696.501	9848.39
696.847	9845.67
697.193	9748.5
697.539	9867.14
697.885	9633.93
698.231	9732.46
698.577	9689.29
698.923	9637.32
699.269	9603.65
699.614	9513.03
699.96	9520.26
700.306	9502.86
700.651	9449.53
700.997	9409.53
701.342	9349.64
701.688	9296.31
702.033	9329.53
702.379	9290.66
702.724	9274.39
703.069	9289.76
703.415	9206.59
703.76	9185.58
704.105	9147.16
704.45	9160.49
704.795	9111.91
705.14	9048.41
705.485	9040.72
705.83	9044.34
706.175	9052.47
706.52	8958.92
706.865	8993.49
707.209	8912.59
707.554	8866.04
707.899	8937.9
708.243	8860.84
708.588	8790.56
708.932	8722.31
709.277	8699.26
709.621	8737.68
709.966	8696.78
710.31	8693.61
710.654	8656.33
710.998	8734.97
711.342	8653.84
711.687	8611.36
712.031	8542.88
712.375	8585.37
712.719	8585.59
713.063	8543.33
713.407	8583.79
713.75	8531.13
714.094	8540.17
714.438	8476.22
714.782	8477.12
715.125	8452.72
715.469	8424.92
715.812	8393.96
716.156	8432.15
716.499	8339.5
716.843	8324.36
717.186	8283.45
717.53	8360.06
717.873	8364.58
718.216	8335.88
718.559	8320.74
718.902	8270.35
719.246	8203.23
719.589	8235.09
719.932	8194.64
720.275	8168.66
720.617	8158.71
720.96	8201.42
721.303	8162.55
721.646	8179.5
721.989	8141.54
722.331	8213.63
722.674	8185.6
723.016	8156.68
723.359	8083.23
723.701	8214.08
724.044	8101.31
724.386	8121.2
724.729	8114.87
725.071	8121.42
725.413	8110.8
725.755	8083.23
726.097	8070.13
726.439	8052.27
726.782	8026.96
727.124	8109.67
727.465	8082.56
727.807	8078.94
728.149	8059.73
728.491	8010.92
728.833	8050.92
729.175	8043.91
729.516	8081.65
729.858	8049.34
730.199	8004.37
730.541	8042.33
730.882	7999.39
731.224	8040.75
731.565	7969.11
731.906	7994.65
732.248	7994.42
732.589	7989
732.93	7968.43
733.271	7930.02
733.612	7973.18
733.953	7948.77
734.294	7904.48
734.635	7946.06
734.976	7937.7
735.317	7977.47
735.658	7980.86
735.999	7920.75
736.339	7947.19
736.68	7998.26
737.021	7982.67
737.361	7952.84
737.702	7979.06
738.042	7993.74
738.383	7960.53
738.723	7987.64
739.063	8042.56
739.404	8009.79
739.744	8044.14
740.084	7949
740.424	8027.64
740.764	8059.05
741.104	8098.6
741.444	7993.97
741.784	8104.25
742.124	8128.88
742.464	8098.37
742.804	8050.92
743.143	8106.74
743.483	8180.18
743.823	8104.48
744.162	8100.18
744.502	8199.84
744.841	8230.35
745.181	8297.24
745.52	8285.49
745.86	8281.19
746.199	8381.53
746.538	8373.85
746.877	8432.6
747.216	8507.63
747.556	8524.8
747.895	8616.33
748.234	8582.66
748.573	8630.11
748.911	8702.65
749.25	8809.99
749.589	8814.06
749.928	8848.86
750.267	8979.03
750.605	8935.64
750.944	8960.05
751.283	9007.28
751.621	9184.45
751.96	9269.42
752.298	9369.75
752.636	9421.05
752.975	9513.03
753.313	9594.83
753.651	9734.49
753.989	9715.51
754.327	9916.86
754.666	9946.69
755.004	10047.93
755.342	10192.33
755.679	10361.59
756.017	10425.32
756.355	10613.34
756.693	10710.51
757.031	10880.45
757.368	10919.54
757.706	11066.21
758.044	11200.89
758.381	11411.51
758.719	11554.55
759.056	11719.97
759.394	11844.26
759.731	11859.86
760.068	12024.15
