Data from hue_80_FLMS001491_28.txt Node
Date: Mon Feb 06 15:22:44 GMT 2017
User: dcchb
Spectrometer: FLMS00149
Trigger mode: 0
Integration Time (sec): 2.000000E-2
Scans to average: 10
Electric dark correction enabled: true
Nonlinearity correction enabled: false
Boxcar width: 0
XAxis mode: Wavelengths
Number of Pixels in Spectrum: 2048
>>>>>Begin Spectral Data<<<<<
341.393	-18.84
341.776	-18.84
342.16	-18.84
342.543	-50.03
342.927	-63.81
343.31	-62.91
343.693	-61.33
344.077	-48.22
344.46	-50.03
344.843	-72.17
345.226	-71.72
345.61	-33.08
345.993	-25.85
346.376	-10.48
346.759	6.02
347.142	27.94
347.525	36.75
347.908	55.06
348.291	93.47
348.674	90.08
349.057	126.47
349.44	123.98
349.823	134.37
350.206	153.13
350.588	184.54
350.971	206.92
351.354	206.46
351.737	231.55
352.119	228.16
352.502	262.73
352.884	279
353.267	267.93
353.65	301.38
354.032	294.37
354.414	301.6
354.797	300.7
355.179	326.91
355.562	306.8
355.944	332.79
356.326	321.49
356.709	337.53
357.091	328.95
357.473	323.07
357.855	351.32
358.238	319.91
358.62	329.4
359.002	327.59
359.384	338.21
359.766	337.08
360.148	349.28
360.53	328.04
360.912	328.72
361.294	332.11
361.676	342.05
362.057	341.38
362.439	319.45
362.821	337.76
363.203	330.53
363.584	316.29
363.966	326.91
364.348	319.45
364.729	320.81
365.111	301.38
365.493	332.34
365.874	326.91
366.256	302.05
366.637	307.25
367.019	316.29
367.4	307.03
367.781	299.34
368.163	320.81
368.544	312.68
368.925	329.62
369.306	336.4
369.688	294.6
370.069	314.94
370.45	303.18
370.831	303.18
371.212	332.34
371.593	315.84
371.974	321.26
372.355	318.55
372.736	322.39
373.117	320.81
373.498	327.82
373.879	303.86
374.26	298.44
374.641	304.77
375.021	301.6
375.402	321.04
375.783	309.06
376.163	312.45
376.544	323.97
376.925	321.94
377.305	329.85
377.686	311.09
378.066	301.83
378.447	326.91
378.827	338.66
379.208	336.18
379.588	320.13
379.968	327.59
380.349	318.1
380.729	323.75
381.109	344.54
381.489	346.57
381.87	327.82
382.25	336.18
382.63	360.81
383.01	308.16
383.39	343.41
383.77	330.75
384.15	342.28
384.53	328.04
384.91	332.79
385.29	332.79
385.67	322.84
386.049	323.75
386.429	351.77
386.809	349.51
387.189	341.6
387.568	330.3
387.948	348.38
388.328	343.64
388.707	357.42
389.087	352.9
389.466	361.71
389.846	356.06
390.225	358.32
390.605	376.63
390.984	354.48
391.363	374.37
391.743	355.61
392.122	361.71
392.501	353.58
392.881	384.54
393.26	368.49
393.639	383.63
394.018	368.95
394.397	385.89
394.776	361.49
395.155	378.21
395.534	359.45
395.913	356.74
396.292	363.97
396.671	372.11
397.05	389.06
397.429	380.02
397.808	376.85
398.186	379.57
398.565	386.8
398.944	388.61
399.323	380.24
399.701	375.72
400.08	387.48
400.458	372.79
400.837	390.87
401.215	390.41
401.594	384.54
401.972	387.48
402.351	392.9
402.729	392.45
403.107	392.22
403.486	402.84
403.864	408.27
404.242	401.49
404.62	387.93
404.999	402.62
405.377	403.29
405.755	416.85
406.133	399.68
406.511	401.71
406.889	408.04
407.267	406.68
407.645	419.57
408.023	442.16
408.401	421.37
408.779	413.24
409.156	430.41
409.534	408.72
409.912	424.31
410.29	438.55
410.667	426.34
411.045	434.93
411.422	438.55
411.8	437.42
412.178	428.38
412.555	438.55
412.933	460.92
413.31	447.59
413.687	452.33
414.065	465.44
414.442	460.69
414.819	472.9
415.197	458.89
415.574	439.45
415.951	475.61
416.328	471.99
416.705	489.17
417.082	488.04
417.46	467.25
417.837	470.86
418.214	500.47
418.591	465.44
418.967	483.97
419.344	480.58
419.721	487.59
420.098	491.88
420.475	516.29
420.852	502.5
421.228	516.51
421.605	511.31
421.982	517.64
422.358	488.94
422.735	501.15
423.111	513.57
423.488	500.92
423.864	539.11
424.241	525.1
424.617	544.53
424.994	557.19
425.37	523.52
425.746	541.14
426.123	520.81
426.499	537.08
426.875	554.02
427.251	543.18
427.627	565.32
428.003	582.05
428.379	568.26
428.756	587.47
429.132	550.41
429.507	569.62
429.883	588.83
430.259	580.46
430.635	577.08
431.011	576.85
431.387	591.99
431.763	602.16
432.138	615.49
432.514	615.72
432.89	597.64
433.265	636.73
433.641	627.02
434.016	619.33
434.392	631.99
434.767	638.54
435.143	619.79
435.518	652.33
435.894	654.14
436.269	671.08
436.644	651.88
437.02	666.11
437.395	690.97
437.77	683.29
438.145	681.93
438.52	701.14
438.895	705.66
439.271	710.18
439.646	694.36
440.021	672.67
440.395	678.54
440.77	692.1
441.145	727.13
441.52	742.04
441.895	725.77
442.27	714.02
442.645	730.52
443.019	758.09
443.394	712.21
443.769	740.69
444.143	744.98
444.518	748.14
444.892	759.22
445.267	772.55
445.641	781.36
446.016	785.66
446.39	756.51
446.764	750.86
447.139	781.14
447.513	786.11
447.887	788.6
448.262	799.89
448.636	793.57
449.01	786.79
449.384	804.64
449.758	812.78
450.132	801.93
450.506	829.72
450.88	821.36
451.254	814.13
451.628	830.18
452.002	853
452.376	859.1
452.75	847.12
453.123	853.23
453.497	867.24
453.871	874.24
454.244	904.52
454.618	881.47
454.992	908.14
455.365	897.97
455.739	913.11
456.112	931.64
456.486	936.61
456.859	963.28
457.232	967.12
457.606	965.99
457.979	977.74
458.352	986.78
458.725	987.69
459.099	1015.03
459.472	1029.49
459.845	1045.31
460.218	1032.66
460.591	1065.42
460.964	1030.17
461.337	1063.62
461.71	1078.3
462.083	1114.91
462.456	1113.78
462.829	1120.11
463.201	1132.54
463.574	1143.16
463.947	1147.46
464.32	1201.24
464.692	1195.14
465.065	1194.46
465.438	1212.76
465.81	1227.91
466.183	1277.17
466.555	1294.57
466.928	1266.77
467.3	1289.15
467.672	1317.17
468.045	1345.19
468.417	1372.08
468.789	1368.69
469.161	1409.37
469.534	1419.76
469.906	1449.14
470.278	1448.69
470.65	1478.29
471.022	1527.33
471.394	1544.28
471.766	1578.18
472.138	1583.38
472.51	1675.8
472.882	1676.26
473.253	1702.92
473.625	1738.4
473.997	1775.01
474.369	1818.17
474.74	1844.39
475.112	1909.02
475.484	1922.8
475.855	1979.07
476.227	2009.13
476.598	2052.06
476.97	2102.91
477.341	2147.2
477.713	2215.68
478.084	2238.5
478.455	2320.31
478.827	2401.89
479.198	2468.1
479.569	2556.46
479.94	2572.05
480.311	2637.13
480.682	2727.08
481.053	2801.65
481.424	2882.33
481.795	2954.64
482.166	3002.55
482.537	3157.35
482.908	3190.57
483.279	3311.69
483.65	3393.5
484.021	3488.19
484.391	3557.56
484.762	3658.58
485.133	3721.4
485.503	3858.12
485.874	3970.43
486.244	4060.83
486.615	4143.54
486.985	4271.89
487.356	4400.7
487.726	4536.07
488.097	4660.81
488.467	4709.4
488.837	4938.77
489.207	4964.76
489.578	5123.62
489.948	5293.56
490.318	5395.71
490.688	5453.11
491.058	5665.75
491.428	5742.59
491.798	5917.27
492.168	6067.78
492.538	6176.48
492.908	6310.03
493.278	6422.8
493.648	6535.79
494.017	6673.64
494.387	6852.62
494.757	6931.48
495.126	7064.14
495.496	7136
495.866	7343.68
496.235	7486.95
496.605	7555.87
496.974	7661.18
497.344	7809.2
497.713	7976.43
498.082	8039.93
498.452	8220.94
498.821	8322.86
499.19	8403.54
499.559	8511.56
499.928	8721.49
500.298	8833.81
500.667	8969.17
501.036	8915.39
501.405	9173.69
501.774	9194.7
502.143	9381.59
502.512	9440.12
502.88	9552.43
503.249	9590.62
503.618	9707.23
503.987	9846.44
504.356	9993.55
504.724	10118.07
505.093	10117.39
505.462	10198.07
505.83	10269.25
506.199	10377.95
506.567	10605.74
506.936	10604.61
507.304	10779.07
507.672	10832.62
508.041	10963.69
508.409	11037.37
508.777	11120.3
509.145	11264.7
509.514	11231.71
509.882	11390.8
510.25	11460.18
510.618	11526.17
510.986	11629.21
511.354	11800.06
511.722	11836.89
512.09	11869.66
512.458	11878.7
512.826	12094.06
513.193	12150.33
513.561	12203.21
513.929	12264.23
514.297	12440.04
514.664	12426.71
515.032	12500.83
515.4	12610.43
515.767	12697.89
516.135	12725.23
516.502	12670.09
516.869	12943.08
517.237	12864.21
517.604	12897.66
517.972	13045.22
518.339	13183.98
518.706	13122.96
519.073	13224.65
519.44	13280.92
519.808	13407.25
520.175	13426
520.542	13563.4
520.909	13572.44
521.276	13567.02
521.643	13742.83
522.009	13798.65
522.376	13855.82
522.743	13913.45
523.11	14075.25
523.477	14159.09
523.843	14210.62
524.21	14349.14
524.577	14312.76
524.943	14364.51
525.31	14406.09
525.676	14533.09
526.043	14597.95
526.409	14640.21
526.776	14737.38
527.142	14668.46
527.508	14788.9
527.874	14820.77
528.241	14942.12
528.607	14834.78
528.973	15056.92
529.339	15004.72
529.705	15079.29
530.071	15117.94
530.437	15060.31
530.803	15260.3
531.169	15241.1
531.535	15234.32
531.901	15243.58
532.267	15253.3
532.632	15325.61
532.998	15360.19
533.364	15457.59
533.73	15373.75
534.095	15518.83
534.461	15564.25
534.826	15533.07
535.192	15557.02
535.557	15583.69
535.923	15554.53
536.288	15601.09
536.653	15646.28
537.019	15580.75
537.384	15545.04
537.749	15628.43
538.114	15596.34
538.479	15525.38
538.845	15631.37
539.21	15543.24
539.575	15586.85
539.94	15679.05
540.305	15633.85
540.67	15581.43
541.034	15682.21
541.399	15713.4
541.764	15584.36
542.129	15592.73
542.494	15663.23
542.858	15603.8
543.223	15583.46
543.587	15693.97
543.952	15588.88
544.316	15597.47
544.681	15641.31
545.045	15674.53
545.41	15630.69
545.774	15528.32
546.138	15637.7
546.503	15591.14
546.867	15573.52
547.231	15587.53
547.595	15623.01
547.959	15693.74
548.324	15603.8
548.688	15616.23
549.052	15604.93
549.416	15519.96
549.779	15523.35
550.143	15564.25
550.507	15572.84
550.871	15652.39
551.235	15598.38
551.599	15673.18
551.962	15613.52
552.326	15613.52
552.689	15663.01
553.053	15558.6
553.417	15599.28
553.78	15687.64
554.143	15605.15
554.507	15640.41
554.87	15654.19
555.234	15771.7
555.597	15637.7
555.96	15641.09
556.323	15579.62
556.686	15673.18
557.05	15602.44
557.413	15668.88
557.776	15628.66
558.139	15735.55
558.502	15759.5
558.865	15679.73
559.228	15763.79
559.59	15887.41
559.953	15902.77
560.316	15851.48
560.679	15900.29
561.041	16052.15
561.404	15928.76
561.767	16119.94
562.129	15989.1
562.492	16129.21
562.854	16003.11
563.217	16030
563.579	16117.91
563.941	16181.18
564.304	16162.2
564.666	16213.95
565.028	16134.86
565.39	16242.43
565.753	16262.76
566.115	16363.1
566.477	16299.83
566.839	16371.91
567.201	16532.14
567.563	16389.54
567.925	16492.36
568.287	16513.38
568.648	16481.97
569.01	16530.33
569.372	16745.24
569.734	16549.08
570.095	16712.92
570.457	16813.26
570.819	16803.77
571.18	16825.01
571.542	16843.31
571.903	16818.91
572.265	16885.57
572.626	16815.97
572.987	16983.2
573.349	16901.39
573.71	16903.43
574.071	16968.51
574.432	17089.18
574.794	17043.76
575.155	17116.75
575.516	16986.36
575.877	17050.99
576.238	17067.26
576.599	17110.2
576.96	17161.05
577.32	17168.28
577.681	17219.58
578.042	17269.52
578.403	17218.22
578.763	17298.67
579.124	17261.38
579.485	17286.01
579.845	17292.79
580.206	17276.3
580.566	17247.6
580.927	17297.31
581.287	17343.64
581.648	17256.18
582.008	17328.05
582.368	17347.48
582.728	17290.08
583.089	17258.22
583.449	17262.96
583.809	17292.57
584.169	17327.14
584.529	17256.41
584.889	17357.42
585.249	17231.78
585.609	17182.29
585.969	17267.71
586.329	17323.53
586.688	17322.85
587.048	17244.21
587.408	17161.95
587.768	17156.98
588.127	17185
588.487	17213.47
588.846	17347.26
589.206	17164.21
589.565	17185.45
589.925	17161.5
590.284	17182.06
590.643	17287.6
591.003	17268.84
591.362	17212.12
591.721	17126.02
592.08	17184.32
592.44	17280.14
592.799	17247.15
593.158	17226.58
593.517	17148.84
593.876	17262.06
594.235	17118.56
594.593	17158.79
594.952	17150.65
595.311	17184.32
595.67	17189.52
596.029	17246.92
596.387	17326.01
596.746	17143.42
597.104	17157.88
597.463	17194.49
597.822	17216.64
598.18	17142.74
598.538	17192.68
598.897	17266.58
599.255	17146.81
599.613	17318.1
599.972	17144.32
600.33	17271.1
600.688	17140.26
601.046	17197.43
601.404	17336.18
601.762	17218.45
602.12	17275.85
602.478	17279.91
602.836	17321.72
603.194	17104.78
603.552	17196.3
603.91	17203.98
604.268	17240.82
604.625	17197.2
604.983	17255.51
605.341	17173.7
605.698	17297.09
606.056	17274.72
606.413	17302.06
606.771	17381.38
607.128	17322.85
607.485	17227.71
607.843	17289.18
608.2	17330.53
608.557	17414.37
608.914	17387.25
609.272	17443.52
609.629	17436.29
609.986	17517.42
610.343	17437.42
610.7	17518.78
611.057	17515.16
611.414	17469.29
611.771	17549.96
612.127	17607.59
612.484	17576.4
612.841	17600.36
613.198	17592.9
613.554	17576.85
613.911	17663.86
614.267	17661.82
614.624	17696.4
614.98	17602.84
615.337	17716.29
615.693	17704.76
616.05	17639.68
616.406	17854.36
616.762	17678.55
617.118	17744.53
617.475	17735.27
617.831	17849.39
618.187	17854.59
618.543	17766
618.899	17931.65
619.255	17918.77
619.611	17927.13
619.967	17930.97
620.323	17925.77
620.678	17868.6
621.034	17792.67
621.39	17826.79
621.746	17733.91
622.101	18024.53
622.457	17867.69
622.812	17925.32
623.168	18057.07
623.523	17869.5
623.879	18020.91
624.234	17781.37
624.589	17961.93
624.945	17951.99
625.3	18001.93
625.655	17972.78
626.01	17969.84
626.365	17933
626.72	18030.18
627.075	17997.18
627.43	17922.83
627.785	17986.11
628.14	17913.34
628.495	17958.09
628.85	17942.04
629.205	17827.24
629.559	17940.69
629.914	17844.87
630.269	17879.9
630.623	17752.44
630.978	17844.87
631.332	17902.72
631.687	17920.12
632.041	17830.86
632.396	17812.55
632.75	17800.35
633.104	17891.87
633.459	17810.97
633.813	17845.1
634.167	17711.31
634.521	17706.57
634.875	17735.27
635.229	17685.55
635.583	17573.92
635.937	17615.5
636.291	17598.55
636.645	17631.32
636.999	17499.79
637.352	17574.82
637.706	17532.56
638.06	17547.7
638.413	17480.81
638.767	17461.6
639.121	17442.39
639.474	17388.38
639.828	17384.32
640.181	17468.16
640.534	17506.8
640.888	17403.75
641.241	17286.01
641.594	17408.27
641.947	17343.87
642.301	17377.54
642.654	17388.84
643.007	17366.69
643.36	17287.37
643.713	17307.03
644.066	17324.88
644.419	17303.87
644.771	17170.54
645.124	16926.7
645.477	16891
645.83	16826.14
646.182	16756.54
646.535	16695.52
646.888	16836.08
647.24	16714.73
647.593	16728.97
647.945	16749.31
648.298	16656.65
648.65	16663.43
649.002	16750.66
649.355	16729.87
649.707	16617.56
650.059	16715.18
650.411	16888.51
650.763	16969.19
651.115	17177.99
651.467	17086.47
651.819	17201.95
652.171	17077.21
652.523	17027.72
652.875	17078.34
653.227	17023.42
653.578	17103.19
653.93	17087.6
654.282	16966.93
654.633	17003.31
654.985	17082.18
655.337	16993.82
655.688	16995.63
656.039	17110.65
656.391	16959.92
656.742	16949.53
657.094	17011.45
657.445	17013.48
657.796	17021.16
658.147	16994.72
658.498	16933.71
658.849	16993.82
659.2	16910.21
659.551	16966.25
659.902	17060.71
660.253	17053.93
660.604	17115.62
660.955	17029.07
661.306	17062.52
661.656	17047.38
662.007	17062.52
662.358	17130.76
662.708	17020.03
663.059	17039.69
663.409	16985.68
663.76	17080.14
664.11	17059.81
664.461	17087.83
664.811	17075.85
665.161	17030.2
665.511	16952.01
665.862	17006.93
666.212	17112.46
666.562	17091.22
666.912	17079.24
667.262	17081.05
667.612	17026.36
667.962	17038.56
668.312	17073.14
668.662	17019.58
669.011	17060.71
669.361	17034.5
669.711	16974.38
670.06	16939.13
670.41	16944.33
670.76	16852.13
671.109	17006.47
671.459	16985.23
671.808	16860.71
672.157	17005.57
672.507	16844.44
672.856	16892.35
673.205	16886.48
673.554	16948.4
673.904	16849.19
674.253	16984.33
674.602	16880.38
674.951	16667.73
675.3	16610.78
675.649	16837.89
675.998	16854.84
676.346	16841.96
676.695	16896.65
677.044	16705.24
677.393	16735.75
677.741	16833.82
678.09	16734.62
678.438	16675.41
678.787	16695.52
679.135	16710.66
679.484	16599.7
679.832	16693.26
680.181	16524.45
680.529	16645.81
680.877	16590.89
681.225	16511.57
681.573	16677.22
681.922	16552.93
682.27	16465.7
682.618	16493.27
682.966	16439.48
683.314	16411.69
683.661	16413.04
684.009	16264.12
684.357	16251.69
684.705	16257.57
685.053	16273.84
685.4	16190.68
685.748	16169.89
686.095	16101.41
686.443	16008.08
686.79	16076.33
687.138	15983.45
687.485	16114.75
687.832	15957.01
688.18	15998.59
688.527	15866.84
688.874	15804.02
689.221	15856
689.568	15856.67
689.915	15842.89
690.262	15788.43
690.609	15743.68
690.956	15569.9
691.303	15567.19
691.65	15517.25
691.997	15475.67
692.344	15384.82
692.69	15427.08
693.037	15352.28
693.383	15223.92
693.73	15277.93
694.077	15177.82
694.423	15137.14
694.769	15136.24
695.116	15097.82
695.462	15056.24
695.808	14970.14
696.155	15008.56
696.501	14800.66
696.847	14815.57
697.193	14800.2
697.539	14775.12
697.885	14644.73
698.231	14676.14
698.577	14692.41
698.923	14562.92
699.269	14431.63
699.614	14387.11
699.96	14351.4
700.306	14417.39
700.651	14263.5
700.997	14180.33
701.342	14255.81
701.688	14140.11
702.033	14108.02
702.379	14117.74
702.724	14114.8
703.069	14024.41
703.415	13872.77
703.76	13837.52
704.105	13960.9
704.45	13827.8
704.795	13694.47
705.14	13762.04
705.485	13710.29
705.83	13682.49
706.175	13692.21
706.52	13547.58
706.865	13542.16
707.209	13520.24
707.554	13388.94
707.899	13453.35
708.243	13411.31
708.588	13424.87
708.932	13305.55
709.277	13256.52
709.621	13311.66
709.966	13157.31
710.31	13202.28
710.654	13077.09
710.998	13109.63
711.342	13033.92
711.687	13077.76
712.031	12934.94
712.375	12840.03
712.719	12898.11
713.063	12851.55
713.407	12944.89
713.75	12810.65
714.094	12760.26
714.438	12745.12
714.782	12809.75
715.125	12771.1
715.469	12820.6
715.812	12708.73
716.156	12661.05
716.499	12682.52
716.843	12678.68
717.186	12618.11
717.53	12576.76
717.873	12596.65
718.216	12574.95
718.559	12532.24
718.902	12568.4
719.246	12527.27
719.589	12475.75
719.932	12383.77
720.275	12448.63
720.617	12494.28
720.96	12367.5
721.303	12417.44
721.646	12339.93
721.989	12341.74
722.331	12412.24
722.674	12297.9
723.016	12344.45
723.359	12235.75
723.701	12334.28
724.044	12182.42
724.386	12157.11
724.729	12255.86
725.071	12181.29
725.413	12263.32
725.755	12199.14
726.097	12151.69
726.439	12088.41
726.782	12116.88
727.124	12150.1
727.465	12043.21
727.807	12101.29
728.149	12080.5
728.491	12031.69
728.833	11973.84
729.175	11957.79
729.516	12039.37
729.858	12009.77
730.199	12042.54
730.541	11994.63
730.882	12014.74
731.224	12081.18
731.565	11959.6
731.906	11941.3
732.248	11895.42
732.589	11946.04
732.93	11880.73
733.271	11941.52
733.612	11998.02
733.953	12014.97
734.294	11852.26
734.635	11900.85
734.976	11956.66
735.317	11920.73
735.658	11873.5
735.999	11908.08
736.339	11868.53
736.68	11881.86
737.021	11893.39
737.361	11863.78
737.702	11998.47
738.042	11856.78
738.383	11875.31
738.723	11974.06
739.063	11852.48
739.404	11952.82
739.744	11997.34
740.084	11951.24
740.424	11957.57
740.764	11879.38
741.104	11972.03
741.444	11920.05
741.784	11899.04
742.124	12020.39
742.464	11998.7
742.804	11956.44
743.143	11961.41
743.483	12021.52
743.823	12054.97
744.162	12125.47
744.502	12135.87
744.841	12102.42
745.181	12168.63
745.52	12151.46
745.86	12177.45
746.199	12244.11
746.538	12313.49
746.877	12383.54
747.216	12360.04
747.556	12435.97
747.895	12413.37
748.234	12456.54
748.573	12510.77
748.911	12600.71
749.25	12649.75
749.589	12609.3
749.928	12718.22
750.267	12721.84
750.605	12855.85
750.944	12866.7
751.283	12929.29
751.621	12977.65
751.96	13083.87
752.298	13138.55
752.636	13227.36
752.975	13254.93
753.313	13253.35
753.651	13438.21
753.989	13468.26
754.327	13577.41
754.666	13638.2
755.004	13822.83
755.342	13835.03
755.679	13960
756.017	13976.27
756.355	14155.7
756.693	14193.67
757.031	14393.66
