Data from hue_38_FLMS001491_00057.txt Node
Date: Tue Feb 07 17:31:41 GMT 2017
User: dcchb
Spectrometer: FLMS00149
Trigger mode: 0
Integration Time (sec): 2.000000E-2
Scans to average: 10
Electric dark correction enabled: true
Nonlinearity correction enabled: false
Boxcar width: 0
XAxis mode: Wavelengths
Number of Pixels in Spectrum: 2048
>>>>>Begin Spectral Data<<<<<
341.393	-18.63
341.776	-18.63
342.16	-18.63
342.543	-47.78
342.927	-65.86
343.31	-57.72
343.693	-72.19
344.077	-63.37
344.46	-64.73
344.843	-37.61
345.226	-69.93
345.61	-32.64
345.993	-14.11
346.376	-18.63
346.759	10.3
347.142	21.82
347.525	51.65
347.908	57.53
348.291	77.64
348.674	91.88
349.057	120.12
349.44	127.13
349.823	144.3
350.206	165.09
350.588	195.15
350.971	210.29
351.354	202.61
351.737	244.64
352.119	267.01
352.502	267.24
352.884	288.93
353.267	273.57
353.65	273.57
354.032	295.94
354.414	333
354.797	315.15
355.179	336.16
355.562	324.19
355.944	324.19
356.326	330.06
356.709	334.13
357.091	324.41
357.473	349.95
357.855	342.72
358.238	325.32
358.62	351.3
359.002	338.65
359.384	346.11
359.766	349.27
360.148	348.59
360.53	354.47
360.912	341.14
361.294	326.22
361.676	347.69
362.057	345.65
362.439	337.29
362.821	338.65
363.203	328.03
363.584	346.56
363.966	308.82
364.348	314.47
364.729	316.95
365.111	313.57
365.493	335.49
365.874	309.95
366.256	323.51
366.637	322.6
367.019	321.7
367.4	311.31
367.781	323.51
368.163	320.57
368.544	318.99
368.925	321.93
369.306	337.97
369.688	302.49
370.069	328.48
370.45	325.77
370.831	321.93
371.212	322.15
371.593	326.67
371.974	322.83
372.355	314.92
372.736	318.99
373.117	322.38
373.498	301.14
373.879	325.99
374.26	333.23
374.641	338.88
375.021	303.4
375.402	323.06
375.783	333.9
376.163	325.32
376.544	344.98
376.925	325.77
377.305	335.94
377.686	353.56
378.066	333.68
378.447	315.6
378.827	333.45
379.208	346.56
379.588	330.74
379.968	335.26
380.349	348.82
380.729	331.19
381.109	331.19
381.489	360.57
381.87	347.69
382.25	334.13
382.63	330.74
383.01	351.3
383.39	352.89
383.77	362.15
384.15	362.83
384.53	359.89
384.91	340.46
385.29	371.42
385.67	352.66
386.049	356.95
386.429	368.03
386.809	353.34
387.189	351.76
387.568	362.6
387.948	346.78
388.328	376.84
388.707	372.77
389.087	368.7
389.466	368.25
389.846	361.93
390.225	372.09
390.605	382.94
390.984	377.29
391.363	378.2
391.743	369.38
392.122	378.87
392.501	387.46
392.881	375.26
393.26	379.55
393.639	400.34
394.018	383.17
394.397	376.16
394.776	371.64
395.155	391.53
395.534	382.49
395.913	368.7
396.292	404.18
396.671	388.82
397.05	391.98
397.429	383.39
397.808	398.08
398.186	418.42
398.565	387.91
398.944	417.74
399.323	387.24
399.701	394.24
400.08	414.35
400.458	396.05
400.837	410.96
401.215	427.01
401.594	431.75
401.972	401.92
402.351	410.51
402.729	400.57
403.107	425.43
403.486	412.32
403.864	399.44
404.242	424.52
404.62	396.73
404.999	456.84
405.377	434.92
405.755	428.36
406.133	450.74
406.511	430.4
406.889	454.13
407.267	429.04
407.645	448.7
408.023	438.76
408.401	442.6
408.779	466.56
409.156	430.17
409.534	441.92
409.912	457.29
410.29	457.74
410.667	471.98
411.045	484.41
411.422	440.12
411.8	459.55
412.178	466.1
412.555	485.76
412.933	476.95
413.31	491.64
413.687	477.63
414.065	501.58
414.442	508.59
414.819	500.23
415.197	508.36
415.574	514.69
415.951	494.58
416.328	495.71
416.705	514.24
417.082	521.7
417.46	535.48
417.837	556.5
418.214	536.61
418.591	548.14
418.967	512.66
419.344	521.02
419.721	542.26
420.098	550.17
420.475	545.65
420.852	548.59
421.228	517.63
421.605	532.99
421.982	556.72
422.358	554.24
422.735	563.73
423.111	558.53
423.488	585.65
423.864	568.7
424.241	574.58
424.617	565.31
424.994	587.46
425.37	588.81
425.746	563.5
426.123	577.29
426.499	589.72
426.875	603.28
427.251	605.53
427.627	618.87
428.003	614.57
428.379	618.19
428.756	598.08
429.132	631.3
429.507	636.72
429.883	624.07
430.259	664.74
430.635	633.56
431.011	656.61
431.387	655.7
431.763	668.58
432.138	676.95
432.514	682.6
432.89	679.21
433.265	681.24
433.641	680.34
434.016	723.5
434.392	717.85
434.767	714.91
435.143	712.65
435.518	713.78
435.894	721.46
436.269	737.06
436.644	742.48
437.02	766.89
437.395	723.5
437.77	740.22
438.145	738.19
438.52	760.11
438.895	778.19
439.271	790.39
439.646	796.26
440.021	786.55
440.395	783.61
440.77	790.61
441.145	783.38
441.52	796.94
441.895	812.99
442.27	827.45
442.645	804.4
443.019	832.65
443.394	837.39
443.769	855.02
444.143	835.36
444.518	857.28
444.892	838.98
445.267	847.11
445.641	864.96
446.016	869.93
446.39	865.19
446.764	867.22
447.139	854.12
447.513	898.18
447.887	856.83
448.262	896.83
448.636	897.96
449.01	892.31
449.384	894.79
449.758	910.84
450.132	888.69
450.506	930.72
450.88	917.17
451.254	923.49
451.628	936.83
452.002	942.25
452.376	982.47
452.75	976.15
453.123	1010.27
453.497	962.59
453.871	1003.26
454.244	987.67
454.618	1038.52
454.992	1052.08
455.365	1010.04
455.739	1020.89
456.112	1067.9
456.486	1058.63
456.859	1068.12
457.232	1107.89
457.606	1091.62
457.979	1091.17
458.352	1127.1
458.725	1125.97
459.099	1167.78
459.472	1168.23
459.845	1181.56
460.218	1194.67
460.591	1179.31
460.964	1207.1
461.337	1249.81
461.71	1251.85
462.083	1262.69
462.456	1254.56
462.829	1271.28
463.201	1278.51
463.574	1281.45
463.947	1299.3
464.32	1358.96
464.692	1351.5
465.065	1366.87
465.438	1412.52
465.81	1391.5
466.183	1406.42
466.555	1436.47
466.928	1449.35
467.3	1456.81
467.672	1474.21
468.045	1523.02
468.417	1519.18
468.789	1580.65
469.161	1559.41
469.534	1616.13
469.906	1663.36
470.278	1662.68
470.65	1673.3
471.022	1702.46
471.394	1732.28
471.766	1753.75
472.138	1812.73
472.51	1820.42
472.882	1866.07
473.253	1881.66
473.625	1935.9
473.997	1992.84
474.369	1972.96
474.74	2064.48
475.112	2099.28
475.484	2122.56
475.855	2165.95
476.227	2214.53
476.598	2297.69
476.97	2306.96
477.341	2376.11
477.713	2416.33
478.084	2441.42
478.455	2547.4
478.827	2587.63
479.198	2657.23
479.569	2684.58
479.94	2815.19
480.311	2827.4
480.682	2939.94
481.053	3002.08
481.424	3086.15
481.795	3147.61
482.166	3191.46
482.537	3315.07
482.908	3396.65
483.279	3465.8
483.65	3618.79
484.021	3661.5
484.391	3688.39
484.762	3829.63
485.133	3850.2
485.503	4002.73
485.874	4106.69
486.244	4160.92
486.615	4301.26
486.985	4389.39
487.356	4511.19
487.726	4561.82
488.097	4705.54
488.467	4759.78
488.837	4896.95
489.207	4994.35
489.578	5178.3
489.948	5218.97
490.318	5319.08
490.688	5370.38
491.058	5529.7
491.428	5642.24
491.798	5754.33
492.168	5936.47
492.538	5994.09
492.908	6087.2
493.278	6275.67
493.648	6315.44
494.017	6445.83
494.387	6520.18
494.757	6619.61
495.126	6736.67
495.496	6807.86
495.866	6902.09
496.235	7017.8
496.605	7140.05
496.974	7272.7
497.344	7328.07
497.713	7400.38
498.082	7446.26
498.452	7657.33
498.821	7697.78
499.19	7794.27
499.559	7902.97
499.928	7997.66
500.298	8142.51
500.667	8210.98
501.036	8205.11
501.405	8327.59
501.774	8386.12
502.143	8585.66
502.512	8586.34
502.88	8706.11
503.249	8773.23
503.618	8836.96
503.987	8882.38
504.356	9014.35
504.724	9135.48
505.093	9119.21
505.462	9248.7
505.83	9281.01
506.199	9431.07
506.567	9521.23
506.936	9547.67
507.304	9593.77
507.672	9746.31
508.041	9862.01
508.409	9866.53
508.777	10012.97
509.145	10086.87
509.514	10123.7
509.882	10200.08
510.25	10273.08
510.618	10319.86
510.986	10292.96
511.354	10620.19
511.722	10587.42
512.09	10723.23
512.458	10669.68
512.826	10788.09
513.193	10834.42
513.561	10899.28
513.929	11009.78
514.297	11138.14
514.664	11186.05
515.032	11196.89
515.4	11248.42
515.767	11335.65
516.135	11486.38
516.502	11432.14
516.869	11623.1
517.237	11583.55
517.604	11640.72
517.972	11752.36
518.339	11941.73
518.706	11901.96
519.073	11987.16
519.44	11998.68
519.808	12148.73
520.175	12085.46
520.542	12311.67
520.909	12351.21
521.276	12343.53
521.643	12509.85
522.009	12553.02
522.376	12670.3
522.743	12742.39
523.11	12875.49
523.477	12938.77
523.843	12952.78
524.21	13092.66
524.577	13239.1
524.943	13263.28
525.31	13364.97
525.676	13457.4
526.043	13570.17
526.409	13652.65
526.776	13712.99
527.142	13739.43
527.508	13884.73
527.874	13955.69
528.241	14059.87
528.607	14046.31
528.973	14280.2
529.339	14194.78
529.705	14382.57
530.071	14459.86
530.437	14540.54
530.803	14510.93
531.169	14666.86
531.535	14607.88
531.901	14681.32
532.267	14792.05
532.632	14896.46
532.998	14927.87
533.364	15000.41
533.73	15107.3
534.095	15256.45
534.461	15328.99
534.826	15284.7
535.192	15382.32
535.557	15570.34
535.923	15571.02
536.288	15589.1
536.653	15617.34
537.019	15635.2
537.384	15789.54
537.749	15821.41
538.114	15896.66
538.479	15924.91
538.845	16027.05
539.21	16041.06
539.575	16068.18
539.94	16010.33
540.305	16239.93
540.67	16218.91
541.034	16250.55
541.399	16341.62
541.764	16450.32
542.129	16554.95
542.494	16541.84
542.858	16632.91
543.223	16700.7
543.587	16816.63
543.952	16724.66
544.316	16881.49
544.681	16843.75
545.045	17069.28
545.41	17083.07
545.774	17070.86
546.138	17179.79
546.503	17301.37
546.867	17249.62
547.231	17387.69
547.595	17484.19
547.959	17517.18
548.324	17476.96
548.688	17563.51
549.052	17634.47
549.416	17641.92
549.779	17730.96
550.143	17809.38
550.507	17805.99
550.871	17942.03
551.235	18000.11
551.599	18073.1
551.962	18121.01
552.326	18182.02
552.689	18284.17
553.053	18250.04
553.417	18266.99
553.78	18579.53
554.143	18330.94
554.507	18516.48
554.87	18638.28
555.234	18739.3
555.597	18669.47
555.96	18737.04
556.323	18786.07
556.686	18773.42
557.05	18947.88
557.413	18935.45
557.776	19031.04
558.139	19160.08
558.502	19228.77
558.865	19315.1
559.228	19374.31
559.59	19456.11
559.953	19488.65
560.316	19659.27
560.679	19687.52
561.041	19815.65
561.404	19854.75
561.767	20082.76
562.129	19864.69
562.492	20176.09
562.854	20111.01
563.217	20098.13
563.579	20172.7
563.941	20328.18
564.304	20506.25
564.666	20450.44
565.028	20542.86
565.39	20577.67
565.753	20751.45
566.115	20793.7
566.477	20943.53
566.839	20831.67
567.201	21089.52
567.563	21087.26
567.925	21287.03
568.287	21172.45
568.648	21333.13
569.01	21431.88
569.372	21625.77
569.734	21497.41
570.095	21651.54
570.457	21758.88
570.819	21770.4
571.18	21845.88
571.542	21956.16
571.903	22059.66
572.265	22120.9
572.626	22249.03
572.987	22349.14
573.349	22308.92
573.71	22523.15
574.071	22650.6
574.432	22733.54
574.794	22920.2
575.155	23003.82
575.516	23087.2
575.877	23077.94
576.238	23287.2
576.599	23442
576.96	23441.77
577.32	23616
577.681	23816.45
578.042	23920.18
578.403	23993.62
578.763	24128.98
579.124	24327.4
579.485	24421.63
579.845	24516.77
580.206	24659.37
580.566	24812.81
580.927	24980.71
581.287	25157.66
581.648	25242.85
582.008	25448.27
582.368	25658.66
582.728	25882.84
583.089	25994.47
583.449	26075.83
583.809	26368.93
584.169	26617.51
584.529	26580.45
584.889	27117.83
585.249	27015.01
585.609	27240.09
585.969	27604.37
586.329	27674.43
586.688	28012.05
587.048	28139.27
587.408	28319.61
587.768	28601.63
588.127	28689.99
588.487	28909.65
588.846	29287.04
589.206	29288.4
589.565	29499.92
589.925	29922.05
590.284	30064.87
590.643	30287.47
591.003	30550.28
591.362	30711.41
591.721	30889.71
592.08	31076.37
592.44	31382.8
592.799	31709.8
593.158	31818.5
593.517	31972.62
593.876	32293.06
594.235	32331.71
594.593	32666.61
594.952	32886.04
595.311	33012.14
595.67	33361.06
596.029	33705.91
596.387	33912.91
596.746	34189.96
597.104	34132.34
597.463	34402.16
597.822	34791.75
598.18	34769.61
598.538	34874.69
598.897	35322.36
599.255	35196.49
599.613	35812.97
599.972	35926.64
600.33	36083.7
600.688	36052.06
601.046	36373.18
601.404	36643.91
601.762	36821.31
602.12	37124.12
602.478	37180.17
602.836	37399.6
603.194	37346.94
603.552	37620.83
603.91	37709.19
604.268	38079.8
604.625	37951.9
604.983	38286.13
605.341	38240.03
605.698	38545.1
606.056	38627.59
606.413	38664.42
606.771	39084.98
607.128	39232.99
607.485	39197.97
607.843	39268.47
608.2	39747.56
608.557	39820.77
608.914	39871.4
609.272	40181.67
609.629	40208.11
609.986	40399.97
610.343	40274.32
610.7	40757.93
611.057	40714.76
611.414	40719.28
611.771	41103.45
612.127	41125.37
612.484	41264.58
612.841	41434.07
613.198	41510.45
613.554	41663.66
613.911	41848.07
614.267	41951.79
614.624	41983.66
614.98	42110.66
615.337	42500.25
615.693	42272.24
616.05	42307.26
616.406	42568.73
616.762	42546.13
617.118	42753.35
617.475	42752.22
617.831	42952.22
618.187	42999
618.543	43026.79
618.899	43340.46
619.255	43363.51
619.611	43181.82
619.967	43578.64
620.323	43622.48
620.678	43706.55
621.034	43486.67
621.39	43511.98
621.746	43525.99
622.101	44057.27
622.457	43874.91
622.812	44027.22
623.168	44072.19
623.523	44193.77
623.879	44366.19
624.234	44108.35
624.589	44162.81
624.945	44345.85
625.3	44309.24
625.655	44422.91
626.01	44266.99
626.365	44523.7
626.72	44419.07
627.075	44467.66
627.43	44622.46
627.785	44473.31
628.14	44697.48
628.495	44669.01
628.85	44727.99
629.205	44563.48
629.559	44788.55
629.914	44553.98
630.269	44743.58
630.623	44661.78
630.978	44504.95
631.332	44785.39
631.687	44794.2
632.041	44640.54
632.396	44805.73
632.75	44462.46
633.104	44775.45
633.459	44640.31
633.813	44556.24
634.167	44600.54
634.521	44609.58
634.875	44726.86
635.229	44794.43
635.583	44543.36
635.937	44562.12
636.291	44478.28
636.645	44571.61
636.999	44645.73
637.352	44715.79
637.706	44452.97
638.06	44582.46
638.413	44479.41
638.767	44529.58
639.121	44565.73
639.474	44391.95
639.828	44504.95
640.181	44370.26
640.534	44346.76
640.888	44332.07
641.241	44138.4
641.594	44338.4
641.947	44484.61
642.301	44259.53
642.654	44331.62
643.007	44250.49
643.36	44230.83
643.713	44182.47
644.066	44409.81
644.419	44198.74
644.771	43852.76
645.124	43562.37
645.477	43461.58
645.83	43229.95
646.182	42960.58
646.535	42980.69
646.888	43036.96
647.24	42789.51
647.593	42988.83
647.945	42918.77
648.298	42840.36
648.65	42855.5
649.002	42782.96
649.355	42924.2
649.707	42891.2
650.059	43065.44
650.411	43505.65
650.763	43663.84
651.115	43995.35
651.467	43737.06
651.819	43662.71
652.171	43762.82
652.523	43649.15
652.875	43630.84
653.227	43345.2
653.578	43746.1
653.93	43746.77
654.282	43446.89
654.633	43342.49
654.985	43475.59
655.337	43473.56
655.688	43377.97
656.039	43611.18
656.391	43260.23
656.742	43311.98
657.094	43380.23
657.445	43518.76
657.796	43394.92
658.147	43368.48
658.498	43253.68
658.849	43428.59
659.2	43280.12
659.551	43245.54
659.902	43345.88
660.253	43214.81
660.604	43453.45
660.955	43100.69
661.306	43239.22
661.656	43327.8
662.007	43214.13
662.358	43250.74
662.708	43335.71
663.059	43182.04
663.409	43025.89
663.76	43299.55
664.11	43184.75
664.461	43311.3
664.811	43173
665.161	43265.66
665.511	43211.19
665.862	43247.58
666.212	43218.43
666.562	43149.28
666.912	43026.79
667.262	43039.67
667.612	43059.11
667.962	43076.51
668.312	42947.47
668.662	43306.11
669.011	43172.55
669.361	43130.52
669.711	42996.74
670.06	43045.32
670.41	43041.26
670.76	42883.29
671.109	42992.89
671.459	42942.05
671.808	42914.48
672.157	43045.32
672.507	42824.99
672.856	42726.46
673.205	42789.96
673.554	42847.59
673.904	42842.84
674.253	42930.3
674.602	43016.85
674.951	42438.79
675.3	42136.87
675.649	42764.88
675.998	42761.71
676.346	42710.42
676.695	42810.75
677.044	42407.83
677.393	42635.39
677.741	42700.93
678.09	42559.46
678.438	42488.28
678.787	42367.6
679.135	42545.45
679.484	42388.84
679.832	42503.64
680.181	42158.34
680.529	42370.31
680.877	42224.78
681.225	41999.25
681.573	42290.09
681.922	42176.65
682.27	41988.63
682.618	42095.97
682.966	41923.54
683.314	41995.86
683.661	41697.11
684.009	41672.48
684.357	41533.5
684.705	41663.89
685.053	41622.76
685.4	41593.84
685.748	41433.16
686.095	41359.49
686.443	41089.67
686.79	41153.17
687.138	41230.46
687.485	41338.48
687.832	41081.98
688.18	41228.2
688.527	40917.24
688.874	40985.49
689.221	40862.33
689.568	40653.07
689.915	40635.89
690.262	40639.51
690.609	40592.73
690.956	40403.36
691.303	40440.65
691.65	40214.21
691.997	40283.14
692.344	39980.09
692.69	39957.72
693.037	39998.17
693.383	39528.13
693.73	39732.87
694.077	39487
694.423	39634.79
694.769	39352.31
695.116	39379.43
695.462	39299.88
695.808	39135.14
696.155	39322.71
696.501	38890.4
696.847	39042.72
697.193	38810.41
697.539	38825.32
697.885	38545.78
698.231	38593.01
698.577	38566.34
698.923	38383.52
699.269	38329.06
699.614	38195.96
699.96	38030.09
700.306	38061.5
700.651	37966.13
700.997	37741.28
701.342	37722.07
701.688	37727.27
702.033	37653.6
702.379	37560.04
702.724	37411.8
703.069	37454.28
703.415	37078.93
703.76	37124.12
704.105	37064.69
704.45	36991.7
704.795	36784.7
705.14	36770.01
705.485	36692.95
705.83	36506.51
706.175	36727.07
706.52	36522.33
706.865	36377.25
707.209	36436.68
707.554	36127.76
707.899	36339.74
708.243	35986.07
708.588	36052.74
708.932	35763.03
709.277	35782.69
709.621	35715.12
709.966	35544.05
710.31	35586.76
710.654	35404.62
710.998	35307.22
711.342	35415.69
711.687	35292.53
712.031	35177.28
712.375	35074.69
712.719	35144.29
713.063	35036.27
713.407	35206.43
713.75	34903.39
714.094	34894.58
714.438	34669.72
714.782	34745.43
715.125	34484.42
715.469	34507.92
715.812	34440.13
716.156	34333.01
716.499	34381.82
716.843	34448.71
717.186	34169.85
717.53	34164.65
717.873	34221.6
718.216	34006.69
718.559	33975.5
718.902	33557.21
719.246	33825.45
719.589	33640.37
719.932	33552.24
720.275	33709.3
720.617	33535.74
720.96	33521.51
721.303	33507.72
721.646	33509.75
721.989	33267.95
722.331	33392.7
722.674	33216.43
723.016	33275.86
723.359	33340.27
723.701	33315.18
724.044	33007.85
724.386	32967.62
724.729	33033.16
725.071	32835.87
725.413	32930.33
725.755	32907.51
726.097	32663.68
726.439	32710.45
726.782	32728.98
727.124	32782.99
727.465	32565.37
727.807	32509.78
728.149	32454.42
728.491	32432.04
728.833	32403.12
729.175	32293.06
729.516	32323.12
729.858	32264.14
730.199	32198.83
730.541	31976.69
730.882	32111.6
731.224	32251.93
731.565	32087.19
731.906	31997.93
732.248	31974.2
732.589	31717.71
732.93	31773.75
733.271	31791.16
733.612	31813.75
733.953	31858.27
734.294	31664.15
734.635	31603.14
734.976	31538.05
735.317	31444.5
735.658	31388.91
735.999	31366.31
736.339	31356.82
736.68	31345.07
737.021	31302.58
737.361	31121.12
737.702	31366.99
738.042	31145.52
738.383	31079.99
738.723	31104.39
739.063	31028.46
739.404	31094
739.744	30835.02
740.084	30880.67
740.424	30825.76
740.764	30758.87
741.104	30929.94
741.444	30702.37
741.784	30679.77
742.124	30743.05
742.464	30514.13
742.804	30512.55
743.143	30574.46
743.483	30425.77
743.823	30435.26
744.162	30378.31
744.502	30363.4
744.841	30225.77
745.181	30412.89
745.52	30278.65
745.86	30303.74
746.199	30231.87
746.538	30062.39
746.877	30270.29
747.216	30117.53
747.556	29896.06
747.895	30098.77
748.234	29911.21
748.573	29882.05
748.911	29867.59
749.25	29839.12
749.589	29693.36
749.928	29720.93
750.267	29756.86
750.605	29587.82
750.944	29603.87
751.283	29452.69
751.621	29469.86
751.96	29360.03
752.298	29302.41
752.636	29368.39
752.975	29282.07
753.313	29132.92
753.651	29242.3
753.989	28990.1
754.327	28982.19
754.666	28940.16
755.004	28819.93
755.342	28919.14
755.679	29004.11
756.017	28731.8
756.355	28741.07
756.693	28605.48
