Data from hue_120_FLMS001491_00037.txt Node
Date: Tue Feb 07 16:59:17 GMT 2017
User: dcchb
Spectrometer: FLMS00149
Trigger mode: 0
Integration Time (sec): 2.000000E-2
Scans to average: 10
Electric dark correction enabled: true
Nonlinearity correction enabled: false
Boxcar width: 0
XAxis mode: Wavelengths
Number of Pixels in Spectrum: 2048
>>>>>Begin Spectral Data<<<<<
341.393	-9.77
341.776	-9.77
342.16	-9.77
342.543	-76.66
342.927	-66.27
343.31	-74.4
343.693	-78.47
344.077	-74.86
344.46	-72.82
344.843	-50.22
345.226	-47.74
345.61	-6.38
345.993	-26.5
346.376	7.85
346.759	19.83
347.142	35.87
347.525	51.24
347.908	56.21
348.291	84.69
348.674	73.84
349.057	101.86
349.44	125.82
349.823	145.25
350.206	156.1
350.588	177.11
350.971	208.98
351.354	209.43
351.737	226.15
352.119	279.48
352.502	251.46
352.884	276.55
353.267	269.77
353.65	285.36
354.032	296.66
354.414	305.47
354.797	302.53
355.179	302.53
355.562	311.57
355.944	317
356.326	305.92
356.709	319.26
357.091	329.65
357.473	333.27
357.855	346.38
358.238	353.15
358.62	325.58
359.002	337.56
359.384	327.39
359.766	332.36
360.148	339.37
360.53	331.46
360.912	338.24
361.294	345.25
361.676	332.14
362.057	320.61
362.439	332.59
362.821	332.82
363.203	336.43
363.584	316.09
363.966	316.77
364.348	319.26
364.729	319.94
365.111	308.41
365.493	325.13
365.874	296.43
366.256	322.87
366.637	317.45
367.019	307.51
367.4	313.61
367.781	303.44
368.163	318.81
368.544	331.91
368.925	312.03
369.306	308.86
369.688	318.81
370.069	314.51
370.45	331.01
370.831	311.57
371.212	314.51
371.593	309.77
371.974	333.49
372.355	321.29
372.736	343.66
373.117	338.01
373.498	342.53
373.879	331.91
374.26	324.68
374.641	313.38
375.021	298.01
375.402	321.74
375.783	307.28
376.163	351.35
376.544	347.73
376.925	342.53
377.305	318.81
377.686	346.83
378.066	347.28
378.447	347.05
378.827	331.01
379.208	340.95
379.588	311.12
379.968	340.05
380.349	339.37
380.729	321.52
381.109	344.12
381.489	337.34
381.87	319.26
382.25	329.65
382.63	348.41
383.01	344.34
383.39	343.66
383.77	339.82
384.15	354.74
384.53	376.66
384.91	351.57
385.29	343.21
385.67	354.06
386.049	357.67
386.429	369.2
386.809	361.52
387.189	359.03
387.568	354.96
387.948	358.35
388.328	365.81
388.707	360.16
389.087	365.36
389.466	364.45
389.846	360.16
390.225	366.71
390.605	345.02
390.984	371.91
391.363	386.83
391.743	391.12
392.122	374.85
392.501	389.76
392.881	391.12
393.26	375.3
393.639	385.92
394.018	387.5
394.397	391.8
394.776	368.75
395.155	404.45
395.534	395.64
395.913	376.88
396.292	397
396.671	378.92
397.05	417.11
397.429	406.26
397.808	397.45
398.186	392.48
398.565	396.54
398.944	418.69
399.323	413.72
399.701	404
400.08	412.36
400.458	418.01
400.837	429.31
401.215	418.69
401.594	421.85
401.972	435.64
402.351	439.93
402.729	422.53
403.107	429.54
403.486	404
403.864	419.82
404.242	425.02
404.62	446.49
404.999	439.03
405.377	456.2
405.755	428.41
406.133	447.16
406.511	448.29
406.889	462.3
407.267	440.84
407.645	439.93
408.023	472.25
408.401	461.63
408.779	450.1
409.156	486.03
409.534	477.45
409.912	481.29
410.29	479.25
410.667	459.37
411.045	463.66
411.422	484.45
411.8	456.88
412.178	504.56
412.555	499.14
412.933	501.85
413.31	491.68
413.687	499.14
414.065	498.24
414.442	514.51
414.819	532.36
415.197	529.87
415.574	509.08
415.951	525.58
416.328	522.19
416.705	540.27
417.082	502.53
417.46	528.29
417.837	525.81
418.214	533.94
418.591	547.05
418.967	533.04
419.344	541.62
419.721	553.6
420.098	556.77
420.475	558.57
420.852	576.65
421.228	579.82
421.605	568.97
421.982	579.14
422.358	583.66
422.735	585.24
423.111	579.82
423.488	613.49
423.864	606.71
424.241	596.31
424.617	591.79
424.994	597.22
425.37	627.5
425.746	621.4
426.123	623.43
426.499	607.84
426.875	630.44
427.251	642.41
427.627	638.8
428.003	650.77
428.379	634.5
428.756	668.85
429.132	684.45
429.507	666.37
429.883	658.68
430.259	676.08
430.635	711.34
431.011	686.25
431.387	686.93
431.763	705.69
432.138	715.4
432.514	707.72
432.89	740.04
433.265	726.03
433.641	717.44
434.016	752.01
434.392	738.68
434.767	765.12
435.143	745.91
435.518	738.23
435.894	759.7
436.269	814.61
436.644	813.93
437.02	782.75
437.395	804.89
437.77	821.62
438.145	842.41
438.52	802.18
438.895	833.37
439.271	822.75
439.646	836.31
440.021	848.73
440.395	849.19
440.77	854.38
441.145	877.89
441.52	885.8
441.895	869.07
442.27	876.3
442.645	880.6
443.019	911.56
443.394	893.93
443.769	893.71
444.143	899.13
444.518	908.62
444.892	929.64
445.267	926.25
445.641	908.85
446.016	950.2
446.39	943.42
446.764	940.71
447.139	947.94
447.513	978.9
447.887	967.6
448.262	959.24
448.636	960.37
449.01	980.48
449.384	997.88
449.758	987.71
450.132	1017.32
450.506	997.88
450.88	1046.7
451.254	1032.46
451.628	1040.59
452.002	1041.95
452.376	1055.28
452.75	1068.84
453.123	1083.3
453.497	1110.65
453.871	1101.84
454.244	1123.08
454.618	1134.15
454.992	1147.48
455.365	1143.64
455.739	1152.46
456.112	1169.18
456.486	1165.34
456.859	1188.39
457.232	1212.57
457.606	1225.22
457.979	1237.43
458.352	1257.76
458.725	1276.07
459.099	1258.67
459.472	1297.54
459.845	1306.12
460.218	1312
460.591	1360.36
460.964	1336.86
461.337	1362.62
461.71	1359.91
462.083	1407.59
462.456	1433.35
462.829	1448.27
463.201	1443.75
463.574	1449.4
463.947	1477.42
464.32	1519.68
464.692	1568.49
465.065	1523.07
465.438	1565.78
465.81	1615.27
466.183	1636.96
466.555	1641.26
466.928	1688.03
467.3	1697.3
467.672	1696.85
468.045	1749.5
468.417	1748.82
468.789	1770.52
469.161	1786.79
469.534	1864.98
469.906	1869.5
470.278	1897.75
470.65	1918.99
471.022	1966.9
471.394	2007.35
471.766	2047.35
472.138	2084.86
472.51	2133.45
472.882	2187.46
473.253	2226.55
473.625	2247.79
473.997	2307.23
474.369	2324.63
474.74	2374.34
475.112	2399.2
475.484	2477.62
475.855	2576.82
476.227	2610.72
476.598	2690.27
476.97	2741.34
477.341	2815.24
477.713	2876.48
478.084	2896.36
478.455	3038.96
478.827	3074.21
479.198	3212.97
479.569	3256.81
479.94	3318.5
480.311	3398.05
480.682	3543.58
481.053	3607.76
481.424	3688.43
481.795	3789.45
482.166	3897.92
482.537	4050.68
482.908	4089.1
483.279	4167.07
483.65	4310.79
484.021	4423.56
484.391	4567.73
484.762	4672.36
485.133	4796.43
485.503	4851.34
485.874	4983.54
486.244	5118.68
486.615	5275.06
486.985	5395.96
487.356	5535.17
487.726	5623.98
488.097	5806.34
488.467	5855.61
488.837	6137.18
489.207	6250.4
489.578	6415.59
489.948	6531.52
490.318	6659.43
490.688	6761.35
491.058	6930.61
491.428	7098.06
491.798	7196.14
492.168	7425.06
492.538	7448.79
492.908	7673.64
493.278	7806.52
493.648	7871.83
494.017	8028.66
494.387	8200.63
494.757	8354.98
495.126	8482.43
495.496	8548.87
495.866	8697.79
496.235	8860.95
496.605	9000.61
496.974	9064.11
497.344	9236.76
497.713	9361.28
498.082	9468.17
498.452	9662.74
498.821	9735.51
499.19	9837.2
499.559	9909.29
499.928	10061.37
500.298	10144.08
500.667	10303.63
501.036	10347.69
501.405	10427.92
501.774	10524.19
502.143	10724.18
502.512	10775.48
502.88	10914.23
503.249	10939.09
503.618	11054.12
503.987	11078.07
504.356	11205.07
504.724	11238.97
505.093	11378.18
505.462	11416.59
505.83	11582.69
506.199	11663.14
506.567	11803.02
506.936	11770.71
507.304	11904.72
507.672	12026.29
508.041	12128.21
508.409	12196.91
508.777	12311.94
509.145	12394.65
509.514	12413.85
509.882	12542.21
510.25	12555.32
510.618	12526.85
510.986	12566.17
511.354	12706.95
511.722	12836.22
512.09	12902.2
512.458	12866.5
512.826	13000.96
513.193	12977
513.561	13146.49
513.929	13181.97
514.297	13287.73
514.664	13367.95
515.032	13377.44
515.4	13464.9
515.767	13446.14
516.135	13520.27
516.502	13440.49
516.869	13612.92
517.237	13553.94
517.604	13619.7
517.972	13681.84
518.339	13775.85
518.706	13776.98
519.073	13817.21
519.44	13869.86
519.808	13896.53
520.175	13947.15
520.542	13975.4
520.909	14058.78
521.276	14126.13
521.643	14183.98
522.009	14221.49
522.376	14255.39
522.743	14257.42
523.11	14381.03
523.477	14458.55
523.843	14516.85
524.21	14558.43
524.577	14670.07
524.943	14615.83
525.31	14601.59
525.676	14795.03
526.043	14696.05
526.409	14810.63
526.776	14864.41
527.142	14823.06
527.508	14955.26
527.874	14964.52
528.241	14914.81
528.607	14932.43
528.973	15012.66
529.339	14985.99
529.705	15004.75
530.071	15125.65
530.437	15110.73
530.803	15141.69
531.169	15062.82
531.535	15090.17
531.901	15098.53
532.267	15124.52
532.632	15115.7
532.998	15105.31
533.364	15043.16
533.73	15138.53
534.095	15094.24
534.461	15126.78
534.826	15220.33
535.192	15073.67
535.557	15215.59
535.923	15145.31
536.288	15101.24
536.653	15060.34
537.019	14999.78
537.384	14965.88
537.749	14967.01
538.114	14982.83
538.479	14943.05
538.845	14953.9
539.21	14860.34
539.575	14825.32
539.94	14817.18
540.305	14891.3
540.67	14834.36
541.034	14932.66
541.399	14819.21
541.764	14851.53
542.129	14786
542.494	14756.84
542.858	14644.3
543.223	14643.17
543.587	14717.3
543.952	14579.22
544.316	14602.72
544.681	14588.49
545.045	14546.23
545.41	14766.11
545.774	14483.63
546.138	14455.61
546.503	14437.08
546.867	14365.44
547.231	14476.17
547.595	14494.48
547.959	14408.6
548.324	14304.65
548.688	14319.79
549.052	14321.37
549.416	14242.28
549.779	14289.06
550.143	14241.38
550.507	14181.49
550.871	14169.97
551.235	14135.84
551.599	14197.54
551.962	14200.93
552.326	14102.17
552.689	14101.95
553.053	14043.19
553.417	14040.25
553.78	14106.92
554.143	14026.24
554.507	14032.79
554.87	13962.06
555.234	14080.03
555.597	13949.63
555.96	13917.77
556.323	13996.86
556.686	13942.63
557.05	14012.91
557.413	13942.4
557.776	13891.78
558.139	13945.57
558.502	13982.85
558.865	13921.84
559.228	13917.77
559.59	13943.08
559.953	13935.4
560.316	13976.07
560.679	13944.89
561.041	14027.82
561.404	14044.55
561.767	14005.22
562.129	13933.59
562.492	14065.11
562.854	14042.51
563.217	13928.39
563.579	14092.91
563.941	14084.77
564.304	13991.67
564.666	14100.36
565.028	14168.61
565.39	14030.76
565.753	14178.1
566.115	14138.55
566.477	14204.77
566.839	14123.41
567.201	14324.09
567.563	14214.49
567.925	14325.22
568.287	14242.05
568.648	14115.96
569.01	14318.66
569.372	14298.32
569.734	14226.01
570.095	14303.75
570.457	14322.73
570.819	14419.45
571.18	14406.8
571.542	14378.77
571.903	14493.12
572.265	14443.18
572.626	14503.97
572.987	14480.47
573.349	14487.7
573.71	14508.71
574.071	14545.55
574.432	14539
574.794	14582.84
575.155	14561.82
575.516	14442.95
575.877	14548.26
576.238	14568.6
576.599	14642.04
576.96	14532.44
577.32	14630.07
577.681	14661.7
578.042	14613.57
578.403	14593.23
578.763	14547.13
579.124	14608.15
579.485	14656.51
579.845	14699.44
580.206	14646.34
580.566	14600.46
580.927	14667.35
581.287	14607.92
581.648	14655.38
582.008	14705.32
582.368	14579.9
582.728	14650.18
583.089	14590.52
583.449	14691.99
583.809	14641.82
584.169	14682.72
584.529	14592.1
584.889	14720.23
585.249	14624.42
585.609	14602.95
585.969	14656.28
586.329	14523.4
586.688	14629.62
587.048	14534.02
587.408	14545.32
587.768	14582.84
588.127	14513.46
588.487	14492.44
588.846	14580.58
589.206	14528.15
589.565	14431.2
589.925	14510.07
590.284	14394.82
590.643	14440.24
591.003	14477.98
591.362	14510.52
591.721	14459.68
592.08	14487.47
592.44	14435.04
592.799	14486.79
593.158	14426.46
593.517	14461.71
593.876	14407.7
594.235	14391.88
594.593	14400.24
594.952	14367.48
595.311	14305.56
595.67	14394.14
596.029	14426.23
596.387	14383.07
596.746	14438.21
597.104	14325.44
597.463	14310.53
597.822	14415.16
598.18	14364.54
598.538	14332
598.897	14369.96
599.255	14322.96
599.613	14505.55
599.972	14383.52
600.33	14436.4
600.688	14260.59
601.046	14394.37
601.404	14346.46
601.762	14429.62
602.12	14484.53
602.478	14393.92
602.836	14345.1
603.194	14305.78
603.552	14400.02
603.91	14349.62
604.268	14353.01
604.625	14419.45
604.983	14452.22
605.341	14361.15
605.698	14405.67
606.056	14475.95
606.413	14424.87
606.771	14445.89
607.128	14419.68
607.485	14320.24
607.843	14389.85
608.2	14482.95
608.557	14442.73
608.914	14421.49
609.272	14529.5
609.629	14409.28
609.986	14528.83
610.343	14449.96
610.7	14615.38
611.057	14610.63
611.414	14514.36
611.771	14584.64
612.127	14575.38
612.484	14616.73
612.841	14647.92
613.198	14549.84
613.554	14628.26
613.911	14703.74
614.267	14766.79
614.624	14651.54
614.98	14720.01
615.337	14752.55
615.693	14704.87
616.05	14719.33
616.406	14764.98
616.762	14717.97
617.118	14739.22
617.475	14732.89
617.831	14774.24
618.187	14765.88
618.543	14778.99
618.899	14796.16
619.255	14751.65
619.611	14766.33
619.967	14841.81
620.323	14860.12
620.678	14883.85
621.034	14834.81
621.39	14773.79
621.746	14702.83
622.101	14962.04
622.457	14793.23
622.812	14801.59
623.168	14906.22
623.523	14827.35
623.879	14822.6
624.234	14815.83
624.589	14844.98
624.945	14774.47
625.3	14945.77
625.655	14852.89
626.01	14870.29
626.365	14862.15
626.72	14838.88
627.075	14816.28
627.43	14770.85
627.785	14787.58
628.14	14825.54
628.495	14815.6
628.85	14837.52
629.205	14730.18
629.559	14804.07
629.914	14734.92
630.269	14687.69
630.623	14724.53
630.978	14726.79
631.332	14720.46
631.687	14791.42
632.041	14714.36
632.396	14718.43
632.75	14683.85
633.104	14620.12
633.459	14606.11
633.813	14603.18
634.167	14520.01
634.521	14621.25
634.875	14582.16
635.229	14593.23
635.583	14544.19
635.937	14499
636.291	14504.19
636.645	14487.7
636.999	14467.13
637.352	14514.82
637.706	14373.58
638.06	14450.86
638.413	14414.25
638.767	14400.69
639.121	14399.56
639.474	14335.61
639.828	14386.46
640.181	14296.52
640.534	14350.98
640.888	14267.59
641.241	14267.59
641.594	14247.7
641.947	14271.21
642.301	14212.45
642.654	14260.36
643.007	14298.55
643.36	14272.56
643.713	14238.44
644.066	14214.03
644.419	14212.23
644.771	14105.34
645.124	13952.57
645.477	13942.18
645.83	13857.88
646.182	13820.15
646.535	13819.02
646.888	13737.89
647.24	13736.76
647.593	13840.94
647.945	13682.52
648.298	13649.98
648.65	13614.27
649.002	13649.98
649.355	13755.97
649.707	13764.78
650.059	13815.85
650.411	13878.67
650.763	13992.34
651.115	14044.55
651.467	14038.44
651.819	14084.77
652.171	14056.98
652.523	13917.77
652.875	14005
653.227	13914.61
653.578	13976.98
653.93	14001.16
654.282	13880.71
654.633	13847.26
654.985	13953.47
655.337	13885.23
655.688	13980.59
656.039	14040.48
656.391	13943.98
656.742	13970.88
657.094	13928.62
657.445	13950.99
657.796	14027.82
658.147	13999.12
658.498	13911.89
658.849	14029.63
659.2	14040.7
659.551	14007.71
659.902	13997.77
660.253	13938.79
660.604	13972.91
660.955	13927.49
661.306	13973.14
661.656	14005.45
662.007	13932.46
662.358	13998.9
662.708	13956.19
663.059	13982.63
663.409	13903.98
663.76	14023.08
664.11	13991.67
664.461	14033.02
664.811	13944.89
665.161	14034.83
665.511	13935.62
665.862	14005.68
666.212	14033.47
666.562	14005.68
666.912	13939.69
667.262	13974.49
667.612	13979.69
667.962	14132.45
668.312	13973.59
668.662	14112.11
669.011	13996.64
669.361	13986.69
669.711	14031.89
670.06	13997.99
670.41	13958.67
670.76	13959.12
671.109	13945.11
671.459	13986.24
671.808	13930.65
672.157	13982.85
672.507	13839.81
672.856	13908.73
673.205	13925.91
673.554	13945.79
673.904	13855.17
674.253	13998.9
674.602	13926.58
674.951	13723.88
675.3	13609.98
675.649	13788.06
675.998	13747.6
676.346	13779.24
676.695	13772.24
677.044	13701.96
677.393	13770.88
677.741	13773.37
678.09	13728.62
678.438	13672.58
678.787	13625.57
679.135	13753.48
679.484	13566.37
679.832	13616.31
680.181	13586.25
680.529	13616.76
680.877	13592.58
681.225	13494.73
681.573	13655.18
681.922	13491.57
682.27	13427.39
682.618	13466.26
682.966	13402.53
683.314	13376.31
683.661	13418.35
684.009	13314.4
684.357	13358.91
684.705	13299.25
685.053	13327.95
685.4	13243.44
685.748	13197.56
686.095	13152.14
686.443	13181.74
686.79	13169.09
687.138	13199.37
687.485	13142.65
687.832	13087.28
688.18	13096.1
688.527	13030.11
688.874	12965.03
689.221	12920.96
689.568	12897.23
689.915	12863.11
690.262	12844.58
690.609	12799.83
690.956	12756.44
691.303	12748.31
691.65	12661.98
691.997	12664.02
692.344	12607.97
692.69	12531.37
693.037	12577.69
693.383	12463.57
693.73	12468.54
694.077	12427.64
694.423	12396.23
694.769	12286.17
695.116	12335.44
695.462	12276.91
695.808	12202.11
696.155	12298.15
696.501	12091.38
696.847	12193.07
697.193	11973.19
697.539	12114.88
697.885	11973.19
698.231	11919.18
698.577	11872.85
698.923	11781.1
699.269	11856.13
699.614	11752.4
699.96	11723.03
700.306	11648.22
700.651	11652.74
700.997	11574.78
701.342	11598.96
701.688	11560.54
702.033	11562.8
702.379	11454.11
702.724	11387.89
703.069	11496.82
703.415	11233.77
703.76	11315.35
704.105	11345.63
704.45	11233.77
704.795	11196.71
705.14	11198.97
705.485	11158.97
705.83	11060.44
706.175	11145.41
706.52	11055.7
706.865	11019.31
707.209	10955.14
707.554	10952.42
707.899	10919.2
708.243	10839.88
708.588	10810.73
708.932	10851.41
709.277	10778.64
709.621	10805.99
709.966	10718.76
710.31	10706.33
710.654	10714.01
710.998	10687.57
711.342	10682.15
711.687	10659.55
712.031	10514.7
712.375	10483.74
712.719	10502.72
713.063	10515.83
713.407	10529.84
713.75	10476.96
714.094	10442.61
714.438	10439.67
714.782	10426.56
715.125	10401.03
715.469	10382.95
715.812	10356.96
716.156	10348.15
716.499	10283.29
716.843	10343.63
717.186	10261.82
717.53	10269.5
717.873	10267.47
718.216	10277.64
718.559	10196.96
718.902	10193.57
719.246	10121.26
719.589	10104.99
719.932	10114.71
720.275	10126.46
720.617	10121.26
720.96	10122.84
721.303	10111.54
721.646	10125.1
721.989	10033.13
722.331	10050.75
722.674	10037.87
723.016	10068.38
723.359	9996.29
723.701	10013.01
724.044	9929.63
724.386	9903.41
724.729	9992.22
725.071	9919.68
725.413	9931.89
725.755	9909.06
726.097	9935.05
726.439	9859.12
726.782	9897.76
727.124	9925.11
727.465	9858.22
727.807	9759.23
728.149	9901.83
728.491	9830.87
728.833	9852.11
729.175	9796.3
729.516	9825.22
729.858	9803.08
730.199	9811.44
730.541	9807.37
730.882	9786.35
731.224	9804.21
731.565	9793.36
731.906	9744.77
732.248	9709.74
732.589	9714.26
732.93	9727.37
733.271	9748.61
733.612	9755.39
733.953	9796.52
734.294	9750.87
734.635	9686.69
734.976	9748.16
735.317	9657.09
735.658	9689.63
735.999	9669.29
736.339	9731.21
736.68	9730.76
737.021	9705.9
737.361	9762.4
737.702	9762.4
738.042	9762.85
738.383	9711.1
738.723	9711.55
739.063	9724.21
739.404	9805.11
739.744	9794.26
740.084	9712.46
740.424	9856.41
740.764	9770.31
741.104	9870.64
741.444	9758.11
741.784	9801.04
742.124	9867.48
742.464	9874.71
742.804	9810.31
743.143	9857.76
743.483	9886.69
743.823	9862.96
744.162	9937.54
744.502	9933.92
744.841	9986.8
745.181	10020.25
745.52	10015.27
745.86	10162.39
746.199	10083.29
746.538	10093.24
746.877	10103.41
747.216	10283.29
747.556	10252.56
747.895	10316.96
748.234	10414.81
748.573	10428.82
748.911	10457.07
749.25	10586.56
749.589	10536.39
749.928	10595.15
750.267	10749.04
750.605	10755.82
750.944	10864.29
751.283	10841.24
751.621	10995.81
751.96	11109.26
752.298	11123.94
752.636	11239.2
752.975	11247.33
753.313	11355.58
753.651	11544.95
753.989	11524.16
754.327	11726.19
754.666	11719.41
755.004	11941.32
755.342	12041.66
755.679	12130.02
756.017	12192.39
756.355	12467.64
756.693	12459.05
757.031	12690.46
