Data from hue_28_FLMS001491_00054.txt Node
Date: Tue Feb 07 17:17:28 GMT 2017
User: dcchb
Spectrometer: FLMS00149
Trigger mode: 0
Integration Time (sec): 2.000000E-2
Scans to average: 10
Electric dark correction enabled: true
Nonlinearity correction enabled: false
Boxcar width: 0
XAxis mode: Wavelengths
Number of Pixels in Spectrum: 2048
>>>>>Begin Spectral Data<<<<<
341.393	-15.72
341.776	-15.72
342.16	-15.72
342.543	-70.41
342.927	-75.15
343.31	-39.67
343.693	-55.49
344.077	-50.75
344.46	-54.59
344.843	-76.74
345.226	-42.39
345.61	-28.15
345.993	-45.32
346.376	-6
346.759	15.69
347.142	20.89
347.525	29.25
347.908	57.27
348.291	68.8
348.674	90.27
349.057	116.93
349.44	130.49
349.823	136.82
350.206	154.22
350.588	193.09
350.971	208.45
351.354	218.17
351.737	229.7
352.119	247.32
352.502	266.31
352.884	278.06
353.267	292.97
353.65	296.36
354.032	314.44
354.414	311.73
354.797	320.32
355.179	309.7
355.562	332.07
355.944	328.68
356.326	335.01
356.709	358.06
357.091	332.75
357.473	335.46
357.855	370.94
358.238	345.4
358.62	345.17
359.002	328.45
359.384	354.67
359.766	335.68
360.148	343.14
360.53	325.51
360.912	328.45
361.294	338.62
361.676	351.73
362.057	336.59
362.439	365.96
362.821	345.63
363.203	325.06
363.584	323.48
363.966	338.62
364.348	324.38
364.729	331.39
365.111	333.42
365.493	319.19
365.874	326.87
366.256	309.02
366.637	322.8
367.019	303.59
367.4	321.45
367.781	297.72
368.163	321.45
368.544	337.04
368.925	303.14
369.306	321.9
369.688	326.87
370.069	311.05
370.45	312.86
370.831	311.73
371.212	338.85
371.593	305.85
371.974	322.35
372.355	312.18
372.736	330.26
373.117	308.57
373.498	320.77
373.879	316.25
374.26	323.25
374.641	293.42
375.021	308.79
375.402	309.47
375.783	326.19
376.163	335.68
376.544	329.36
376.925	309.47
377.305	323.71
377.686	318.28
378.066	342.01
378.447	329.36
378.827	330.03
379.208	340.2
379.588	328.45
379.968	339.75
380.349	344.72
380.729	349.02
381.109	333.2
381.489	335.23
381.87	344.04
382.25	351.73
382.63	343.37
383.01	327.1
383.39	331.62
383.77	331.62
384.15	358.28
384.53	341.56
384.91	359.41
385.29	346.3
385.67	378.17
386.049	354.67
386.429	345.85
386.809	342.01
387.189	341.78
387.568	328.68
387.948	350.82
388.328	367.77
388.707	353.99
389.087	334.78
389.466	353.31
389.846	370.26
390.225	353.54
390.605	363.48
390.984	375.68
391.363	360.54
391.743	379.52
392.122	356.7
392.501	385.17
392.881	361.22
393.26	352.86
393.639	375
394.018	369.81
394.397	378.62
394.776	382.91
395.155	377.94
395.534	379.52
395.913	395.57
396.292	406.64
396.671	393.53
397.05	366.19
397.429	370.94
397.808	384.72
398.186	412.74
398.565	393.08
398.944	385.85
399.323	385.63
399.701	377.72
400.08	410.26
400.458	388.34
400.837	388.56
401.215	388.11
401.594	415.23
401.972	422.01
402.351	384.72
402.729	418.62
403.107	408
403.486	411.84
403.864	407.77
404.242	404.16
404.62	417.49
404.999	412.29
405.377	411.84
405.755	428.56
406.133	407.09
406.511	421.78
406.889	413.2
407.267	432.86
407.645	422.69
408.023	435.34
408.401	433.08
408.779	433.08
409.156	434.89
409.534	442.57
409.912	416.13
410.29	457.49
410.667	440.09
411.045	461.78
411.422	435.34
411.8	470.14
412.178	467.88
412.555	458.62
412.933	454.1
413.31	445.28
413.687	445.28
414.065	480.31
414.442	471.72
414.819	498.16
415.197	481.44
415.574	471.05
415.951	499.97
416.328	471.5
416.705	467.66
417.082	494.55
417.46	492.29
417.837	502.68
418.214	501.1
418.591	512.63
418.967	502.46
419.344	488.67
419.721	494.1
420.098	506.53
420.475	507.43
420.852	516.47
421.228	511.95
421.605	504.94
421.982	529.58
422.358	508.11
422.735	502.46
423.111	527.09
423.488	550.82
423.864	539.07
424.241	527.54
424.617	516.24
424.994	553.08
425.37	562.8
425.746	542.01
426.123	540.42
426.499	568.45
426.875	555.11
427.251	562.57
427.627	558.95
428.003	575
428.379	567.77
428.756	584.72
429.132	602.34
429.507	606.18
429.883	591.04
430.259	587.65
430.635	599.18
431.011	590.59
431.387	639.86
431.763	628.56
432.138	606.18
432.514	610.25
432.89	619.07
433.265	650.03
433.641	644.6
434.016	628.78
434.392	655
434.767	666.07
435.143	666.75
435.518	661.78
435.894	680.76
436.269	667.65
436.644	701.32
437.02	702.91
437.395	692.28
437.77	689.8
438.145	679.86
438.52	699.06
438.895	684.15
439.271	699.74
439.646	715.79
440.021	706.07
440.395	725.73
440.77	721.66
441.145	725.96
441.52	713.75
441.895	737.25
442.27	756.01
442.645	749.91
443.019	751.04
443.394	754.88
443.769	743.13
444.143	748.33
444.518	756.69
444.892	747.42
445.267	779.29
445.641	775.45
446.016	755.56
446.39	759.85
446.764	782
447.139	788.55
447.513	794.2
447.887	798.72
448.262	796.69
448.636	822.45
449.01	797.37
449.384	824.03
449.758	801.66
450.132	842.34
450.506	810.25
450.88	826.29
451.254	830.13
451.628	823.35
452.002	829.46
452.376	873.75
452.75	870.13
453.123	882.56
453.497	876.23
453.871	899.28
454.244	882.34
454.618	895.44
454.992	934.09
455.365	913.97
455.739	932.05
456.112	916.68
456.486	921.66
456.859	939.96
457.232	956.91
457.606	963.46
457.979	955.55
458.352	967.53
458.725	970.24
459.099	969.34
459.472	1008.43
459.845	1022.9
460.218	1039.17
460.591	1040.75
460.964	1012.73
461.337	1064.7
461.71	1061.09
462.083	1080.97
462.456	1104.48
462.829	1096.34
463.201	1120.97
463.574	1106.06
463.947	1121.88
464.32	1151.93
464.692	1142.22
465.065	1163.68
465.438	1200.52
465.81	1220.63
466.183	1214.3
466.555	1213.4
466.928	1240.74
467.3	1259.5
467.672	1244.59
468.045	1297.92
468.417	1306.96
468.789	1311.02
469.161	1310.57
469.534	1355.32
469.906	1376.33
470.278	1406.16
470.65	1383.11
471.022	1393.96
471.394	1460.63
471.766	1476.44
472.138	1493.17
472.51	1509.44
472.882	1552.15
473.253	1572.71
473.625	1559.61
473.997	1605.71
474.369	1620.4
474.74	1633.28
475.112	1669.89
475.484	1685.03
475.855	1732.03
476.227	1787.4
476.598	1781.29
476.97	1836.89
477.341	1868.52
477.713	1898.81
478.084	1934.29
478.455	1970.89
478.827	2018.8
479.198	2083.21
479.569	2068.97
479.94	2152.13
480.311	2199.14
480.682	2245.92
481.053	2302.64
481.424	2348.96
481.795	2395.06
482.166	2421.5
482.537	2456.76
482.908	2508.51
483.279	2545.12
483.65	2596.19
484.021	2674.15
484.391	2720.03
484.762	2757.99
485.133	2791.89
485.503	2863.53
485.874	2953.69
486.244	2968.38
486.615	3047.48
486.985	3126.12
487.356	3160.92
487.726	3168.83
488.097	3234.36
488.467	3279.33
488.837	3371.08
489.207	3432.33
489.578	3479.56
489.948	3502.38
490.318	3570.17
490.688	3609.27
491.058	3669.15
491.428	3770.17
491.798	3794.12
492.168	3892.2
492.538	3905.53
492.908	3983.72
493.278	4027.34
493.648	4065.75
494.017	4125.64
494.387	4190.95
494.757	4197.95
495.126	4298.52
495.496	4322.25
495.866	4332.87
496.235	4446.31
496.605	4473.65
496.974	4524.05
497.344	4579.41
497.713	4633.65
498.082	4679.98
498.452	4676.59
498.821	4702.35
499.19	4741.67
499.559	4862.12
499.928	4831.61
500.298	4875.68
500.667	4950.25
501.036	4960.65
501.405	4981.66
501.774	5026.63
502.143	5074.32
502.512	5056.69
502.88	5141.88
503.249	5169.91
503.618	5212.84
503.987	5206.52
504.356	5242.45
504.724	5335.1
505.093	5311.6
505.462	5361.99
505.83	5387.08
506.199	5425.04
506.567	5485.15
506.936	5500.97
507.304	5568.99
507.672	5589.33
508.041	5560.63
508.409	5625.94
508.777	5717.46
509.145	5705.49
509.514	5688.31
509.882	5740.96
510.25	5744.81
510.618	5814.64
510.986	5816.9
511.354	5897.57
511.722	5850.11
512.09	5947.06
512.458	5908.87
512.826	5961.75
513.193	5979.38
513.561	6027.29
513.929	6102.09
514.297	6106.15
514.664	6128.07
515.032	6156.32
515.4	6210.78
515.767	6225.7
516.135	6281.52
516.502	6200.61
516.869	6347.28
517.237	6268.18
517.604	6302.76
517.972	6303.21
518.339	6406.26
518.706	6382.08
519.073	6434.73
519.44	6458.23
519.808	6460.72
520.175	6475.41
520.542	6526.93
520.909	6563.09
521.276	6541.17
521.643	6620.49
522.009	6684.44
522.376	6707.95
522.743	6728.51
523.11	6740.71
523.477	6829.98
523.843	6836.53
524.21	6899.35
524.577	6936.64
524.943	6902.52
525.31	7032.91
525.676	7015.51
526.043	7031.55
526.409	7123.3
526.776	7183.86
527.142	7157.42
527.508	7152.45
527.874	7251.89
528.241	7305.67
528.607	7329.62
528.973	7375.05
529.339	7309.96
529.705	7433.12
530.071	7472.67
530.437	7498.66
530.803	7584.53
531.169	7582.05
531.535	7573.69
531.901	7613.91
532.267	7644.19
532.632	7739.1
532.998	7678.54
533.364	7794.02
533.73	7806.67
534.095	7855.94
534.461	7895.48
534.826	7885.77
535.192	7922.83
535.557	7995.14
535.923	8002.37
536.288	8012.54
536.653	8091.64
537.019	8005.99
537.384	8110.39
537.749	8125.53
538.114	8149.94
538.479	8201.24
538.845	8257.96
539.21	8287.34
539.575	8227.23
539.94	8334.79
540.305	8321.91
540.67	8361.01
541.034	8430.61
541.399	8408.24
541.764	8437.62
542.129	8547.9
542.494	8529.82
542.858	8602.81
543.223	8545.41
543.587	8666.31
543.952	8737.04
544.316	8760.32
544.681	8766.2
545.045	8834.67
545.41	8842.58
545.774	8938.17
546.138	8922.58
546.503	8953.08
546.867	8930.49
547.231	9022.69
547.595	9058.62
547.959	9076.47
548.324	9111.5
548.688	9160.99
549.052	9201.66
549.416	9178.61
549.779	9208.22
550.143	9204.15
550.507	9260.42
550.871	9304.49
551.235	9343.36
551.599	9405.05
551.962	9390.13
552.326	9431.49
552.689	9421.32
553.053	9466.52
553.417	9480.08
553.78	9599.17
554.143	9609.11
554.507	9624.93
554.87	9632.39
555.234	9717.58
555.597	9669.68
555.96	9721.88
556.323	9745.15
556.686	9757.81
557.05	9850.24
557.413	9848.65
557.776	9876.68
558.139	9884.36
558.502	9927.97
558.865	9923.45
559.228	10050.91
559.59	10078.03
559.953	10049.78
560.316	10176.55
560.679	10198.7
561.041	10223.56
561.404	10274.86
561.767	10349.88
562.129	10330.9
562.492	10395.08
562.854	10350.79
563.217	10422.88
563.579	10450.45
563.941	10524.12
564.304	10513.27
564.666	10580.16
565.028	10590.1
565.39	10604.11
565.753	10655.19
566.115	10622.42
566.477	10760.72
566.839	10791.91
567.201	10803.2
567.563	10823.32
567.925	10922.07
568.287	10935.4
568.648	11003.65
569.01	11045.91
569.372	11085.23
569.734	11039.58
570.095	11143.53
570.457	11213.82
570.819	11274.83
571.18	11330.65
571.542	11350.53
571.903	11415.17
572.265	11414.04
572.626	11513.47
572.987	11555.05
573.349	11628.72
573.71	11685.22
574.071	11725.67
574.432	11809.28
574.794	11942.16
575.155	12005.66
575.516	12070.97
575.877	12161.14
576.238	12122.04
576.599	12313.45
576.96	12301.24
577.32	12460.56
577.681	12551.41
578.042	12691.74
578.403	12804.96
578.763	12889.93
579.124	13002.24
579.485	13187.77
579.845	13360.88
580.206	13353.65
580.566	13547.54
580.927	13652.85
581.287	13945.04
581.648	13874.08
582.008	14184.81
582.368	14281.08
582.728	14479.49
583.089	14641.3
583.449	14874.74
583.809	15030.89
584.169	15309.75
584.529	15555.17
584.889	15747.03
585.249	16033.12
585.609	16118.32
585.969	16453.45
586.329	16726.89
586.688	16947
587.048	17169.36
587.408	17363.26
587.768	17635.34
588.127	17950.59
588.487	18263.12
588.846	18630.12
589.206	18723.9
589.565	19015.42
589.925	19378.12
590.284	19653.14
590.643	20056.75
591.003	20339.9
591.362	20763.62
591.721	20984.41
592.08	21321.57
592.44	21668.91
592.799	21987.54
593.158	22199.52
593.517	22531.48
593.876	22950.46
594.235	23234.74
594.593	23583.89
594.952	24012.12
595.311	24199.24
595.67	24605.1
596.029	25029.27
596.387	25403.72
596.746	25807.78
597.104	25945.18
597.463	26355.79
597.822	26805.72
598.18	27023.57
598.538	27282.55
598.897	27763.89
599.255	27800.05
599.613	28563.19
599.972	28677.31
600.33	29054.25
600.688	29252.44
601.046	29628.02
601.404	30085.41
601.762	30410.82
602.12	30874.09
602.478	31014.2
602.836	31383.23
603.194	31481.76
603.552	31819.6
603.91	32107.5
604.268	32492.35
604.625	32730.99
604.983	33084.65
605.341	33190.86
605.698	33616.39
606.056	33943.16
606.413	34131.4
606.771	34528.46
607.128	34810.48
607.485	34828.79
607.843	35077.59
608.2	35647.07
608.557	35868.99
608.914	36092.48
609.272	36422.42
609.629	36648.63
609.986	36905.34
610.343	37024.66
610.7	37510.75
611.057	37625.55
611.414	37839.56
611.771	38063.5
612.127	38277.06
612.484	38519.54
612.841	38862.81
613.198	38816.03
613.554	39168.79
613.911	39480.87
614.267	39534.43
614.624	39581.43
614.98	39900.07
615.337	40257.12
615.693	40295.08
616.05	40333.95
616.406	40892.81
616.762	40713.38
617.118	41050.54
617.475	41162.41
617.831	41312.23
618.187	41511.55
618.543	41744.31
618.899	42003.29
619.255	41986.79
619.611	42148.14
619.967	42253.68
620.323	42418.64
620.678	42336.39
621.034	42572.31
621.39	42638.3
621.746	42708.81
622.101	43169.81
622.457	42956.71
622.812	43086.65
623.168	43100.89
623.523	43403.25
623.879	43523.47
624.234	43357.83
624.589	43614.09
624.945	43685.96
625.3	43781.77
625.655	43894.09
626.01	43901.77
626.365	43987.42
626.72	44083.01
627.075	44151.48
627.43	44215.66
627.785	44121.42
628.14	44350.35
628.495	44336.79
628.85	44422.89
629.205	44260.63
629.559	44630.79
629.914	44591.02
630.269	44619.26
630.623	44644.8
630.978	44528.42
631.332	44710.79
631.687	45005.24
632.041	44723.67
632.396	44766.61
632.75	44751.24
633.104	44886.6
633.459	44684.8
633.813	44744.91
634.167	44755.53
634.521	44772.25
634.875	44907.17
635.229	44906.04
635.583	44754.63
635.937	44869.88
636.291	44877.56
636.645	44712.14
636.999	44880.05
637.352	44960.05
637.706	44745.14
638.06	45009.76
638.413	44836.89
638.767	44704.69
639.121	44926.6
639.474	44665.37
639.828	44575.2
640.181	44697
640.534	44724.8
640.888	44550.11
641.241	44493.84
641.594	44637.12
641.947	44741.07
642.301	44655.87
642.654	44700.84
643.007	44678.25
643.36	44605.48
643.713	44714.18
644.066	44779.49
644.419	44599.6
644.771	44508.99
645.124	43898.38
645.477	43932.5
645.83	43544.26
646.182	43522.8
646.535	43385.4
646.888	43528.45
647.24	43199.19
647.593	43485.28
647.945	43411.84
648.298	43239.41
648.65	43275.12
649.002	43229.92
649.355	43281.22
649.707	43229.02
650.059	43367.32
650.411	44004.37
650.763	44017.47
651.115	44366.62
651.467	44324.58
651.819	44200.52
652.171	44095.21
652.523	44315.77
652.875	44087.75
653.227	43956.91
653.578	44224.25
653.93	44097.92
654.282	43897.93
654.633	43701.1
654.985	44000.75
655.337	43944.71
655.688	44002.11
656.039	44158.49
656.391	43771.15
656.742	43903.8
657.094	44054.31
657.445	44037.81
657.796	44092.5
658.147	43925.27
658.498	43783.58
658.849	43863.35
659.2	43836.91
659.551	43804.14
659.902	43964.82
660.253	43894.31
660.604	43926.4
660.955	43735.9
661.306	43810.7
661.656	43779.06
662.007	43836.01
662.358	43891.15
662.708	43745.84
663.059	43732.51
663.409	43597.6
663.76	43788.78
664.11	43780.19
664.461	43911.49
664.811	43875.33
665.161	43681.21
665.511	43676.92
665.862	43650.7
666.212	43845.5
666.562	43868.78
666.912	43692.28
667.262	43648.44
667.612	43675.11
667.962	43778.83
668.312	43701.77
668.662	43851.83
669.011	43787.87
669.361	43603.92
669.711	43745.16
670.06	43495.45
670.41	43483.02
670.76	43518.95
671.109	43616.81
671.459	43516.24
671.808	43513.76
672.157	43588.33
672.507	43300.88
672.856	43409.58
673.205	43429.47
673.554	43545.62
673.904	43378.62
674.253	43652.06
674.602	43421.33
674.951	42907.45
675.3	42667.68
675.649	43251.17
675.998	43316.47
676.346	43288.45
676.695	43451.16
677.044	43009.82
677.393	43175.01
677.741	43337.72
678.09	43048.23
678.438	43175.69
678.787	43161.68
679.135	43162.13
679.484	42834.9
679.832	42999.19
680.181	42702.93
680.529	43006.65
680.877	42809.14
681.225	42800.56
681.573	42972.75
681.922	42651.41
682.27	42620.45
682.618	42623.84
682.966	42588.36
683.314	42630.16
683.661	42581.58
684.009	42384.3
684.357	42270.4
684.705	42103.17
685.053	42224.07
685.4	42254.36
685.748	41963.29
686.095	41893.46
686.443	41846.46
686.79	41829.96
687.138	41970.97
687.485	41871.77
687.832	41709.74
688.18	41810.52
688.527	41515.17
688.874	41480.14
689.221	41499.12
689.568	41312.46
689.915	41212.8
690.262	41313.36
690.609	41067.27
690.956	41036.99
691.303	40955.63
691.65	40732.36
691.997	40925.12
692.344	40537.56
692.69	40495.08
693.037	40577.79
693.383	40191.36
693.73	40484.23
694.077	40137.12
694.423	40119.27
694.769	40078.37
695.116	39959.73
695.462	39874.76
695.808	39823.23
696.155	39753.63
696.501	39561.54
696.847	39624.37
697.193	39358.39
697.539	39439.74
697.885	39047.66
698.231	39071.39
698.577	39039.52
698.923	38959.75
699.269	38771.51
699.614	38755.01
699.96	38529.26
700.306	38594.34
700.651	38491.97
700.997	38359.32
701.342	38252.65
701.688	38221.47
702.033	38164.29
702.379	38108.93
702.724	37887.69
703.069	38038.87
703.415	37621.48
703.76	37789.39
704.105	37766.79
704.45	37620.8
704.795	37429.4
705.14	37305.11
705.485	37223.53
705.83	37056.75
706.175	37118.44
706.52	37010.43
706.865	36870.32
707.209	36873.03
707.554	36648.85
707.899	36871.45
708.243	36569.08
708.588	36665.35
708.932	36328.18
709.277	36300.39
709.621	36465.35
709.966	36052.48
710.31	36157.11
710.654	35841.19
710.998	35945.14
711.342	36102.88
711.687	35933.17
712.031	35764.81
712.375	35569.56
712.719	35781.08
713.063	35675.55
713.407	35580.86
713.75	35483.01
714.094	35424.03
714.438	35180.87
714.782	35261.54
715.125	35111.04
715.469	35211.15
715.812	34983.81
716.156	34799.86
716.499	34940.65
716.843	34836.02
717.186	34649.36
717.53	34896.36
717.873	34796.47
718.216	34724.61
718.559	34423.83
718.902	34201.23
719.246	34545.86
719.589	34300.21
719.932	34166.43
720.275	34198.3
720.617	34042.37
720.96	34076.04
721.303	34168.47
721.646	34039.2
721.989	33866.78
722.331	33863.16
722.674	33829.04
723.016	33954.46
723.359	33851.19
723.701	33915.82
724.044	33718.31
724.386	33447.36
724.729	33694.58
725.071	33483.06
725.413	33492.78
725.755	33438.99
726.097	33334.14
726.439	33133.69
726.782	33149.74
727.124	33416.4
727.465	33105.22
727.807	33008.5
728.149	32958.55
728.491	32988.61
728.833	33007.59
729.175	32746.36
729.516	32866.58
729.858	32738.45
730.199	32783.42
730.541	32639.24
730.882	32652.57
731.224	32691.22
731.565	32402.64
731.906	32529.19
732.248	32574.38
732.589	32356.54
732.93	32255.75
733.271	32220.49
733.612	32219.14
733.953	32331.68
734.294	32174.17
734.635	32105.47
734.976	32213.94
735.317	31949.77
735.658	31959.03
735.999	31948.19
736.339	32012.36
736.68	31957.45
737.021	31891.69
737.361	31739.15
737.702	31909.77
738.042	31606.05
738.383	31630
738.723	31781.41
739.063	31542.55
739.404	31639.04
739.744	31583.22
740.084	31418.48
740.424	31394.08
740.764	31366.51
741.104	31550.46
741.444	31291.93
741.784	31164.7
742.124	31207.19
742.464	31154.76
742.804	31074.76
743.143	31039.28
743.483	31108.89
743.823	30986.18
744.162	30891.26
744.502	30903.69
744.841	30806.75
745.181	30851.94
745.52	30770.36
745.86	30725.39
746.199	30681.33
746.538	30648.11
746.877	30688.56
747.216	30622.8
747.556	30580.76
747.895	30527.21
748.234	30380.54
748.573	30455.8
748.911	30389.36
749.25	30329.47
749.589	30303.26
749.928	30277.49
750.267	30251.05
750.605	30141.91
750.944	30211.06
751.283	30036.37
751.621	30112.08
751.96	29879.54
752.298	29863.72
752.636	29954.11
752.975	29758.86
753.313	29637.29
753.651	29792.99
753.989	29557.06
754.327	29584.18
754.666	29350.06
755.004	29461.02
755.342	29501.24
755.679	29477.29
756.017	29181.93
756.355	29355.26
756.693	29132.44
757.031	29205.43
757.368	29093.35
757.706	29028.71
758.044	28924.99
758.381	28882.96
758.719	28738.78
759.056	28910.07
