Data from hue_36_FLMS001491_00093.txt Node
Date: Tue Feb 07 17:30:32 GMT 2017
User: dcchb
Spectrometer: FLMS00149
Trigger mode: 0
Integration Time (sec): 2.000000E-2
Scans to average: 10
Electric dark correction enabled: true
Nonlinearity correction enabled: false
Boxcar width: 0
XAxis mode: Wavelengths
Number of Pixels in Spectrum: 2048
>>>>>Begin Spectral Data<<<<<
341.393	-16.34
341.776	-16.34
342.16	-16.34
342.543	-58.83
342.927	-61.54
343.31	-59.73
343.693	-51.37
344.077	-63.12
344.46	-55.44
344.843	-68.09
345.226	-45.95
345.61	-36
345.993	-26.96
346.376	-4.36
346.759	16.88
347.142	35.63
347.525	36.76
347.908	39.25
348.291	67.95
348.674	95.75
349.057	118.8
349.44	132.81
349.823	161.73
350.206	158.12
350.588	199.02
350.971	221.62
351.354	228.4
351.737	249.41
352.119	266.14
352.502	253.93
352.884	285.12
353.267	289.41
353.65	306.14
354.032	321.5
354.414	330.09
354.797	327.38
355.179	319.69
355.562	332.58
355.944	325.12
356.326	328.96
356.709	355.63
357.091	335.29
357.473	342.75
357.855	334.38
358.238	341.84
358.62	368.06
359.002	342.52
359.384	342.07
359.766	343.88
360.148	335.74
360.53	352.01
360.912	344.78
361.294	341.39
361.676	338.9
362.057	356.08
362.439	345.68
362.821	319.24
363.203	334.61
363.584	320.15
363.966	329.86
364.348	334.16
364.729	333.48
365.111	328.73
365.493	334.38
365.874	303.65
366.256	318.34
366.637	322.63
367.019	329.64
367.4	326.02
367.781	322.18
368.163	314.95
368.544	314.27
368.925	327.38
369.306	311.56
369.688	323.08
370.069	309.75
370.45	309.3
370.831	315.85
371.212	314.5
371.593	312.24
371.974	308.62
372.355	335.29
372.736	327.83
373.117	326.7
373.498	313.14
373.879	339.36
374.26	319.69
374.641	320.15
375.021	340.03
375.402	323.99
375.783	335.06
376.163	317.89
376.544	334.84
376.925	322.41
377.305	336.19
377.686	335.29
378.066	334.38
378.447	351.33
378.827	336.42
379.208	317.89
379.588	338
379.968	323.54
380.349	331.45
380.729	332.35
381.109	319.02
381.489	351.33
381.87	335.51
382.25	351.11
382.63	353.37
383.01	352.01
383.39	346.59
383.77	349.75
384.15	349.52
384.53	349.52
384.91	353.59
385.29	366.25
385.67	352.46
386.049	351.33
386.429	344.78
386.809	354.72
387.189	350.65
387.568	349.3
387.948	359.24
388.328	362.41
388.707	379.35
389.087	357.89
389.466	357.66
389.846	373.48
390.225	378.9
390.605	360.37
390.984	348.39
391.363	353.82
391.743	368.06
392.122	371.67
392.501	381.39
392.881	382.74
393.26	380.94
393.639	363.99
394.018	364.67
394.397	392.01
394.776	346.13
395.155	382.52
395.534	380.48
395.913	385.68
396.292	367.6
396.671	383.87
397.05	389.07
397.429	370.32
397.808	381.84
398.186	384.33
398.565	376.42
398.944	363.99
399.323	385.46
399.701	392.69
400.08	383.87
400.458	413.48
400.837	392.91
401.215	384.1
401.594	391.33
401.972	413.03
402.351	399.24
402.729	416.64
403.107	415.29
403.486	411.22
403.864	405.79
404.242	433.82
404.62	417.77
404.999	417.55
405.377	393.59
405.755	421.84
406.133	409.86
406.511	413.48
406.889	410.31
407.267	432.91
407.645	430.2
408.023	452.12
408.401	435.4
408.779	418.68
409.156	448.28
409.534	444.66
409.912	430.43
410.29	462.74
410.667	446.47
411.045	459.35
411.422	434.95
411.8	434.27
412.178	460.26
412.555	479.24
412.933	450.54
413.31	475.17
413.687	484.21
414.065	467.04
414.442	463.42
414.819	465.23
415.197	492.12
415.574	490.09
415.951	488.28
416.328	476.3
416.705	500.26
417.082	494.38
417.46	485.79
417.837	493.48
418.214	500.03
418.591	495.51
418.967	505.9
419.344	500.03
419.721	494.83
420.098	505.45
420.475	518.56
420.852	514.94
421.228	530.76
421.605	547.03
421.982	542.97
422.358	525.57
422.735	535.73
423.111	525.34
423.488	533.7
423.864	556.07
424.241	543.87
424.617	548.39
424.994	546.81
425.37	564.43
425.746	539.35
426.123	574.15
426.499	545
426.875	561.27
427.251	554.94
427.627	582.74
428.003	571.67
428.379	587.71
428.756	588.16
429.132	602.4
429.507	593.59
429.883	597.65
430.259	593.59
430.635	595.62
431.011	609.86
431.387	620.7
431.763	624.77
432.138	623.42
432.514	636.52
432.89	619.12
433.265	619.12
433.641	646.69
434.016	643.75
434.392	660.25
434.767	668.16
435.143	658.44
435.518	656.64
435.894	681.49
436.269	657.77
436.644	699.12
437.02	710.19
437.395	713.36
437.77	695.73
438.145	709.74
438.52	709.06
438.895	732.11
439.271	726.01
439.646	743.64
440.021	730.76
440.395	731.44
440.77	728.27
441.145	740.25
441.52	749.74
441.895	740.7
442.27	750.64
442.645	744.99
443.019	784.99
443.394	761.94
443.769	767.14
444.143	748.84
444.518	804.43
444.892	776.18
445.267	769.17
445.641	803.3
446.016	786.35
446.39	780.25
446.764	778.21
447.139	796.74
447.513	799.23
447.887	819.79
448.262	823.64
448.636	840.36
449.01	848.04
449.384	824.09
449.758	820.25
450.132	837.42
450.506	846.23
450.88	858.66
451.254	841.72
451.628	880.58
452.002	869.29
452.376	904.09
452.75	902.73
453.123	886.91
453.497	876.97
453.871	903.86
454.244	908.83
454.618	921.94
454.992	932.33
455.365	941.15
455.739	925.33
456.112	954.25
456.486	954.93
456.859	970.53
457.232	992.45
457.606	966.01
457.979	1024.08
458.352	1008.72
458.725	1026.12
459.099	1045.55
459.472	1048.49
459.845	1047.36
460.218	1069.73
460.591	1057.75
460.964	1070.86
461.337	1115.61
461.71	1105.66
462.083	1151.54
462.456	1126.68
462.829	1113.12
463.201	1149.5
463.574	1133.91
463.947	1184.53
464.32	1201.25
464.692	1212.1
465.065	1217.75
465.438	1241.48
465.81	1245.09
466.183	1253.23
466.555	1319.44
466.928	1289.16
467.3	1312.89
467.672	1324.87
468.045	1348.37
468.417	1333.68
468.789	1366.67
469.161	1405.77
469.534	1421.36
469.906	1439.67
470.278	1475.14
470.65	1478.76
471.022	1475.6
471.394	1587.68
471.766	1567.57
472.138	1609.6
472.51	1647.34
472.882	1643.95
473.253	1664.52
473.625	1732.54
473.997	1768.24
474.369	1746.78
474.74	1830.39
475.112	1821.8
475.484	1888.92
475.855	1892.53
476.227	1931.86
476.598	2030.38
476.97	2041.01
477.341	2062.47
477.713	2109.48
478.084	2152.64
478.455	2238.97
478.827	2257.27
479.198	2356.03
479.569	2382.01
479.94	2430.15
480.311	2499.75
480.682	2543.82
481.053	2635.11
481.424	2703.14
481.795	2759.63
482.166	2825.84
482.537	2909.46
482.908	2979.29
483.279	3070.13
483.65	3145.61
484.021	3231.93
484.391	3268.09
484.762	3325.27
485.133	3396
485.503	3454.08
485.874	3607.74
486.244	3661.53
486.615	3771.13
486.985	3866.27
487.356	3943.55
487.726	3972.71
488.097	4120.05
488.467	4220.16
488.837	4277.56
489.207	4409.3
489.578	4472.35
489.948	4589.19
490.318	4673.03
490.688	4772.69
491.058	4872.8
491.428	4985.56
491.798	5053.81
492.168	5155.73
492.538	5241.6
492.908	5339
493.278	5452.67
493.648	5539.22
494.017	5684.07
494.387	5731.3
494.757	5764.75
495.126	5921.81
495.496	6010.39
495.866	6093.55
496.235	6188.69
496.605	6233.66
496.974	6320.67
497.344	6408.12
497.713	6462.81
498.082	6643.37
498.452	6689.92
498.821	6693.54
499.19	6778.51
499.559	6932.63
499.928	6942.35
500.298	7063.47
500.667	7163.13
501.036	7209.46
501.405	7315.22
501.774	7324.03
502.143	7417.14
502.512	7448.77
502.88	7589.56
503.249	7601.31
503.618	7734.87
503.987	7808.09
504.356	7877.24
504.724	7926.27
505.093	7961.3
505.462	7987.52
505.83	8103.9
506.199	8196.1
506.567	8370.78
506.936	8303.89
507.304	8416.21
507.672	8485.81
508.041	8526.71
508.409	8625.69
508.777	8691.9
509.145	8803.09
509.514	8793.6
509.882	8893.48
510.25	8884.22
510.618	8938
510.986	9012.57
511.354	9113.81
511.722	9145.23
512.09	9256.18
512.458	9186.58
512.826	9330.31
513.193	9382.06
513.561	9460.25
513.929	9535.72
514.297	9605.1
514.664	9655.49
515.032	9699.11
515.4	9769.39
515.767	9794.93
516.135	9862.04
516.502	9858.2
516.869	10070.85
517.237	10073.34
517.604	10008.25
517.972	10118.76
518.339	10197.63
518.706	10232.88
519.073	10315.14
519.44	10312.2
519.808	10487.34
520.175	10497.05
520.542	10589.26
520.909	10626.54
521.276	10663.6
521.643	10720.1
522.009	10810.49
522.376	10867.44
522.743	10958.51
523.11	10993.99
523.477	11126.42
523.843	11154.89
524.21	11297.71
524.577	11384.94
524.943	11339.29
525.31	11416.13
525.676	11537.48
526.043	11609.34
526.409	11576.35
526.776	11787.87
527.142	11803.91
527.508	11869.9
527.874	12018.37
528.241	11935.89
528.607	12103.79
528.973	12150.34
529.339	12220.17
529.705	12308.31
530.071	12381.75
530.437	12475.31
530.803	12547.4
531.169	12613.16
531.535	12583.78
531.901	12597.56
532.267	12683.66
532.632	12878.46
532.998	12804.34
533.364	12847.73
533.73	12898.12
534.095	13035.52
534.461	13109.64
534.826	13109.87
535.192	13153.93
535.557	13267.38
535.923	13360.26
536.288	13336.3
536.653	13402.51
537.019	13425.34
537.384	13489.97
537.749	13533.13
538.114	13539.69
538.479	13684.09
538.845	13701.49
539.21	13714.6
539.575	13832.11
539.94	13730.87
540.305	13914.82
540.67	13892.22
541.034	13956.17
541.399	14040.01
541.764	14045.21
542.129	14180.8
542.494	14091.31
542.858	14257.63
543.223	14347.35
543.587	14478.87
543.952	14382.15
544.316	14478.64
544.681	14553.45
545.045	14604.52
545.41	14665.53
545.774	14663.72
546.138	14664.63
546.503	14809.48
546.867	14786.43
547.231	14860.78
547.595	14936.03
547.959	14901.46
548.324	14959.31
548.688	15057.84
549.052	15105.97
549.416	15065.52
549.779	15183.71
550.143	15163.6
550.507	15284.95
550.871	15294.22
551.235	15373.99
551.599	15490.6
551.962	15511.84
552.326	15481.56
552.689	15676.13
553.053	15573.98
553.417	15554.32
553.78	15871.83
554.143	15793.19
554.507	15911.38
554.87	15963.8
555.234	16042.22
555.597	16105.95
555.96	16104.82
556.323	16139.84
556.686	16144.14
557.05	16397.24
557.413	16317.01
557.776	16340.29
558.139	16463.68
558.502	16473.17
558.865	16546.84
559.228	16701.86
559.59	16642.43
559.953	16733.05
560.316	16873.38
560.679	16820.73
561.041	16921.07
561.404	17089.42
561.767	17190.66
562.129	17088.97
562.492	17248.06
562.854	17283.54
563.217	17198.35
563.579	17262.3
563.941	17523.31
564.304	17500.26
564.666	17550.2
565.028	17623.65
565.39	17626.36
565.753	17811.21
566.115	17897.54
566.477	17885.11
566.839	17960.81
567.201	18044.43
567.563	17990.87
567.925	18162.84
568.287	18174.82
568.648	18204.65
569.01	18367.13
569.372	18499.56
569.734	18543.17
570.095	18605.54
570.457	18563.28
570.819	18751.07
571.18	18760.79
571.542	18958.98
571.903	18957.62
572.265	19037.39
572.626	19103.38
572.987	19201.01
573.349	19286.88
573.71	19326.43
574.071	19465.41
574.432	19453.43
574.794	19632.18
575.155	19728
575.516	19726.19
575.877	19766.42
576.238	19905.39
576.599	20070.14
576.96	20212.96
577.32	20276.01
577.681	20387.87
578.042	20487.53
578.403	20657.24
578.763	20768.87
579.124	20821.98
579.485	21048.87
579.845	21219.48
580.206	21290.44
580.566	21559.14
580.927	21500.38
581.287	21815.63
581.648	21858.34
582.008	22146.47
582.368	22261.49
582.728	22487.02
583.089	22513.01
583.449	22767.69
583.809	22919.78
584.169	23082.71
584.529	23282.71
584.889	23620.78
585.249	23571.06
585.609	23822.35
585.969	24118.17
586.329	24249.69
586.688	24531.49
587.048	24744.82
587.408	24881.08
587.768	25138.48
588.127	25274.29
588.487	25455.76
588.846	25846.03
589.206	25873.37
589.565	26110.66
589.925	26386.58
590.284	26590.87
590.643	26880.35
591.003	27117.63
591.362	27406.44
591.721	27572.09
592.08	27772.76
592.44	28011.85
592.799	28232.18
593.158	28395.11
593.517	28629.46
593.876	28993.07
594.235	29100.18
594.593	29433.51
594.952	29639.38
595.311	29723.22
595.67	29989.42
596.029	30406.36
596.387	30578.56
596.746	30877.31
597.104	30897.65
597.463	31068.72
597.822	31506.22
598.18	31570.62
598.538	31673.45
598.897	32002.25
599.255	32000.44
599.613	32601.56
599.972	32684.72
600.33	32935.11
600.688	32959.97
601.046	33351.59
601.404	33557.92
601.762	33674.52
602.12	33954.52
602.478	34146.6
602.836	34350.89
603.194	34278.35
603.552	34524.9
603.91	34592.24
604.268	34952.68
604.625	34853.25
604.983	35118.33
605.341	35077.88
605.698	35554.25
606.056	35770.06
606.413	35765.54
606.771	36208.24
607.128	36242.37
607.485	36318.97
607.843	36509.48
608.2	36715.12
608.557	36976.36
608.914	36999.18
609.272	37314.43
609.629	37378.61
609.986	37597.81
610.343	37579.05
610.7	37882.78
611.057	37932.04
611.414	38040.74
611.771	38259.49
612.127	38443.44
612.484	38526.37
612.841	38698.8
613.198	38659.03
613.554	38931.11
613.911	39013.37
614.267	39117.54
614.624	39253.36
614.98	39334.26
615.337	39672.56
615.693	39499.91
616.05	39674.14
616.406	39935.15
616.762	39912.1
617.118	40048.37
617.475	40045.66
617.831	40341.92
618.187	40193.67
618.543	40529.03
618.899	40599.99
619.255	40618.52
619.611	40512.31
619.967	40744.62
620.323	40936.71
620.678	40745.3
621.034	40964.05
621.39	40954.33
621.746	40863.71
622.101	41496.24
622.457	41137.15
622.812	41435
623.168	41590.02
623.523	41454.66
623.879	41737.81
624.234	41351.84
624.589	41540.31
624.945	41661.43
625.3	41722.22
625.655	41961.09
626.01	41990.24
626.365	41893.07
626.72	41878.83
627.075	41861.65
627.43	41989.56
627.785	41952.05
628.14	42058.26
628.495	42260.51
628.85	42095.55
629.205	41988.2
629.559	42204.7
629.914	42064.36
630.269	42227.97
630.623	42122.89
630.978	42020.52
631.332	42347.74
631.687	42347.06
632.041	42175.77
632.396	42311.59
632.75	42131.02
633.104	42356.78
633.459	42008.09
633.813	42220.74
634.167	42047.86
634.521	42112.95
634.875	42209.44
635.229	42247.41
635.583	42177.58
635.937	42085.38
636.291	42096.45
636.645	42185.94
636.999	42103.91
637.352	42157.01
637.706	42023.46
638.06	42050.8
638.413	42019.84
638.767	42057.81
639.121	42155.88
639.474	41859.85
639.828	41993.4
640.181	41920.41
640.534	42065.04
640.888	41895.78
641.241	41732.17
641.594	41987.98
641.947	41985.72
642.301	41858.94
642.654	41817.81
643.007	41778.27
643.36	41886.51
643.713	41749.79
644.066	41914.53
644.419	41638.16
644.771	41474.32
645.124	41156.59
645.477	41042.92
645.83	40827.78
646.182	40686.32
646.535	40696.94
646.888	40668.69
647.24	40458.75
647.593	40802.47
647.945	40643.15
648.298	40478.64
648.65	40432.99
649.002	40340.56
649.355	40458.98
649.707	40375.14
650.059	40593.21
650.411	41158.62
650.763	41108.23
651.115	41477.03
651.467	41395.9
651.819	41386.86
652.171	41348.9
652.523	41206.53
652.875	41232.97
653.227	41123.59
653.578	41235
653.93	41171.28
654.282	41059.19
654.633	40949.14
654.985	41030.26
655.337	41141.45
655.688	41136.02
656.039	41198.17
656.391	40858.52
656.742	41001.34
657.094	40960.66
657.445	41150.26
657.796	41045.4
658.147	41011.51
658.498	40978.96
658.849	41061.45
659.2	41044.95
659.551	40803.83
659.902	40925.41
660.253	40866.43
660.604	40989.13
660.955	40840.44
661.306	40932.41
661.656	40873.88
662.007	40966.54
662.358	41025.74
662.708	40926.54
663.059	40894.45
663.409	40689.93
663.76	40961.11
664.11	40964.5
664.461	40934.22
664.811	40895.13
665.161	41013.99
665.511	40742.81
665.862	40784.39
666.212	40924.73
666.562	40809.7
666.912	40811.29
667.262	40757.73
667.612	40678.41
667.962	40857.39
668.312	40682.93
668.662	40805.41
669.011	40780.55
669.361	40720.44
669.711	40513.89
670.06	40738.29
670.41	40524.06
670.76	40523.16
671.109	40678.86
671.459	40655.58
671.808	40489.49
672.157	40637.05
672.507	40411.3
672.856	40322.48
673.205	40425.08
673.554	40636.38
673.904	40558.41
674.253	40667.11
674.602	40602.25
674.951	39973.12
675.3	39796.85
675.649	40371.07
675.998	40380.34
676.346	40212.43
676.695	40467.79
677.044	40058.76
677.393	40331.75
677.741	40384.4
678.09	40104.19
678.438	40283.62
678.787	40200.45
679.135	40189.38
679.484	40036.84
679.832	40134.92
680.181	39883.63
680.529	40031.87
680.877	39950.29
681.225	39729.73
681.573	40097.63
681.922	39724.08
682.27	39645.44
682.618	39683.18
682.966	39496.29
683.314	39741.71
683.661	39548.04
684.009	39509.85
684.357	39300.36
684.705	39400.93
685.053	39335.62
685.4	39264.89
685.748	39168.17
686.095	39163.65
686.443	39069.86
686.79	38978.34
687.138	39187.83
687.485	39068.51
687.832	38933.14
688.18	38959.58
688.527	38737.89
688.874	38710.32
689.221	38618.57
689.568	38595.52
689.915	38407.51
690.262	38416.32
690.609	38291.58
690.956	38265.82
691.303	38165.93
691.65	37929.55
691.997	38117.8
692.344	37745.38
692.69	37706.51
693.037	37730.01
693.383	37425.61
693.73	37632.84
694.077	37343.13
694.423	37357.82
694.769	37227.43
695.116	37140.42
695.462	37261.55
695.808	36967.32
696.155	37018.62
696.501	36684.84
696.847	36872.63
697.193	36554.22
697.539	36773.88
697.885	36502.92
698.231	36491.17
698.577	36360.1
698.923	36458.86
699.269	35966.22
699.614	35989.04
699.96	35952.88
700.306	35886.44
700.651	35798.54
700.997	35753.11
701.342	35595.6
701.688	35630.4
702.033	35522.84
702.379	35544.08
702.724	35398.32
703.069	35505.21
703.415	34986.58
703.76	35081.49
704.105	35017.54
704.45	35023.19
704.795	34869.52
705.14	34659.13
705.485	34706.14
705.83	34613.26
706.175	34596.99
706.52	34526.93
706.865	34402.64
707.209	34320.61
707.554	34191.12
707.899	34204.68
708.243	34078.58
708.588	34136.21
708.932	33894.18
709.277	33866.38
709.621	33885.14
709.966	33641.3
710.31	33841.75
710.654	33540.52
710.998	33457.13
711.342	33453.74
711.687	33363.8
712.031	33271.14
712.375	33085.84
712.719	33181.2
713.063	33213.52
713.407	33221.88
713.75	33011.04
714.094	33014.2
714.438	32878.84
714.782	32883.58
715.125	32793.87
715.469	32769.46
715.812	32494.89
716.156	32424.39
716.499	32526.76
716.843	32579.41
717.186	32328.57
717.53	32389.59
717.873	32374.67
718.216	32360.21
718.559	32221.46
718.902	31889.26
719.246	31992.99
719.589	31934.91
719.932	31884.51
720.275	31855.59
720.617	31821.47
720.96	31732.2
721.303	31684.07
721.646	31759.77
721.989	31523.39
722.331	31683.39
722.674	31529.95
723.016	31486.79
723.359	31380.12
723.701	31336.51
724.044	31297.41
724.386	31155.04
724.729	31391.87
725.071	31181.48
725.413	31079.56
725.755	31156.4
726.097	31066.91
726.439	30863.52
726.782	30967.25
727.124	30995.5
727.465	30923.41
727.807	30816.07
728.149	30735.62
728.491	30654.26
728.833	30714.6
729.175	30636.86
729.516	30547.6
729.858	30489.52
730.199	30582.63
730.541	30399.81
730.882	30419.69
731.224	30431.9
731.565	30343.31
731.906	30256.99
732.248	30219.25
732.589	30085.01
732.93	30054.51
733.271	30133.6
733.612	30140.15
733.953	30076.65
734.294	29868.97
734.635	29766.6
734.976	29961.63
735.317	29734.74
735.658	29752.14
735.999	29811.12
736.339	29677.34
736.68	29754.18
737.021	29584.46
737.361	29461.98
737.702	29648.64
738.042	29527.06
738.383	29515.99
738.723	29552.6
739.063	29361.19
739.404	29409.55
739.744	29326.62
740.084	29151.25
740.424	29278.48
740.764	29176.56
741.104	29217.92
741.444	29161.87
741.784	28963.24
742.124	28973.18
742.464	28993.07
742.804	28949
743.143	28911.49
743.483	28862.22
743.823	28733.41
744.162	28767.08
744.502	28731.83
744.841	28634.2
745.181	28755.78
745.52	28578.84
745.86	28634.2
746.199	28596.24
746.538	28512.85
746.877	28463.36
747.216	28548.11
747.556	28335.46
747.895	28359.18
748.234	28194.22
748.573	28280.77
748.911	28143.6
749.25	28273.31
749.589	28180.43
749.928	28171.84
750.267	28137.95
750.605	28020.89
750.944	27901.57
751.283	27804.62
751.621	27860.89
751.96	27689.14
752.298	27719.43
752.636	27753.1
752.975	27544.97
753.313	27509.04
753.651	27629.26
753.989	27426.33
754.327	27564.18
754.666	27290.96
755.004	27297.74
755.342	27412.99
755.679	27231.08
756.017	27135.71
756.355	27133.91
756.693	27174.13
757.031	27123.06
