Data from hue_350_FLMS001491_2.txt Node
Date: Mon Feb 06 15:37:28 GMT 2017
User: dcchb
Spectrometer: FLMS00149
Trigger mode: 0
Integration Time (sec): 2.000000E-2
Scans to average: 10
Electric dark correction enabled: true
Nonlinearity correction enabled: false
Boxcar width: 0
XAxis mode: Wavelengths
Number of Pixels in Spectrum: 2048
>>>>>Begin Spectral Data<<<<<
341.393	-18.62
341.776	-18.62
342.16	-18.62
342.543	-50.25
342.927	-36.92
343.31	-75.56
343.693	-64.04
344.077	-51.61
344.46	-71.72
344.843	-54.55
345.226	-14.1
345.61	-32.63
345.993	-28.11
346.376	-8.45
346.759	0.59
347.142	25.23
347.525	37.88
347.908	49.86
348.291	76.3
348.674	102.29
349.057	108.61
349.44	125.11
349.823	147.71
350.206	166.92
350.588	198.55
350.971	204.43
351.354	218.67
351.737	238.55
352.119	240.81
352.502	249.85
352.884	246.69
353.267	273.58
353.65	287.59
354.032	292.34
354.414	321.26
354.797	326.69
355.179	306.8
355.562	318.78
355.944	326.23
356.326	321.04
356.709	330.98
357.091	352
357.473	331.43
357.855	343.64
358.238	356.52
358.62	311.55
359.002	326.23
359.384	342.96
359.766	327.59
360.148	335.27
360.53	329.85
360.912	338.66
361.294	329.62
361.676	327.59
362.057	329.85
362.439	342.73
362.821	317.65
363.203	324.88
363.584	320.58
363.966	311.32
364.348	326.46
364.729	316.74
365.111	310.19
365.493	307.48
365.874	305.67
366.256	305.22
366.637	310.19
367.019	292.11
367.4	304.54
367.781	332.34
368.163	313.58
368.544	317.42
368.925	290.3
369.306	290.53
369.688	311.77
370.069	299.79
370.45	290.98
370.831	316.97
371.212	310.19
371.593	321.04
371.974	307.03
372.355	297.08
372.736	319
373.117	304.99
373.498	322.17
373.879	315.61
374.26	327.59
374.641	313.35
375.021	307.48
375.402	291.21
375.783	329.85
376.163	326.91
376.544	310.87
376.925	319.45
377.305	316.52
377.686	318.32
378.066	325.33
378.447	328.72
378.827	319.23
379.208	342.05
379.588	334.14
379.968	333.92
380.349	342.73
380.729	341.38
381.109	312.22
381.489	339.79
381.87	337.53
382.25	315.39
382.63	345.44
383.01	336.63
383.39	335.05
383.77	329.4
384.15	336.63
384.53	357.65
384.91	337.99
385.29	337.76
385.67	343.64
386.049	339.34
386.429	323.75
386.809	346.35
387.189	346.35
387.568	359
387.948	353.58
388.328	354.26
388.707	353.8
389.087	349.96
389.466	334.14
389.846	365.1
390.225	367.82
390.605	345.44
390.984	359.68
391.363	350.41
391.743	362.39
392.122	373.69
392.501	359.45
392.881	377.53
393.26	361.71
393.639	366.01
394.018	370.3
394.397	377.98
394.776	375.72
395.155	373.01
395.534	380.92
395.913	384.76
396.292	365.78
396.671	365.1
397.05	384.99
397.429	381.15
397.808	376.85
398.186	382.05
398.565	391.77
398.944	391.09
399.323	396.06
399.701	394.03
400.08	388.61
400.458	396.97
400.837	404.65
401.215	395.39
401.594	408.04
401.972	383.18
402.351	402.84
402.729	393.35
403.107	425.21
403.486	412.79
403.864	382.73
404.242	423.63
404.62	403.75
404.999	405.1
405.377	416.18
405.755	416.4
406.133	425.89
406.511	422.5
406.889	432.9
407.267	414.37
407.645	431.32
408.023	439.9
408.401	441.03
408.779	439
409.156	427.02
409.534	436.29
409.912	436.06
410.29	446.91
410.667	451.43
411.045	438.77
411.422	468.38
411.8	469.28
412.178	458.21
412.555	474.03
412.933	457.53
413.31	467.7
413.687	490.75
414.065	486
414.442	481.48
414.819	461.6
415.197	486.68
415.574	491.65
415.951	474.48
416.328	511.99
416.705	481.94
417.082	502.73
417.46	528.71
417.837	523.29
418.214	496.63
418.591	518.55
418.967	520.13
419.344	547.47
419.721	533.23
420.098	533.69
420.475	525.78
420.852	533.23
421.228	507.7
421.605	551.09
421.982	556.51
422.358	548.83
422.735	571.2
423.111	581.59
423.488	564.87
423.864	569.84
424.241	566.68
424.617	558.32
424.994	589.28
425.37	577.53
425.746	597.19
426.123	597.41
426.499	606
426.875	593.8
427.251	602.61
427.627	610.52
428.003	590.18
428.379	617.07
428.756	627.02
429.132	633.8
429.507	625.89
429.883	620.24
430.259	622.27
430.635	644.19
431.011	673.34
431.387	672.89
431.763	691.87
432.138	663.17
432.514	693.46
432.89	691.42
433.265	681.71
433.641	693
434.016	715.6
434.392	705.66
434.767	713.34
435.143	703.17
435.518	705.43
435.894	735.04
436.269	750.86
436.644	740.46
437.02	750.18
437.395	747.01
437.77	751.99
438.145	759.44
438.52	777.75
438.895	786.79
439.271	795.37
439.646	780.23
440.021	799.44
440.395	800.35
440.77	806.22
441.145	797.41
441.52	790.18
441.895	815.94
442.27	807.58
442.645	812.78
443.019	825.88
443.394	820.68
443.769	832.89
444.143	861.14
444.518	860.91
444.892	858.65
445.267	833.79
445.641	855.03
446.016	861.36
446.39	857.29
446.764	882.83
447.139	862.94
447.513	860.91
447.887	868.59
448.262	856.62
448.636	879.67
449.01	891.19
449.384	897.07
449.758	894.36
450.132	907.46
450.506	927.35
450.88	893.68
451.254	953.34
451.628	935.26
452.002	908.82
452.376	963.73
452.75	916.28
453.123	968.25
453.497	947.23
453.871	939.33
454.244	952.88
454.618	946.56
454.992	1020.45
455.365	981.58
455.739	995.37
456.112	1026.33
456.486	1018.42
456.859	1020.91
457.232	1061.81
457.606	1049.38
457.979	1060.23
458.352	1076.72
458.725	1090.28
459.099	1109.04
459.472	1122.6
459.845	1108.59
460.218	1084.18
460.591	1136.38
460.964	1118.3
461.337	1200.79
461.71	1170.96
462.083	1205.08
462.456	1184.74
462.829	1173.22
463.201	1207.57
463.574	1197.17
463.947	1214.12
464.32	1268.36
464.692	1237.4
465.065	1266.77
465.438	1291.18
465.81	1288.47
466.183	1306.77
466.555	1336.6
466.928	1322.37
467.3	1342.03
467.672	1358.07
468.045	1383.83
468.417	1383.61
468.789	1386.55
469.161	1417.28
469.534	1440.56
469.906	1449.82
470.278	1484.4
470.65	1471.97
471.022	1511.06
471.394	1518.52
471.766	1524.85
472.138	1571.85
472.51	1595.81
472.882	1607.78
473.253	1628.35
473.625	1650.04
473.997	1703.15
474.369	1687.1
474.74	1703.37
475.112	1728.46
475.484	1757.84
475.855	1786.53
476.227	1815.69
476.598	1863.6
476.97	1822.47
477.341	1899.3
477.713	1949.47
478.084	1949.92
478.455	2023.36
478.827	2027.43
479.198	2078.05
479.569	2099.3
479.94	2144.72
480.311	2157.6
480.682	2201.67
481.053	2238.95
481.424	2271.72
481.795	2330.48
482.166	2348.1
482.537	2365.28
482.908	2413.64
483.279	2447.53
483.65	2510.13
484.021	2536.57
484.391	2570.92
484.762	2624.7
485.133	2614.99
485.503	2692.5
485.874	2729.11
486.244	2753.52
486.615	2791.71
486.985	2825.6
487.356	2907.41
487.726	2920.74
488.097	2960.74
488.467	2982.66
488.837	3046.16
489.207	3090.91
489.578	3148.31
489.948	3166.16
490.318	3222.88
490.688	3252.94
491.058	3260.17
491.428	3324.35
491.798	3329.09
492.168	3419.71
492.538	3431.01
492.908	3499.03
493.278	3548.75
493.648	3555.75
494.017	3524.57
494.387	3628.75
494.757	3618.8
495.126	3702.42
495.496	3707.39
495.866	3740.83
496.235	3758.69
496.605	3802.75
496.974	3832.13
497.344	3901.51
497.713	3854.73
498.082	3917.1
498.452	3984.67
498.821	3918.46
499.19	3978.34
499.559	3995.29
499.928	4058.57
500.298	4068.28
500.667	4090.43
501.036	4116.19
501.405	4172.01
501.774	4154.61
502.143	4170.2
502.512	4242.29
502.88	4246.13
503.249	4261.95
503.618	4301.05
503.987	4307.82
504.356	4315.28
504.724	4336.3
505.093	4354.38
505.462	4378.78
505.83	4342.17
506.199	4467.82
506.567	4482.28
506.936	4506.69
507.304	4527.71
507.672	4538.1
508.041	4550.98
508.409	4602.05
508.777	4614.03
509.145	4651.09
509.514	4698.55
509.882	4654.93
510.25	4680.02
510.618	4703.07
510.986	4720.7
511.354	4790.07
511.722	4804.53
512.09	4866.68
512.458	4830.75
512.826	4875.04
513.193	4875.95
513.561	4860.35
513.929	4895.83
514.297	4915.27
514.664	4904.87
515.032	4959.56
515.4	4956.17
515.767	5006.34
516.135	5064.41
516.502	4992.33
516.869	5058.99
517.237	5084.53
517.604	5089.95
517.972	5116.16
518.339	5135.37
518.706	5150.29
519.073	5165.43
519.44	5243.17
519.808	5245.43
520.175	5232.09
520.542	5311.64
520.909	5289.04
521.276	5306.44
521.643	5354.35
522.009	5448.13
522.376	5402.03
522.743	5398.19
523.11	5394.8
523.477	5500.79
523.843	5499.88
524.21	5556.15
524.577	5585.08
524.943	5592.08
525.31	5651.29
525.676	5674.57
526.043	5701.01
526.409	5694.68
526.776	5843.38
527.142	5744.17
527.508	5818.07
527.874	5804.06
528.241	5904.84
528.607	5867.33
528.973	5966.76
529.339	5867.78
529.705	6018.74
530.071	6064.16
530.437	6074.78
530.803	6073.65
531.169	6140.54
531.535	6147.1
531.901	6199.3
532.267	6168.57
532.632	6249.69
532.998	6241.33
533.364	6216.25
533.73	6215.57
534.095	6313.2
534.461	6369.24
534.826	6376.24
535.192	6418.73
535.557	6443.81
535.923	6468.22
536.288	6472.97
536.653	6524.26
537.019	6550.48
537.384	6520.65
537.749	6560.87
538.114	6610.81
538.479	6607.43
538.845	6641.1
539.21	6689.23
539.575	6667.08
539.94	6670.7
540.305	6757.03
540.67	6733.52
541.034	6804.93
541.399	6868.89
541.764	6807.42
542.129	6837.02
542.494	6909.56
542.858	6953.86
543.223	6917.25
543.587	6944.14
543.952	6992.27
544.316	7039.96
544.681	7077.47
545.045	7030.92
545.41	7106.17
545.774	7128.99
546.138	7154.98
546.503	7176
546.867	7168.99
547.231	7196.56
547.595	7261.87
547.959	7234.98
548.324	7279.5
548.688	7360.4
549.052	7388.42
549.416	7385.94
549.779	7381.87
550.143	7444.92
550.507	7433.17
550.871	7513.62
551.235	7490.79
551.599	7572.6
551.962	7636.1
552.326	7581.64
552.689	7643.33
553.053	7622.77
553.417	7597.91
553.78	7788.41
554.143	7659.37
554.507	7715.42
554.87	7796.32
555.234	7879.71
555.597	7791.57
555.96	7796.55
556.323	7864.12
556.686	7882.42
557.05	8009.2
557.413	7888.07
557.776	7951.8
558.139	7987.73
558.502	7993.83
558.865	8067.5
559.228	8031.34
559.59	8105.92
559.953	8092.58
560.316	8167.61
560.679	8215.74
561.041	8269.08
561.404	8286.93
561.767	8373.71
562.129	8276.08
562.492	8379.58
562.854	8398.34
563.217	8349.98
563.579	8387.94
563.941	8404.67
564.304	8520.37
564.666	8458.22
565.028	8521.27
565.39	8562.18
565.753	8594.94
566.115	8617.09
566.477	8703.64
566.839	8666.58
567.201	8743.64
567.563	8789.06
567.925	8825.45
568.287	8813.24
568.648	8851.89
569.01	8868.38
569.372	8953.13
569.734	8868.38
570.095	8997.19
570.457	9084.2
570.819	9045.55
571.18	9064.54
571.542	9152.22
571.903	9211.65
572.265	9247.81
572.626	9288.71
572.987	9272.67
573.349	9276.06
573.71	9358.31
574.071	9380.69
574.432	9526.22
574.794	9580.68
575.155	9594.92
575.516	9648.25
575.877	9731.64
576.238	9750.39
576.599	9837.17
576.96	9911.29
577.32	9985.19
577.681	10057.5
578.042	10136.82
578.403	10177.5
578.763	10256.59
579.124	10364.16
579.485	10508.11
579.845	10519.86
580.206	10603.03
580.566	10840.08
580.927	10822
581.287	11059.96
581.648	11047.53
582.008	11293.4
582.368	11369.56
582.728	11541.53
583.089	11615.2
583.449	11842.09
583.809	11981.75
584.169	12139.03
584.529	12229.88
584.889	12541.96
585.249	12535.18
585.609	12762.97
585.969	12958.44
586.329	13196.4
586.688	13421.03
587.048	13540.58
587.408	13813.34
587.768	13930.4
588.127	14191.18
588.487	14316.83
588.846	14621
589.206	14852.18
589.565	15111.16
589.925	15396.8
590.284	15536.46
590.643	15802.21
591.003	16055.76
591.362	16411.24
591.721	16589.08
592.08	16826.82
592.44	17186.58
592.799	17404.2
593.158	17636.06
593.517	17900.91
593.876	18226.33
594.235	18487.79
594.593	18766.65
594.952	19114.21
595.311	19284.61
595.67	19633.07
596.029	19952.38
596.387	20129.33
596.746	20501.75
597.104	20723.44
597.463	20943.09
597.822	21354.83
598.18	21588.73
598.538	21741.04
598.897	22215.15
599.255	22276.84
599.613	22837.05
599.972	22879.54
600.33	23287.89
600.688	23486.3
601.046	23790.93
601.404	24201.76
601.762	24407.18
602.12	24705.25
602.478	24920.39
602.836	25203.32
603.194	25432.69
603.552	25658.22
603.91	25814.83
604.268	26153.58
604.625	26482.16
604.983	26743.39
605.341	26744.07
605.698	27242.14
606.056	27486.2
606.413	27595.57
606.771	27963.02
607.128	28201.21
607.485	28320.75
607.843	28592.38
608.2	28976.1
608.557	29167.96
608.914	29373.15
609.272	29531.57
609.629	29787.61
609.986	30143.53
610.343	30157.54
610.7	30496.74
611.057	30621.93
611.414	30859.22
611.771	31106.22
612.127	31387.79
612.484	31409.03
612.841	31733.32
613.198	31820.55
613.554	31838.63
613.911	32150.93
614.267	32288.11
614.624	32425.05
614.98	32736.91
615.337	32903.91
615.693	32948.2
616.05	33099.16
616.406	33323.33
616.762	33276.78
617.118	33536.89
617.475	33590.67
617.831	33825.01
618.187	34156.53
618.543	34178.68
618.899	34516.52
619.255	34483.53
619.611	34553.58
619.967	34911.54
620.323	34867.7
620.678	34941.82
621.034	34904.31
621.39	35088.71
621.746	35141.36
622.101	35710.16
622.457	35622.93
622.812	35703.38
623.168	35842.14
623.523	35805.98
623.879	36023.37
624.234	35935.47
624.589	36175.91
624.945	36225.86
625.3	36312.18
625.655	36428.56
626.01	36424.04
626.365	36451.16
626.72	36531.16
627.075	36492.97
627.43	36645.28
627.785	36652.74
628.14	36783.81
628.495	36751.27
628.85	36834.88
629.205	36835.33
629.559	37086.4
629.914	37007.08
630.269	37040.07
630.623	36792.17
630.978	36946.06
631.332	37063.57
631.687	37055.44
632.041	37126.17
632.396	37191.25
632.75	37290.91
633.104	37203.91
633.459	37125.04
633.813	37177.69
634.167	37231.93
634.521	37172.5
634.875	37393.73
635.229	37285.26
635.583	37046.4
635.937	37189.9
636.291	37160.97
636.645	37166.62
636.999	37191.03
637.352	37279.39
637.706	37059.51
638.06	37290.91
638.413	37243.91
638.767	37145.38
639.121	37223.57
639.474	37148.77
639.828	37111.26
640.181	37160.07
640.534	37205.94
640.888	37090.69
641.241	36991.03
641.594	37014.08
641.947	37233.51
642.301	36988.1
642.654	37095.66
643.007	37076.68
643.36	37101.09
643.713	36980.41
644.066	37156.68
644.419	37026.51
644.771	36757.37
645.124	36332.29
645.477	36362.57
645.83	36100.43
646.182	36070.38
646.535	36035.8
646.888	36019.99
647.24	35855.7
647.593	36083.94
647.945	36126.87
648.298	35871.97
648.65	35803.72
649.002	35638.07
649.355	35881.01
649.707	35776.83
650.059	36038.29
650.411	36375
650.763	36431.73
651.115	36891.83
651.467	36549.69
651.819	36643.7
652.171	36631.95
652.523	36600.53
652.875	36529.35
653.227	36425.4
653.578	36713.07
653.93	36548.56
654.282	36424.95
654.633	36501.33
654.985	36540.2
655.337	36434.21
655.688	36442.8
656.039	36595.34
656.391	36315.57
656.742	36346.53
657.094	36377.94
657.445	36474.89
657.796	36424.72
658.147	36400.54
658.498	36417.26
658.849	36445.96
659.2	36374.55
659.551	36292.97
659.902	36409.58
660.253	36399.86
660.604	36399.64
660.955	36156.03
661.306	36435.79
661.656	36204.16
662.007	36243.71
662.358	36221.34
662.708	36233.99
663.059	36289.13
663.409	36019.76
663.76	36281.22
664.11	36205.06
664.461	36212.97
664.811	36279.41
665.161	36087.1
665.511	36195.35
665.862	36055.24
666.212	36352.86
666.562	36328.23
666.912	36148.12
667.262	36136.59
667.612	36176.14
667.962	36136.59
668.312	36266.76
668.662	36205.74
669.011	36132.75
669.361	36057.27
669.711	36136.59
670.06	36005.3
670.41	35901.12
670.76	35849.37
671.109	36061.11
671.459	36040.1
671.808	35987.9
672.157	36137.72
672.507	35770.05
672.856	35803.04
673.205	35880.33
673.554	36120.32
673.904	35936.82
674.253	35983.83
674.602	35904.06
674.951	35458.87
675.3	35297.07
675.649	35883.72
675.998	35781.35
676.346	35776.6
676.695	35865.19
677.044	35603.5
677.393	35894.79
677.741	35827
678.09	35799.65
678.438	35653.67
678.787	35729.15
679.135	35781.57
679.484	35497.29
679.832	35664.06
680.181	35411.41
680.529	35485.31
680.877	35498.64
681.225	35280.12
681.573	35482.6
681.922	35249.38
682.27	35127.13
682.618	35160.12
682.966	34935.95
683.314	35287.8
683.661	34949.05
684.009	34892.78
684.357	35016.62
684.705	34797.19
685.053	34972.56
685.4	34770.53
685.748	34632
686.095	34730.3
686.443	34512.45
686.79	34576.41
687.138	34575.5
687.485	34632
687.832	34390.2
688.18	34489.4
688.527	34275.85
688.874	34256.64
689.221	34132.13
689.568	34035.18
689.915	33914.05
690.262	34079.92
690.609	33791.57
690.956	33820.04
691.303	33846.93
691.65	33607.62
691.997	33682.42
692.344	33390.45
692.69	33291.24
693.037	33397.46
693.383	33126.73
693.73	33165.82
694.077	32926.28
694.423	33056.9
694.769	32861.88
695.116	32896.68
695.462	32806.51
695.808	32699.62
696.155	32827.3
696.501	32501.66
696.847	32434.32
697.193	32343.92
697.539	32388.44
697.885	32079.52
698.231	32027.32
698.577	32079.75
698.923	31954.78
699.269	31832.98
699.614	31725.18
699.96	31707.33
700.306	31678.86
700.651	31503.72
700.997	31421.46
701.342	31462.59
701.688	31457.17
702.033	31336.94
702.379	31257.85
702.724	31072.54
703.069	31282.03
703.415	30780.35
703.76	30983.06
704.105	30885.43
704.45	30784.42
704.795	30696.96
705.14	30517.08
705.485	30548.94
705.83	30325.9
706.175	30462.17
706.52	30336.07
706.865	30190.53
707.209	30089.07
707.554	30064.21
707.899	30304.88
708.243	30045.45
708.588	30080.93
708.932	29766.36
709.277	29778.79
709.621	29758.45
709.966	29653.15
710.31	29703.32
710.654	29422.42
710.998	29548.06
711.342	29536.54
711.687	29462.19
712.031	29297.9
712.375	29116.21
712.719	29232.82
713.063	29102.65
713.407	29212.93
713.75	29021.53
714.094	29024.01
714.438	28860.17
714.782	28955.09
715.125	28765.71
715.469	28917.8
715.812	28708.76
716.156	28590.58
716.499	28528.88
716.843	28591.48
717.186	28428.09
717.53	28612.5
717.873	28555.77
718.216	28457.47
718.559	28230.13
718.902	28033.75
719.246	28225.39
719.589	28136.12
719.932	27914.44
720.275	28046.18
720.617	27925.28
720.96	27909.46
721.303	27941.78
721.646	27835.34
721.989	27605.07
722.331	27852.52
722.674	27706.76
723.016	27725.29
723.359	27646.87
723.701	27647.1
724.044	27384.51
724.386	27354.22
724.729	27439.19
725.071	27304.73
725.413	27358.97
725.755	27320.55
726.097	27324.17
726.439	27105.87
726.782	27091.63
727.124	27226.54
727.465	27055.7
727.807	27117.85
728.149	26987.68
728.491	26825.2
728.833	26974.8
729.175	26956.27
729.516	26795.59
729.858	26801.02
730.199	26826.78
730.541	26721.25
730.882	26644.41
731.224	26812.54
731.565	26514.7
731.906	26600.35
732.248	26671.53
732.589	26415.04
732.93	26426.34
733.271	26295.72
733.612	26454.13
733.953	26431.54
734.294	26355.83
734.635	26123.75
734.976	26177.53
735.317	26142.28
735.658	26102.73
735.999	26104.77
736.339	26001.49
736.68	26106.8
737.021	25923.75
737.361	25971.66
737.702	26053.02
738.042	25965.33
738.383	25900.7
738.723	25909.74
739.063	25762.18
739.404	25747.03
739.744	25742.74
740.084	25615.06
740.424	25697.09
740.764	25635.4
741.104	25753.36
741.444	25533.71
741.784	25431.79
742.124	25546.59
742.464	25416.42
742.804	25436.99
743.143	25388.17
743.483	25462.52
743.823	25371
744.162	25233.38
744.502	25282.87
744.841	25175.07
745.181	25298.91
745.52	25149.76
745.86	25227.5
746.199	25143.89
746.538	25034.29
746.877	25007.85
747.216	24969.2
747.556	24993.61
747.895	24977.79
748.234	24843.1
748.573	24763.33
748.911	24759.04
749.25	24731.02
749.589	24755.42
749.928	24632.04
750.267	24726.95
750.605	24730.11
750.944	24643.11
751.283	24437.46
751.621	24519.5
751.96	24361.76
752.298	24409.67
752.636	24410.35
752.975	24270.01
753.313	24201.09
753.651	24292.38
753.989	24157.92
754.327	24060.98
754.666	24030.02
755.004	24011.26
755.342	24064.37
755.679	24032.5
756.017	23795.45
756.355	24015.33
756.693	23717.03
757.031	23779.63
757.368	23712.06
757.706	23712.06
758.044	23610.37
758.381	23747.09
758.719	23559.52
759.056	23479.75
759.394	23387.32
759.731	23315.01
760.068	23202.92
760.405	23208.57
760.743	23037.5
