Data from hue_280_FLMS001491_00005.txt Node
Date: Tue Feb 07 15:54:44 GMT 2017
User: dcchb
Spectrometer: FLMS00149
Trigger mode: 0
Integration Time (sec): 2.000000E-2
Scans to average: 10
Electric dark correction enabled: true
Nonlinearity correction enabled: false
Boxcar width: 0
XAxis mode: Wavelengths
Number of Pixels in Spectrum: 2048
>>>>>Begin Spectral Data<<<<<
341.393	-2.1
341.776	-2.1
342.16	-2.1
342.543	-52.72
342.927	-79.16
343.31	-78.03
343.693	-45.95
344.077	-57.47
344.46	-64.48
344.843	-42.33
345.226	-47.53
345.61	-40.75
345.993	-3.69
346.376	2.64
346.759	4.22
347.142	18.23
347.525	49.19
347.908	47.84
348.291	71.79
348.674	65.01
349.057	121.28
349.44	133.26
349.823	137.1
350.206	147.04
350.588	177.55
350.971	210.32
351.354	216.42
351.737	238.79
352.119	233.37
352.502	262.3
352.884	269.98
353.267	285.8
353.65	280.83
354.032	293.26
354.414	280.15
354.797	295.29
355.179	319.92
355.562	317.21
355.944	322.41
356.326	331.67
356.709	339.81
357.091	323.31
357.473	345.68
357.855	335.97
358.238	331.67
358.62	348.17
359.002	321.05
359.384	334.16
359.766	357.43
360.148	332.12
360.53	337.32
360.912	332.58
361.294	330.09
361.676	321.05
362.057	321.05
362.439	329.41
362.821	341.62
363.203	326.47
363.584	329.64
363.966	334.16
364.348	333.71
364.729	323.31
365.111	313.82
365.493	308.4
365.874	313.82
366.256	320.82
366.637	303.2
367.019	321.28
367.4	328.73
367.781	316.76
368.163	324.89
368.544	315.85
368.925	302.97
369.306	318.79
369.688	312.24
370.069	314.27
370.45	310.88
370.831	310.43
371.212	318.11
371.593	313.37
371.974	304.1
372.355	330.77
372.736	317.89
373.117	311.56
373.498	337.32
373.879	313.82
374.26	315.63
374.641	332.12
375.021	308.62
375.402	319.92
375.783	326.7
376.163	345.91
376.544	319.69
376.925	326.25
377.305	342.07
377.686	316.76
378.066	318.79
378.447	339.13
378.827	338.9
379.208	340.94
379.588	316.31
379.968	347.49
380.349	331.45
380.729	321.95
381.109	339.58
381.489	321.28
381.87	338.9
382.25	323.76
382.63	317.89
383.01	352.46
383.39	344.78
383.77	346.13
384.15	345.46
384.53	352.01
384.91	348.85
385.29	354.04
385.67	369.64
386.049	361.05
386.429	329.86
386.809	344.78
387.189	357.66
387.568	365.34
387.948	356.53
388.328	345.01
388.707	367.15
389.087	382.29
389.466	361.95
389.846	385
390.225	397.21
390.605	357.21
390.984	380.94
391.363	368.06
391.743	376.42
392.122	379.13
392.501	392.69
392.881	382.52
393.26	379.35
393.639	382.97
394.018	383.42
394.397	360.37
394.776	394.5
395.155	382.97
395.534	410.77
395.913	398.56
396.292	416.42
396.671	400.6
397.05	406.92
397.429	413.25
397.808	413.48
398.186	404.89
398.565	399.24
398.944	418.9
399.323	406.92
399.701	418.45
400.08	410.77
400.458	414.16
400.837	424.78
401.215	433.36
401.594	419.35
401.972	434.27
402.351	439.92
402.729	427.71
403.107	436.08
403.486	441.27
403.864	459.58
404.242	455.28
404.62	474.72
404.999	455.06
405.377	459.58
405.755	469.75
406.133	478.11
406.511	468.62
406.889	473.36
407.267	478.79
407.645	478.11
408.023	500.71
408.401	503.19
408.779	477.88
409.156	508.62
409.534	524.44
409.912	539.58
410.29	524.89
410.667	524.66
411.045	525.57
411.422	547.49
411.8	524.89
412.178	576.19
412.555	582.96
412.933	566.02
413.31	575.06
413.687	580.25
414.065	592.68
414.442	615.73
414.819	617.54
415.197	606.24
415.574	626.81
415.951	636.07
416.328	625.45
416.705	649.18
417.082	639.46
417.46	672
417.837	684.88
418.214	672.45
418.591	673.13
418.967	692.34
419.344	681.27
419.721	686.24
420.098	708.16
420.475	722.85
420.852	722.62
421.228	712.45
421.605	768.72
421.982	759.91
422.358	758.1
422.735	773.92
423.111	782.73
423.488	789.74
423.864	811.21
424.241	812.34
424.617	791.32
424.994	816.63
425.37	859.57
425.746	863.86
426.123	847.14
426.499	863.86
426.875	870.87
427.251	888.49
427.627	918.78
428.003	915.39
428.379	930.3
428.756	904.09
429.132	939.11
429.507	975.27
429.883	974.82
430.259	988.38
430.635	965.55
431.011	1006.46
431.387	1038.09
431.763	1048.72
432.138	1020.02
432.514	1024.54
432.89	1066.12
433.265	1064.08
433.641	1071.09
434.016	1129.39
434.392	1119.9
434.767	1154.25
435.143	1160.58
435.518	1145.21
435.894	1172.33
436.269	1213
436.644	1196.73
437.02	1233.34
437.395	1227.02
437.77	1228.37
438.145	1288.03
438.52	1254.81
438.895	1311.99
439.271	1306.34
439.646	1323.06
440.021	1332.1
440.395	1365.09
440.77	1314.47
441.145	1409.16
441.52	1377.97
441.895	1399.89
442.27	1380.91
442.645	1414.13
443.019	1438.31
443.394	1445.09
443.769	1467.24
444.143	1423.39
444.518	1460.46
444.892	1457.29
445.267	1479.89
445.641	1490.29
446.016	1495.26
446.39	1515.6
446.764	1522.15
447.139	1531.41
447.513	1516.73
447.887	1552.66
448.262	1520.79
448.636	1543.17
449.01	1565.76
449.384	1557.85
449.758	1581.36
450.132	1587.91
450.506	1585.42
450.88	1607.8
451.254	1600.57
451.628	1605.08
452.002	1663.16
452.376	1647.12
452.75	1649.38
453.123	1621.36
453.497	1708.13
453.871	1703.16
454.244	1722.14
454.618	1745.19
454.992	1745.87
455.365	1757.85
455.739	1770.73
456.112	1824.97
456.486	1826.77
456.859	1819.99
457.232	1819.32
457.606	1824.29
457.979	1851.18
458.352	1908.35
458.725	1942.25
459.099	1913.1
459.472	1967.56
459.845	1962.36
460.218	2010.27
460.591	1970.27
460.964	2012.76
461.337	2032.42
461.71	2033.1
462.083	2065.64
462.456	2099.99
462.829	2071.51
463.201	2118.74
463.574	2091.85
463.947	2133.21
464.32	2208.01
464.692	2206.88
465.065	2212.07
465.438	2212.3
465.81	2278.29
466.183	2273.99
466.555	2319.19
466.928	2302.92
467.3	2321.45
467.672	2343.6
468.045	2382.69
468.417	2382.01
468.789	2394.22
469.161	2431.96
469.534	2439.41
469.906	2511.28
470.278	2541.11
470.65	2547.21
471.022	2583.59
471.394	2596.47
471.766	2625.62
472.138	2623.14
472.51	2657.49
472.882	2691.38
473.253	2747.88
473.625	2737.03
473.997	2843.92
474.369	2860.65
474.74	2857.26
475.112	2845.96
475.484	2938.84
475.855	2976.35
476.227	2966.18
476.598	3045.95
476.97	3063.13
477.341	3105.61
477.713	3186.06
478.084	3209.11
478.455	3249.56
478.827	3272.16
479.198	3365.49
479.569	3320.52
479.94	3400.97
480.311	3425.38
480.682	3480.29
481.053	3566.39
481.424	3581.08
481.795	3574.75
482.166	3644.58
482.537	3657.69
482.908	3734.29
483.279	3787.85
483.65	3831.47
484.021	3916.66
484.391	3874.86
484.762	3968.86
485.133	3987.4
485.503	3958.24
485.874	4063.33
486.244	4096.32
486.615	4137.22
486.985	4201.85
487.356	4220.16
487.726	4291.57
488.097	4324.11
488.467	4315.75
488.837	4412.92
489.207	4457.89
489.578	4461.73
489.948	4515.29
490.318	4520.71
490.688	4586.02
491.058	4684.78
491.428	4669.86
491.798	4736.98
492.168	4823.31
492.538	4828.28
492.908	4833.02
493.278	4948.05
493.648	4898.78
494.017	4931.1
494.387	4975.84
494.757	5028.72
495.126	5055.16
495.496	5049.06
495.866	5085.9
496.235	5119.34
496.605	5165.44
496.974	5194.82
497.344	5218.55
497.713	5234.37
498.082	5215.16
498.452	5303.97
498.821	5339.68
499.19	5317.08
499.559	5376.74
499.928	5410.63
500.298	5375.61
500.667	5435.72
501.036	5498.99
501.405	5494.25
501.774	5519.56
502.143	5526.79
502.512	5539.67
502.88	5549.16
503.249	5584.42
503.618	5594.13
503.987	5591.65
504.356	5625.77
504.724	5668.03
505.093	5713
505.462	5677.52
505.83	5743.06
506.199	5778.99
506.567	5780.79
506.936	5785.31
507.304	5814.01
507.672	5850.4
508.041	5877.06
508.409	5889.94
508.777	5918.42
509.145	5929.27
509.514	5967.68
509.882	5980.34
510.25	5941.47
510.618	6022.82
510.986	6047.68
511.354	6101.46
511.722	6072.99
512.09	6082.26
512.458	6105.98
512.826	6134.01
513.193	6177.39
513.561	6195.92
513.929	6241.8
514.297	6232.76
514.664	6254.68
515.032	6241.57
515.4	6278.63
515.767	6343.49
516.135	6333.55
516.502	6263.49
516.869	6382.13
517.237	6355.02
517.604	6354.34
517.972	6365.64
518.339	6458.29
518.706	6436.6
519.073	6422.13
519.44	6452.87
519.808	6536.03
520.175	6507.78
520.542	6618.74
520.909	6625.07
521.276	6510.04
521.643	6620.09
522.009	6661
522.376	6642.01
522.743	6678.4
523.11	6688.12
523.477	6744.61
523.843	6744.16
524.21	6837.26
524.577	6845.85
524.943	6924.95
525.31	6888.34
525.676	6929.69
526.043	6996.81
526.409	6953.42
526.776	6977.15
527.142	7055.79
527.508	7023.7
527.874	7115
528.241	7156.8
528.607	7114.54
528.973	7244.71
529.339	7124.04
529.705	7253.3
530.071	7246.74
530.437	7217.59
530.803	7279.96
531.169	7351.83
531.535	7301.66
531.901	7293.3
532.267	7342.79
532.632	7408.32
532.998	7386.18
533.364	7473.41
533.73	7482.67
534.095	7493.29
534.461	7575.1
534.826	7552.05
535.192	7542.33
535.557	7615.1
535.923	7602.67
536.288	7632.72
536.653	7661.42
537.019	7650.12
537.384	7667.07
537.749	7681.31
538.114	7722.66
538.479	7698.94
538.845	7722.89
539.21	7686.05
539.575	7776.67
539.94	7750.23
540.305	7759.95
540.67	7772.15
541.034	7792.27
541.399	7829.1
541.764	7820.74
542.129	7868.88
542.494	7901.87
542.858	7873.17
543.223	7870.46
543.587	7921.08
543.952	7949.78
544.316	7939.38
544.681	7980.74
545.045	7997.23
545.41	8074.52
545.774	8059.6
546.138	8053.05
546.503	8048.98
546.867	8086.27
547.231	8087.63
547.595	8116.55
547.959	8132.6
548.324	8092.82
548.688	8088.08
549.052	8157.68
549.416	8221.86
549.779	8157.46
550.143	8186.83
550.507	8250.79
550.871	8216.89
551.235	8239.26
551.599	8274.51
551.962	8330.56
552.326	8275.42
552.689	8333.5
553.053	8319.48
553.417	8327.17
553.78	8438.13
554.143	8331.01
554.507	8387.96
554.87	8385.92
555.234	8495.07
555.597	8434.06
555.96	8510.44
556.323	8485.13
556.686	8446.94
557.05	8568.29
557.413	8505.02
557.776	8639.25
558.139	8634.28
558.502	8580.27
558.865	8651.45
559.228	8658.46
559.59	8678.57
559.953	8639.25
560.316	8771
560.679	8759.93
561.041	8827.72
561.404	8815.06
561.767	8881.5
562.129	8908.62
562.492	8941.16
562.854	8943.88
563.217	8865.01
563.579	8970.77
563.941	8986.36
564.304	9054.83
564.666	9108.39
565.028	9118.56
565.39	9140.25
565.753	9187.03
566.115	9181.38
566.477	9185.68
566.839	9283.53
567.201	9241.27
567.563	9303.64
567.925	9374.37
568.287	9321.04
568.648	9417.76
569.01	9427.7
569.372	9495.27
569.734	9458.89
570.095	9533.92
570.457	9596.74
570.819	9585.44
571.18	9609.62
571.542	9645.33
571.903	9643.29
572.265	9699.34
572.626	9744.31
572.987	9806.68
573.349	9836.73
573.71	9827.24
574.071	9890.52
574.432	9925.54
574.794	9926
575.155	9971.64
575.516	10018.87
575.877	10118.31
576.238	10137.52
576.599	10118.53
576.96	10215.93
577.32	10218.87
577.681	10228.14
578.042	10264.74
578.403	10324.63
578.763	10439.65
579.124	10460.22
579.485	10485.98
579.845	10490.28
580.206	10531.63
580.566	10566.21
580.927	10615.7
581.287	10631.29
581.648	10585.87
582.008	10817.27
582.368	10771.17
582.728	10843.94
583.089	10906.31
583.449	10952.41
583.809	10964.16
584.169	11114.89
584.529	11061.79
584.889	11222.01
585.249	11180.88
585.609	11194.21
585.969	11312.85
586.329	11424.94
586.688	11460.19
587.048	11447.31
587.408	11605.73
587.768	11660.41
588.127	11655.89
588.487	11695.44
588.846	11904.7
589.206	11749.68
589.565	11953.51
589.925	12110.12
590.284	12073.28
590.643	12163
591.003	12148.54
591.362	12411.58
591.721	12341.98
592.08	12389.66
592.44	12569.77
592.799	12507.62
593.158	12697.67
593.517	12678.24
593.876	12772.25
594.235	12789.42
594.593	12833.94
594.952	12926.6
595.311	12922.3
595.67	13070.09
596.029	13210.88
596.387	13210.43
596.746	13297.66
597.104	13298.11
597.463	13294.27
597.822	13420.59
598.18	13422.63
598.538	13440.48
598.897	13614.71
599.255	13507.82
599.613	13734.94
599.972	13716.63
600.33	13827.59
600.688	13774.93
601.046	13846.8
601.404	13986.68
601.762	13963.4
602.12	14087.92
602.478	14117.07
602.836	14200.23
603.194	14180.12
603.552	14211.53
603.91	14229.39
604.268	14321.36
604.625	14262.61
604.983	14295.37
605.341	14384.18
605.698	14494.24
606.056	14497.63
606.413	14551.86
606.771	14650.84
607.128	14620.56
607.485	14649.04
607.843	14758.41
608.2	14782.82
608.557	14861.01
608.914	14833.66
609.272	14957.05
609.629	14926.32
609.986	14950.5
610.343	14873.66
610.7	14996.37
611.057	15105.75
611.414	15077.73
611.771	15101
612.127	15212.18
612.484	15204.28
612.841	15220.55
613.198	15176.71
613.554	15217.16
613.911	15339.19
614.267	15361.56
614.624	15362.69
614.98	15404.95
615.337	15469.58
615.693	15436.59
616.05	15578.5
616.406	15594.77
616.762	15459.41
617.118	15518.17
617.475	15524.94
617.831	15628.45
618.187	15657.37
618.543	15561.78
618.899	15655.11
619.255	15771.27
619.611	15748.22
619.967	15758.16
620.323	15827.08
620.678	15738.27
621.034	15699.86
621.39	15738.27
621.746	15682.68
622.101	15819.85
622.457	15806.75
622.812	15745.96
623.168	15854.2
623.523	15921.32
623.879	15927.87
624.234	15791.83
624.589	15984.14
624.945	15893.3
625.3	15974.2
625.655	15988.44
626.01	15873.64
626.365	15981.43
626.72	15882.68
627.075	15898.04
627.43	15947.98
627.785	15930.13
628.14	15965.61
628.495	15943.69
628.85	15983.92
629.205	15847.2
629.559	15932.39
629.914	15869.79
630.269	15908.21
630.623	15906.18
630.978	15812.62
631.332	15886.07
631.687	15945.72
632.041	15841.09
632.396	15890.81
632.75	15768.1
633.104	15849
633.459	15867.08
633.813	15734.2
634.167	15863.69
634.521	15761.1
634.875	15820.3
635.229	15747.54
635.583	15681.1
635.937	15717.48
636.291	15654.21
636.645	15753.41
636.999	15628.22
637.352	15676.58
637.706	15585.51
638.06	15638.61
638.413	15622.8
638.767	15561.1
639.121	15564.04
639.474	15557.94
639.828	15494.89
640.181	15622.57
640.534	15557.71
640.888	15553.87
641.241	15492.4
641.594	15558.62
641.947	15589.58
642.301	15465.74
642.654	15562.91
643.007	15479.07
643.36	15450.14
643.713	15442.69
644.066	15449.47
644.419	15403.14
644.771	15294.44
645.124	15220.32
645.477	15228
645.83	15064.62
646.182	15032.98
646.535	14972.87
646.888	14983.72
647.24	14934.23
647.593	15038.18
647.945	14986.65
648.298	14785.98
648.65	14809.48
649.002	14827.79
649.355	14879.76
649.707	14946.66
650.059	14956.6
650.411	15098.29
650.763	15120.44
651.115	15322.46
651.467	15326.76
651.819	15300.77
652.171	15302.8
652.523	15269.36
652.875	15257.61
653.227	15206.31
653.578	15296.25
653.93	15242.01
654.282	15247.44
654.633	15201.11
654.985	15309.81
655.337	15270.94
655.688	15271.84
656.039	15291.5
656.391	15193.88
656.742	15289.47
657.094	15204.5
657.445	15210.83
657.796	15325.4
658.147	15272.75
658.498	15258.74
658.849	15291.28
659.2	15274.56
659.551	15243.6
659.902	15361.79
660.253	15356.59
660.604	15299.87
660.955	15280.43
661.306	15296.25
661.656	15276.82
662.007	15351.16
662.358	15319.75
662.708	15358.85
663.059	15397.72
663.409	15288.57
663.76	15366.76
664.11	15399.3
664.461	15413.08
664.811	15319.75
665.161	15387.55
665.511	15410.6
665.862	15449.69
666.212	15517.94
666.562	15434.1
666.912	15356.14
667.262	15453.08
667.612	15338.51
667.962	15377.15
668.312	15436.36
668.662	15348
669.011	15363.59
669.361	15361.11
669.711	15336.93
670.06	15410.82
670.41	15314.33
670.76	15222.35
671.109	15346.64
671.459	15312.07
671.808	15217.61
672.157	15316.14
672.507	15183.48
672.856	15304.16
673.205	15127.67
673.554	15204.5
673.904	15221.68
674.253	15255.8
674.602	15271.17
674.951	15077.95
675.3	14946.88
675.649	15241.56
675.998	15143.26
676.346	15181.23
676.695	15211.05
677.044	15022.81
677.393	15091.06
677.741	15204.05
678.09	15060.78
678.438	15024.62
678.787	15124.73
679.135	15058.74
679.484	14971.29
679.832	14993.43
680.181	14892.65
680.529	14930.61
680.877	14953.89
681.225	14936.49
681.573	15010.61
681.922	14857.39
682.27	14695.14
682.618	14796.15
682.966	14804.96
683.314	14766.09
683.661	14754.8
684.009	14685.19
684.357	14599.77
684.705	14568.13
685.053	14601.13
685.4	14531.52
685.748	14544.86
686.095	14528.13
686.443	14472.32
686.79	14447.91
687.138	14402.04
687.485	14409.49
687.832	14375.6
688.18	14261.02
688.527	14247.69
688.874	14254.24
689.221	14186.45
689.568	14109.84
689.915	14116.39
690.262	14076.85
690.609	13938.32
690.956	14017.41
691.303	14047.02
691.65	13906.23
691.997	13899.45
692.344	13700.13
692.69	13781.94
693.037	13802.73
693.383	13616.29
693.73	13655.62
694.077	13517.99
694.423	13695.39
694.769	13531.1
695.116	13475.51
695.462	13452.01
695.808	13401.38
696.155	13421.27
696.501	13317.55
696.847	13326.81
697.193	13209.75
697.539	13263.08
697.885	13170.66
698.231	13141.73
698.577	13060.15
698.923	13052.47
699.269	12999.59
699.614	12870.78
699.96	12814.96
700.306	12962.53
700.651	12817.45
700.997	12732.25
701.342	12729.09
701.688	12722.08
702.033	12689.54
702.379	12655.42
702.724	12542.2
703.069	12562.76
703.415	12459.49
703.76	12397.57
704.105	12425.37
704.45	12294.97
704.795	12327.06
705.14	12216.56
705.485	12207.97
705.83	12132.49
706.175	12107.86
706.52	12084.13
706.865	12137.92
707.209	12078.48
707.554	12024.47
707.899	12012.04
708.243	11921.2
708.588	11993.51
708.932	11822.44
709.277	11883.23
709.621	11871.71
709.966	11725.04
710.31	11822.67
710.654	11679.17
710.998	11688.21
711.342	11660.87
711.687	11674.88
712.031	11605.27
712.375	11577.25
712.719	11569.12
713.063	11505.16
713.407	11517.37
713.75	11449.12
714.094	11440.76
714.438	11405.96
714.782	11424.94
715.125	11325.51
715.469	11384.94
715.812	11259.97
716.156	11257.03
716.499	11215
716.843	11273.98
717.186	11191.95
717.53	11257.49
717.873	11217.49
718.216	11225.62
718.559	11170.71
718.902	11066.53
719.246	11151.27
719.589	11084.84
719.932	11043.48
720.275	11090.94
720.617	11063.14
720.96	10984.95
721.303	11025.18
721.646	11037.38
721.989	11012.97
722.331	11043.25
722.674	10970.71
723.016	11036.02
723.359	10981.56
723.701	11003.48
724.044	10951.28
724.386	10831.96
724.729	10866.31
725.071	10894.78
725.413	10842.36
725.755	10849.36
726.097	10846.88
726.439	10842.36
726.782	10798.29
727.124	10867.67
727.465	10788.12
727.807	10773.43
728.149	10760.1
728.491	10774.79
728.833	10766.2
729.175	10766.43
729.516	10765.97
729.858	10753.77
730.199	10779.31
730.541	10753.32
730.882	10716.94
731.224	10740.44
731.565	10729.14
731.906	10742.92
732.248	10782.92
732.589	10686.43
732.93	10667.9
733.271	10682.59
733.612	10751.06
733.953	10679.65
734.294	10669.71
734.635	10664.73
734.976	10718.97
735.317	10678.29
735.658	10765.07
735.999	10709.7
736.339	10682.81
736.68	10676.94
737.021	10693.43
737.361	10664.06
737.702	10670.38
738.042	10695.92
738.383	10695.24
738.723	10729.82
739.063	10697.95
739.404	10790.15
739.744	10744.28
740.084	10702.92
740.424	10685.52
740.764	10818.85
741.104	10774.56
741.444	10808.91
741.784	10811.85
742.124	10793.54
742.464	10836.48
742.804	10796.26
743.143	10864.95
743.483	10944.73
743.823	10847.78
744.162	10904.28
744.502	11014.56
744.841	10891.85
745.181	11033.76
745.52	11088.45
745.86	11067.89
746.199	11130.03
746.538	11188.34
746.877	11247.77
747.216	11298.84
747.556	11306.52
747.895	11393.53
748.234	11386.97
748.573	11346.98
748.911	11516.24
749.25	11584.26
749.589	11598.95
749.928	11678.94
750.267	11759.62
750.605	11777.92
750.944	11893.85
751.283	11960.07
751.621	12122.77
751.96	12125.71
752.298	12245.03
752.636	12315.99
752.975	12404.12
753.313	12479.15
753.651	12600.05
753.989	12676.43
754.327	12810.67
754.666	12818.12
755.004	13057.67
755.342	13117.32
755.679	13336.3
756.017	13374.49
756.355	13587.37
756.693	13575.17
757.031	13857.19
757.368	13845.67
757.706	14026.45
758.044	14167.47
758.381	14338.08
758.719	14461.02
759.056	14599.55
