Data from hue_310_FLMS001491_100.txt Node
Date: Mon Feb 06 15:50:30 GMT 2017
User: dcchb
Spectrometer: FLMS00149
Trigger mode: 0
Integration Time (sec): 2.000000E-2
Scans to average: 10
Electric dark correction enabled: true
Nonlinearity correction enabled: false
Boxcar width: 0
XAxis mode: Wavelengths
Number of Pixels in Spectrum: 2048
>>>>>Begin Spectral Data<<<<<
341.393	-9.67
341.776	-9.67
342.16	-9.67
342.543	-59.17
342.927	-68.2
343.31	-52.16
343.693	-63.23
344.077	-65.94
344.46	-69.56
344.843	-43.12
345.226	-51.03
345.61	-46.28
345.993	-27.08
346.376	-8.77
346.759	7.05
347.142	32.58
347.525	49.98
347.908	55.41
348.291	76.2
348.674	88.4
349.057	117.55
349.44	143.09
349.823	125.46
350.206	143.99
350.588	202.52
350.971	197.78
351.354	216.53
351.737	225.35
352.119	258.11
352.502	250.43
352.884	284.1
353.267	271
353.65	281.16
354.032	280.04
354.414	301.73
354.797	306.7
355.179	313.25
355.562	309.19
355.944	311.45
356.326	331.79
356.709	325.68
357.091	340.82
357.473	350.99
357.855	321.39
358.238	337.66
358.62	332.91
359.002	353.71
359.384	302.86
359.766	327.49
360.148	328.85
360.53	333.82
360.912	325.91
361.294	337.21
361.676	307.6
362.057	314.16
362.439	339.92
362.821	315.97
363.203	316.19
363.584	325.68
363.966	311.22
364.348	303.54
364.729	308.28
365.111	308.51
365.493	312.35
365.874	311.67
366.256	316.64
366.637	321.39
367.019	302.41
367.4	298.57
367.781	309.64
368.163	310.99
368.544	312.8
368.925	302.63
369.306	303.54
369.688	298.11
370.069	318.68
370.45	297.44
370.831	327.27
371.212	316.64
371.593	298.11
371.974	305.8
372.355	307.6
372.736	296.08
373.117	294.5
373.498	311.9
373.879	308.51
374.26	330.66
374.641	317.77
375.021	277.55
375.402	313.03
375.783	319.58
376.163	321.39
376.544	328.17
376.925	310.32
377.305	330.66
377.686	319.81
378.066	299.92
378.447	332.46
378.827	332.01
379.208	320.71
379.588	330.2
379.968	316.19
380.349	336.08
380.729	332.69
381.109	329.75
381.489	329.98
381.87	339.24
382.25	331.11
382.63	312.8
383.01	339.92
383.39	354.61
383.77	336.76
384.15	324.1
384.53	343.54
384.91	328.85
385.29	358.68
385.67	330.2
386.049	353.25
386.429	366.13
386.809	363.87
387.189	344.89
387.568	362.52
387.948	353.48
388.328	350.32
388.707	345.8
389.087	350.99
389.466	341.28
389.846	360.94
390.225	345.57
390.605	356.64
390.984	359.81
391.363	331.11
391.743	363.42
392.122	367.04
392.501	379.69
392.881	375.4
393.26	382.18
393.639	372.69
394.018	367.26
394.397	353.48
394.776	377.21
395.155	368.62
395.534	393.93
395.913	391.44
396.292	367.49
396.671	382.41
397.05	364.78
397.429	394.38
397.808	384.67
398.186	410.65
398.565	392.8
398.944	385.57
399.323	365.91
399.701	393.25
400.08	406.81
400.458	410.43
400.837	399.81
401.215	407.94
401.594	395.74
401.972	409.75
402.351	408.62
402.729	416.53
403.107	409.07
403.486	436.64
403.864	412.46
404.242	410.65
404.62	440.93
404.999	417.43
405.377	414.95
405.755	449.97
406.133	436.64
406.511	436.87
406.889	482.52
407.267	459.24
407.645	451.1
408.023	461.05
408.401	472.35
408.779	479.8
409.156	479.35
409.534	462.63
409.912	487.49
410.29	509.41
410.667	504.21
411.045	505.34
411.422	497.88
411.8	496.75
412.178	496.75
412.555	523.19
412.933	538.11
413.31	566.36
413.687	561.61
414.065	545.11
414.442	582.85
414.819	576.07
415.197	565
415.574	591.21
415.951	596.41
416.328	608.61
416.705	608.39
417.082	632.12
417.46	619.46
417.837	627.14
418.214	658.1
418.591	647.48
418.967	643.19
419.344	652.91
419.721	679.12
420.098	670.08
420.475	692
420.852	681.15
421.228	713.47
421.605	710.53
421.982	732.23
422.358	722.51
422.735	726.12
423.111	730.42
423.488	734.49
423.864	763.19
424.241	770.64
424.617	783.07
424.994	766.12
425.37	782.39
425.746	775.62
426.123	804.77
426.499	809.74
426.875	820.36
427.251	820.59
427.627	846.35
428.003	850.19
428.379	827.82
428.756	859.45
429.132	875.27
429.507	884.09
429.883	906.23
430.259	904.88
430.635	870.53
431.011	915.95
431.387	964.08
431.763	948.04
432.138	955.05
432.514	958.66
432.89	977.87
433.265	995.95
433.641	1014.7
434.016	1022.16
434.392	1023.97
434.767	1029.85
435.143	1024.65
435.518	1026.91
435.894	1084.31
436.269	1114.14
436.644	1087.02
437.02	1110.52
437.395	1113.46
437.77	1116.17
438.145	1118.43
438.52	1152.78
438.895	1167.02
439.271	1152.33
439.646	1181.48
440.021	1190.75
440.395	1202.04
440.77	1172.89
441.145	1187.36
441.52	1178.09
441.895	1185.55
442.27	1209.05
442.645	1232.55
443.019	1226.9
443.394	1210.18
443.769	1222.38
444.143	1259.9
444.518	1260.12
444.892	1237.52
445.267	1276.84
445.641	1255.38
446.016	1269.84
446.39	1291.08
446.764	1315.26
447.139	1282.49
447.513	1302.16
447.887	1316.84
448.262	1334.92
448.636	1310.29
449.01	1322.49
449.384	1308.71
449.758	1318.88
450.132	1338.31
450.506	1360.01
450.88	1376.96
451.254	1353.45
451.628	1333.57
452.002	1348.03
452.376	1354.58
452.75	1367.46
453.123	1380.12
453.497	1365.66
453.871	1412.66
454.244	1424.86
454.618	1418.08
454.992	1445.65
455.365	1445.88
455.739	1469.61
456.112	1479.1
456.486	1474.81
456.859	1488.82
457.232	1484.98
457.606	1515.03
457.979	1522.71
458.352	1543.5
458.725	1543.28
459.099	1571.3
459.472	1579.89
459.845	1571.3
460.218	1594.58
460.591	1605.65
460.964	1601.81
461.337	1659.21
461.71	1663.05
462.083	1643.84
462.456	1679.55
462.829	1653.33
463.201	1681.35
463.574	1678.42
463.947	1696.27
464.32	1704.4
464.692	1745.99
465.065	1741.24
465.438	1769.94
465.81	1750.96
466.183	1749.6
466.555	1778.75
466.928	1826.66
467.3	1838.41
467.672	1842.93
468.045	1888.81
468.417	1887.22
468.789	1867.11
469.161	1916.6
469.534	1897.39
469.906	1940.33
470.278	1949.37
470.65	1962.02
471.022	1974.91
471.394	1985.07
471.766	2026.43
472.138	2021.23
472.51	2062.81
472.882	2067.11
473.253	2129.93
473.625	2113.89
473.997	2137.39
474.369	2138.52
474.74	2184.62
475.112	2216.71
475.484	2219.42
475.855	2297.38
476.227	2266.42
476.598	2282.92
476.97	2293.09
477.341	2363.6
477.713	2402.47
478.084	2358.4
478.455	2408.34
478.827	2437.94
479.198	2522.69
479.569	2460.99
479.94	2538.51
480.311	2520.88
480.682	2569.92
481.053	2601.56
481.424	2673.64
481.795	2677.03
482.166	2709.8
482.537	2733.08
482.908	2736.47
483.279	2743.7
483.65	2809.01
484.021	2861.21
484.391	2865.96
484.762	2879.29
485.133	2888.33
485.503	2917.93
485.874	2995.9
486.244	2987.31
486.615	3078.38
486.985	3095.78
487.356	3072.73
487.726	3133.75
488.097	3118.38
488.467	3140.3
488.837	3227.53
489.207	3242.22
489.578	3284.02
489.948	3287.64
490.318	3332.16
490.688	3308.66
491.058	3377.35
491.428	3394.76
491.798	3396.56
492.168	3430.46
492.538	3492.15
492.908	3509.78
493.278	3524.02
493.648	3577.35
494.017	3603.56
494.387	3564.24
494.757	3601.76
495.126	3641.08
495.496	3667.74
495.866	3648.53
496.235	3659.61
496.605	3737.12
496.974	3775.54
497.344	3754.52
497.713	3768.08
498.082	3773.05
498.452	3839.94
498.821	3871.8
499.19	3829.77
499.559	3855.08
499.928	3899.83
500.298	3916.55
500.667	3945.02
501.036	3896.21
501.405	3922.2
501.774	3909.32
502.143	3962.65
502.512	3985.47
502.88	4015.3
503.249	3985.02
503.618	4009.88
503.987	4008.3
504.356	4041.97
504.724	4085.58
505.093	4098.47
505.462	4086.26
505.83	4080.16
506.199	4110.44
506.567	4219.14
506.936	4214.39
507.304	4174.62
507.672	4188.18
508.041	4221.85
508.409	4227.28
508.777	4264.79
509.145	4275.64
509.514	4297.56
509.882	4270.66
510.25	4302.75
510.618	4336.65
510.986	4300.27
511.354	4336.88
511.722	4334.84
512.09	4395.18
512.458	4379.14
512.826	4392.02
513.193	4372.58
513.561	4451.9
513.929	4438.34
514.297	4473.37
514.664	4483.54
515.032	4482.18
515.4	4476.76
515.767	4518.12
516.135	4489.19
516.502	4508.17
516.869	4515.4
517.237	4562.63
517.604	4558.79
517.972	4627.27
518.339	4625.46
518.706	4623.42
519.073	4570.09
519.44	4595.85
519.808	4640.37
520.175	4623.65
520.542	4630.2
520.909	4674.5
521.276	4649.41
521.643	4697.77
522.009	4728.28
522.376	4714.49
522.743	4753.36
523.11	4777.32
523.477	4804.21
523.843	4829.97
524.21	4895.96
524.577	4946.13
524.943	4944.09
525.31	4918.11
525.676	4991.1
526.043	4969.63
526.409	5004.66
526.776	5027.71
527.142	5010.76
527.508	5099.34
527.874	5129.63
528.241	5127.82
528.607	5134.37
528.973	5174.82
529.339	5155.61
529.705	5222.28
530.071	5213.46
530.437	5268.6
530.803	5286.68
531.169	5302.28
531.535	5343.86
531.901	5354.7
532.267	5343.86
532.632	5371.65
532.998	5446.45
533.364	5416.85
533.73	5426.11
534.095	5432.44
534.461	5497.52
534.826	5590.4
535.192	5560.12
535.557	5563.06
535.923	5593.34
536.288	5615.26
536.653	5658.88
537.019	5622.04
537.384	5611.42
537.749	5696.39
538.114	5744.3
538.479	5720.12
538.845	5714.02
539.21	5695.94
539.575	5771.87
539.94	5786.33
540.305	5876.05
540.67	5845.54
541.034	5877.85
541.399	5869.49
541.764	5912.88
542.129	5949.72
542.494	6011.86
542.858	6031.3
543.223	6032.65
543.587	6018.42
543.952	6067
544.316	6135.02
544.681	6075.36
545.045	6125.31
545.41	6176.38
545.774	6234.91
546.138	6210.73
546.503	6214.34
546.867	6235.36
547.231	6276.49
547.595	6322.81
547.959	6271.97
548.324	6321.46
548.688	6313.55
549.052	6394.68
549.416	6412.76
549.779	6398.52
550.143	6425.64
550.507	6445.07
550.871	6503.83
551.235	6504.5
551.599	6570.49
551.962	6534.11
552.326	6598.06
552.689	6631.73
553.053	6668.34
553.417	6626.99
553.78	6678.28
554.143	6650.26
554.507	6726.19
554.87	6702.24
555.234	6751.28
555.597	6725.29
555.96	6732.52
556.323	6752.18
556.686	6752.18
557.05	6812.29
557.413	6852.74
557.776	6853.2
558.139	6881.9
558.502	6956.47
558.865	6895.68
559.228	6993.98
559.59	6977.71
559.953	6975.68
560.316	7021.33
560.679	7042.34
561.041	7107.2
561.404	7108.56
561.767	7110.36
562.129	7087.31
562.492	7187.88
562.854	7214.77
563.217	7125.05
563.579	7211.15
563.941	7277.14
564.304	7273.98
564.666	7331.6
565.028	7291.38
565.39	7332.5
565.753	7371.83
566.115	7367.08
566.477	7388.55
566.839	7394.2
567.201	7435.33
567.563	7467.42
567.925	7524.36
568.287	7581.09
568.648	7531.14
569.01	7560.07
569.372	7686.17
569.734	7681.42
570.095	7661.31
570.457	7773.17
570.819	7780.18
571.18	7742.89
571.542	7812.49
571.903	7866.95
572.265	7960.29
572.626	7948.53
572.987	8014.97
573.349	8043.45
573.71	8063.11
574.071	8168.19
574.432	8156.21
574.794	8219.26
575.155	8366.38
575.516	8335.42
575.877	8405.25
576.238	8448.86
576.599	8572.92
576.96	8618.12
577.32	8655.41
577.681	8778.34
578.042	8838.23
578.403	8911.67
578.763	8958.22
579.124	9063.53
579.485	9168.16
579.845	9375.62
580.206	9327.71
580.566	9498.55
580.927	9656.06
581.287	9762.05
581.648	9803.4
582.008	10050.4
582.368	10203.39
582.728	10397.28
583.089	10522.93
583.449	10664.39
583.809	10802.24
584.169	10976.7
584.529	11085.17
584.889	11412.62
585.249	11520.64
585.609	11751.37
585.969	11973.06
586.329	12224.35
586.688	12421.86
587.048	12629.54
587.408	12883.09
587.768	13074.27
588.127	13387.04
588.487	13559.91
588.846	13852.11
589.206	14137.98
589.565	14304.07
589.925	14579.32
590.284	14852.76
590.643	15135.46
591.003	15435.79
591.362	15834.2
591.721	16055.21
592.08	16386.05
592.44	16668.98
592.799	16978.8
593.158	17216.54
593.517	17507.83
593.876	17805.22
594.235	18156.4
594.593	18455.38
594.952	18800.23
595.311	19015.36
595.67	19392.3
596.029	19816.92
596.387	20039.06
596.746	20480.86
597.104	20679.5
597.463	20915.88
597.822	21242.42
598.18	21516.54
598.538	21766.02
598.897	22154.94
599.255	22432.67
599.613	22849.16
599.972	23107.91
600.33	23457.5
600.688	23667.44
601.046	24105.85
601.404	24415.22
601.762	24553.3
602.12	24955.54
602.478	25313.5
602.836	25614.06
603.194	25654.74
603.552	26076.19
603.91	26287.03
604.268	26569.74
604.625	26802.73
604.983	27064.42
605.341	27325.43
605.698	27662.14
606.056	28005.18
606.413	28208.57
606.771	28507.77
607.128	28721.55
607.485	28839.74
607.843	29050.8
608.2	29539.38
608.557	29782.54
608.914	29980.27
609.272	30219.36
609.629	30438.56
609.986	30864.77
610.343	30749.74
610.7	31188.37
611.057	31324.87
611.414	31530.29
611.771	31771.86
612.127	32099.31
612.484	32290.04
612.841	32453.43
613.198	32416.82
613.554	32718.5
613.911	33025.84
614.267	33101.54
614.624	33323.91
614.98	33554.41
615.337	33735.43
615.693	33924.35
616.05	33973.61
616.406	34427.16
616.762	34255.64
617.118	34509.64
617.475	34664.67
617.831	34825.34
618.187	35014.04
618.543	35139.91
618.899	35405.67
619.255	35407.02
619.611	35523.63
619.967	35844.3
620.323	35834.13
620.678	35816.5
621.034	35973.11
621.39	36207
621.746	36260.11
622.101	36680.21
622.457	36504.17
622.812	36687.21
623.168	36885.63
623.523	36860.77
623.879	37121.55
624.234	36922.69
624.589	37261.89
624.945	37321.09
625.3	37427.98
625.655	37459.17
626.01	37605.83
626.365	37578.49
626.72	37733.29
627.075	37826.62
627.43	37801.99
627.785	37728.54
628.14	37828.2
628.495	37944.81
628.85	37980.06
629.205	37904.13
629.559	38290.34
629.914	38141.64
630.269	38201.75
630.623	38072.26
630.978	38147.97
631.332	38290.56
631.687	38387.28
632.041	38281.07
632.396	38428.18
632.75	38324.68
633.104	38391.35
633.459	38333.27
633.813	38359.26
634.167	38366.49
634.521	38377.11
634.875	38480.61
635.229	38425.92
635.583	38172.37
635.937	38334.18
636.291	38416.66
636.645	38479.26
636.999	38385.93
637.352	38599.03
637.706	38293.05
638.06	38553.83
638.413	38422.76
638.767	38329.88
639.121	38522.65
639.474	38276.1
639.828	38166.5
640.181	38274.97
640.534	38344.57
640.888	38215.99
641.241	38255.76
641.594	38295.31
641.947	38437.9
642.301	38299.15
642.654	38394.74
643.007	38331.46
643.36	38432.93
643.713	38142.32
644.066	38501.4
644.419	38175.31
644.771	37900.29
645.124	37632.27
645.477	37620.75
645.83	37285.16
646.182	37242
646.535	37199.74
646.888	37273.19
647.24	36853.54
647.593	37175.34
647.945	37226.18
648.298	37018.5
648.65	36963.82
649.002	37108.9
649.355	37089.24
649.707	37014.66
650.059	37173.3
650.411	37577.36
650.763	37594.76
651.115	38051.47
651.467	37844.7
651.819	37874.75
652.171	37766.73
652.523	37828.88
652.875	37730.58
653.227	37627.08
653.578	38092.6
653.93	37831.59
654.282	37589.34
654.633	37699.62
654.985	37611.48
655.337	37720.18
655.688	37621.65
656.039	37708.43
656.391	37451.26
656.742	37598.83
657.094	37576.23
657.445	37779.61
657.796	37492.62
658.147	37598.6
658.498	37558.15
658.849	37594.99
659.2	37589.79
659.551	37530.58
659.902	37559.28
660.253	37534.42
660.604	37633.4
660.955	37469.34
661.306	37518.83
661.656	37447.42
662.007	37478.6
662.358	37434.31
662.708	37432.73
663.059	37578.49
663.409	37239.52
663.76	37727.64
664.11	37553.41
664.461	37408.55
664.811	37525.61
665.161	37571.26
665.511	37344.15
665.862	37418.95
666.212	37413.75
666.562	37585.72
666.912	37425.27
667.262	37470.7
667.612	37337.82
667.962	37419.4
668.312	37282.9
668.662	37457.59
669.011	37250.81
669.361	37318.16
669.711	37282.9
670.06	37273.19
670.41	37218.27
670.76	37231.15
671.109	37270.47
671.459	37220.53
671.808	37268.89
672.157	37274.09
672.507	37081.1
672.856	37102.12
673.205	37138.27
673.554	37304.82
673.904	37167.65
674.253	37167.65
674.602	37118.16
674.951	36536.03
675.3	36440.89
675.649	37188.67
675.998	37024.38
676.346	37100.08
676.695	37150.25
677.044	36921.11
677.393	37065.51
677.741	36957.94
678.09	36925.17
678.438	36793.43
678.787	36996.13
679.135	36860.54
679.484	36753.2
679.832	36849.24
680.181	36683.15
680.529	36664.84
680.877	36586.88
681.225	36516.6
681.573	36725.4
681.922	36553.66
682.27	36487.22
682.618	36433.66
682.966	36346.66
683.314	36351.18
683.661	36280.9
684.009	36106.44
684.357	36065.08
684.705	36075.7
685.053	36058.08
685.4	36003.84
685.748	35950.28
686.095	35718.43
686.443	35664.87
686.79	35713.45
687.138	35763.62
687.485	35651.53
687.832	35554.59
688.18	35679.78
688.527	35494.48
688.874	35483.63
689.221	35327.02
689.568	35334.48
689.915	35355.5
690.262	35229.17
690.609	34972.68
690.956	34965
691.303	34977.65
691.65	34875.28
691.997	34832.57
692.344	34692.46
692.69	34671.22
693.037	34741.95
693.383	34301.74
693.73	34466.25
694.077	34266.71
694.423	34270.78
694.769	34268.07
695.116	34056.32
695.462	34076.21
695.808	33905.82
696.155	33891.81
696.501	33642.55
696.847	33750.79
697.193	33478.94
697.539	33701.98
697.885	33356.23
698.231	33297.02
698.577	33252.05
698.923	33297.47
699.269	33090.02
699.614	32925.28
699.96	32846.64
700.306	32900.19
700.651	32678.28
700.997	32618.62
701.342	32651.16
701.688	32603.25
702.033	32478.96
702.379	32456.36
702.724	32323.94
703.069	32429.7
703.415	32116.94
703.76	32082.81
704.105	32171.17
704.45	32027.67
704.795	31875.14
705.14	31813.22
705.485	31822.93
705.83	31639.66
706.175	31631.98
706.52	31498.42
706.865	31582.04
707.209	31322.61
707.554	31214.81
707.899	31438.76
708.243	31233.8
708.588	31167.36
708.932	30954.71
709.277	30998.1
709.621	30980.02
709.966	30719.69
710.31	30816.41
710.654	30542.52
710.998	30577.77
711.342	30529.18
711.687	30544.32
712.031	30443.31
712.375	30285.12
712.719	30353.59
713.063	30271.34
713.407	30355.4
713.75	30157.44
714.094	30162.87
714.438	30087.16
714.782	30126.03
715.125	29958.8
715.469	29883.55
715.812	29774.85
716.156	29652.14
716.499	29687.85
716.843	29648.75
717.186	29602.65
717.53	29620.05
717.873	29517.46
718.216	29616.44
718.559	29413.51
718.902	29198.6
719.246	29402.21
719.589	29133.97
719.932	29146.39
720.275	29093.51
720.617	29112.72
720.96	28905.72
721.303	29044.7
721.646	28974.2
721.989	28858.27
722.331	28952.28
722.674	28731.72
723.016	28627.76
723.359	28829.57
723.701	28738.5
724.044	28575.11
724.386	28487.43
724.729	28470.93
725.071	28550.7
725.413	28453.76
725.755	28316.36
726.097	28336.47
726.439	28147.32
726.782	28254.21
727.124	28344.38
727.465	28175.35
727.807	28110.94
728.149	27945.52
728.491	27993.66
728.833	28076.59
729.175	27890.16
729.516	27880.89
729.858	27800.22
730.199	27971.96
730.541	27844.73
730.882	27682.7
731.224	27825.3
731.565	27681.8
731.906	27632.76
732.248	27570.39
732.589	27465.53
732.93	27392.09
733.271	27414.91
733.612	27444.29
733.953	27404.97
734.294	27278.65
734.635	27331.98
734.976	27339.44
735.317	27185.32
735.658	27163.85
735.999	27271.19
736.339	27148.26
736.68	27106.9
737.021	26969.95
737.361	26925.21
737.702	27135.15
738.042	26949.39
738.383	26950.75
738.723	26933.35
739.063	26767.93
739.404	26816.29
739.744	26695.39
740.084	26689.74
740.424	26747.59
740.764	26567.48
741.104	26529.06
741.444	26390.99
741.784	26362.97
742.124	26466.47
742.464	26252.46
742.804	26347.6
743.143	26352.8
743.483	26361.38
743.823	26204.1
744.162	26166.59
744.502	26277.54
744.841	26058.79
745.181	26075.51
745.52	26012.24
745.86	26070.09
746.199	26009.53
746.538	26029.87
746.877	26102.18
747.216	25951.68
747.556	25800.49
747.895	25847.05
748.234	25628.3
748.573	25728.86
748.911	25680.72
749.25	25576.55
749.589	25473.95
749.928	25573.83
750.267	25541.52
750.605	25397.11
750.944	25369.32
751.283	25270.56
751.621	25342.2
751.96	25261.07
752.298	25180.17
752.636	25140.4
752.975	25145.6
753.313	25035.77
753.651	25205.26
753.989	24966.17
754.327	24908.77
754.666	24762.33
755.004	24839.39
755.342	24797.36
755.679	24753.97
756.017	24546.52
756.355	24683.24
756.693	24608.89
757.031	24599.17
757.368	24438.95
757.706	24405.05
758.044	24274.66
758.381	24350.36
758.719	24196.24
759.056	24322.79
759.394	24226.98
759.731	23950.6
