Data from hue_240_FLMS001491_00054.txt Node
Date: Tue Feb 07 16:35:40 GMT 2017
User: dcchb
Spectrometer: FLMS00149
Trigger mode: 0
Integration Time (sec): 2.000000E-2
Scans to average: 10
Electric dark correction enabled: true
Nonlinearity correction enabled: false
Boxcar width: 0
XAxis mode: Wavelengths
Number of Pixels in Spectrum: 2048
>>>>>Begin Spectral Data<<<<<
341.393	-4.49
341.776	-4.49
342.16	-4.49
342.543	-69.57
342.927	-68.9
343.31	-91.04
343.693	-77.03
344.077	-79.74
344.46	-66.18
344.843	-55.79
345.226	-42.23
345.61	-16.47
345.993	3.87
346.376	-6.53
346.759	3.64
347.142	18.78
347.525	47.71
347.908	68.95
348.291	81.16
348.674	88.61
349.057	122.28
349.44	134.71
349.823	138.33
350.206	160.02
350.588	187.59
350.971	217.2
351.354	203.19
351.737	233.69
352.119	247.25
352.502	261.49
352.884	275.95
353.267	271.89
353.65	298.1
354.032	276.41
354.414	298.1
354.797	303.98
355.179	314.6
355.562	304.43
355.944	331.54
356.326	316.86
356.709	323.41
357.091	318.66
357.473	336.06
357.855	335.84
358.238	305.33
358.62	318.66
359.002	331.09
359.384	333.13
359.766	328.16
360.148	339.23
360.53	324.99
360.912	325.22
361.294	320.47
361.676	310.53
362.057	324.31
362.439	314.37
362.821	316.18
363.203	330.19
363.584	323.64
363.966	327.93
364.348	316.63
364.729	322.05
365.111	314.82
365.493	306.46
365.874	318.21
366.256	308.72
366.637	317.31
367.019	301.49
367.4	307.82
367.781	320.92
368.163	301.72
368.544	307.14
368.925	283.64
369.306	320.47
369.688	293.81
370.069	293.13
370.45	315.73
370.831	302.39
371.212	311.88
371.593	313.92
371.974	315.05
372.355	309.85
372.736	302.17
373.117	307.82
373.498	297.2
373.879	332.22
374.26	310.53
374.641	300.13
375.021	322.51
375.402	306.23
375.783	335.16
376.163	312.56
376.544	320.47
376.925	332.22
377.305	291.55
377.686	309.17
378.066	325.44
378.447	337.87
378.827	322.73
379.208	314.82
379.588	307.82
379.968	324.31
380.349	324.77
380.729	329.06
381.109	304.88
381.489	326.57
381.87	330.64
382.25	309.62
382.63	317.53
383.01	335.84
383.39	327.7
383.77	344.43
384.15	336.29
384.53	344.2
384.91	339.91
385.29	343.52
385.67	338.55
386.049	348.27
386.429	352.34
386.809	340.81
387.189	356.86
387.568	334.48
387.948	352.56
388.328	351.21
388.707	342.84
389.087	338.78
389.466	344.2
389.846	367.25
390.225	356.63
390.605	338.55
390.984	352.34
391.363	375.16
391.743	362.28
392.122	364.76
392.501	381.26
392.881	361.15
393.26	371.32
393.639	364.54
394.018	363.41
394.397	360.24
394.776	366.12
395.155	360.47
395.534	374.93
395.913	381.49
396.292	382.17
396.671	369.74
397.05	392.79
397.429	373.35
397.808	392.33
398.186	388.94
398.565	402.28
398.944	397.76
399.323	390.75
399.701	410.19
400.08	388.72
400.458	408.61
400.837	375.16
401.215	395.5
401.594	396.4
401.972	388.04
402.351	435.95
402.729	420.81
403.107	423.52
403.486	417.19
403.864	408.15
404.242	421.03
404.62	436.4
404.999	448.83
405.377	428.27
405.755	439.34
406.133	457.19
406.511	451.09
406.889	452.22
407.267	467.59
407.645	457.19
408.023	458.32
408.401	459
408.779	456.97
409.156	467.36
409.534	477.98
409.912	484.76
410.29	507.59
410.667	503.52
411.045	508.26
411.422	498.55
411.8	502.61
412.178	490.64
412.555	527.47
412.933	515.27
413.31	519.11
413.687	529.96
414.065	539.68
414.442	546
414.819	550.97
415.197	548.71
415.574	568.83
415.951	564.53
416.328	593.01
416.705	561.6
417.082	588.04
417.46	595.49
417.837	600.46
418.214	595.72
418.591	614.93
418.967	614.7
419.344	622.61
419.721	614.93
420.098	614.93
420.475	645.66
420.852	662.84
421.228	678.2
421.605	662.84
421.982	669.39
422.358	683.63
422.735	672.1
423.111	688.37
423.488	715.72
423.864	719.56
424.241	706.68
424.617	723.85
424.994	737.41
425.37	737.86
425.746	748.03
426.123	771.31
426.499	765.43
426.875	771.76
427.251	783.28
427.627	804.98
428.003	811.53
428.379	819.89
428.756	796.17
429.132	839.1
429.507	830.06
429.883	848.59
430.259	825.32
430.635	862.15
431.011	857.41
431.387	904.64
431.763	892.43
432.138	914.58
432.514	933.34
432.89	930.85
433.265	937.4
433.641	969.27
434.016	965.88
434.392	975.14
434.767	967.46
435.143	1017.85
435.518	1017.4
435.894	1019.66
436.269	1043.84
436.644	1068.7
437.02	1051.75
437.395	1071.86
437.77	1112.77
438.145	1140.11
438.52	1137.17
438.895	1155.93
439.271	1143.95
439.646	1188.25
440.021	1178.98
440.395	1168.36
440.77	1194.57
441.145	1207
441.52	1225.31
441.895	1231.63
442.27	1237.06
442.645	1244.29
443.019	1243.61
443.394	1288.36
443.769	1299.43
444.143	1283.61
444.518	1332.87
444.892	1308.02
445.267	1295.59
445.641	1337.62
446.016	1326.1
446.39	1357.28
446.764	1359.09
447.139	1363.16
447.513	1363.61
447.887	1406.32
448.262	1377.39
448.636	1402.25
449.01	1416.26
449.384	1454.68
449.758	1416.26
450.132	1437.5
450.506	1464.85
450.88	1470.05
451.254	1483.83
451.628	1526.32
452.002	1511.63
452.376	1503.72
452.75	1544.39
453.123	1545.52
453.497	1570.16
453.871	1563.38
454.244	1605.64
454.618	1613.09
454.992	1623.04
455.365	1632.75
455.739	1634.56
456.112	1665.52
456.486	1660.1
456.859	1698.97
457.232	1724.05
457.606	1685.18
457.979	1760.21
458.352	1778.74
458.725	1785.74
459.099	1795.91
459.472	1819.64
459.845	1872.3
460.218	1850.6
460.591	1881.79
460.964	1856.48
461.337	1922.01
461.71	1953.2
462.083	1988.9
462.456	1983.93
462.829	1991.61
463.201	2005.17
463.574	2029.13
463.947	2051.05
464.32	2100.54
464.692	2085.85
465.065	2099.86
465.438	2136.92
465.81	2216.02
466.183	2200.2
466.555	2212.63
466.928	2228.22
467.3	2251.95
467.672	2271.15
468.045	2324.03
468.417	2310.25
468.789	2322.68
469.161	2355.9
469.534	2393.41
469.906	2437.7
470.278	2442.22
470.65	2460.3
471.022	2487.42
471.394	2562.9
471.766	2607.19
472.138	2598.38
472.51	2662.78
472.882	2692.84
473.253	2720.63
473.625	2775.55
473.997	2783.46
474.369	2790.24
474.74	2841.08
475.112	2887.41
475.484	2932.83
475.855	2946.39
476.227	2985.49
476.598	3060.51
476.97	3042.43
477.341	3147.97
477.713	3144.13
478.084	3212.15
478.455	3261.64
478.827	3278.36
479.198	3388.19
479.569	3372.37
479.94	3490.33
480.311	3477
480.682	3543.66
481.053	3597.22
481.424	3647.39
481.795	3674.51
482.166	3731
482.537	3749.31
482.908	3844.22
483.279	3850.55
483.65	3927.16
484.021	3990.21
484.391	4034.95
484.762	4034.72
485.133	4085.8
485.503	4126.93
485.874	4197.21
486.244	4229.07
486.615	4322.17
486.985	4328.73
487.356	4421.15
487.726	4423.19
488.097	4497.31
488.467	4511.55
488.837	4617.08
489.207	4613.69
489.578	4709.28
489.948	4729.4
490.318	4787.92
490.688	4806.68
491.058	4876.28
491.428	4915.61
491.798	4963.06
492.168	5033.34
492.538	5085.77
492.908	5143.62
493.278	5218.87
493.648	5196.28
494.017	5251.87
494.387	5260.23
494.757	5291.87
495.126	5328.02
495.496	5340.68
495.866	5407.8
496.235	5465.42
496.605	5476.72
496.974	5513.78
497.344	5544.29
497.713	5561.46
498.082	5599.88
498.452	5631.07
498.821	5615.25
499.19	5637.62
499.559	5747.22
499.928	5727.11
500.298	5739.54
500.667	5802.81
501.036	5776.15
501.405	5871.96
501.774	5786.54
502.143	5864.28
502.512	5894.56
502.88	5914.45
503.249	5956.48
503.618	5969.81
503.987	5978.63
504.356	6059.3
504.724	6027.21
505.093	6017.95
505.462	6048.68
505.83	6057.72
506.199	6073.99
506.567	6181.33
506.936	6175.01
507.304	6246.64
507.672	6255.46
508.041	6211.84
508.409	6273.31
508.777	6297.49
509.145	6348.34
509.514	6324.61
509.882	6353.08
510.25	6360.31
510.618	6385.62
510.986	6419.97
511.354	6454.32
511.722	6492.51
512.09	6506.75
512.458	6569.35
512.826	6598.05
513.193	6527.54
513.561	6544.49
513.929	6585.17
514.297	6651.38
514.664	6654.32
515.032	6613.64
515.4	6675.33
515.767	6727.76
516.135	6704.03
516.502	6634.66
516.869	6753.97
517.237	6726.86
517.604	6704.48
517.972	6752.17
518.339	6822.45
518.706	6742.22
519.073	6829.45
519.44	6846.18
519.808	6836.01
520.175	6864.25
520.542	6878.94
520.909	6882.11
521.276	6871.03
521.643	6965.49
522.009	6991.03
522.376	6933.41
522.743	6970.92
523.11	6971.82
523.477	7018.37
523.843	7033.97
524.21	7104.25
524.577	7146.73
524.943	7158.03
525.31	7175.88
525.676	7138.82
526.043	7164.36
526.409	7213.85
526.776	7261.31
527.142	7276.9
527.508	7278.48
527.874	7203
528.241	7246.17
528.607	7288.88
528.973	7309.44
529.339	7309.44
529.705	7333.62
530.071	7362.77
530.437	7377.69
530.803	7415.65
531.169	7411.36
531.535	7364.58
531.901	7353.51
532.267	7397.57
532.632	7376.33
532.998	7425.82
533.364	7457.46
533.73	7413.62
534.095	7469.89
534.461	7398.48
534.826	7461.3
535.192	7417.91
535.557	7492.03
535.923	7447.29
536.288	7430.57
536.653	7417.46
537.019	7446.16
537.384	7430.57
537.749	7446.84
538.114	7396.67
538.479	7389.44
538.845	7414.52
539.21	7450.68
539.575	7365.94
539.94	7427.18
540.305	7463.79
540.67	7403
541.034	7414.3
541.399	7441.19
541.764	7391.47
542.129	7405.48
542.494	7415.43
542.858	7428.99
543.223	7396.67
543.587	7462.2
543.952	7378.14
544.316	7421.08
544.681	7312.6
545.045	7363.9
545.41	7421.53
545.774	7401.19
546.138	7396.44
546.503	7360.96
546.867	7341.76
547.231	7391.92
547.595	7376.33
547.959	7304.02
548.324	7339.27
548.688	7371.81
549.052	7344.92
549.416	7344.69
549.779	7330.91
550.143	7301.98
550.507	7361.87
550.871	7376.33
551.235	7256.33
551.599	7317.8
551.962	7292.04
552.326	7352.38
552.689	7388.08
553.053	7308.31
553.417	7235.32
553.78	7438.25
554.143	7346.05
554.507	7379.5
554.87	7299.72
555.234	7467.18
555.597	7370.91
555.96	7351.25
556.323	7383.79
556.686	7388.99
557.05	7368.87
557.413	7445.93
557.776	7429.89
558.139	7434.18
558.502	7407.97
558.865	7408.65
559.228	7481.19
559.59	7529.77
559.953	7477.35
560.316	7526.16
560.679	7533.84
561.041	7617.23
561.404	7550.34
561.767	7556.21
562.129	7513.95
562.492	7578.81
562.854	7544.69
563.217	7612.26
563.579	7646.15
563.941	7690.9
564.304	7677.11
564.666	7698.58
565.028	7668.3
565.39	7765.25
565.753	7765.7
566.115	7785.13
566.477	7800.73
566.839	7845.02
567.201	7867.17
567.563	7823.55
567.925	7915.98
568.287	7937.45
568.648	7871.23
569.01	7870.56
569.372	7905.36
569.734	7892.25
570.095	7982.64
570.457	7966.6
570.819	7998.01
571.18	8038.69
571.542	8092.7
571.903	8056.31
572.265	8099.25
572.626	8080.04
572.987	8088.63
573.349	8170.43
573.71	8172.47
574.071	8191
574.432	8251.56
574.794	8258.34
575.155	8289.08
575.516	8192.36
575.877	8312.35
576.238	8266.03
576.599	8373.14
576.96	8346.93
577.32	8365.68
577.681	8350.09
578.042	8386.47
578.403	8400.26
578.763	8353.48
579.124	8413.59
579.485	8442.97
579.845	8469.64
580.206	8448.39
580.566	8463.76
580.927	8474.38
581.287	8493.82
581.648	8502.4
582.008	8513.7
582.368	8570.65
582.728	8593.02
583.089	8564.55
583.449	8540.59
583.809	8613.59
584.169	8597.54
584.529	8583.98
584.889	8637.54
585.249	8565.68
585.609	8530.2
585.969	8668.27
586.329	8655.62
586.688	8688.61
587.048	8597.54
587.408	8629.86
587.768	8646.81
588.127	8680.25
588.487	8666.69
588.846	8737.88
589.206	8637.54
589.565	8704.43
589.925	8761.15
590.284	8714.6
590.643	8703.98
591.003	8773.58
591.362	8795.73
591.721	8766.8
592.08	8820.81
592.44	8795.96
592.799	8799.12
593.158	8787.59
593.517	8784.66
593.876	8795.05
594.235	8865.56
594.593	8781.72
594.952	8863.07
595.311	8793.24
595.67	8854.94
596.029	8946.01
596.387	8869.4
596.746	8965.22
597.104	8863.07
597.463	8887.48
597.822	8945.33
598.18	8916.86
598.538	8871.89
598.897	9016.29
599.255	8834.15
599.613	9009.73
599.972	8976.06
600.33	8927.25
600.688	9017.19
601.046	9016.29
601.404	9010.19
601.762	8996.63
602.12	8990.98
602.478	8989.17
602.836	9029.85
603.194	9013.8
603.552	8967.25
603.91	8950.3
604.268	8986.91
604.625	8960.47
604.983	9019
605.341	9081.15
605.698	9062.61
606.056	9078.43
606.413	9027.14
606.771	9072.11
607.128	9077.98
607.485	9079.79
607.843	9071.2
608.2	9198.66
608.557	9104.42
608.914	9045.44
609.272	9125.21
609.629	9114.82
609.986	9153.91
610.343	9070.98
610.7	9249.95
611.057	9210.63
611.414	9145.1
611.771	9233.91
612.127	9174.02
612.484	9164.76
612.841	9261.48
613.198	9208.83
613.554	9211.76
613.911	9287.47
614.267	9243.18
614.624	9223.06
614.98	9209.05
615.337	9331.76
615.693	9213.12
616.05	9293.12
616.406	9341.25
616.762	9284.98
617.118	9306.45
617.475	9270.07
617.831	9334.25
618.187	9286.34
618.543	9336.51
618.899	9320.91
619.255	9322.49
619.611	9352.1
619.967	9342.83
620.323	9359.78
620.678	9336.51
621.034	9353.68
621.39	9316.17
621.746	9436.16
622.101	9408.37
622.457	9287.24
622.812	9393.68
623.168	9387.58
623.523	9359.56
623.879	9376.73
624.234	9405.2
624.589	9421.02
624.945	9379.67
625.3	9398.65
625.655	9374.02
626.01	9421.7
626.365	9381.25
626.72	9400.91
627.075	9349.16
627.43	9390.97
627.785	9306.45
628.14	9325.88
628.495	9375.6
628.85	9247.92
629.205	9257.19
629.559	9382.38
629.914	9375.37
630.269	9361.36
630.623	9305.32
630.978	9240.24
631.332	9373.12
631.687	9280.24
632.041	9230.29
632.396	9305.77
632.75	9256.28
633.104	9247.24
633.459	9196.85
633.813	9273.68
634.167	9267.58
634.521	9197.98
634.875	9295.6
635.229	9195.27
635.583	9160.24
635.937	9199.79
636.291	9158.43
636.645	9139.22
636.999	9174.7
637.352	9073.46
637.706	9085.67
638.06	9090.41
638.413	9064.65
638.767	9090.18
639.121	9181.48
639.474	9084.08
639.828	9062.61
640.181	9069.85
640.534	9103.29
640.888	9020.36
641.241	9005.22
641.594	8994.59
641.947	9025.1
642.301	8979.68
642.654	9022.16
643.007	8965.89
643.36	9011.32
643.713	8985.78
644.066	8976.52
644.419	8899.68
644.771	8858.1
645.124	8753.92
645.477	8731.55
645.83	8711.21
646.182	8699.46
646.535	8635.96
646.888	8629.41
647.24	8616.98
647.593	8693.36
647.945	8696.52
648.298	8605
648.65	8603.64
649.002	8555.96
649.355	8648.84
649.707	8634.38
650.059	8607.71
650.411	8715.51
650.763	8720.48
651.115	8866.91
651.467	8808.84
651.819	8781.27
652.171	8830.3
652.523	8687.26
652.875	8729.29
653.227	8743.08
653.578	8744.43
653.93	8764.54
654.282	8698.56
654.633	8687.03
654.985	8765
655.337	8746.69
655.688	8718.9
656.039	8754.6
656.391	8710.76
656.742	8690.65
657.094	8697.43
657.445	8720.02
657.796	8791.21
658.147	8722.06
658.498	8738.78
658.849	8767.71
659.2	8683.64
659.551	8717.54
659.902	8763.87
660.253	8720.02
660.604	8773.36
660.955	8764.32
661.306	8797.09
661.656	8780.14
662.007	8760.48
662.358	8757.99
662.708	8727.26
663.059	8755.5
663.409	8717.54
663.76	8794.15
664.11	8756.86
664.461	8773.58
664.811	8733.36
665.161	8763.64
665.511	8722.06
665.862	8765.45
666.212	8750.08
666.562	8695.17
666.912	8735.39
667.262	8749.4
667.612	8683.64
667.962	8717.09
668.312	8641.61
668.662	8760.7
669.011	8780.81
669.361	8713.7
669.711	8671.89
670.06	8737.88
670.41	8712.34
670.76	8675.73
671.109	8708.5
671.459	8657.65
671.808	8663.08
672.157	8687.48
672.507	8641.16
672.856	8597.54
673.205	8682.51
673.554	8658.11
673.904	8666.69
674.253	8627.15
674.602	8616.75
674.951	8537.2
675.3	8486.13
675.649	8630.76
675.998	8547.15
676.346	8623.08
676.695	8611.55
677.044	8574.72
677.393	8539.01
677.741	8549.18
678.09	8544.66
678.438	8520.48
678.787	8563.19
679.135	8509.86
679.484	8464.66
679.832	8462.63
680.181	8473.93
680.529	8462.86
680.877	8401.39
681.225	8415.17
681.573	8489.97
681.922	8445
682.27	8383.54
682.618	8440.48
682.966	8394.61
683.314	8326.81
683.661	8335.4
684.009	8280.26
684.357	8290.88
684.705	8298.79
685.053	8317.32
685.4	8306.93
685.748	8207.27
686.095	8225.57
686.443	8220.15
686.79	8157.33
687.138	8194.62
687.485	8214.05
687.832	8144.9
688.18	8160.94
688.527	8134.05
688.874	8131.11
689.221	8042.53
689.568	8081.62
689.915	8025.35
690.262	7998.91
690.609	8008.86
690.956	7991.23
691.303	7907.16
691.65	7986.03
691.997	7919.37
692.344	7839.6
692.69	7831.91
693.037	7913.04
693.383	7812.25
693.73	7813.38
694.077	7762.76
694.423	7772.93
694.769	7672.59
695.116	7710.56
695.462	7658.58
695.808	7607.96
696.155	7643.9
696.501	7575.42
696.847	7605.93
697.193	7512.83
697.539	7583.33
697.885	7490.9
698.231	7417.46
698.577	7469.21
698.923	7435.09
699.269	7406.39
699.614	7384.92
699.96	7369.78
700.306	7346.05
700.651	7359.61
700.997	7254.53
701.342	7337.01
701.688	7248.2
702.033	7226.28
702.379	7231.93
702.724	7199.39
703.069	7216.79
703.415	7111.03
703.76	7121.2
704.105	7088.43
704.45	7080.07
704.795	7082.1
705.14	7016.79
705.485	7044.81
705.83	7018.83
706.175	7039.84
706.52	6961.2
706.865	6962.56
707.209	6974.31
707.554	6928.21
707.899	6953.97
708.243	6883.69
708.588	6885.5
708.932	6794.2
709.277	6858.15
709.621	6850.47
709.966	6741.55
710.31	6769.79
710.654	6739.06
710.998	6707.2
711.342	6716.46
711.687	6727.31
712.031	6662
712.375	6677.82
712.719	6706.29
713.063	6686.63
713.407	6697.93
713.75	6660.87
714.094	6652.28
714.438	6613.64
714.782	6625.62
715.125	6604.37
715.469	6605.28
715.812	6555.79
716.156	6520.08
716.499	6546.75
716.843	6557.6
717.186	6474.43
717.53	6497.03
717.873	6486.19
718.216	6519.63
718.559	6497.71
718.902	6465.17
719.246	6480.08
719.589	6371.61
719.932	6416.13
720.275	6441.44
720.617	6443.7
720.96	6337.49
721.303	6397.6
721.646	6403.25
721.989	6383.59
722.331	6399.63
722.674	6361.22
723.016	6389.92
723.359	6351.5
723.701	6405.74
724.044	6302.69
724.386	6297.49
724.729	6368
725.071	6315.12
725.413	6318.73
725.755	6368.9
726.097	6257.04
726.439	6281.45
726.782	6290.03
727.124	6316.02
727.465	6296.81
727.807	6212.29
728.149	6294.55
728.491	6247.32
728.833	6277.6
729.175	6210.03
729.516	6236.02
729.858	6205.06
730.199	6196.7
730.541	6244.61
730.882	6161.22
731.224	6218.62
731.565	6202.58
731.906	6229.02
732.248	6201.45
732.589	6208.23
732.93	6143.37
733.271	6131.62
733.612	6211.84
733.953	6190.15
734.294	6188.79
734.635	6191.5
734.976	6195.35
735.317	6130.71
735.658	6195.12
735.999	6112.41
736.339	6168.91
736.68	6166.42
737.021	6220.2
737.361	6215.01
737.702	6224.05
738.042	6165.06
738.383	6236.93
738.723	6188.34
739.063	6107.21
739.404	6209.81
739.744	6231.05
740.084	6182.92
740.424	6204.16
740.764	6245.29
741.104	6211.16
741.444	6139.53
741.784	6200.54
742.124	6249.58
742.464	6184.72
742.804	6209.13
743.143	6226.98
743.483	6217.72
743.823	6268.34
744.162	6218.17
744.502	6311.73
744.841	6298.85
745.181	6330.71
745.52	6318.73
745.86	6315.34
746.199	6358.05
746.538	6389.24
746.877	6432.18
747.216	6462.23
747.556	6500.65
747.895	6492.51
748.234	6500.2
748.573	6531.38
748.911	6537.03
749.25	6561.44
749.589	6575.9
749.928	6632.85
750.267	6718.72
750.605	6721.89
750.944	6753.07
751.283	6749
751.621	6834.2
751.96	6860.19
752.298	6883.46
752.636	6957.81
752.975	7021.76
753.313	7017.24
753.651	7098.15
753.989	7139.5
754.327	7202.1
754.666	7287.07
755.004	7385.6
755.342	7481.87
755.679	7491.13
756.017	7585.59
756.355	7648.64
756.693	7665.82
757.031	7836.66
757.368	7870.33
757.706	7866.71
758.044	7970.67
758.381	8136.09
758.719	8184.9
759.056	8309.87
759.394	8336.31
759.731	8355.51
760.068	8543.98
760.405	8519.58
760.743	8655.85
761.08	8786.69
761.417	8776.75
761.754	8981.71
762.091	9002.5
762.428	9047.93
762.765	9189.62
763.102	9389.61
763.438	9391.87
763.775	9426.9
764.112	9586.67
764.449	9686.1
764.785	9776.04
765.122	9812.65
765.458	9880.45
765.795	9968.81
766.131	10029.82
766.467	10138.97
766.804	10208.35
767.14	10227.56
767.476	10332.19
767.812	10293.54
768.148	10465.29
768.485	10509.81
768.821	10582.57
769.157	10635
769.492	10710.26
769.828	10799.52
