Data from hue_30_FLMS001491_100.txt Node
Date: Mon Feb 06 15:06:26 GMT 2017
User: dcchb
Spectrometer: FLMS00149
Trigger mode: 0
Integration Time (sec): 2.000000E-2
Scans to average: 10
Electric dark correction enabled: true
Nonlinearity correction enabled: false
Boxcar width: 0
XAxis mode: Wavelengths
Number of Pixels in Spectrum: 2048
>>>>>Begin Spectral Data<<<<<
341.393	-18.56
341.776	-18.56
342.16	-18.56
342.543	-59.46
342.927	-79.35
343.31	-74.15
343.693	-74.83
344.077	-91.55
344.46	-58.78
344.843	-35.73
345.226	-54.04
345.61	-28.05
345.993	-21.04
346.376	-11.55
346.759	34.77
347.142	44.94
347.525	45.39
347.908	56.69
348.291	77.26
348.674	81.33
349.057	109.35
349.44	136.24
349.823	140.08
350.206	159.97
350.588	177.37
350.971	191.83
351.354	205.39
351.737	215.56
352.119	232.73
352.502	256.24
352.884	268.89
353.267	275.9
353.65	285.16
354.032	302.34
354.414	296.24
354.797	314.09
355.179	315.44
355.562	318.16
355.944	336.23
356.326	320.64
356.709	314.77
357.091	321.55
357.473	326.97
357.855	336.46
358.238	333.97
358.62	339.4
359.002	347.99
359.384	333.3
359.766	326.52
360.148	349.12
360.53	337.36
360.912	324.26
361.294	339.85
361.676	345.05
362.057	317.25
362.439	343.47
362.821	324.03
363.203	331.26
363.584	306.86
363.966	329.68
364.348	324.93
364.729	319.74
365.111	314.77
365.493	306.63
365.874	295.11
366.256	313.18
366.637	313.41
367.019	320.64
367.4	312.96
367.781	305.73
368.163	298.49
368.544	309.34
368.925	310.47
369.306	306.4
369.688	314.31
370.069	313.64
370.45	305.73
370.831	300.53
371.212	312.51
371.593	311.83
371.974	308.21
372.355	309.34
372.736	319.96
373.117	325.16
373.498	296.46
373.879	300.75
374.26	313.41
374.641	303.92
375.021	325.39
375.402	298.49
375.783	327.87
376.163	315.44
376.544	316.8
376.925	340.3
377.305	325.16
377.686	339.62
378.066	320.87
378.447	329
378.827	317.93
379.208	320.64
379.588	336.01
379.968	345.5
380.349	351.6
380.729	331.26
381.109	324.48
381.489	336.01
381.87	334.2
382.25	325.61
382.63	328.55
383.01	334.2
383.39	316.12
383.77	325.84
384.15	320.87
384.53	327.19
384.91	314.77
385.29	341.88
385.67	360.87
386.049	337.82
386.429	359.28
386.809	364.48
387.189	341.66
387.568	350.47
387.948	346.86
388.328	331.26
388.707	349.57
389.087	338.27
389.466	343.69
389.846	346.86
390.225	339.17
390.605	360.41
390.984	366.74
391.363	370.58
391.743	368.32
392.122	354.31
392.501	365.84
392.881	355.44
393.26	362.22
393.639	343.69
394.018	373.07
394.397	387.31
394.776	368.1
395.155	378.72
395.534	375.33
395.913	359.06
396.292	376.01
396.671	374.2
397.05	380.98
397.429	385.95
397.808	384.82
398.186	391.37
398.565	376.91
398.944	387.76
399.323	382.79
399.701	391.15
400.08	398.83
400.458	375.33
400.837	404.25
401.215	375.78
401.594	367.65
401.972	399.51
402.351	390.47
402.729	378.94
403.107	418.49
403.486	406.97
403.864	399.74
404.242	394.99
404.62	407.64
404.999	392.96
405.377	413.29
405.755	368.32
406.133	411.03
406.511	407.64
406.889	400.41
407.267	391.15
407.645	413.97
408.023	411.49
408.401	422.79
408.779	417.36
409.156	416.68
409.534	423.01
409.912	410.81
410.29	414.2
410.667	421.43
411.045	430.24
411.422	441.09
411.8	425.05
412.178	425.72
412.555	436.12
412.933	454.88
413.31	443.35
413.687	465.27
414.065	462.78
414.442	436.57
414.819	453.97
415.197	433.86
415.574	451.03
415.951	482.22
416.328	458.04
416.705	462.78
417.082	485.16
417.46	460.3
417.837	470.24
418.214	479.73
418.591	505.04
418.967	483.8
419.344	482.22
419.721	478.38
420.098	487.64
420.475	489.9
420.852	477.25
421.228	496.68
421.605	499.39
421.982	515.44
422.358	497.81
422.735	530.58
423.111	513.4
423.488	516.12
423.864	524.7
424.241	514.08
424.617	530.35
424.994	524.7
425.37	532.61
425.746	521.09
426.123	526.74
426.499	527.87
426.875	535.1
427.251	537.36
427.627	543.01
428.003	560.41
428.379	549.34
428.756	550.92
429.132	573.29
429.507	550.01
429.883	560.41
430.259	557.47
430.635	591.37
431.011	576.68
431.387	585.49
431.763	614.42
432.138	581.65
432.514	592.27
432.89	626.17
433.265	621.88
433.641	614.64
434.016	613.51
434.392	646.96
434.767	632.95
435.143	608.77
435.518	607.64
435.894	638.83
436.269	634.08
436.644	657.36
437.02	638.37
437.395	658.71
437.77	670.01
438.145	686.06
438.52	668.43
438.895	669.11
439.271	677.92
439.646	692.38
440.021	687.86
440.395	685.6
440.77	685.6
441.145	697.81
441.52	715.89
441.895	679.95
442.27	697.81
442.645	707.52
443.019	703.91
443.394	709.78
443.769	717.24
444.143	712.72
444.518	728.54
444.892	718.14
445.267	740.74
445.641	716.56
446.016	732.61
446.39	741.42
446.764	748.65
447.139	732.61
447.513	751.59
447.887	755.66
448.262	756.34
448.636	748.43
449.01	758.82
449.384	782.78
449.758	754.3
450.132	787.52
450.506	778.26
450.88	787.97
451.254	802.21
451.628	808.76
452.002	797.01
452.376	813.74
452.75	834.07
453.123	822.55
453.497	823.45
453.871	836.33
454.244	854.19
454.618	838.59
454.992	866.39
455.365	851.93
455.739	870.23
456.112	876.11
456.486	888.76
456.859	900.29
457.232	883.56
457.606	914.98
457.979	889.89
458.352	921.3
458.725	929.21
459.099	944.81
459.472	949.78
459.845	939.83
460.218	1001.08
460.591	989.1
460.964	976.22
461.337	1018.48
461.71	1004.01
462.083	1030.91
462.456	1024.13
462.829	1028.87
463.201	1030.23
463.574	1061.19
463.947	1046.72
464.32	1082.66
464.692	1115.2
465.065	1079.04
465.438	1107.97
465.81	1109.55
466.183	1143.44
466.555	1156.78
466.928	1143.22
467.3	1180.73
467.672	1200.84
468.045	1194.29
468.417	1209.66
468.789	1214.4
469.161	1202.43
469.534	1254.85
469.906	1290.79
470.278	1295.76
470.65	1308.19
471.022	1336.43
471.394	1328.98
471.766	1381.63
472.138	1396.77
472.51	1435.41
472.882	1412.14
473.253	1465.02
473.625	1461.63
473.997	1490.33
474.369	1516.09
474.74	1516.32
475.112	1570.78
475.484	1569.87
475.855	1638.12
476.227	1647.39
476.598	1699.81
476.97	1689.87
477.341	1761.73
477.713	1764.45
478.084	1805.12
478.455	1860.94
478.827	1884.22
479.198	1938
479.569	1943.2
479.94	2036.75
480.311	2028.62
480.682	2054.38
481.053	2162.4
481.424	2149.97
481.795	2209.63
482.166	2245.79
482.537	2277.88
482.908	2351.1
483.279	2397.2
483.65	2426.12
484.021	2481.49
484.391	2524.88
484.762	2561.03
485.133	2622.5
485.503	2672.9
485.874	2726.23
486.244	2763.29
486.615	2832.67
486.985	2891.65
487.356	2931.42
487.726	3001.02
488.097	3064.98
488.467	3075.82
488.837	3149.72
489.207	3252.32
489.578	3284.63
489.948	3303.61
490.318	3404.4
490.688	3437.62
491.058	3521.24
491.428	3557.39
491.798	3587.67
492.168	3683.26
492.538	3751.06
492.908	3782.25
493.278	3852.98
493.648	3836.48
494.017	3939.98
494.387	3926.42
494.757	4015.01
495.126	4070.83
495.496	4092.97
495.866	4171.84
496.235	4208.9
496.605	4279.86
496.974	4321.21
497.344	4318.28
497.713	4423.36
498.082	4451.15
498.452	4482.34
498.821	4526.63
499.19	4565.95
499.559	4595.78
499.928	4648.89
500.298	4703.35
500.667	4720.07
501.036	4781.09
501.405	4792.39
501.774	4801.65
502.143	4863.57
502.512	4898.15
502.88	4973.4
503.249	4921.65
503.618	4962.33
503.987	5059.27
504.356	5112.83
504.724	5138.59
505.093	5134.07
505.462	5210.23
505.83	5211.36
506.199	5286.84
506.567	5386.04
506.936	5334.75
507.304	5465.59
507.672	5418.59
508.041	5434.18
508.409	5477.34
508.777	5539.71
509.145	5535.87
509.514	5539.71
509.882	5617.68
510.25	5653.83
510.618	5666.26
510.986	5676.21
511.354	5773.15
511.722	5870.55
512.09	5772.02
512.458	5824
512.826	5902.64
513.193	5868.07
513.561	5870.78
513.929	5925.69
514.297	5986.26
514.664	6022.86
515.032	6045.46
515.4	6065.12
515.767	6135.86
516.135	6122.3
516.502	6059.47
516.869	6151.67
517.237	6222.18
517.604	6142.18
517.972	6248.17
518.339	6280.03
518.706	6315.74
519.073	6306.47
519.44	6330.2
519.808	6364.1
520.175	6385.34
520.542	6427.15
520.909	6507.82
521.276	6507.6
521.643	6539.69
522.009	6617.2
522.376	6604.32
522.743	6687.93
523.11	6691.77
523.477	6757.08
523.843	6802.96
524.21	6852.22
524.577	6922.5
524.943	6897.42
525.31	6887.47
525.676	6987.36
526.043	7027.81
526.409	7044.76
526.776	7080.46
527.142	7087.69
527.508	7203.4
527.874	7207.01
528.241	7254.7
528.607	7284.07
528.973	7388.7
529.339	7302.6
529.705	7385.54
530.071	7489.94
530.437	7485.88
530.803	7515.71
531.169	7583.5
531.535	7541.47
531.901	7550.73
532.267	7630.96
532.632	7716.83
532.998	7714.12
533.364	7785.98
533.73	7688.58
534.095	7849.93
534.461	7900.33
534.826	7855.58
535.192	7871.18
535.557	7969.93
535.923	7966.77
536.288	8040.66
536.653	8020.33
537.019	8078.4
537.384	8073.43
537.749	8164.05
538.114	8164.28
538.479	8196.14
538.845	8225.29
539.21	8216.25
539.575	8289.92
539.94	8268
540.305	8320.2
540.67	8313.88
541.034	8396.81
541.399	8416.47
541.764	8425.74
542.129	8513.42
542.494	8502.35
542.858	8583.47
543.223	8565.17
543.587	8597.71
543.952	8667.77
544.316	8718.39
544.681	8685.17
545.045	8764.94
545.41	8851.94
545.774	8863.47
546.138	8830.47
546.503	8936.91
546.867	8896.24
547.231	8954.31
547.595	8988.44
547.959	9030.47
548.324	8984.14
548.688	9071.37
549.052	9119.28
549.416	9170.8
549.779	9132.61
550.143	9215.1
550.507	9183.91
550.871	9314.98
551.235	9206.74
551.599	9315.43
551.962	9312.5
552.326	9348.88
552.689	9436.33
553.053	9433.4
553.417	9458.03
553.78	9576.44
554.143	9440.63
554.507	9516.56
554.87	9621.19
555.234	9644.92
555.597	9663.9
555.96	9665.25
556.323	9732.15
556.686	9707.51
557.05	9855.31
557.413	9831.13
557.776	9854.85
558.139	9898.47
558.502	9962.65
558.865	9929.88
559.228	10044.23
559.59	10024.11
559.953	9972.36
560.316	10093.04
560.679	10146.37
561.041	10214.62
561.404	10183.43
561.767	10248.29
562.129	10262.3
562.492	10372.81
562.854	10292.13
563.217	10289.42
563.579	10379.81
563.941	10342.98
564.304	10410.55
564.666	10629.07
565.028	10553.59
565.39	10594.5
565.753	10619.81
566.115	10648.51
566.477	10701.16
566.839	10692.57
567.201	10794.94
567.563	10833.13
567.925	10898.22
568.287	10899.57
568.648	10928.27
569.01	10954.71
569.372	11077.65
569.734	11066.12
570.095	11031.32
570.457	11178.89
570.819	11243.97
571.18	11254.82
571.542	11275.38
571.903	11303.4
572.265	11394.02
572.626	11376.62
572.987	11492.55
573.349	11488.03
573.71	11556.5
574.071	11606.45
574.432	11678.31
574.794	11850.06
575.155	11860
575.516	11850.51
575.877	12048.02
576.238	12125.53
576.599	12187.9
576.96	12314.68
577.32	12311.96
577.681	12394.67
578.042	12518.74
578.403	12617.04
578.763	12670.6
579.124	12894.77
579.485	12923.25
579.845	13118.95
580.206	13163.47
580.566	13230.36
580.927	13367.08
581.287	13534.53
581.648	13707.18
582.008	13892.49
582.368	13994.63
582.728	14104.69
583.089	14275.75
583.449	14365.24
583.809	14562.75
584.169	14740.6
584.529	14882.52
584.889	15207.26
585.249	15348.49
585.609	15368.83
585.969	15773.34
586.329	15879.78
586.688	16004.3
587.048	16263.05
587.408	16439.99
587.768	16756.14
588.127	16980.54
588.487	17046.53
588.846	17416.46
589.206	17577.36
589.565	17789.33
589.925	18173.73
590.284	18329.89
590.643	18580.05
591.003	18833.37
591.362	19079.24
591.721	19429.29
592.08	19563.98
592.44	19964.87
592.799	20099.33
593.158	20379.1
593.517	20588.36
593.876	20839.88
594.235	21133.65
594.593	21443.02
594.952	21657.48
595.311	21893.41
595.67	22185.38
596.029	22546.5
596.387	22704.46
596.746	23104
597.104	23239.81
597.463	23363.65
597.822	23691.78
598.18	23901.26
598.538	24225.1
598.897	24607.01
599.255	24565.2
599.613	25219.65
599.972	25184.62
600.33	25482.01
600.688	25545.74
601.046	25908.67
601.404	26240.41
601.762	26449.22
602.12	26629.1
602.478	26920.85
602.836	27178.01
603.194	27192.48
603.552	27661.84
603.91	27570.77
604.268	27998.11
604.625	28084.43
604.983	28516.28
605.341	28566.68
605.698	28666.56
606.056	29105.87
606.413	29207.34
606.771	29529.59
607.128	29630.83
607.485	29678.06
607.843	29878.51
608.2	30135.45
608.557	30513.75
608.914	30541.54
609.272	30789.22
609.629	30910.8
609.986	31294.52
610.343	31301.07
610.7	31715.07
611.057	31746.26
611.414	31816.31
611.771	32090.43
612.127	32248.39
612.484	32395.05
612.841	32605.22
613.198	32429.85
613.554	32663.52
613.911	32981.03
614.267	33012.21
614.624	33200.23
614.98	33277.51
615.337	33536.94
615.693	33642.48
616.05	33676.6
616.406	33903.71
616.762	34030.26
617.118	34063.48
617.475	34110.49
617.831	34385.51
618.187	34460.31
618.543	34633.41
618.899	34935.32
619.255	34845.16
619.611	35029.79
619.967	35248.31
620.323	35355.2
620.678	35230.68
621.034	35197.46
621.39	35238.82
621.746	35317.69
622.101	35883.55
622.457	35654.85
622.812	35745.02
623.168	35834.06
623.523	35894.85
623.879	36061.85
624.234	35939.14
624.589	36085.35
624.945	36210.55
625.3	36146.59
625.655	36261.62
626.01	36332.58
626.365	36339.36
626.72	36390.2
627.075	36407.83
627.43	36540.03
627.785	36490.99
628.14	36709.29
628.495	36756.29
628.85	36560.59
629.205	36706.58
629.559	36935.72
629.914	36899.79
630.269	36840.81
630.623	36616.64
630.978	36773.92
631.332	36920.58
631.687	36942.28
632.041	36844.88
632.396	36819.57
632.75	36728.95
633.104	36966.23
633.459	36833.81
633.813	36799.46
634.167	36818.21
634.521	36833.13
634.875	36850.75
635.229	36859.57
635.583	36744.32
635.937	36813.92
636.291	36660.93
636.645	36830.19
636.999	36723.98
637.352	36847.82
637.706	36750.87
638.06	36852.34
638.413	36797.2
638.767	36746.8
639.121	36701.15
639.474	36626.13
639.828	36605.11
640.181	36646.01
640.534	36761.49
640.888	36623.42
641.241	36546.13
641.594	36594.72
641.947	36606.24
642.301	36709.29
642.654	36541.16
643.007	36453.02
643.36	36521.72
643.713	36425.91
644.066	36648.27
644.419	36446.92
644.771	36245.35
645.124	35888.07
645.477	35843.32
645.83	35773.49
646.182	35382.09
646.535	35451.69
646.888	35638.13
647.24	35336.22
647.593	35574.4
647.945	35578.25
648.298	35369.21
648.65	35333.51
649.002	35207.18
649.355	35388.42
649.707	35255.54
650.059	35405.59
650.411	35860.95
650.763	35883.32
651.115	36342.52
651.467	36150.89
651.819	36110.66
652.171	36061.62
652.523	35997.44
652.875	36140.94
653.227	35833.83
653.578	36008.52
653.93	36013.71
654.282	35883.55
654.633	35790.9
654.985	36044.45
655.337	35804
655.688	35850.55
656.039	35947.05
656.391	35600.39
656.742	35843.55
657.094	35738.02
657.445	36035.86
657.796	35834.06
658.147	35677.9
658.498	35703.44
658.849	35745.92
659.2	35679.71
659.551	35718.35
659.902	35766.04
660.253	35645.81
660.604	35659.15
660.955	35639.71
661.306	35897.11
661.656	35638.58
662.007	35659.15
662.358	35629.54
662.708	35597.23
663.059	35686.27
663.409	35520.85
663.76	35657.57
664.11	35749.77
664.461	35724.46
664.811	35649.43
665.161	35681.07
665.511	35561.52
665.862	35632.48
666.212	35834.74
666.562	35708.86
666.912	35599.94
667.262	35622.99
667.612	35663.44
667.962	35724.23
668.312	35635.19
668.662	35737.11
669.011	35700.28
669.361	35613.72
669.711	35637.9
670.06	35445.37
670.41	35386.39
670.76	35321.98
671.109	35531.47
671.459	35470.45
671.808	35428.42
672.157	35439.72
672.507	35366.73
672.856	35359.95
673.205	35233.62
673.554	35416.67
673.904	35222.1
674.253	35452.6
674.602	35258.25
674.951	34713.41
675.3	34673.64
675.649	35254.19
675.998	35112.72
676.346	35295.77
676.695	35359.95
677.044	34987.75
677.393	35168.09
677.741	35154.3
678.09	35011.48
678.438	35072.04
678.787	35145.49
679.135	35180.52
679.484	34901.88
679.832	35005.6
680.181	34780.75
680.529	35072.72
680.877	34797.25
681.225	34706.63
681.573	34907.08
681.922	34585.05
682.27	34480.65
682.618	34580.08
682.966	34544.83
683.314	34661.21
683.661	34432.74
684.009	34265.51
684.357	34282.01
684.705	34169.24
685.053	34309.8
685.4	34237.72
685.748	34114.1
686.095	33974.45
686.443	33851.51
686.79	33896.48
687.138	33926.54
687.485	33950.94
687.832	33814.9
688.18	33730.61
688.527	33698.52
688.874	33595.92
689.221	33599.77
689.568	33373.78
689.915	33358.64
690.262	33283.39
690.609	33231.64
690.956	33042.94
691.303	33090.18
691.65	32933.8
691.997	32916.17
692.344	32882.72
692.69	32868.71
693.037	32779.67
693.383	32586.69
693.73	32682.5
694.077	32413.81
694.423	32431.89
694.769	32424.43
695.116	32279.35
695.462	32238.45
695.808	32170.65
696.155	32203.64
696.501	32062.18
696.847	31988.06
697.193	31781.96
697.539	31938.57
697.885	31621.29
698.231	31539.26
698.577	31640.95
698.923	31507.62
699.269	31400.73
699.614	31204.8
699.96	31228.98
700.306	31167.97
700.651	30965.94
700.997	30945.6
701.342	30889.1
701.688	30685.49
702.033	30764.13
702.379	30663.12
702.724	30701.31
703.069	30726.4
703.415	30276.46
703.76	30326.63
704.105	30358.5
704.45	30235.56
704.795	30032.18
705.14	30085.28
705.485	30045.96
705.83	29905.17
706.175	29947.43
706.52	29895.91
706.865	29721.9
707.209	29627.67
707.554	29603.04
707.899	29698.17
708.243	29504.96
708.588	29457.28
708.932	29251.63
709.277	29203.05
709.621	29354.91
709.966	29071.75
710.31	29185.65
710.654	28872.66
710.998	28982.03
711.342	28904.07
711.687	28820
712.031	28752.89
712.375	28670.18
712.719	28646.22
713.063	28624.98
713.407	28694.81
713.75	28518.54
714.094	28472.44
714.438	28300.02
714.782	28361.94
715.125	28179.12
715.469	28304.09
715.812	28113.36
716.156	27956.98
716.499	27932.8
716.843	27993.81
717.186	27793.37
717.53	27968.5
717.873	27909.97
718.216	27898.45
718.559	27726.02
718.902	27599.25
719.246	27652.8
719.589	27611.45
719.932	27482.86
720.275	27372.59
720.617	27388.18
720.96	27457.1
721.303	27423.66
721.646	27407.84
721.989	27216.66
722.331	27243.78
722.674	27173.49
723.016	27095.3
723.359	27065.02
723.701	27274.06
724.044	27014.18
724.386	26892.6
724.729	27035.65
725.071	26856.67
725.413	26849.66
725.755	26778.25
726.097	26664.81
726.439	26535.09
726.782	26585.71
727.124	26714.98
727.465	26624.58
727.807	26541.19
728.149	26390.24
728.491	26392.95
728.833	26427.75
729.175	26330.8
729.516	26369
729.858	26282.67
730.199	26351.6
730.541	26137.82
730.882	26260.3
731.224	26258.49
731.565	26063.69
731.906	26042.9
732.248	26100.75
732.589	25934.43
732.93	25931.49
733.271	25971.94
733.612	25839.07
733.953	25878.16
734.294	25836.58
734.635	25677.49
734.976	25846.98
735.317	25662.8
735.658	25595.46
735.999	25533.99
736.339	25614.67
736.68	25681.78
737.021	25537.38
737.361	25463.71
737.702	25553.2
738.042	25561.56
738.383	25321.11
738.723	25344.84
739.063	25319.08
739.404	25366.54
739.744	25317.27
740.084	25212.87
740.424	25244.73
740.764	25194.79
741.104	25231.85
741.444	25090.39
741.784	24997.05
742.124	25003.38
742.464	24979.2
742.804	24983.5
743.143	24892.65
743.483	24939.2
743.823	24845.65
744.162	24897.4
744.502	24784.18
744.841	24657.4
745.181	24800
745.52	24750.73
745.86	24677.51
746.199	24584.18
746.538	24519.33
746.877	24646.33
747.216	24622.15
747.556	24646.56
747.895	24474.13
748.234	24375.38
748.573	24452.66
748.911	24372.44
749.25	24337.18
749.589	24195.72
749.928	24331.54
750.267	24344.19
750.605	24080.69
750.944	24197.08
751.283	24113.69
751.621	24236.85
751.96	24025.1
752.298	24002.28
752.636	24011.77
752.975	23913.02
753.313	23828.72
753.651	23990.53
753.989	23886.8
754.327	23744.43
754.666	23646.36
755.004	23750.53
755.342	23580.82
755.679	23560.93
756.017	23509.41
756.355	23595.74
756.693	23484.78
757.031	23479.35
757.368	23369.98
757.706	23358.68
758.044	23269.19
758.381	23208.63
758.719	23140.61
759.056	23158.46
759.394	23061.29
759.731	22964.11
