Data from hue_50_FLMS001491_10.txt Node
Date: Mon Feb 06 15:09:31 GMT 2017
User: dcchb
Spectrometer: FLMS00149
Trigger mode: 0
Integration Time (sec): 2.000000E-2
Scans to average: 10
Electric dark correction enabled: true
Nonlinearity correction enabled: false
Boxcar width: 0
XAxis mode: Wavelengths
Number of Pixels in Spectrum: 2048
>>>>>Begin Spectral Data<<<<<
341.393	-26.36
341.776	-26.36
342.16	-26.36
342.543	-48.73
342.927	-53.7
343.31	-69.97
343.693	-70.2
344.077	-73.81
344.46	-67.71
344.843	-55.73
345.226	-27.94
345.61	-34.49
345.993	-13.47
346.376	4.15
346.759	19.97
347.142	32.63
347.525	49.57
347.908	47.99
348.291	70.82
348.674	89.8
349.057	98.39
349.44	123.02
349.823	155.11
350.206	169.35
350.588	176.35
350.971	202.11
351.354	202.57
351.737	226.97
352.119	245.95
352.502	262.22
352.884	271.94
353.267	283.69
353.65	277.59
354.032	278.04
354.414	288.44
354.797	322.56
355.179	309.23
355.562	316.23
355.944	309.68
356.326	338.38
356.709	342.22
357.091	322.56
357.473	325.95
357.855	355.33
358.238	325.05
358.62	356.91
359.002	351.04
359.384	345.16
359.766	362.11
360.148	342
360.53	342.9
360.912	339.28
361.294	332.28
361.676	324.6
362.057	341.54
362.439	334.09
362.821	343.13
363.203	318.27
363.584	308.55
363.966	339.06
364.348	325.05
364.729	317.82
365.111	309.23
365.493	335.9
365.874	342.22
366.256	310.81
366.637	311.94
367.019	323.69
367.4	323.69
367.781	310.13
368.163	311.94
368.544	331.6
368.925	323.47
369.306	333.64
369.688	303.35
370.069	317.36
370.45	294.54
370.831	336.12
371.212	302.22
371.593	310.59
371.974	293.86
372.355	310.36
372.736	291.38
373.117	320.08
373.498	317.59
373.879	308.55
374.26	304.48
374.641	306.97
375.021	318.04
375.402	316.69
375.783	318.27
376.163	346.97
376.544	331.6
376.925	336.35
377.305	317.82
377.686	330.25
378.066	325.95
378.447	333.64
378.827	338.61
379.208	327.76
379.588	322.79
379.968	330.02
380.349	326.86
380.729	323.92
381.109	311.94
381.489	319.85
381.87	316.23
382.25	339.28
382.63	348.55
383.01	344.48
383.39	322.56
383.77	348.32
384.15	333.41
384.53	335.67
384.91	353.3
385.29	346.06
385.67	325.95
386.049	342
386.429	340.19
386.809	355.1
387.189	346.74
387.568	361.43
387.948	342.45
388.328	349.68
388.707	358.72
389.087	358.04
389.466	357.82
389.846	343.58
390.225	350.58
390.605	335.9
390.984	344.03
391.363	357.59
391.743	363.24
392.122	325.05
392.501	352.17
392.881	369.11
393.26	352.39
393.639	374.99
394.018	363.47
394.397	384.48
394.776	376.35
395.155	369.79
395.534	373.41
395.913	358.27
396.292	342.45
396.671	364.37
397.05	367.31
397.429	380.19
397.808	380.87
398.186	386.97
398.565	376.12
398.944	372.96
399.323	368.66
399.701	377.48
400.08	388.32
400.458	389
400.837	369.57
401.215	377.25
401.594	382
401.972	399.17
402.351	382.45
402.729	377.25
403.107	396.68
403.486	392.62
403.864	405.95
404.242	392.62
404.62	388.32
404.999	407.98
405.377	366.85
405.755	401.88
406.133	383.35
406.511	412.28
406.889	407.08
407.267	393.75
407.645	391.03
408.023	399.4
408.401	432.39
408.779	401.66
409.156	404.59
409.534	412.73
409.912	422.67
410.29	432.16
410.667	433.07
411.045	417.25
411.422	452.05
411.8	416.8
412.178	438.04
412.555	443.24
412.933	449.79
413.31	437.59
413.687	441.88
414.065	460.86
414.442	444.82
414.819	441.2
415.197	455.21
415.574	462.22
415.951	448.21
416.328	451.37
416.705	469.22
417.082	467.87
417.46	468.77
417.837	485.04
418.214	476.46
418.591	459.51
418.967	478.49
419.344	483.46
419.721	483.01
420.098	481.2
420.475	484.82
420.852	487.3
421.228	510.13
421.605	497.47
421.982	487.53
422.358	492.73
422.735	487.53
423.111	485.95
423.488	511.26
423.864	518.04
424.241	524.82
424.617	535.66
424.994	519.39
425.37	513.97
425.746	520.3
426.123	531.37
426.499	520.52
426.875	519.39
427.251	530.24
427.627	540.64
428.003	549.9
428.379	545.83
428.756	549.45
429.132	544.7
429.507	543.57
429.883	558.49
430.259	557.81
430.635	560.07
431.011	576.57
431.387	567.75
431.763	563.91
432.138	592.61
432.514	569.79
432.89	562.56
433.265	574.76
433.641	599.17
434.016	605.94
434.392	604.81
434.767	600.29
435.143	602.78
435.518	597.13
435.894	632.38
436.269	617.47
436.644	638.71
437.02	629.67
437.395	617.92
437.77	634.42
438.145	654.76
438.52	657.47
438.895	662.67
439.271	665.15
439.646	669.67
440.021	661.76
440.395	668.09
440.77	675.32
441.145	676.45
441.52	684.36
441.895	699.95
442.27	692.27
442.645	684.36
443.019	706.96
443.394	693.17
443.769	717.13
444.143	717.13
444.518	706.05
444.892	700.41
445.267	688.65
445.641	699.05
446.016	729.56
446.39	730.46
446.764	726.85
447.139	726.39
447.513	725.26
447.887	751.93
448.262	739.27
448.636	737.69
449.01	736.79
449.384	744.47
449.758	762.78
450.132	771.59
450.506	771.36
450.88	793.06
451.254	781.99
451.628	757.35
452.002	785.15
452.376	803.23
452.75	789.22
453.123	821.53
453.497	794.41
453.871	813.17
454.244	810.46
454.618	822.66
454.992	844.81
455.365	854.53
455.739	876.45
456.112	890
456.486	863.79
456.859	882.77
457.232	894.98
457.606	919.38
457.979	906.28
458.352	904.69
458.725	947.86
459.099	925.48
459.472	952.15
459.845	955.31
460.218	966.84
460.591	956.67
460.964	982.21
461.337	1008.87
461.71	1026.05
462.083	1042.54
462.456	1023.33
462.829	1022.88
463.201	1050.23
463.574	1066.72
463.947	1052.94
464.32	1068.31
464.692	1085.71
465.065	1085.93
465.438	1118.93
465.81	1130.68
466.183	1134.29
466.555	1193.27
466.928	1203.44
467.3	1200.96
467.672	1202.54
468.045	1252.03
468.417	1264.23
468.789	1259.03
469.161	1310.78
469.534	1303.78
469.906	1334.29
470.278	1347.85
470.65	1380.16
471.022	1402.31
471.394	1408.18
471.766	1456.54
472.138	1464
472.51	1475.98
472.882	1546.48
473.253	1571.79
473.625	1568.18
473.997	1638.46
474.369	1630.55
474.74	1693.6
475.112	1692.92
475.484	1758.68
475.855	1793.94
476.227	1842.75
476.598	1890.43
476.97	1952.35
477.341	2002.52
477.713	2003.2
478.084	2063.76
478.455	2152.12
478.827	2170.2
479.198	2293.81
479.569	2307.37
479.94	2364.99
480.311	2452.45
480.682	2496.06
481.053	2568.83
481.424	2674.82
481.795	2725.66
482.166	2800.01
482.537	2893.34
482.908	2969.95
483.279	3057.18
483.65	3149.83
484.021	3236.38
484.391	3285.42
484.762	3344.18
485.133	3464.85
485.503	3519.99
485.874	3665.98
486.244	3731.96
486.615	3893.09
486.985	3980.55
487.356	4074.78
487.726	4160.43
488.097	4317.03
488.467	4351.38
488.837	4481.32
489.207	4655.1
489.578	4729.23
489.948	4847.19
490.318	5026.39
490.688	5068.43
491.058	5178.25
491.428	5316.78
491.798	5471.58
492.168	5628.41
492.538	5713.61
492.908	5800.84
493.278	5983.66
493.648	6069.3
494.017	6188.17
494.387	6328.28
494.757	6436.07
495.126	6623.41
495.496	6673.36
495.866	6786.35
496.235	6981.14
496.605	7073.12
496.974	7167.58
497.344	7304.07
497.713	7411.19
498.082	7580
498.452	7686.21
498.821	7804.17
499.19	7890.95
499.559	8059.08
499.928	8165.52
500.298	8232.86
500.667	8457.04
501.036	8438.28
501.405	8696.13
501.774	8645.96
502.143	8845.28
502.512	8878.95
502.88	9037.14
503.249	9122.33
503.618	9250.46
503.987	9290.01
504.356	9476.9
504.724	9579.04
505.093	9615.65
505.462	9768.87
505.83	9847.28
506.199	10062.65
506.567	10139.48
506.936	10200.49
507.304	10316.42
507.672	10411.34
508.041	10549.86
508.409	10633.48
508.777	10775.85
509.145	10877.09
509.514	10906.69
509.882	11019.23
510.25	11148.27
510.618	11291.54
510.986	11320.47
511.354	11458.09
511.722	11645.2
512.09	11721.81
512.458	11776.05
512.826	11905.53
513.193	11923.84
513.561	12037.51
513.929	12144.4
514.297	12359.31
514.664	12400.89
515.032	12463.94
515.4	12578.29
515.767	12636.59
516.135	12750.71
516.502	12801.56
516.869	12994.09
517.237	13033.19
517.604	13122.45
517.972	13294.65
518.339	13400.18
518.706	13374.2
519.073	13466.85
519.44	13563.57
519.808	13819.83
520.175	13782.55
520.542	13959.49
520.909	14121.07
521.276	14126.94
521.643	14239.26
522.009	14372.14
522.376	14464.34
522.743	14598.34
523.11	14680.6
523.477	14870.65
523.843	14956.98
524.21	15027.94
524.577	15208.05
524.943	15222.06
525.31	15309.29
525.676	15523.97
526.043	15620.69
526.409	15704.3
526.776	15748.15
527.142	15819.56
527.508	15997.4
527.874	16115.14
528.241	16222.94
528.607	16314.01
528.973	16488.69
529.339	16426.55
529.705	16624.51
530.071	16741.34
530.437	16895.46
530.803	16931.16
531.169	17046.87
531.535	16991.95
531.901	17009.36
532.267	17262.46
532.632	17346.07
532.998	17492.05
533.364	17532.73
533.73	17453.41
534.095	17667.64
534.461	17741.77
534.826	17986.28
535.192	17984.02
535.557	18102.66
535.923	18128.65
536.288	18119.38
536.653	18210.23
537.019	18167.74
537.384	18360.28
537.749	18401.63
538.114	18500.16
538.479	18484.12
538.845	18618.35
539.21	18642.53
539.575	18673.94
539.94	18760.95
540.305	18948.97
540.67	18832.58
541.034	18988.29
541.399	19063.31
541.764	19104.67
542.129	19156.64
542.494	19245.68
542.858	19390.54
543.223	19485.9
543.587	19482.51
543.952	19531.1
544.316	19604.54
544.681	19548.72
545.045	19679.57
545.41	19837.08
545.774	19872.1
546.138	19837.3
546.503	19950.52
546.867	20085.43
547.231	20162.04
547.595	20205.43
547.959	20249.95
548.324	20350.06
548.688	20303.96
549.052	20518.19
549.416	20521.81
549.779	20495.59
550.143	20620.56
550.507	20685.19
550.871	20837.05
551.235	20777.39
551.599	20899.65
551.962	21006.31
552.326	21028.23
552.689	21125.86
553.053	21179.19
553.417	21130.38
553.78	21433.65
554.143	21342.57
554.507	21456.47
554.87	21473.19
555.234	21695.79
555.597	21618.73
555.96	21734.43
556.323	21843.35
556.686	21898.94
557.05	22023.91
557.413	22172.38
557.776	22200.86
558.139	22248.99
558.502	22329.89
558.865	22399.5
559.228	22656.89
559.59	22645.82
559.953	22709.09
560.316	22862.99
560.679	22891.69
561.041	22994.28
561.404	23178.91
561.767	23273.82
562.129	23298.91
562.492	23436.3
562.854	23428.17
563.217	23439.47
563.579	23594.72
563.941	23759.69
564.304	23823.64
564.666	24016.85
565.028	23984.99
565.39	24147.47
565.753	24198.09
566.115	24242.84
566.477	24403.51
566.839	24510.63
567.201	24547.24
567.563	24669.49
567.925	24727.8
568.287	24805.08
568.648	24915.81
569.01	25024.74
569.372	25247.56
569.734	25203.94
570.095	25394.9
570.457	25466.08
570.819	25428.12
571.18	25620.43
571.542	25709.24
571.903	25675.34
572.265	25796.24
572.626	25844.6
572.987	25952.4
573.349	26058.16
573.71	26207.53
574.071	26305.83
574.432	26403.01
574.794	26560.74
575.155	26567.97
575.516	26462.21
575.877	26829.21
576.238	26711.25
576.599	26885.03
576.96	26933.84
577.32	27102.42
577.681	27151.46
578.042	27346.03
578.403	27281.18
578.763	27327.5
579.124	27430.1
579.485	27714.84
579.845	27696.31
580.206	27681.84
580.566	27846.58
580.927	27842.74
581.287	28134.94
581.648	28084.54
582.008	28384.65
582.368	28332.22
582.728	28325.22
583.089	28348.04
583.449	28575.83
583.809	28639.11
584.169	28898.08
584.529	28757.29
584.889	29153.67
585.249	28975.14
585.609	29036.61
585.969	29295.81
586.329	29252.65
586.688	29437.05
587.048	29452.19
587.408	29551.4
587.768	29539.87
588.127	29769.47
588.487	29808.57
588.846	30032.06
589.206	30074.32
589.565	30177.82
589.925	30355.22
590.284	30297.14
590.643	30406.06
591.003	30536.01
591.362	30718.6
591.721	30729.22
592.08	30851.48
592.44	31066.39
592.799	31150.9
593.158	31177.57
593.517	31245.14
593.876	31512.02
594.235	31413.27
594.593	31567.84
594.952	31697.56
595.311	31660.5
595.67	31763.32
596.029	32051.9
596.387	32055.51
596.746	32158.11
597.104	32158.34
597.463	32210.09
597.822	32423.41
598.18	32331.66
598.538	32478.55
598.897	32714.48
599.255	32343.64
599.613	33038.54
599.972	32812.56
600.33	32891.88
600.688	32878.99
601.046	33290.96
601.404	33306.78
601.762	33289.83
602.12	33429.71
602.478	33533.89
602.836	33631.74
603.194	33463.84
603.552	33655.7
603.91	33651.4
604.268	33884.17
604.625	33797.61
604.983	34049.36
605.341	33894.56
605.698	34148.11
606.056	34273.08
606.413	34290.93
606.771	34423.36
607.128	34462
607.485	34416.13
607.843	34504.26
608.2	34647.54
608.557	34789.45
608.914	34780.19
609.272	34981.09
609.629	35019.95
609.986	35159.16
610.343	35158.48
610.7	35377.23
611.057	35359.16
611.414	35357.35
611.771	35472.6
612.127	35642.31
612.484	35566.83
612.841	35871.23
613.198	35673.95
613.554	35790.33
613.911	36088.85
614.267	35922.98
614.624	36023.77
614.98	36244.33
615.337	36336.08
615.693	36122.75
616.05	36259.92
616.406	36424.66
616.762	36391.9
617.118	36454.04
617.475	36495.17
617.831	36577.2
618.187	36573.59
618.543	36684.77
618.899	37040.01
619.255	36988.26
619.611	36893.35
619.967	37083.4
620.323	37156.17
620.678	36968.38
621.034	37010.86
621.39	37139.9
621.746	37121.82
622.101	37427.58
622.457	37149.39
622.812	37270.29
623.168	37392.32
623.523	37517.06
623.879	37483.39
624.234	37218.32
624.589	37465.31
624.945	37432.32
625.3	37668.02
625.655	37432.09
626.01	37645.65
626.365	37627.57
626.72	37578.08
627.075	37563.84
627.43	37606.78
627.785	37503.96
628.14	37607.68
628.495	37650.39
628.85	37702.6
629.205	37544.18
629.559	37905.08
629.914	37691.07
630.269	37622.37
630.623	37618.53
630.978	37497.18
631.332	37769.49
631.687	37730.62
632.041	37642.71
632.396	37775.36
632.75	37573.11
633.104	37628.7
633.459	37608.14
633.813	37490.85
634.167	37582.83
634.521	37598.87
634.875	37715.03
635.229	37529.27
635.583	37356.16
635.937	37399.1
636.291	37340.12
636.645	37365.88
636.999	37398.88
637.352	37496.05
637.706	37275.49
638.06	37489.95
638.413	37438.42
638.767	37194.81
639.121	37425.54
639.474	37209.28
639.828	37217.41
640.181	37323.17
640.534	37200.91
640.888	37155.49
641.241	37078.66
641.594	37068.26
641.947	37239.33
642.301	37122.27
642.654	37070.52
643.007	37171.54
643.36	37058.77
643.713	37036.17
644.066	37082.95
644.419	36853.8
644.771	36721.38
645.124	36388.51
645.477	36274.16
645.83	36222.86
646.182	35957.11
646.535	35938.12
646.888	35769.99
647.24	35696.1
647.593	35858.8
647.945	35766.83
648.298	35582.88
648.65	35490
649.002	35582.2
649.355	35752.82
649.707	35638.02
650.059	35769.09
650.411	36174.73
650.763	36257.44
651.115	36587.15
651.467	36514.6
651.819	36389.86
652.171	36319.13
652.523	36454.72
652.875	36200.71
653.227	36192.13
653.578	36460.82
653.93	36315.97
654.282	36268.06
654.633	36103.32
654.985	36213.82
655.337	36252.69
655.688	36201.39
656.039	36277.55
656.391	35947.84
656.742	36131.11
657.094	36004.34
657.445	36309.19
657.796	36193.94
658.147	35836.43
658.498	36119.81
658.849	36113.71
659.2	36030.55
659.551	35914.85
659.902	36209.53
660.253	36105.8
660.604	36054.28
660.955	35852.02
661.306	36072.36
661.656	36062.64
662.007	36093.37
662.358	35904
662.708	35949.65
663.059	35805.92
663.409	35796.88
663.76	36026.93
664.11	36074.16
664.461	36031.23
664.811	35993.26
665.161	36032.58
665.511	35889.54
665.862	35914.17
666.212	36058.57
666.562	35955.3
666.912	35790.78
667.262	35922.3
667.612	35841.18
667.962	35928.18
668.312	35793.49
668.662	35846.15
669.011	35802.31
669.361	35695.42
669.711	35852.02
670.06	35647.51
670.41	35718.69
670.76	35564.12
671.109	35826.71
671.459	35567.29
671.808	35609.54
672.157	35647.51
672.507	35459.94
672.856	35476.89
673.205	35584.69
673.554	35653.16
673.904	35539.94
674.253	35672.82
674.602	35596.66
674.951	35044.59
675.3	35004.36
675.649	35507.17
675.998	35372.49
676.346	35332.26
676.695	35550.79
677.044	35207.07
677.393	35291.59
677.741	35381.3
678.09	35270.57
678.438	35175.43
678.787	35258.37
679.135	35206.16
679.484	34939.28
679.832	35171.14
680.181	34920.75
680.529	35228.54
680.877	34978.37
681.225	34988.54
681.573	35150.35
681.922	34901.09
682.27	34820.64
682.618	34900.18
682.966	34789
683.314	34744.71
683.661	34732.73
684.009	34561.44
684.357	34591.27
684.705	34592.4
685.053	34483.02
685.4	34446.41
685.748	34339.52
686.095	34269.69
686.443	34232.63
686.79	34106.76
687.138	34126.19
687.485	34135.91
687.832	33979.76
688.18	34091.62
688.527	33807.11
688.874	33886.88
689.221	33722.81
689.568	33811.85
689.915	33700.89
690.262	33608.69
690.609	33479.66
690.956	33273.11
691.303	33365.99
691.65	33236.72
691.997	33194.24
692.344	33101.14
692.69	33016.62
693.037	33016.17
693.383	32754.48
693.73	33046.67
694.077	32634.48
694.423	32741.14
694.769	32566.91
695.116	32493.92
695.462	32302.29
695.808	32396.52
696.155	32461.6
696.501	32153.82
696.847	32201.05
697.193	31896.2
697.539	32109.97
697.885	31923.77
698.231	31741.85
698.577	31761.96
698.923	31684
699.269	31451.46
699.614	31485.81
699.96	31382.08
700.306	31346.38
700.651	31259.6
700.997	31158.81
701.342	31154.97
701.688	31074.07
702.033	30975.09
702.379	31013.05
702.724	30895.77
703.069	30858.71
703.415	30665.72
703.76	30618.94
704.105	30590.92
704.45	30486.51
704.795	30438.83
705.14	30343.92
705.485	30142.12
705.83	30223.47
706.175	30220.99
706.52	29964.95
706.865	29903.93
707.209	29979.64
707.554	29750.04
707.899	29972.18
708.243	29659.87
708.588	29722.47
708.932	29391.4
709.277	29377.39
709.621	29511.17
709.966	29336.04
710.31	29319.54
710.654	29126.1
710.998	29235.47
711.342	29161.8
711.687	29068.7
712.031	28861.7
712.375	28867.12
712.719	28920
713.063	28858.76
713.407	28844.07
713.75	28690.63
714.094	28671.65
714.438	28508.04
714.782	28610.18
715.125	28467.13
715.469	28473.23
715.812	28341.94
716.156	28154.6
716.499	28221.94
716.843	28288.83
717.186	28066.69
717.53	28125.45
717.873	28089.52
718.216	28069.63
718.559	27983.08
718.902	27753.71
719.246	27886.58
719.589	27853.59
719.932	27661.5
720.275	27625.8
720.617	27663.54
720.96	27651.56
721.303	27519.81
721.646	27527.72
721.989	27390.55
722.331	27517.78
722.674	27404.11
723.016	27384.45
723.359	27326.37
723.701	27341.74
724.044	27257
724.386	27011.35
724.729	27226.49
725.071	27125.25
725.413	27051.35
725.755	27118.92
726.097	26840.73
726.439	26803.67
726.782	26819.94
727.124	26986.04
727.465	26728.2
727.807	26766.16
728.149	26782.21
728.491	26632.83
728.833	26696.78
729.175	26601.42
729.516	26493.85
729.858	26489.33
730.199	26446.85
730.541	26450.01
730.882	26327.53
731.224	26405.49
731.565	26360.3
731.906	26226.51
732.248	26328.21
732.589	26142.67
732.93	26082.56
733.271	26058.38
733.612	26225.38
733.953	26136.57
734.294	25956.92
734.635	25868.33
734.976	25904.71
735.317	25877.6
735.658	25778.16
735.999	25929.57
736.339	25735.45
736.68	25754.66
737.021	25835.34
737.361	25658.85
737.702	25774.1
738.042	25641.22
738.383	25605.51
738.723	25592.63
739.063	25462.47
739.404	25501.79
739.744	25431.51
740.084	25341.34
740.424	25285.75
740.764	25295.46
741.104	25381.79
741.444	25067.9
741.784	25130.72
742.124	25199.2
742.464	25108.8
742.804	25127.56
743.143	24982.93
743.483	25082.59
743.823	24933.21
744.162	24926.66
744.502	24949.03
744.841	24800.79
745.181	24919.43
745.52	24734.35
745.86	24744.52
746.199	24841.47
746.538	24762.82
746.877	24775.48
747.216	24658.42
747.556	24594.01
747.895	24645.09
748.234	24555.15
748.573	24476.73
748.911	24451.65
749.25	24515.6
749.589	24349.05
749.928	24356.05
750.267	24296.17
750.605	24297.75
750.944	24164.65
751.283	24083.29
751.621	24173.46
751.96	24076.29
752.298	23959.91
752.636	24035.84
752.975	23823.41
753.313	23793.36
753.651	23929.4
753.989	23882.17
754.327	23772.12
754.666	23582.06
755.004	23651.44
755.342	23687.6
755.679	23630.2
756.017	23656.41
756.355	23555.85
756.693	23523.53
757.031	23480.15
