Data from hue_120_FLMS001491_00054.txt Node
Date: Tue Feb 07 16:59:40 GMT 2017
User: dcchb
Spectrometer: FLMS00149
Trigger mode: 0
Integration Time (sec): 2.000000E-2
Scans to average: 10
Electric dark correction enabled: true
Nonlinearity correction enabled: false
Boxcar width: 0
XAxis mode: Wavelengths
Number of Pixels in Spectrum: 2048
>>>>>Begin Spectral Data<<<<<
341.393	-25.59
341.776	-25.59
342.16	-25.59
342.543	-66.04
342.927	-48.42
343.31	-64.24
343.693	-65.37
344.077	-47.74
344.46	-45.93
344.843	-46.16
345.226	-42.99
345.61	-23.56
345.993	-21.98
346.376	4.69
346.759	4.01
347.142	17.12
347.525	34.07
347.908	54.18
348.291	54.18
348.674	94.86
349.057	94.86
349.44	123.78
349.823	139.6
350.206	150
350.588	192.03
350.971	197
351.354	240.39
351.737	239.49
352.119	250.78
352.502	259.82
352.884	258.92
353.267	266.6
353.65	283.33
354.032	293.27
354.414	305.47
354.797	318.13
355.179	312.48
355.562	323.1
355.944	321.97
356.326	323.32
356.709	316.55
357.091	320.84
357.473	346.38
357.855	316.55
358.238	359.93
358.62	350.89
359.002	354.96
359.384	349.54
359.766	356.32
360.148	340.05
360.53	337.34
360.912	343.21
361.294	339.6
361.676	316.09
362.057	314.74
362.439	332.36
362.821	337.34
363.203	343.21
363.584	308.18
363.966	324.23
364.348	314.06
364.729	325.13
365.111	330.78
365.493	327.62
365.874	317.45
366.256	339.14
366.637	317.68
367.019	326.49
367.4	303.89
367.781	308.41
368.163	316.09
368.544	324.68
368.925	318.35
369.306	316.09
369.688	316.55
370.069	304.79
370.45	301.63
370.831	295.3
371.212	317
371.593	313.38
371.974	313.16
372.355	324.68
372.736	304.57
373.117	324
373.498	323.1
373.879	311.12
374.26	331.91
374.641	326.71
375.021	312.48
375.402	331.91
375.783	318.81
376.163	331.69
376.544	302.99
376.925	329.65
377.305	315.64
377.686	325.58
378.066	324.23
378.447	322.87
378.827	336.43
379.208	326.94
379.588	349.99
379.968	337.34
380.349	331.23
380.729	328.3
381.109	330.33
381.489	336.88
381.87	315.42
382.25	327.62
382.63	347.05
383.01	324.68
383.39	358.13
383.77	339.6
384.15	345.25
384.53	333.95
384.91	337.34
385.29	367.62
385.67	351.57
386.049	359.03
386.429	372.59
386.809	361.29
387.189	349.99
387.568	374.4
387.948	327.84
388.328	365.81
388.707	349.76
389.087	352.25
389.466	375.53
389.846	358.8
390.225	365.58
390.605	364.91
390.984	370.56
391.363	360.16
391.743	361.97
392.122	388.63
392.501	352.93
392.881	370.56
393.26	382.08
393.639	392.7
394.018	362.65
394.397	367.17
394.776	399.71
395.155	409.42
395.534	371.69
395.913	373.94
396.292	368.07
396.671	380.27
397.05	391.35
397.429	389.31
397.808	379.59
398.186	390.67
398.565	387.28
398.944	420.27
399.323	395.64
399.701	405.58
400.08	408.07
400.458	410.1
400.837	397.9
401.215	399.26
401.594	412.14
401.972	423.21
402.351	423.89
402.729	391.57
403.107	394.51
403.486	395.87
403.864	416.88
404.242	435.41
404.62	407.62
404.999	426.37
405.377	421.18
405.755	432.25
406.133	432.02
406.511	430.67
406.889	436.09
407.267	439.03
407.645	406.49
408.023	422.53
408.401	424.57
408.779	419.14
409.156	446.26
409.534	467.73
409.912	444.23
410.29	468.86
410.667	459.14
411.045	456.43
411.422	456.88
411.8	468.86
412.178	491.91
412.555	501.17
412.933	477.45
413.31	476.54
413.687	468.18
414.065	483.09
414.442	481.29
414.819	501.4
415.197	497.11
415.574	498.46
415.951	498.46
416.328	495.07
416.705	517.67
417.082	474.73
417.46	499.82
417.837	488.97
418.214	505.24
418.591	505.92
418.967	515.86
419.344	527.61
419.721	525.58
420.098	536.43
420.475	516.54
420.852	533.04
421.228	522.64
421.605	555.64
421.982	545.69
422.358	558.57
422.735	547.27
423.111	539.14
423.488	554.28
423.864	566.93
424.241	577.1
424.617	554.05
424.994	580.27
425.37	609.64
425.746	582.08
426.123	581.17
426.499	571.23
426.875	580.72
427.251	615.07
427.627	602.41
428.003	617.33
428.379	597.89
428.756	602.87
429.132	611.45
429.507	598.35
429.883	642.64
430.259	622.98
430.635	642.64
431.011	640.38
431.387	636.31
431.763	633.15
432.138	632.24
432.514	658.68
432.89	665.24
433.265	666.59
433.641	669.98
434.016	674.5
434.392	701.17
434.767	685.35
435.143	687.16
435.518	684.45
435.894	727.38
436.269	705.69
436.644	724.67
437.02	732.35
437.395	728.74
437.77	761.73
438.145	745.91
438.52	722.18
438.895	746.36
439.271	749.98
439.646	766.93
440.021	753.14
440.395	797.89
440.77	769.19
441.145	762.18
441.52	785.23
441.895	779.81
442.27	815.74
442.645	809.87
443.019	807.83
443.394	810.09
443.769	803.76
444.143	804.67
444.518	811.9
444.892	831.33
445.267	831.79
445.641	845.8
446.016	810.54
446.39	855.29
446.764	856.87
447.139	839.47
447.513	833.14
447.887	857.1
448.262	855.74
448.636	875.63
449.01	885.12
449.384	886.47
449.758	875.63
450.132	902.07
450.506	926.47
450.88	929.64
451.254	930.31
451.628	916.53
452.002	936.42
452.376	935.29
452.75	941.61
453.123	952.46
453.497	965.57
453.871	959.69
454.244	981.84
454.618	989.07
454.992	998.34
455.365	996.3
455.739	1003.08
456.112	1017.77
456.486	1054.15
456.859	1050.09
457.232	1045.11
457.606	1057.32
457.979	1081.27
458.352	1106.36
458.725	1125.79
459.099	1116.75
459.472	1143.42
459.845	1114.26
460.218	1157.2
460.591	1196.07
460.964	1175.05
461.337	1200.36
461.71	1190.65
462.083	1245.79
462.456	1211.89
462.829	1228.61
463.201	1260.02
463.574	1255.73
463.947	1298.67
464.32	1334.37
464.692	1306.8
465.065	1341.6
465.438	1336.86
465.81	1389.96
466.183	1399.45
466.555	1410.08
466.928	1404.65
467.3	1429.96
467.672	1482.62
468.045	1504.54
468.417	1487.81
468.789	1496.4
469.161	1550.19
469.534	1582.27
469.906	1599.22
470.278	1624.76
470.65	1643.29
471.022	1713.12
471.394	1728.71
471.766	1742.04
472.138	1776.85
472.51	1815.04
472.882	1833.34
473.253	1858.65
473.625	1933
473.997	1960.34
474.369	1977.97
474.74	2025.88
475.112	2091.64
475.484	2122.37
475.855	2196.95
476.227	2199.43
476.598	2288.02
476.97	2326.66
477.341	2396.49
477.713	2448.92
478.084	2473.1
478.455	2592.64
478.827	2612.08
479.198	2747.22
479.569	2741.34
479.94	2870.38
480.311	2878.29
480.682	2995.34
481.053	3079.41
481.424	3150.37
481.795	3245.28
482.166	3332.06
482.537	3413.41
482.908	3528.89
483.279	3595.78
483.65	3695.67
484.021	3843.91
484.391	3882.78
484.762	3948.31
485.133	4087.75
485.503	4182.66
485.874	4317.34
486.244	4418.58
486.615	4530.67
486.985	4675.75
487.356	4769.54
487.726	4829.42
488.097	4999.13
488.467	5106.93
488.837	5248.39
489.207	5345.79
489.578	5527.26
489.948	5598.67
490.318	5788.04
490.688	5865.33
491.058	5988.03
491.428	6146.67
491.798	6254.24
492.168	6462.82
492.538	6544.63
492.908	6664.85
493.278	6818.3
493.648	6883.83
494.017	7069.14
494.387	7204.95
494.757	7258.28
495.126	7389.35
495.496	7531.5
495.866	7591.38
496.235	7755.22
496.605	7893.07
496.974	8031.14
497.344	8121.09
497.713	8231.37
498.082	8314.08
498.452	8518.59
498.821	8571.7
499.19	8634.29
499.559	8801.07
499.928	8877
500.298	8984.11
500.667	9112.92
501.036	9077.67
501.405	9255.29
501.774	9292.81
502.143	9465.01
502.512	9516.08
502.88	9615.06
503.249	9641.27
503.618	9813.92
503.987	9869.74
504.356	9915.16
504.724	10087.14
505.093	10072.67
505.462	10149.28
505.83	10239.22
506.199	10301.82
506.567	10477.86
506.936	10513.34
507.304	10502.72
507.672	10700
508.041	10699.32
508.409	10794.46
508.777	10906.55
509.145	10891.63
509.514	10981.58
509.882	11055.25
510.25	11004.63
510.618	11180.89
510.986	11183.15
511.354	11382.92
511.722	11351.28
512.09	11381.79
512.458	11353.54
512.826	11507.44
513.193	11538.4
513.561	11615.23
513.929	11656.59
514.297	11716.92
514.664	11878.73
515.032	11785.85
515.4	11811.16
515.767	11864.04
516.135	11972.06
516.502	11821.1
516.869	12085.73
517.237	12117.14
517.604	11995.33
517.972	12134.09
518.339	12184.71
518.706	12168.89
519.073	12214.54
519.44	12264.71
519.808	12305.83
520.175	12329.11
520.542	12352.84
520.909	12465.15
521.276	12410.92
521.643	12506.06
522.009	12518.71
522.376	12628.09
522.743	12623.57
523.11	12674.64
523.477	12709.21
523.843	12649.1
524.21	12825.59
524.577	12871.24
524.943	12841.64
525.31	12793.96
525.676	12977.68
526.043	12968.42
526.409	13008.42
526.776	13109.88
527.142	12968.42
527.508	13006.38
527.874	13071.92
528.241	13108.3
528.607	13057
528.973	13177.9
529.339	13085.93
529.705	13115.3
530.071	13203.66
530.437	13176.09
530.803	13155.53
531.169	13248.18
531.535	13111.01
531.901	13162.08
532.267	13110.79
532.632	13172.48
532.998	13169.99
533.364	13113.05
533.73	13124.12
534.095	13113.27
534.461	13184.23
534.826	13135.42
535.192	13155.53
535.557	13133.61
535.923	13114.4
536.288	13139.03
536.653	13092.71
537.019	13005.7
537.384	12992.14
537.749	13025.36
538.114	12939.04
538.479	12898.59
538.845	12938.59
539.21	12816.78
539.575	12881.19
539.94	12791.47
540.305	12931.81
540.67	12777.69
541.034	12754.86
541.399	12759.61
541.764	12702.66
542.129	12738.14
542.494	12673.06
542.858	12660.63
543.223	12637.35
543.587	12698.59
543.952	12598.03
544.316	12587.18
544.681	12489.11
545.045	12478.26
545.41	12497.02
545.774	12473.97
546.138	12443.46
546.503	12463.57
546.867	12375.89
547.231	12373.4
547.595	12339.96
547.959	12361.65
548.324	12250.02
548.688	12199.17
549.052	12279.17
549.416	12155.33
549.779	12097.03
550.143	12152.17
550.507	12125.27
550.871	12103.35
551.235	12053.64
551.599	12062
551.962	12009.12
552.326	12010.25
552.689	12050.25
553.053	11852.06
553.417	11918.73
553.78	12029.46
554.143	11890.93
554.507	11880.08
554.87	11819.07
555.234	11928.9
555.597	11786.75
555.96	11863.59
556.323	11860.65
556.686	11829.24
557.05	11807.09
557.413	11907.43
557.776	11802.35
558.139	11835.79
558.502	11784.04
558.865	11838.95
559.228	11791.95
559.59	11751.72
559.953	11770.48
560.316	11864.72
560.679	11854.77
561.041	11823.81
561.404	11876.69
561.767	11789.24
562.129	11777.49
562.492	11892.06
562.854	11883.02
563.217	11782.46
563.579	11789.46
563.941	11839.18
564.304	11909.46
564.666	11860.65
565.028	11930.7
565.39	11944.49
565.753	11895.68
566.115	11954.88
566.477	11953.75
566.839	11977.26
567.201	12002.11
567.563	12036.24
567.925	12003.24
568.287	11933.87
568.648	11946.52
569.01	12061.77
569.372	12085.05
569.734	11960.53
570.095	12040.76
570.457	12073.98
570.819	12109.46
571.18	12092.96
571.542	12175.22
571.903	12160.3
572.265	12224.03
572.626	12153.75
572.987	12203.01
573.349	12122.11
573.71	12152.84
574.071	12225.16
574.432	12221.54
574.794	12334.99
575.155	12270.36
575.516	12135.22
575.877	12215.67
576.238	12241.66
576.599	12271.71
576.96	12243.24
577.32	12272.16
577.681	12279.62
578.042	12266.29
578.403	12272.16
578.763	12327.75
579.124	12241.88
579.485	12342.9
579.845	12313.74
580.206	12352.39
580.566	12275.78
580.927	12158.27
581.287	12351.71
581.648	12280.07
582.008	12345.61
582.368	12290.92
582.728	12369.56
583.089	12302.22
583.449	12188.32
583.809	12287.76
584.169	12234.65
584.529	12252.05
584.889	12330.24
585.249	12180.87
585.609	12106.74
585.969	12301.31
586.329	12266.51
586.688	12198.04
587.048	12217.7
587.408	12217.02
587.768	12172.96
588.127	12204.82
588.487	12192.62
588.846	12224.93
589.206	12133.41
589.565	12073.3
589.925	12188.1
590.284	12095.44
590.643	12116.91
591.003	12178.83
591.362	12202.79
591.721	12116.91
592.08	12089.12
592.44	12134.99
592.799	12106.97
593.158	12132.28
593.517	12111.72
593.876	12097.93
594.235	12049.34
594.593	12074.43
594.952	12064.94
595.311	12085.95
595.67	12087.76
596.029	12125.73
596.387	11999.85
596.746	12141.32
597.104	12004.83
597.463	12068.55
597.822	12085.95
598.18	12065.39
598.538	12033.53
598.897	12068.33
599.255	11950.82
599.613	12145.84
599.972	12125.27
600.33	12004.83
600.688	12016.58
601.046	12032.17
601.404	12115.78
601.762	12002.11
602.12	12090.47
602.478	12057.93
602.836	12015.67
603.194	11945.62
603.552	12006.86
603.91	11986.52
604.268	12011.38
604.625	11952.62
604.983	12006.41
605.341	11951.04
605.698	12005.5
606.056	12057.25
606.413	11979.29
606.771	12063.58
607.128	12064.71
607.485	12123.01
607.843	12041.89
608.2	12090.02
608.557	12087.99
608.914	12051.83
609.272	12127.53
609.629	12169.79
609.986	12155.78
610.343	12115.56
610.7	12212.28
611.057	12208.44
611.414	12208.66
611.771	12154.65
612.127	12181.77
612.484	12087.54
612.841	12236.23
613.198	12161.43
613.554	12138.61
613.911	12249.56
614.267	12199.85
614.624	12235.55
614.98	12243.69
615.337	12371.37
615.693	12247.98
616.05	12243.46
616.406	12335.89
616.762	12366.4
617.118	12307.64
617.475	12291.82
617.831	12352.84
618.187	12338.15
618.543	12311.26
618.899	12361.2
619.255	12327.98
619.611	12413.18
619.967	12423.35
620.323	12387.19
620.678	12345.83
621.034	12318.94
621.39	12354.65
621.746	12333.18
622.101	12464.47
622.457	12357.58
622.812	12470.8
623.168	12433.97
623.523	12347.19
623.879	12395.55
624.234	12393.74
624.589	12383.57
624.945	12382.67
625.3	12377.47
625.655	12528.65
626.01	12417.7
626.365	12384.02
626.72	12432.16
627.075	12347.64
627.43	12380.63
627.785	12315.1
628.14	12331.6
628.495	12377.7
628.85	12327.08
629.205	12316.68
629.559	12355.1
629.914	12321.65
630.269	12369.34
630.623	12266.29
630.978	12348.09
631.332	12311.71
631.687	12339.96
632.041	12255.21
632.396	12257.25
632.75	12184.48
633.104	12278.72
633.459	12198.27
633.813	12205.72
634.167	12200.3
634.521	12224.71
634.875	12186.06
635.229	12212.05
635.583	12133.64
635.937	12164.6
636.291	12105.39
636.645	12035.33
636.999	12031.04
637.352	12072.17
637.706	12005.28
638.06	12078.72
638.413	11984.71
638.767	12008.22
639.121	12051.6
639.474	11996.24
639.828	11972.51
640.181	12030.36
640.534	11956.47
640.888	11897.26
641.241	11849.58
641.594	11910.36
641.947	11921.89
642.301	11958.05
642.654	11935.45
643.007	11853.42
643.36	11860.87
643.713	11806.19
644.066	11873.3
644.419	11824.27
644.771	11722.12
645.124	11571.16
645.477	11661.56
645.83	11595.57
646.182	11462.69
646.535	11459.08
646.888	11473.77
647.24	11438.74
647.593	11481
647.945	11504.5
648.298	11408.68
648.65	11389.02
649.002	11356.26
649.355	11485.97
649.707	11425.63
650.059	11450.72
650.411	11650.71
650.763	11621.78
651.115	11733.65
651.467	11722.35
651.819	11720.09
652.171	11644.16
652.523	11593.99
652.875	11681.9
653.227	11599.41
653.578	11713.31
653.93	11646.42
654.282	11652.74
654.633	11636.7
654.985	11654.55
655.337	11668.34
655.688	11650.03
656.039	11765.51
656.391	11633.08
656.742	11653.2
657.094	11678.96
657.445	11800.99
657.796	11702.46
658.147	11666.98
658.498	11706.98
658.849	11770.26
659.2	11702.69
659.551	11692.74
659.902	11709.24
660.253	11671.73
660.604	11713.99
660.955	11684.83
661.306	11721.44
661.656	11759.18
662.007	11775.68
662.358	11711.27
662.708	11736.36
663.059	11749.24
663.409	11715.79
663.76	11872.17
664.11	11831.72
664.461	11794.66
664.811	11757.83
665.161	11812.06
665.511	11683.03
665.862	11689.58
666.212	11717.83
666.562	11727.32
666.912	11752.63
667.262	11756.47
667.612	11711.95
667.962	11674.21
668.312	11634.21
668.662	11730.93
669.011	11650.48
669.361	11707.43
669.711	11731.84
670.06	11657.49
670.41	11676.02
670.76	11677.83
671.109	11681.67
671.459	11712.18
671.808	11709.01
672.157	11751.5
672.507	11618.4
672.856	11625.4
673.205	11625.17
673.554	11669.02
673.904	11709.47
674.253	11764.38
674.602	11627.66
674.951	11521
675.3	11393.77
675.649	11586.98
675.998	11518.74
676.346	11588.57
676.695	11627.66
677.044	11463.37
677.393	11457.04
677.741	11517.83
678.09	11469.02
678.438	11460.89
678.787	11475.8
679.135	11514.89
679.484	11363.49
679.832	11382.7
680.181	11444.16
680.529	11410.04
680.877	11368.68
681.225	11353.54
681.573	11336.37
681.922	11366.65
682.27	11302.25
682.618	11279.87
682.966	11176.37
683.314	11178.18
683.661	11167.33
684.009	11165.07
684.357	11107.22
684.705	11099.76
685.053	11045.75
685.4	11072.87
685.748	11088.92
686.095	11036.49
686.443	11019.99
686.79	11083.95
687.138	10996.26
687.485	10989.71
687.832	10941.12
688.18	10962.59
688.527	10870.84
688.874	10893.67
689.221	10809.83
689.568	10840.34
689.915	10759.89
690.262	10797.63
690.609	10797.17
690.956	10695.26
691.303	10709.04
691.65	10618.65
691.997	10615.94
692.344	10469.72
692.69	10532.32
693.037	10552.21
693.383	10364.19
693.73	10495.49
694.077	10365.55
694.423	10402.16
694.769	10361.48
695.116	10301.37
695.462	10259.33
695.808	10232.89
696.155	10290.07
696.501	10163.97
696.847	10089.85
697.193	10089.17
697.539	10072.67
697.885	10011.21
698.231	10024.54
698.577	10014.82
698.923	9984.09
699.269	9904.99
699.614	9854.6
699.96	9797.2
700.306	9815.96
700.651	9782.51
700.997	9733.47
701.342	9722.17
701.688	9712.46
702.033	9692.57
702.379	9605.11
702.724	9545.68
703.069	9553.82
703.415	9470.88
703.76	9435.85
704.105	9429.53
704.45	9441.5
704.795	9390.88
705.14	9387.04
705.485	9302.98
705.83	9273.15
706.175	9322.86
706.52	9256.88
706.865	9215.97
707.209	9196.99
707.554	9166.26
707.899	9147.5
708.243	9135.07
708.588	9095.07
708.932	9062.3
709.277	8969.88
709.621	9048.29
709.966	8998.8
710.31	8946.83
710.654	8909.31
710.998	8907.96
711.342	8879.03
711.687	8923.78
712.031	8862.76
712.375	8808.3
712.719	8881.74
713.063	8758.13
713.407	8878.35
713.75	8776.89
714.094	8789.09
714.438	8749.54
714.782	8670
715.125	8687.17
715.469	8717
715.812	8676.1
716.156	8629.77
716.499	8602.2
716.843	8666.83
717.186	8539.38
717.53	8625.25
717.873	8551.36
718.216	8581.86
718.559	8547.29
718.902	8486.27
719.246	8524.24
719.589	8535.54
719.932	8495.54
720.275	8494.86
720.617	8507.74
720.96	8446.95
721.303	8435.2
721.646	8479.72
721.989	8398.59
722.331	8430.91
722.674	8385.71
723.016	8403.11
723.359	8383.45
723.701	8388.65
724.044	8396.33
724.386	8312.49
724.729	8357.46
725.071	8354.3
725.413	8336.9
725.755	8305.94
726.097	8316.11
726.439	8288.77
726.782	8296.67
727.124	8300.06
727.465	8230.24
727.807	8306.39
728.149	8226.17
728.491	8227.52
728.833	8287.41
729.175	8277.92
729.516	8235.89
729.858	8206.28
730.199	8290.57
730.541	8205.6
730.882	8220.97
731.224	8255.09
731.565	8193.85
731.906	8161.31
732.248	8239.95
732.589	8152.72
732.93	8206.51
733.271	8162.21
733.612	8247.41
733.953	8228.88
734.294	8256.9
734.635	8162.44
734.976	8186.39
735.317	8261.87
735.658	8202.21
735.999	8168.09
736.339	8256.68
736.68	8159.28
737.021	8231.14
737.361	8179.62
737.702	8267.97
738.042	8244.47
738.383	8227.07
738.723	8298.93
739.063	8299.61
739.404	8292.83
739.744	8318.37
740.084	8282.44
740.424	8261.2
740.764	8269.78
741.104	8324.24
741.444	8276.34
741.784	8336
742.124	8286.96
742.464	8351.59
742.804	8335.32
743.143	8358.37
743.483	8356.79
743.823	8449.44
744.162	8379.61
744.502	8436.33
744.841	8485.14
745.181	8559.27
745.52	8552.94
745.86	8582.54
746.199	8636.55
746.538	8671.13
746.877	8795.64
747.216	8762.88
747.556	8743.89
747.895	8837
748.234	8820.5
748.573	8904.57
748.911	8926.26
749.25	8973.72
749.589	9004.9
749.928	9101.17
750.267	9190.66
750.605	9289.42
750.944	9230.44
751.283	9271.11
751.621	9427.72
751.96	9435.4
752.298	9582.74
752.636	9662.97
752.975	9803.75
753.313	9857.76
753.651	10022.96
753.989	10025.44
754.327	10109.06
754.666	10247.81
755.004	10410.29
755.342	10500.91
755.679	10615.26
756.017	10730.51
756.355	10815.93
756.693	11001.46
757.031	11050.27
757.368	11204.85
757.706	11376.14
758.044	11488.91
758.381	11694.78
758.719	11791.5
759.056	11948.78
759.394	12109.91
759.731	12133.41
