Data from hue_350_FLMS001491_64.txt Node
Date: Mon Feb 06 15:38:21 GMT 2017
User: dcchb
Spectrometer: FLMS00149
Trigger mode: 0
Integration Time (sec): 2.000000E-2
Scans to average: 10
Electric dark correction enabled: true
Nonlinearity correction enabled: false
Boxcar width: 0
XAxis mode: Wavelengths
Number of Pixels in Spectrum: 2048
>>>>>Begin Spectral Data<<<<<
341.393	-11.34
341.776	-11.34
342.16	-11.34
342.543	-53.83
342.927	-61.28
343.31	-68.74
343.693	-89.53
344.077	-71.45
344.46	-55.18
344.843	-31.23
345.226	-37.56
345.61	-20.15
345.993	-21.28
346.376	-7.27
346.759	-1.85
347.142	20.07
347.525	48.09
347.908	53.97
348.291	71.82
348.674	101.65
349.057	108.66
349.44	140.29
349.823	139.39
350.206	168.09
350.588	187.98
350.971	201.76
351.354	212.16
351.737	261.42
352.119	251.02
352.502	281.53
352.884	294.87
353.267	284.47
353.65	272.72
354.032	290.12
354.414	293.06
354.797	315.66
355.179	323.11
355.562	318.59
355.944	319.05
356.326	334.86
356.709	324.92
357.091	313.17
357.473	355.88
357.855	343
358.238	333.51
358.62	331.25
359.002	338.03
359.384	338.71
359.766	345.71
360.148	338.48
360.53	330.57
360.912	337.12
361.294	342.32
361.676	322.89
362.057	333.06
362.439	344.81
362.821	314.75
363.203	335.09
363.584	312.04
363.966	317.69
364.348	317.69
364.729	326.05
365.111	307.97
365.493	303.9
365.874	298.25
366.256	325.6
366.637	308.42
367.019	318.59
367.4	300.29
367.781	282.89
368.163	315.66
368.544	312.04
368.925	290.35
369.306	304.81
369.688	321.31
370.069	312.04
370.45	334.64
370.831	318.14
371.212	307.52
371.593	316.79
371.974	313.17
372.355	315.43
372.736	327.18
373.117	320.18
373.498	314.98
373.879	286.05
374.26	312.27
374.641	319.27
375.021	313.4
375.402	317.01
375.783	330.57
376.163	316.33
376.544	306.84
376.925	324.69
377.305	338.48
377.686	315.66
378.066	330.34
378.447	328.31
378.827	310.68
379.208	333.28
379.588	352.72
379.968	340.74
380.349	330.57
380.729	341.64
381.109	347.29
381.489	322.66
381.87	332.38
382.25	338.25
382.63	325.82
383.01	354.75
383.39	338.48
383.77	343
384.15	354.98
384.53	351.59
384.91	346.16
385.29	340.06
385.67	342.77
386.049	349.78
386.429	356.56
386.809	344.81
387.189	360.4
387.568	340.74
387.948	371.7
388.328	351.59
388.707	334.19
389.087	340.74
389.466	358.82
389.846	361.98
390.225	362.43
390.605	358.14
390.984	349.55
391.363	351.13
391.743	379.61
392.122	339.61
392.501	343.45
392.881	369.89
393.26	351.81
393.639	341.87
394.018	361.08
394.397	374.86
394.776	356.56
395.155	371.93
395.534	358.37
395.913	389.33
396.292	355.2
396.671	361.98
397.05	375.54
397.429	373.73
397.808	357.24
398.186	371.93
398.565	372.6
398.944	368.31
399.323	377.8
399.701	366.28
400.08	378.7
400.458	391.59
400.837	396.56
401.215	396.78
401.594	381.64
401.972	382.32
402.351	388.65
402.729	399.72
403.107	402.66
403.486	405.14
403.864	399.04
404.242	387.74
404.62	389.78
404.999	427.29
405.377	399.04
405.755	409.66
406.133	398.14
406.511	406.95
406.889	402.66
407.267	405.82
407.645	437.69
408.023	417.8
408.401	407.86
408.779	421.64
409.156	404.69
409.534	435.43
409.912	415.99
410.29	419.83
410.667	448.08
411.045	440.4
411.422	429.55
411.8	455.09
412.178	461.41
412.555	445.37
412.933	461.19
413.31	461.87
413.687	459.38
414.065	460.74
414.442	484.92
414.819	453.28
415.197	461.87
415.574	480.62
415.951	493.28
416.328	470.91
416.705	481.3
417.082	484.92
417.46	498.7
417.837	509.55
418.214	491.24
418.591	486.72
418.967	488.76
419.344	493.73
419.721	496.22
420.098	513.39
420.475	530.11
420.852	513.16
421.228	525.14
421.605	513.62
421.982	524.92
422.358	529.89
422.735	528.53
423.111	546.38
423.488	543.67
423.864	533.73
424.241	544.58
424.617	552.94
424.994	544.12
425.37	556.78
425.746	532.37
426.123	561.3
426.499	565.59
426.875	562.65
427.251	557.91
427.627	574.41
428.003	580.06
428.379	574.86
428.756	593.84
429.132	587.96
429.507	588.19
429.883	600.17
430.259	608.53
430.635	614.18
431.011	602.2
431.387	612.82
431.763	637.68
432.138	633.16
432.514	643.33
432.89	640.84
433.265	668.64
433.641	661.86
434.016	649.88
434.392	645.59
434.767	675.65
435.143	666.83
435.518	685.59
435.894	705.02
436.269	673.84
436.644	696.44
437.02	726.49
437.395	699.6
437.77	703.22
438.145	733.72
438.52	734.85
438.895	716.77
439.271	719.03
439.646	737.57
440.021	735.98
440.395	728.07
440.77	712.26
441.145	761.29
441.52	748.86
441.895	749.54
442.27	767.17
442.645	761.75
443.019	761.07
443.394	740.28
443.769	769.65
444.143	773.5
444.518	784.57
444.892	789.32
445.267	766.04
445.641	790.67
446.016	778.02
446.39	796.55
446.764	792.93
447.139	799.71
447.513	811.69
447.887	811.01
448.262	823.44
448.636	829.09
449.01	843.1
449.384	803.78
449.758	803.33
450.132	844.68
450.506	815.53
450.88	841.52
451.254	851.91
451.628	859.14
452.002	861.86
452.376	875.41
452.75	867.05
453.123	869.09
453.497	882.65
453.871	870.9
454.244	896.88
454.618	896.21
454.992	914.06
455.365	922.19
455.739	933.72
456.112	944.34
456.486	918.35
456.859	932.81
457.232	967.39
457.606	955.41
457.979	948.86
458.352	971.68
458.725	994.96
459.099	1000.61
459.472	1007.61
459.845	1029.54
460.218	1022.08
460.591	1018.01
460.964	1060.72
461.337	1068.63
461.71	1053.72
462.083	1061.17
462.456	1073.38
462.829	1075.86
463.201	1091.45
463.574	1081.74
463.947	1099.36
464.32	1114.73
464.692	1149.76
465.065	1126.93
465.438	1158.12
465.81	1160.38
466.183	1184.11
466.555	1170.55
466.928	1166.48
467.3	1213.94
467.672	1202.64
468.045	1227.5
468.417	1250.09
468.789	1260.26
469.161	1282.86
469.534	1270.66
469.906	1297.78
470.278	1338.45
470.65	1319.7
471.022	1359.7
471.394	1380.49
471.766	1378.45
472.138	1418.45
472.51	1429.98
472.882	1442.18
473.253	1450.54
473.625	1461.84
473.997	1503.65
474.369	1526.7
474.74	1518.11
475.112	1558.79
475.484	1560.82
475.855	1617.77
476.227	1631.78
476.598	1681.95
476.97	1676.75
477.341	1691.21
477.713	1760.36
478.084	1705.9
478.455	1809.4
478.827	1810.53
479.198	1841.49
479.569	1863.64
479.94	1918.33
480.311	1912
480.682	1983.18
481.053	1991.54
481.424	2070.19
481.795	2055.95
482.166	2090.07
482.537	2115.16
482.908	2135.49
483.279	2217.53
483.65	2210.52
484.021	2290.52
484.391	2275.15
484.762	2312.89
485.133	2326.68
485.503	2380.01
485.874	2400.8
486.244	2458.65
486.615	2450.97
486.985	2476.05
487.356	2573.68
487.726	2591.3
488.097	2663.39
488.467	2654.13
488.837	2704.52
489.207	2715.59
489.578	2784.29
489.948	2800.11
490.318	2807.79
490.688	2837.85
491.058	2900.9
491.428	2904.97
491.798	2992.65
492.168	3014.34
492.538	3059.31
492.908	3079.65
493.278	3132.76
493.648	3127.78
494.017	3189.48
494.387	3197.39
494.757	3244.39
495.126	3241
495.496	3279.87
495.866	3295.69
496.235	3351.73
496.605	3377.72
496.974	3386.99
497.344	3422.24
497.713	3428.79
498.082	3441.68
498.452	3491.62
498.821	3499.98
499.19	3495.68
499.559	3583.82
499.928	3568.68
500.298	3616.81
500.667	3655.45
501.036	3609.35
501.405	3676.02
501.774	3635.57
502.143	3706.75
502.512	3737.03
502.88	3711.27
503.249	3747.43
503.618	3774.77
503.987	3806.86
504.356	3809.35
504.724	3821.78
505.093	3890.25
505.462	3857.71
505.83	3851.38
506.199	3925.96
506.567	3956.46
506.936	3924.37
507.304	3948.33
507.672	3984.26
508.041	4009.57
508.409	4049.34
508.777	4059.06
509.145	4130.7
509.514	4099.51
509.882	4065.16
510.25	4088.89
510.618	4125.27
510.986	4140.41
511.354	4151.49
511.722	4191.03
512.09	4235.78
512.458	4196.23
512.826	4212.5
513.193	4263.8
513.561	4243.24
513.929	4296.34
514.297	4318.26
514.664	4312.61
515.032	4384.02
515.4	4331.14
515.767	4379.5
516.135	4394.42
516.502	4374.98
516.869	4431.93
517.237	4445.26
517.604	4446.17
517.972	4482.55
518.339	4482.1
518.706	4491.36
519.073	4516.45
519.44	4523.23
519.808	4561.19
520.175	4541.53
520.542	4609.78
520.909	4585.15
521.276	4600.74
521.643	4631.02
522.009	4620.4
522.376	4664.69
522.743	4717.57
523.11	4708.31
523.477	4790.79
523.843	4784.24
524.21	4834.41
524.577	4853.39
524.943	4828.53
525.31	4823.33
525.676	4914.63
526.043	4906.27
526.409	4945.82
526.776	4994.4
527.142	5012.48
527.508	4999.83
527.874	5061.07
528.241	5051.58
528.607	5077.79
528.973	5107.85
529.339	5099.71
529.705	5178.8
530.071	5187.39
530.437	5207.96
530.803	5217.9
531.169	5307.84
531.535	5273.27
531.901	5284.34
532.267	5301.74
532.632	5378.35
532.998	5360.04
533.364	5345.81
533.73	5424
534.095	5452.7
534.461	5465.8
534.826	5447.5
535.192	5471.23
535.557	5565.46
535.923	5521.17
536.288	5588.51
536.653	5584.9
537.019	5586.7
537.384	5575.4
537.749	5638.68
538.114	5656.08
538.479	5673.48
538.845	5722.29
539.21	5673.93
539.575	5751.67
539.94	5808.84
540.305	5781.05
540.67	5863.76
541.034	5824.89
541.399	5898.56
541.764	5864.89
542.129	5899.69
542.494	5914.38
542.858	5943.53
543.223	5983.76
543.587	6025.11
543.952	5972
544.316	6055.84
544.681	6070.08
545.045	6123.41
545.41	6119.34
545.774	6202.51
546.138	6099.68
546.503	6148.27
546.867	6202.51
547.231	6266.91
547.595	6225.56
547.959	6243.41
548.324	6320.47
548.688	6281.6
549.052	6305.78
549.416	6354.37
549.779	6322.5
550.143	6382.16
550.507	6477.3
550.871	6488.6
551.235	6434.36
551.599	6477.75
551.962	6485.44
552.326	6545.77
552.689	6525.44
553.053	6531.99
553.417	6554.81
553.78	6606.11
554.143	6568.37
554.507	6672.1
554.87	6629.16
555.234	6682.49
555.597	6666.22
555.96	6726.11
556.323	6691.76
556.686	6732.21
557.05	6738.99
557.413	6795.94
557.776	6807.46
558.139	6917.52
558.502	6836.16
558.865	6922.71
559.228	6915.48
559.59	6971.3
559.953	6954.13
560.316	7025.76
560.679	7018.98
561.041	6982.6
561.404	7075.7
561.767	7131.07
562.129	7075.03
562.492	7161.35
562.854	7177.85
563.217	7145.08
563.579	7148.02
563.941	7225.98
564.304	7265.76
564.666	7329.71
565.028	7319.54
565.39	7325.87
565.753	7327.22
566.115	7391.63
566.477	7426.43
566.839	7434.56
567.201	7522.47
567.563	7458.07
567.925	7522.47
568.287	7592.75
568.648	7604.73
569.01	7624.84
569.372	7653.54
569.734	7607.22
570.095	7672.52
570.457	7729.47
570.819	7716.36
571.18	7741.9
571.542	7872.74
571.903	7771.96
572.265	7928.11
572.626	7968.34
572.987	7970.14
573.349	8006.3
573.71	8013.76
574.071	8095.56
574.432	8130.82
574.794	8259.18
575.155	8228.89
575.516	8265.28
575.877	8328.33
576.238	8387.99
576.599	8436.35
576.96	8563.8
577.32	8550.24
577.681	8684.93
578.042	8739.16
578.403	8796.34
578.763	8907.29
579.124	8974.64
579.485	9099.15
579.845	9128.53
580.206	9226.16
580.566	9303.22
580.927	9427.05
581.287	9539.37
581.648	9617.33
582.008	9771
582.368	9937.32
582.728	10107.94
583.089	10160.37
583.449	10293.47
583.809	10481.26
584.169	10685.1
584.529	10828.6
584.889	11016.84
585.249	11126.22
585.609	11287.57
585.969	11483.27
586.329	11626.32
586.688	11887.33
587.048	12106.98
587.408	12279.18
587.768	12418.61
588.127	12624.26
588.487	12883.23
588.846	13213.17
589.206	13363.9
589.565	13574.52
589.925	13903.09
590.284	14037.55
590.643	14291.56
591.003	14573.59
591.362	14900.13
591.721	15055.15
592.08	15446.11
592.44	15780.11
592.799	15921.57
593.158	16174.67
593.517	16432.97
593.876	16836.8
594.235	17152.5
594.593	17289.22
594.952	17632.71
595.311	17766.27
595.67	18163.1
596.029	18542.75
596.387	18796.75
596.746	19220.92
597.104	19266.34
597.463	19598.54
597.822	19946.55
598.18	20234.91
598.538	20387.22
598.897	20813.87
599.255	20937.26
599.613	21594.42
599.972	21585.38
600.33	21906.05
600.688	22195.31
601.046	22560.49
601.404	22870.77
601.762	23072.57
602.12	23494.93
602.478	23696.51
602.836	23990.97
603.194	24139.66
603.552	24370.39
603.91	24599.54
604.268	25075.68
604.625	25200.2
604.983	25501.89
605.341	25636.57
605.698	26106.39
606.056	26262.54
606.413	26464.12
606.771	26888.06
607.128	27180.49
607.485	27147.04
607.843	27494.15
608.2	27875.83
608.557	28170.52
608.914	28154.25
609.272	28608.02
609.629	28725.76
609.986	29086.2
610.343	29149.7
610.7	29636.47
611.057	29635.79
611.414	29722.34
611.771	29965.72
612.127	30444.13
612.484	30619.94
612.841	30740.84
613.198	30738.36
613.554	30935.42
613.911	31253.15
614.267	31408.62
614.624	31538.11
614.98	31786.92
615.337	32198.21
615.693	32166.12
616.05	32219.22
616.406	32659.44
616.762	32604.75
617.118	32765.88
617.475	32912.54
617.831	33073.21
618.187	33240.21
618.543	33283.83
618.899	33725.85
619.255	33827.99
619.611	33757.71
619.967	34125.61
620.323	34218.49
620.678	34227.08
621.034	34251.49
621.39	34319.28
621.746	34472.27
622.101	34997.68
622.457	34662.1
622.812	34718.82
623.168	35008.98
623.523	35198.58
623.879	35221.18
624.234	35155.19
624.589	35424.56
624.945	35492.81
625.3	35695.97
625.655	35583.2
626.01	35890.99
626.365	35825.91
626.72	35881.27
627.075	35956.53
627.43	35934.83
627.785	35868.85
628.14	36106.8
628.495	36120.59
628.85	36152.23
629.205	36187.25
629.559	36444.2
629.914	36332.79
630.269	36337.99
630.623	36290.98
630.978	36340.47
631.332	36651.42
631.687	36678.77
632.041	36546.34
632.396	36527.58
632.75	36467.02
633.104	36576.62
633.459	36554.7
633.813	36466.12
634.167	36637.64
634.521	36508.83
634.875	36633.34
635.229	36449.85
635.583	36489.39
635.937	36570.3
636.291	36581.82
636.645	36584.08
636.999	36521.71
637.352	36646
637.706	36499.79
638.06	36607.81
638.413	36467.47
638.767	36522.16
639.121	36615.04
639.474	36435.84
639.828	36398.55
640.181	36615.27
640.534	36520.58
640.888	36556.96
641.241	36423.18
641.594	36447.59
641.947	36597.64
642.301	36487.59
642.654	36435.84
643.007	36486.68
643.36	36575.04
643.713	36549.51
644.066	36669.95
644.419	36373.24
644.771	36248.04
645.124	35946.81
645.477	35923.08
645.83	35624.78
646.182	35422.98
646.535	35537.55
646.888	35441.06
647.24	35361.06
647.593	35460.27
647.945	35542.07
648.298	35341.85
648.65	35211.69
649.002	35211.46
649.355	35473.38
649.707	35369.2
650.059	35418.69
650.411	35936.87
650.763	35763.54
651.115	36313.13
651.467	36139.57
651.819	36175.28
652.171	36078.11
652.523	35999.69
652.875	36028.16
653.227	35942.29
653.578	36256.86
653.93	35954.94
654.282	35893.93
654.633	35878.79
654.985	35755.18
655.337	35910.65
655.688	35931.67
656.039	35985.9
656.391	35792.24
656.742	35776.19
657.094	35824.33
657.445	36032
657.796	35740.94
658.147	35795.17
658.498	35810.99
658.849	35841.95
659.2	35710.21
659.551	35755.63
659.902	35813.48
660.253	35781.16
660.604	35791.56
660.955	35629.76
661.306	35836.08
661.656	35809.41
662.007	35764.67
662.358	35665.46
662.708	35634.05
663.059	35542.3
663.409	35434.73
663.76	35650.09
664.11	35775.51
664.461	35672.47
664.811	35710.21
665.161	35597.21
665.511	35641.28
665.862	35690.32
666.212	35761.96
666.562	35748.62
666.912	35570.32
667.262	35617.1
667.612	35682.41
667.962	35609.64
668.312	35596.31
668.662	35727.83
669.011	35583.65
669.361	35642.86
669.711	35481.96
670.06	35372.13
670.41	35464.56
670.76	35357.9
671.109	35613.94
671.459	35449.87
671.808	35411.23
672.157	35500.72
672.507	35290.1
672.856	35329.65
673.205	35247.17
673.554	35412.59
673.904	35451.68
674.253	35503.66
674.602	35366.26
674.951	34851.02
675.3	34660.74
675.649	35239.48
675.998	35224.12
676.346	35251.01
676.695	35443.55
677.044	35129.66
677.393	35145.93
677.741	35222.31
678.09	35116.32
678.438	35189.09
678.787	35099.83
679.135	35121.29
679.484	35060.96
679.832	35049.88
680.181	34864.58
680.529	34923.79
680.877	34903.67
681.225	34857.57
681.573	35048.75
681.922	34633.17
682.27	34662.1
682.618	34657.8
682.966	34505.49
683.314	34635.88
683.661	34504.36
684.009	34489.67
684.357	34370.58
684.705	34309.79
685.053	34354.31
685.4	34183.92
685.748	34144.14
686.095	34088.55
686.443	33998.39
686.79	33983.92
687.138	34032.51
687.485	33978.73
687.832	33776.92
688.18	33834.1
688.527	33837.71
688.874	33670.94
689.221	33536.25
689.568	33417.84
689.915	33414.67
690.262	33387.33
690.609	33345.07
690.956	33253.55
691.303	33124.51
691.65	33083.16
691.997	33005.42
692.344	32770.62
692.69	32889.49
693.037	32840
693.383	32591.64
693.73	32724.75
694.077	32526.11
694.423	32600.68
694.769	32374.47
695.116	32369.73
695.462	32280.92
695.808	32168.83
696.155	32190.52
696.501	31973.81
696.847	32065.78
697.193	31861.04
697.539	31991.21
697.885	31705.34
698.231	31630.54
698.577	31521.84
698.923	31567.49
699.269	31360.49
699.614	31328.17
699.96	31257.21
700.306	31332.92
700.651	31089.08
700.997	30999.14
701.342	30915.3
701.688	30901.74
702.033	30733.84
702.379	30874.4
702.724	30807.96
703.069	30696.55
703.415	30375.88
703.76	30403.68
704.105	30449.33
704.45	30316.67
704.795	30222.21
705.14	30016.34
705.485	29929.57
705.83	29881.43
706.175	29967.53
706.52	29857.93
706.865	29774.54
707.209	29736.12
707.554	29586.52
707.899	29786.07
708.243	29480.54
708.588	29547.88
708.932	29271.73
709.277	29287.32
709.621	29277.61
709.966	29058.18
710.31	29147.21
710.654	28923.94
710.998	29000.1
711.342	29043.26
711.687	28991.51
712.031	28738.86
712.375	28730.05
712.719	28638.98
713.063	28609.37
713.407	28833.32
713.75	28583.84
714.094	28591.3
714.438	28424.52
714.782	28463.16
715.125	28340
715.469	28514.01
715.812	28227.01
716.156	28029.96
716.499	28037.41
716.843	28113.12
717.186	28045.55
717.53	28066.56
717.873	28122.83
718.216	27930.07
718.559	27800.81
718.902	27708.83
719.246	27724.43
719.589	27704.77
719.932	27476.52
720.275	27607.59
720.617	27543.19
720.96	27457.31
721.303	27481.49
721.646	27412.34
721.989	27261.16
722.331	27349.97
722.674	27304.78
723.016	27310.65
723.359	27094.39
723.701	27196.3
724.044	26941.62
724.386	26865.01
724.729	27049.19
725.071	26913.15
725.413	27061.39
725.755	26843.55
726.097	26818.01
726.439	26709.54
726.782	26670.22
727.124	26687.17
727.465	26508.41
727.807	26579.15
728.149	26496.89
728.491	26458.92
728.833	26558.58
729.175	26331.02
729.516	26334.86
729.858	26292.83
730.199	26392.71
730.541	26345.48
730.882	26241.08
731.224	26272.94
731.565	26116.33
731.906	26122.21
732.248	26212.6
732.589	26029.78
732.93	25942.78
733.271	25924.47
733.612	26021.42
733.953	25959.95
734.294	25900.75
734.635	25670.7
734.976	25879.73
735.317	25607.42
735.658	25711.6
735.999	25659.85
736.339	25564.48
736.68	25594.99
737.021	25479.97
737.361	25543.01
737.702	25472.73
738.042	25451.04
738.383	25356.13
738.723	25468.89
739.063	25397.03
739.404	25351.38
739.744	25265.73
740.084	25167.66
740.424	25267.32
740.764	25230.93
741.104	25292.85
741.444	25083.82
741.784	24935.35
742.124	25096.47
742.464	25091.73
742.804	24909.36
743.143	24956.14
743.483	24993.65
743.823	24916.59
744.162	24742.13
744.502	24784.16
744.841	24801.57
745.181	24839.98
745.52	24708.69
745.86	24723.38
746.199	24588.24
746.538	24599.08
746.877	24637.5
747.216	24476.6
747.556	24558.86
747.895	24442.93
748.234	24387.79
748.573	24360.67
748.911	24294.69
749.25	24277.06
749.589	24263.73
749.928	24214.01
750.267	24242.48
750.605	24101.92
750.944	24135.14
751.283	24145.54
751.621	24133.11
751.96	24002.49
752.298	23945.09
752.636	23934.7
752.975	23840.46
753.313	23783.97
753.651	23855.38
753.989	23780.12
754.327	23744.64
754.666	23541.26
755.004	23573.35
755.342	23605.21
755.679	23479.57
756.017	23547.81
756.355	23579.22
756.693	23400.7
757.031	23437.53
757.368	23275.28
757.706	23224.21
758.044	23177.88
758.381	23179.01
758.719	23111.67
759.056	23106.02
759.394	23016.3
759.731	22922.74
760.068	22782.86
760.405	22797.55
760.743	22698.57
