Data from hue_120_FLMS001491_00050.txt Node
Date: Tue Feb 07 16:59:27 GMT 2017
User: dcchb
Spectrometer: FLMS00149
Trigger mode: 0
Integration Time (sec): 2.000000E-2
Scans to average: 10
Electric dark correction enabled: true
Nonlinearity correction enabled: false
Boxcar width: 0
XAxis mode: Wavelengths
Number of Pixels in Spectrum: 2048
>>>>>Begin Spectral Data<<<<<
341.393	-24.65
341.776	-24.65
342.16	-24.65
342.543	-54.02
342.927	-57.64
343.31	-71.42
343.693	-67.36
344.077	-76.62
344.46	-69.16
344.843	-79.79
345.226	-18.77
345.61	-31.65
345.993	-10.41
346.376	-0.01
346.759	21.91
347.142	32.98
347.525	31.17
347.908	69.59
348.291	69.59
348.674	85.86
349.057	114.11
349.44	128.12
349.823	126.08
350.206	158.17
350.588	199.53
350.971	213.54
351.354	217.38
351.737	223.48
352.119	244.95
352.502	256.93
352.884	273.2
353.267	300.54
353.65	304.84
354.032	285.85
354.414	311.39
354.797	330.82
355.179	352.07
355.562	339.64
355.944	339.64
356.326	324.05
356.709	340.99
357.091	337.38
357.473	336.7
357.855	350.26
358.238	371.28
358.62	362.46
359.002	352.29
359.384	350.26
359.766	330.6
360.148	340.09
360.53	343.03
360.912	343.93
361.294	352.74
361.676	349.58
362.057	340.09
362.439	340.09
362.821	338.73
363.203	330.82
363.584	339.41
363.966	325.85
364.348	335.34
364.729	327.89
365.111	322.46
365.493	313.88
365.874	334.21
366.256	313.2
366.637	330.6
367.019	331.5
367.4	324.95
367.781	329.02
368.163	313.2
368.544	317.94
368.925	332.41
369.306	313.2
369.688	328.79
370.069	328.11
370.45	312.75
370.831	344.16
371.212	329.24
371.593	314.55
371.974	319.53
372.355	315.01
372.736	334.21
373.117	334.44
373.498	318.17
373.879	299.19
374.26	330.6
374.641	334.44
375.021	329.24
375.402	365.4
375.783	324.27
376.163	332.63
376.544	332.63
376.925	324.95
377.305	346.64
377.686	331.05
378.066	323.82
378.447	330.82
378.827	330.6
379.208	340.09
379.588	322.69
379.968	341.45
380.349	338.06
380.729	358.39
381.109	323.14
381.489	341.45
381.87	354.1
382.25	353.42
382.63	331.73
383.01	355
383.39	354.78
383.77	363.14
384.15	355.23
384.53	349.81
384.91	349.81
385.29	357.94
385.67	349.58
386.049	374.21
386.429	366.53
386.809	371.28
387.189	375.34
387.568	348.68
387.948	362.24
388.328	357.72
388.707	369.24
389.087	385.29
389.466	355.68
389.846	374.67
390.225	379.64
390.605	374.44
390.984	356.59
391.363	392.07
391.743	404.72
392.122	367.89
392.501	414.89
392.881	393.87
393.26	389.58
393.639	394.78
394.018	419.41
394.397	399.75
394.776	393.42
395.155	412.4
395.534	395.46
395.913	393.2
396.292	399.75
396.671	393.87
397.05	419.41
397.429	408.79
397.808	412.18
398.186	385.74
398.565	399.52
398.944	424.38
399.323	408.34
399.701	421.67
400.08	418.73
400.458	445.85
400.837	432.52
401.215	429.13
401.594	423.25
401.972	452.86
402.351	446.08
402.729	444.72
403.107	458.96
403.486	440.2
403.864	455.57
404.242	466.41
404.62	445.4
404.999	454.66
405.377	464.83
405.755	437.71
406.133	451.05
406.511	474.1
406.889	458.73
407.267	486.07
407.645	477.49
408.023	465.28
408.401	471.39
408.779	488.33
409.156	493.31
409.534	513.64
409.912	505.06
410.29	510.93
410.667	498.05
411.045	521.55
411.422	500.31
411.8	516.36
412.178	536.24
412.555	526.07
412.933	500.31
413.31	542.12
413.687	558.62
414.065	527.66
414.442	566.07
414.819	548.67
415.197	550.93
415.574	556.81
415.951	549.12
416.328	548.67
416.705	551.84
417.082	559.29
417.46	580.54
417.837	586.64
418.214	578.28
418.591	580.08
418.967	578.5
419.344	593.87
419.721	600.2
420.098	610.59
420.475	612.4
420.852	571.95
421.228	629.12
421.605	616.69
421.982	595.45
422.358	614.21
422.735	620.31
423.111	639.74
423.488	647.2
423.864	624.15
424.241	639.29
424.617	646.07
424.994	658.73
425.37	644.04
425.746	644.49
426.123	671.38
426.499	665.96
426.875	686.75
427.251	681.78
427.627	682.45
428.003	702.79
428.379	696.24
428.756	709.8
429.132	703.24
429.507	728.33
429.883	710.02
430.259	729.23
430.635	726.07
431.011	757.25
431.387	754.09
431.763	767.65
432.138	769.68
432.514	783.47
432.89	789.12
433.265	788.67
433.641	820.76
434.016	788.67
434.392	797.93
434.767	812.17
435.143	826.18
435.518	828.66
435.894	823.47
436.269	839.29
436.644	857.14
437.02	848.78
437.395	883.8
437.77	872.05
438.145	875.44
438.52	916.57
438.895	897.82
439.271	897.59
439.646	910.47
440.021	929.9
440.395	945.95
440.77	945.72
441.145	937.36
441.52	949.34
441.895	974.42
442.27	950.24
442.645	976.68
443.019	978.27
443.394	979.62
443.769	980.53
444.143	988.66
444.518	1004.48
444.892	995.44
445.267	1008.09
445.641	1056.68
446.016	1024.37
446.39	1022.11
446.764	1054.42
447.139	1039.28
447.513	1037.47
447.887	1066.62
448.262	1065.04
448.636	1080.41
449.01	1058.72
449.384	1084.25
449.758	1082.9
450.132	1111.82
450.506	1142.55
450.88	1111.37
451.254	1110.47
451.628	1143.68
452.002	1166.96
452.376	1172.61
452.75	1167.64
453.123	1186.62
453.497	1187.07
453.871	1211.25
454.244	1205.15
454.618	1239.95
454.992	1274.75
455.365	1256.22
455.739	1280.63
456.112	1306.39
456.486	1296
456.859	1308.2
457.232	1331.93
457.606	1331.02
457.979	1356.79
458.352	1387.07
458.725	1421.64
459.099	1393.17
459.472	1432.49
459.845	1455.31
460.218	1472.72
460.591	1497.8
460.964	1497.12
461.337	1538.02
461.71	1532.37
462.083	1563.79
462.456	1581.19
462.829	1577.12
463.201	1614.86
463.574	1597.91
463.947	1638.13
464.32	1691.92
464.692	1738.92
465.065	1724.46
465.438	1757.23
465.81	1743.67
466.183	1785.25
466.555	1827.96
466.928	1853.04
467.3	1856.21
467.672	1920.84
468.045	1928.97
468.417	1942.31
468.789	1997.67
469.161	1999.48
469.534	2043.32
469.906	2106.15
470.278	2115.64
470.65	2162.19
471.022	2177.78
471.394	2246.03
471.766	2280.38
472.138	2287.61
472.51	2352.01
472.882	2418.68
473.253	2450.77
473.625	2539.13
473.997	2578.9
474.369	2620.93
474.74	2693.7
475.112	2735.51
475.484	2836.3
475.855	2864.54
476.227	2900.02
476.598	3015.05
476.97	3063.63
477.341	3158.55
477.713	3189.51
478.084	3212.78
478.455	3387.24
478.827	3459.56
479.198	3563.28
479.569	3547.46
479.94	3718.31
480.311	3801.24
480.682	3879.66
481.053	4028.13
481.424	4116.26
481.795	4202.59
482.166	4318.97
482.537	4423.82
482.908	4525.74
483.279	4616.36
483.65	4814.32
484.021	4932.51
484.391	5018.38
484.762	5137.48
485.133	5195.78
485.503	5348.77
485.874	5488.88
486.244	5633.06
486.615	5764.58
486.985	5946.04
487.356	6082.54
487.726	6193.27
488.097	6401.63
488.467	6494.28
488.837	6725.46
489.207	6792.58
489.578	6931.56
489.948	7119.35
490.318	7278.44
490.688	7375.61
491.058	7524.53
491.428	7711.65
491.798	7855.37
492.168	8121.58
492.538	8198.19
492.908	8342.59
493.278	8571.96
493.648	8578.07
494.017	8747.33
494.387	8928.11
494.757	9006.08
495.126	9270.25
495.496	9309.12
495.866	9441.55
496.235	9599.96
496.605	9793.85
496.974	9913.85
497.344	9998.59
497.713	10169.21
498.082	10280.85
498.452	10435.64
498.821	10549.31
499.19	10654.17
499.559	10787.05
499.928	10853.49
500.298	11069.75
500.667	11125.57
501.036	11235.62
501.405	11459.57
501.774	11406.69
502.143	11541.83
502.512	11632.45
502.88	11749.51
503.249	11803.29
503.618	11884.19
503.987	12069.27
504.356	12138.88
504.724	12316.05
505.093	12294.58
505.462	12382.71
505.83	12503.16
506.199	12637.62
506.567	12787.67
506.936	12733.44
507.304	12918.29
507.672	12949.7
508.041	13074.67
508.409	13225.85
508.777	13304.72
509.145	13346.53
509.514	13430.59
509.882	13480.08
510.25	13553.08
510.618	13641.66
510.986	13605.05
511.354	13752.39
511.722	13863.35
512.09	13967.08
512.458	13934.99
512.826	14078.71
513.193	14221.53
513.561	14198.48
513.929	14258.37
514.297	14367.74
514.664	14396.22
515.032	14468.31
515.4	14423.79
515.767	14536.55
516.135	14595.53
516.502	14489.55
516.869	14837.11
517.237	14756.21
517.604	14837.79
517.972	14903.32
518.339	14931.34
518.706	14888.41
519.073	14990.78
519.44	15002.3
519.808	15142.64
520.175	15085.92
520.542	15294.27
520.909	15247.95
521.276	15348.96
521.643	15414.95
522.009	15525.45
522.376	15425.12
522.743	15556.64
523.11	15661.04
523.477	15725
523.843	15720.25
524.21	15865.78
524.577	15893.81
524.943	15932.9
525.31	15898.32
525.676	15966.12
526.043	16010.41
526.409	16039.34
526.776	16152.1
527.142	16174.48
527.508	16191.88
527.874	16361.14
528.241	16258.09
528.607	16333.34
528.973	16378.54
529.339	16338.77
529.705	16499.21
530.071	16461.7
530.437	16450.17
530.803	16522.04
531.169	16501.02
531.535	16367.01
531.901	16479.78
532.267	16515.48
532.632	16541.02
532.998	16541.47
533.364	16576.05
533.73	16462.15
534.095	16618.31
534.461	16597.74
534.826	16543.73
535.192	16660.11
535.557	16607.91
535.923	16517.07
536.288	16501.92
536.653	16597.74
537.019	16492.66
537.384	16526.11
537.749	16508.25
538.114	16520.46
538.479	16462.38
538.845	16434.81
539.21	16286.34
539.575	16346
539.94	16366.56
540.305	16414.7
540.67	16237.98
541.034	16300.57
541.399	16278.65
541.764	16230.97
542.129	16251.99
542.494	16272.78
542.858	16185.77
543.223	16125.66
543.587	16260.35
543.952	16152.56
544.316	16144.87
544.681	16140.13
545.045	16059.45
545.41	16142.39
545.774	16068.49
546.138	16048.38
546.503	15913.47
546.867	15952.11
547.231	15989.85
547.595	15930.41
547.959	15979.45
548.324	15885.9
548.688	15839.8
549.052	15894.03
549.416	15928.38
549.779	15779.01
550.143	15826.46
550.507	15839.34
550.871	15836.63
551.235	15782.17
551.599	15695.39
551.962	15689.97
552.326	15690.42
552.689	15724.09
553.053	15680.25
553.417	15622.63
553.78	15824.2
554.143	15651.55
554.507	15652.46
554.87	15612.68
555.234	15766.8
555.597	15603.19
555.96	15536.3
556.323	15554.61
556.686	15586.92
557.05	15670.76
557.413	15575.85
557.776	15615.39
558.139	15674.15
558.502	15588.05
558.865	15591.44
559.228	15622.85
559.59	15656.07
559.953	15606.36
560.316	15711.89
560.679	15629.41
561.041	15713.92
561.404	15771.1
561.767	15802.06
562.129	15715.73
562.492	15875.05
562.854	15799.57
563.217	15783.3
563.579	15756.18
563.941	15866.46
564.304	15849.51
564.666	15814.94
565.028	15852.68
565.39	15880.92
565.753	15893.13
566.115	15974.71
566.477	15958.66
566.839	16091.99
567.201	16071.43
567.563	16029.85
567.925	16071.65
568.287	16129.96
568.648	16145.78
569.01	16121.82
569.372	16161.59
569.734	16195.49
570.095	16174.25
570.457	16264.64
570.819	16281.59
571.18	16312.78
571.542	16251.08
571.903	16268.71
572.265	16389.61
572.626	16386.67
572.987	16306.9
573.349	16382.38
573.71	16346
574.071	16429.16
574.432	16493.34
574.794	16523.17
575.155	16464.41
575.516	16466.45
575.877	16565.2
576.238	16550.51
576.599	16520.68
576.96	16531.3
577.32	16569.27
577.681	16571.98
578.042	16670.06
578.403	16613.56
578.763	16639.55
579.124	16682.03
579.485	16646.55
579.845	16652.2
580.206	16725.2
580.566	16659.66
580.927	16557.29
581.287	16661.92
581.648	16598.19
582.008	16745.31
582.368	16691.98
582.728	16727.46
583.089	16650.62
583.449	16654.46
583.809	16607.23
584.169	16649.04
584.529	16604.52
584.889	16738.75
585.249	16548.7
585.609	16533.79
585.969	16659.21
586.329	16592.77
586.688	16642.71
587.048	16565.43
587.408	16502.83
587.768	16541.7
588.127	16486.78
588.487	16395.26
588.846	16551.19
589.206	16550.74
589.565	16492.89
589.925	16552.09
590.284	16490.4
590.643	16444.98
591.003	16477.29
591.362	16556.16
591.721	16415.6
592.08	16451.08
592.44	16527.01
592.799	16492.43
593.158	16408.82
593.517	16531.98
593.876	16510.96
594.235	16415.83
594.593	16382.15
594.952	16403.62
595.311	16321.59
595.67	16390.52
596.029	16439.55
596.387	16438.65
596.746	16496.05
597.104	16416.73
597.463	16357.3
597.822	16418.76
598.18	16333.57
598.538	16403.4
598.897	16426.22
599.255	16244.53
599.613	16550.74
599.972	16357.3
600.33	16542.83
600.688	16333.79
601.046	16461.02
601.404	16460.34
601.762	16484.75
602.12	16515.71
602.478	16498.08
602.836	16455.15
603.194	16384.64
603.552	16452.43
603.91	16400.01
604.268	16422.83
604.625	16403.62
604.983	16468.71
605.341	16310.74
605.698	16395.26
606.056	16322.95
606.413	16430.51
606.771	16519.78
607.128	16516.84
607.485	16456.73
607.843	16536.05
608.2	16569.72
608.557	16552.54
608.914	16487.69
609.272	16609.27
609.629	16567.01
609.986	16637.51
610.343	16591.64
610.7	16715.03
611.057	16541.25
611.414	16643.39
611.771	16645.65
612.127	16710.96
612.484	16704.41
612.841	16766.78
613.198	16665.54
613.554	16664.86
613.911	16752.54
614.267	16702.15
614.624	16653.56
614.98	16641.13
615.337	16854.46
615.693	16784.4
616.05	16770.39
616.406	16797.96
616.762	16830.96
617.118	16788.25
617.475	16835.48
617.831	16812.2
618.187	16877.96
618.543	16885.42
618.899	16923.16
619.255	16880.9
619.611	16937.85
619.967	16938.75
620.323	17028.01
620.678	16892.88
621.034	16968.13
621.39	16924.74
621.746	16920.67
622.101	17050.16
622.457	17006.77
622.812	16969.94
623.168	17004.51
623.523	16939.65
623.879	17089.48
624.234	16901.46
624.589	16999.99
624.945	17073.44
625.3	17037.5
625.655	17001.57
626.01	16978.07
626.365	16940.11
626.72	16980.33
627.075	16948.24
627.43	16947.11
627.785	16894.91
628.14	16933.78
628.495	16894.46
628.85	16922.7
629.205	16893.55
629.559	16952.76
629.914	16843.38
630.269	16909.37
630.623	16761.81
630.978	16811.07
631.332	16874.12
631.687	16878.19
632.041	16856.27
632.396	16891.29
632.75	16839.77
633.104	16707.57
633.459	16706.44
633.813	16671.86
634.167	16779.21
634.521	16701.24
634.875	16715.25
635.229	16663.5
635.583	16590.51
635.937	16531.3
636.291	16533.34
636.645	16503.51
636.999	16545.77
637.352	16614.92
637.706	16414.47
638.06	16598.65
638.413	16494.92
638.767	16482.26
639.121	16528.59
639.474	16381.02
639.828	16395.71
640.181	16380.35
640.534	16482.49
640.888	16324.3
641.241	16322.49
641.594	16364.75
641.947	16370.18
642.301	16265.77
642.654	16374.47
643.007	16267.35
643.36	16266
643.713	16282.72
644.066	16299.9
644.419	16228.26
644.771	16104.2
645.124	15952.11
645.477	15950.07
645.83	15939.68
646.182	15827.37
646.535	15850.64
646.888	15766.12
647.24	15655.39
647.593	15662.85
647.945	15606.58
648.298	15652.91
648.65	15630.08
649.002	15619.69
649.355	15707.6
649.707	15701.27
650.059	15838.21
650.411	15910.98
650.763	16007.25
651.115	16095.83
651.467	16067.59
651.819	16006.57
652.171	16046.57
652.523	16014.71
652.875	15997.31
653.227	15907.36
653.578	16155.72
653.93	16054.03
654.282	15844.77
654.633	16006.57
654.985	16071.88
655.337	15900.58
655.688	15968.61
656.039	16086.79
656.391	15987.36
656.742	15960.02
657.094	15879.12
657.445	16053.35
657.796	15952.11
658.147	15925.67
658.498	16012.45
658.849	15969.06
659.2	16005.89
659.551	15977.87
659.902	16001.6
660.253	16031.43
660.604	16011.32
660.955	15915.27
661.306	16059.9
661.656	16041.6
662.007	16097.64
662.358	15970.41
662.708	16046.12
663.059	15979.68
663.409	15886.8
663.76	16014.71
664.11	16063.07
664.461	16004.76
664.811	16111.2
665.161	16063.97
665.511	16034.82
665.862	16072.56
666.212	16059.22
666.562	16058.77
666.912	15979.23
667.262	16063.74
667.612	15991.2
667.962	16034.37
668.312	16067.13
668.662	16120.47
669.011	16092.44
669.361	15994.37
669.711	16077.76
670.06	15881.38
670.41	15877.76
670.76	15861.94
671.109	15878.66
671.459	15875.27
671.808	15855.39
672.157	15936.52
672.507	15831.89
672.856	15837.08
673.205	15899.23
673.554	15936.74
673.904	15828.27
674.253	15925.22
674.602	15826.91
674.951	15555.96
675.3	15541.72
675.649	15790.08
675.998	15742.4
676.346	15749.4
676.695	15760.02
677.044	15646.35
677.393	15760.02
677.741	15782.85
678.09	15748.95
678.438	15653.36
678.787	15645
679.135	15680.03
679.484	15479.8
679.832	15567.26
680.181	15519.35
680.529	15573.36
680.877	15515.96
681.225	15454.27
681.573	15522.29
681.922	15376.76
682.27	15360.71
682.618	15386.25
682.966	15342.86
683.314	15344.67
683.661	15369.07
684.009	15219.02
684.357	15195.52
684.705	15167.95
685.053	15117.78
685.4	15167.5
685.748	15061.06
686.095	15073.26
686.443	14938.58
686.79	15000.27
687.138	14979.25
687.485	14975.64
687.832	14978.58
688.18	14858.58
688.527	14836.66
688.874	14774.51
689.221	14794.85
689.568	14680.05
689.915	14640.73
690.262	14639.83
690.609	14591.92
690.956	14572.26
691.303	14511.47
691.65	14448.19
691.997	14464.46
692.344	14305.37
692.69	14334.75
693.037	14343.34
693.383	14162.78
693.73	14202.55
694.077	14210.69
694.423	14072.84
694.769	14097.02
695.116	14078.94
695.462	14010.69
695.808	13974.99
696.155	13974.76
696.501	13895.21
696.847	13843.46
697.193	13780.41
697.539	13802.33
697.885	13690.25
698.231	13630.59
698.577	13652.06
698.923	13616.58
699.269	13519.86
699.614	13453.19
699.96	13332.29
700.306	13317.83
700.651	13252.74
700.997	13228.11
701.342	13152.18
701.688	13214.1
702.033	13103.14
702.379	13098.4
702.724	13132.3
703.069	13102.01
703.415	12938.63
703.76	12977.72
704.105	12960.55
704.45	12924.17
704.795	12751.97
705.14	12747.67
705.485	12786.32
705.83	12710.16
706.175	12716.94
706.52	12716.26
706.865	12603.27
707.209	12684.17
707.554	12584.74
707.899	12523.27
708.243	12476.95
708.588	12427.68
708.932	12285.76
709.277	12355.82
709.621	12379.32
709.966	12250.29
710.31	12271.98
710.654	12155.15
710.998	12193.56
711.342	12211.87
711.687	12144.98
712.031	12088.48
712.375	12073.34
712.719	12107.46
713.063	12089.39
713.407	12125.77
713.75	12108.82
714.094	11974.13
714.438	11945.43
714.782	11940.01
715.125	11856.62
715.469	11923.51
715.812	11833.35
716.156	11757.42
716.499	11786.79
716.843	11754.48
717.186	11726.91
717.53	11874.93
717.873	11772.33
718.216	11625.22
718.559	11706.34
718.902	11674.03
719.246	11618.21
719.589	11650.3
719.932	11559.46
720.275	11529.4
720.617	11558.78
720.96	11508.16
721.303	11525.78
721.646	11512.68
721.989	11472.45
722.331	11423.87
722.674	11424.09
723.016	11494.82
723.359	11429.06
723.701	11465.9
724.044	11330.76
724.386	11328.95
724.729	11330.31
725.071	11323.3
725.413	11319.01
725.755	11276.3
726.097	11237.43
726.439	11258.45
726.782	11290.99
727.124	11281.72
727.465	11280.59
727.807	11276.07
728.149	11295.06
728.491	11225
728.833	11199.92
729.175	11314.72
729.516	11187.26
729.858	11239.46
730.199	11167.38
730.541	11187.94
730.882	11151.33
731.224	11198.34
731.565	11183.65
731.906	11192.46
732.248	11129.41
732.589	11088.51
732.93	11131.22
733.271	11127.38
733.612	11104.55
733.953	11120.82
734.294	11140.94
734.635	11096.87
734.976	11105.91
735.317	11088.73
735.658	11047.83
735.999	11052.12
736.339	11067.72
736.68	11106.13
737.021	11154.95
737.361	11083.08
737.702	11125.8
738.042	11065.91
738.383	11046.25
738.723	11094.84
739.063	11054.16
739.404	11143.42
739.744	11125.57
740.084	11075.4
740.424	11146.36
740.764	11151.33
741.104	11173.03
741.444	11123.54
741.784	11178.67
742.124	11156.98
742.464	11148.39
742.804	11170.31
743.143	11191.1
743.483	11204.89
743.823	11285.11
744.162	11214.38
744.502	11393.58
744.841	11316.52
745.181	11399.01
745.52	11314.26
745.86	11450.53
746.199	11436.97
746.538	11509.97
746.877	11517.2
747.216	11580.92
747.556	11639.68
747.895	11646.23
748.234	11658.21
748.573	11707.93
748.911	11800.35
749.25	11934.59
749.589	11874.93
749.928	11910.41
750.267	12041.7
750.605	12121.7
750.944	12179.78
751.283	12277.86
751.621	12393.33
751.96	12449.38
752.298	12457.06
752.636	12688.47
752.975	12655.92
753.313	12737.73
753.651	12885.3
753.989	12939.08
754.327	13091.17
754.666	13180.2
755.004	13303.82
755.342	13448.67
