Data from hue_320_FLMS001491_73.txt Node
Date: Mon Feb 06 15:47:40 GMT 2017
User: dcchb
Spectrometer: FLMS00149
Trigger mode: 0
Integration Time (sec): 2.000000E-2
Scans to average: 10
Electric dark correction enabled: true
Nonlinearity correction enabled: false
Boxcar width: 0
XAxis mode: Wavelengths
Number of Pixels in Spectrum: 2048
>>>>>Begin Spectral Data<<<<<
341.393	-3.4
341.776	-3.4
342.16	-3.4
342.543	-54.48
342.927	-74.14
343.31	-81.82
343.693	-79.56
344.077	-80.69
344.46	-58.09
344.843	-55.15
345.226	-34.36
345.61	-43.63
345.993	-10.18
346.376	-2.27
346.759	13.77
347.142	39.53
347.525	49.48
347.908	56.71
348.291	81.57
348.674	80.44
349.057	124.28
349.44	121.34
349.823	145.97
350.206	176.03
350.588	192.98
350.971	208.57
351.354	225.06
351.737	215.35
352.119	233.2
352.502	253.09
352.884	260.77
353.267	294.44
353.65	263.03
354.032	303.48
354.414	284.27
354.797	309.81
355.179	286.76
355.562	307.55
355.944	313.65
356.326	325.63
356.709	352.29
357.091	334.44
357.473	346.19
357.855	341.9
358.238	348.68
358.62	332.63
359.002	337.15
359.384	338.06
359.766	317.27
360.148	332.18
360.53	328.56
360.912	305.29
361.294	319.98
361.676	331.28
362.057	339.19
362.439	312.29
362.821	309.58
363.203	311.39
363.584	293.54
363.966	322.69
364.348	312.75
364.729	330.6
365.111	301.67
365.493	303.93
365.874	295.57
366.256	328.34
366.637	318.17
367.019	298.06
367.4	311.39
367.781	292.41
368.163	298.06
368.544	309.36
368.925	311.62
369.306	308.68
369.688	275.46
370.069	301.67
370.45	297.15
370.831	284.95
371.212	313.88
371.593	311.84
371.974	296.93
372.355	305.29
372.736	308.45
373.117	319.3
373.498	297.38
373.879	315.46
374.26	296.93
374.641	304.38
375.021	316.36
375.402	325.4
375.783	308.68
376.163	331.95
376.544	317.94
376.925	329.47
377.305	330.82
377.686	323.14
378.066	311.16
378.447	329.69
378.827	346.19
379.208	321.11
379.588	312.97
379.968	315.91
380.349	338.06
380.729	325.18
381.109	328.11
381.489	330.37
381.87	315.01
382.25	308.23
382.63	325.4
383.01	319.07
383.39	337.83
383.77	335.57
384.15	344.84
384.53	362.01
384.91	326.3
385.29	340.54
385.67	335.34
386.049	356.13
386.429	339.86
386.809	314.55
387.189	340.09
387.568	329.69
387.948	358.17
388.328	340.54
388.707	324.95
389.087	336.93
389.466	342.8
389.846	355.46
390.225	345.74
390.605	358.17
390.984	346.87
391.363	364.95
391.743	347.1
392.122	360.2
392.501	363.59
392.881	360.2
393.26	371.5
393.639	369.69
394.018	372.63
394.397	372.18
394.776	368.34
395.155	358.17
395.534	372.41
395.913	373.76
396.292	360.65
396.671	372.18
397.05	378.28
397.429	352.29
397.808	368.56
398.186	377.38
398.565	401.33
398.944	398.39
399.323	369.92
399.701	399.07
400.08	384.16
400.458	397.26
400.837	408.79
401.215	379.86
401.594	391.16
401.972	401.78
402.351	395.46
402.729	392.29
403.107	420.09
403.486	395.68
403.864	399.07
404.242	406.53
404.62	427.09
404.999	409.92
405.377	417.83
405.755	423.03
406.133	417.83
406.511	420.54
406.889	436.58
407.267	432.29
407.645	444.72
408.023	425.96
408.401	427.55
408.779	460.54
409.156	478.17
409.534	454.21
409.912	454.66
410.29	473.19
410.667	452.86
411.045	479.07
411.422	472.74
411.8	462.8
412.178	476.58
412.555	508.67
412.933	473.65
413.31	510.48
413.687	528.11
414.065	528.11
414.442	547.77
414.819	515
415.197	517.26
415.574	521.33
415.951	541.44
416.328	555.45
416.705	549.58
417.082	555.68
417.46	554.1
417.837	574.21
418.214	583.7
418.591	581.44
418.967	586.86
419.344	607.65
419.721	586.86
420.098	602.23
420.475	617.37
420.852	610.14
421.228	629.8
421.605	602.68
421.982	657.37
422.358	638.16
422.735	643.58
423.111	651.49
423.488	649.23
423.864	669.8
424.241	677.03
424.617	663.92
424.994	704.15
425.37	693.3
425.746	679.97
426.123	696.01
426.499	721.55
426.875	698.72
427.251	700.76
427.627	720.64
428.003	727.88
428.379	722.45
428.756	733.98
429.132	747.54
429.507	786.18
429.883	758.38
430.259	774.65
430.635	802.68
431.011	780.08
431.387	800.64
431.763	826.63
432.138	831.83
432.514	817.14
432.89	829.79
433.265	851.71
433.641	850.36
434.016	845.16
434.392	877.93
434.767	896.23
435.143	899.85
435.518	867.76
435.894	921.77
436.269	916.57
436.644	934.88
437.02	948.21
437.395	936.01
437.77	961.54
438.145	963.8
438.52	970.13
438.895	941.88
439.271	971.94
439.646	986.17
440.021	991.37
440.395	1005.16
440.77	987.53
441.145	1011.71
441.52	1029.34
441.895	1001.09
442.27	1043.8
442.645	998.6
443.019	1040.41
443.394	1060.52
443.769	1039.51
444.143	1035.89
444.518	1069.11
444.892	1031.82
445.267	1044.03
445.641	1046.06
446.016	1066.4
446.39	1052.16
446.764	1087.87
447.139	1053.52
447.513	1089.9
447.887	1086.96
448.262	1090.13
448.636	1083.35
449.01	1070.92
449.384	1104.82
449.758	1103.23
450.132	1081.77
450.506	1092.61
450.88	1103.46
451.254	1133.74
451.628	1136
452.002	1127.64
452.376	1148.2
452.75	1143.68
453.123	1158.6
453.497	1143.23
453.871	1151.82
454.244	1180.97
454.618	1187.98
454.992	1187.3
455.365	1202.21
455.739	1215.77
456.112	1206.96
456.486	1242.21
456.859	1230.69
457.232	1240.63
457.606	1236.11
457.979	1257.13
458.352	1282.44
458.725	1321.76
459.099	1289.44
459.472	1321.31
459.845	1337.13
460.218	1304.81
460.591	1343.91
460.964	1349.78
461.337	1362.66
461.71	1343.45
462.083	1380.51
462.456	1383
462.829	1383.23
463.201	1395.2
463.574	1405.82
463.947	1447.18
464.32	1441.3
464.692	1423.23
465.065	1442.89
465.438	1460.74
465.81	1487.86
466.183	1491.47
466.555	1495.99
466.928	1528.53
467.3	1518.14
467.672	1503.45
468.045	1564.92
468.417	1562.2
468.789	1565.82
469.161	1559.94
469.534	1587.51
469.906	1618.7
470.278	1618.25
470.65	1662.99
471.022	1702.77
471.394	1707.51
471.766	1683.56
472.138	1685.37
472.51	1738.02
472.882	1746.38
473.253	1772.14
473.625	1813.95
473.997	1802.2
474.369	1817.34
474.74	1812.14
475.112	1856.43
475.484	1878.13
475.855	1887.85
476.227	1877
476.598	1960.61
476.97	1928.3
477.341	1970.78
477.713	2009.2
478.084	1994.74
478.455	2079.25
478.827	2046.71
479.198	2117.67
479.569	2094.85
479.94	2142.75
480.311	2163.09
480.682	2210.55
481.053	2235.63
481.424	2224.79
481.795	2263.66
482.166	2283.77
482.537	2303.88
482.908	2340.94
483.279	2384.33
483.65	2383.65
484.021	2434.27
484.391	2467.27
484.762	2469.98
485.133	2481.28
485.503	2499.81
485.874	2549.52
486.244	2556.98
486.615	2570.09
486.985	2643.31
487.356	2650.54
487.726	2671.1
488.097	2720.37
488.467	2696.86
488.837	2767.6
489.207	2782.29
489.578	2794.94
489.948	2840.59
490.318	2837.88
490.688	2846.69
491.058	2914.49
491.428	2956.74
491.798	2963.07
492.168	3003.75
492.538	3047.14
492.908	3040.13
493.278	3059.57
493.648	3016.63
494.017	3131.88
494.387	3123.52
494.757	3082.39
495.126	3128.04
495.496	3141.37
495.866	3144.31
496.235	3164.65
496.605	3160.13
496.974	3253.69
497.344	3269.28
497.713	3296.4
498.082	3286.23
498.452	3362.84
498.821	3326.9
499.19	3314.7
499.559	3351.54
499.928	3317.41
500.298	3374.81
500.667	3432.44
501.036	3448.48
501.405	3470.63
501.774	3390.18
502.143	3454.13
502.512	3488.26
502.88	3487.8
503.249	3443.96
503.618	3460.23
503.987	3474.92
504.356	3532.32
504.724	3512.66
505.093	3548.59
505.462	3553.79
505.83	3563.73
506.199	3592.89
506.567	3614.13
506.936	3657.29
507.304	3650.74
507.672	3637.18
508.041	3668.36
508.409	3668.36
508.777	3709.94
509.145	3717.63
509.514	3709.94
509.882	3732.77
510.25	3747.68
510.618	3732.54
510.986	3707.23
511.354	3811.41
511.722	3803.05
512.09	3801.47
512.458	3812.32
512.826	3830.62
513.193	3808.93
513.561	3816.83
513.929	3888.02
514.297	3900.22
514.664	3896.38
515.032	3891.18
515.4	3897.51
515.767	3927.34
516.135	3911.75
516.502	3865.42
516.869	3960.33
517.237	3936.83
517.604	3946.77
517.972	3969.6
518.339	4003.5
518.706	3959.88
519.073	3983.16
519.44	3995.59
519.808	4002.37
520.175	4036.04
520.542	4062.03
520.909	4052.99
521.276	4072.65
521.643	4107.22
522.009	4098.18
522.376	4134.34
522.743	4133.44
523.11	4161.01
523.477	4189.93
523.843	4196.49
524.21	4224.51
524.577	4271.74
524.943	4305.18
525.31	4271.51
525.676	4280.33
526.043	4308.57
526.409	4311.28
526.776	4362.58
527.142	4359.42
527.508	4372.75
527.874	4415.01
528.241	4445.29
528.607	4417.27
528.973	4461.56
529.339	4449.81
529.705	4515.8
530.071	4519.42
530.437	4505.63
530.803	4550.15
531.169	4555.12
531.535	4609.36
531.901	4627.21
532.267	4590.6
532.632	4654.55
532.998	4687.77
533.364	4655.46
533.73	4740.88
534.095	4743.82
534.461	4778.39
534.826	4772.06
535.192	4770.48
535.557	4806.41
535.923	4797.37
536.288	4841.21
536.653	4889.8
537.019	4865.62
537.384	4853.42
537.749	4934.32
538.114	4984.49
538.479	4941.78
538.845	4926.64
539.21	4970.02
539.575	4988.33
539.94	4972.51
540.305	5020.42
540.67	5034.2
541.034	5023.81
541.399	5098.61
541.764	5070.81
542.129	5118.72
542.494	5130.02
542.858	5184.26
543.223	5175.22
543.587	5237.59
543.952	5194.2
544.316	5243.24
544.681	5300.64
545.045	5286.4
545.41	5353.29
545.774	5325.5
546.138	5323.01
546.503	5378.38
546.867	5394.42
547.231	5437.81
547.595	5445.04
547.959	5486.4
548.324	5503.57
548.688	5477.81
549.052	5507.64
549.416	5517.35
549.779	5582.89
550.143	5584.25
550.507	5602.55
550.871	5657.92
551.235	5604.58
551.599	5635.32
551.962	5664.7
552.326	5645.94
552.689	5731.81
553.053	5729.33
553.417	5764.35
553.78	5746.05
554.143	5755.54
554.507	5794.64
554.87	5841.64
555.234	5828.76
555.597	5824.01
555.96	5864.24
556.323	5887.74
556.686	5833.5
557.05	5894.29
557.413	5887.74
557.776	5902.2
558.139	5985.82
558.502	5950.11
558.865	6023.1
559.228	6051.58
559.59	6021.52
559.953	6014.52
560.316	6069.88
560.679	6081.18
561.041	6095.87
561.404	6137.45
561.767	6180.61
562.129	6117.57
562.492	6228.75
562.854	6204.57
563.217	6248.18
563.579	6240.95
563.941	6291.12
564.304	6257.9
564.666	6336.32
565.028	6357.33
565.39	6367.5
565.753	6381.06
566.115	6371.34
566.477	6376.99
566.839	6436.43
567.201	6455.41
567.563	6416.77
567.925	6498.12
568.287	6538.57
568.648	6537.89
569.01	6595.74
569.372	6629.87
569.734	6570.89
570.095	6692.92
570.457	6676.19
570.819	6709.19
571.18	6690.66
571.542	6735.4
571.903	6815.17
572.265	6844.1
572.626	6860.14
572.987	6901.05
573.349	6914.61
573.71	7023.3
574.071	7030.99
574.432	7148.95
574.794	7065.56
575.155	7155.28
575.516	7256.97
575.877	7249.51
576.238	7311.66
576.599	7360.92
576.96	7430.52
577.32	7496.51
577.681	7646.56
578.042	7680.91
578.403	7795.94
578.763	7824.64
579.124	7832.32
579.485	8047.01
579.845	8140.34
580.206	8201.8
580.566	8201.13
580.927	8399.09
581.287	8504.4
581.648	8635.01
582.008	8797.04
582.368	8914.1
582.728	9004.04
583.089	9117.71
583.449	9354.99
583.809	9550.7
584.169	9651.03
584.529	9684.03
584.889	9961.31
585.249	10154.97
585.609	10211.47
585.969	10467.28
586.329	10622.08
586.688	10846.48
587.048	11050.32
587.408	11252.57
587.768	11479.01
588.127	11646.23
588.487	11822.73
588.846	12184.98
589.206	12418.19
589.565	12665.19
589.925	12895.92
590.284	13090.26
590.643	13359.63
591.003	13672.85
591.362	14081.42
591.721	14135.66
592.08	14475.31
592.44	14678.24
592.799	14976.77
593.158	15271.67
593.517	15533.81
593.876	15862.62
594.235	16074.14
594.593	16352.32
594.952	16672.77
595.311	16943.04
595.67	17306.2
596.029	17595
596.387	17929.91
596.746	18234.31
597.104	18425.49
597.463	18644.69
597.822	19042.42
598.18	19183.44
598.538	19471.56
598.897	19927.37
599.255	20066.58
599.613	20574.59
599.972	20699.55
600.33	21034.01
600.688	21317.62
601.046	21528.69
601.404	21925.06
601.762	22209.8
602.12	22449.11
602.478	22730.91
602.836	22948.54
603.194	23090
603.552	23496.32
603.91	23703.77
604.268	23988.06
604.625	24147.6
604.983	24542.17
605.341	24676.4
605.698	24983.51
606.056	25211.75
606.413	25482.71
606.771	25775.35
607.128	26026.19
607.485	26129.92
607.843	26316.58
608.2	26647.87
608.557	26881.31
608.914	27084.47
609.272	27412.6
609.629	27624.34
609.986	27900.72
610.343	27980.95
610.7	28310.2
611.057	28535.51
611.414	28698.44
611.771	28921.03
612.127	29129.84
612.484	29259.56
612.841	29445.31
613.198	29460.23
613.554	29737.96
613.911	30128.01
614.267	30145.41
614.624	30266.99
614.98	30539.97
615.337	30754.66
615.693	30909.91
616.05	30982.22
616.406	31182.89
616.762	31342.21
617.118	31484.13
617.475	31720.51
617.831	31830.79
618.187	31877.11
618.543	32171.34
618.899	32463.31
619.255	32405.46
619.611	32474.61
619.967	32707.15
620.323	32883.64
620.678	32901.49
621.034	33021.26
621.39	33063.98
621.746	33134.93
622.101	33541.48
622.457	33365.89
622.812	33567.46
623.168	33648.59
623.523	33778.98
623.879	33961.13
624.234	33800.68
624.589	33981.92
624.945	34141.01
625.3	34232.31
625.655	34247.45
626.01	34321.34
626.365	34477.72
626.72	34511.17
627.075	34486.08
627.43	34546.65
627.785	34658.51
628.14	34747.32
628.495	34734.44
628.85	34790.71
629.205	34748.68
629.559	35092.85
629.914	34915
630.269	35037.03
630.623	35075.9
630.978	34976.47
631.332	35265.73
631.687	35346.18
632.041	35123.58
632.396	35240.87
632.75	35120.64
633.104	35182.56
633.459	35265.05
633.813	35291.04
634.167	35212.39
634.521	35285.84
634.875	35311.15
635.229	35284.93
635.583	35253.07
635.937	35399.06
636.291	35378.94
636.645	35387.98
636.999	35375.55
637.352	35459.62
637.706	35263.92
638.06	35457.36
638.413	35345.5
638.767	35310.47
639.121	35397.25
639.474	35189.34
639.828	35264.14
640.181	35333.07
640.534	35329.45
640.888	35148.44
641.241	35135.79
641.594	35232.28
641.947	35357.02
642.301	35128.78
642.654	35241.09
643.007	35209.91
643.36	35297.14
643.713	35262.34
644.066	35318.15
644.419	35129.01
644.771	34890.14
645.124	34578.51
645.477	34613.31
645.83	34367.67
646.182	34307.78
646.535	34192.76
646.888	34318.86
647.24	34087.23
647.593	34270.27
647.945	34215.81
648.298	34188.69
648.65	34113.21
649.002	34013.1
649.355	34118.64
649.707	34086.77
650.059	34207.45
650.411	34738.51
650.763	34691.05
651.115	35153.86
651.467	34920.42
651.819	34946.86
652.171	34906.41
652.523	34875
652.875	34814.44
653.227	34712.52
653.578	34897.83
653.93	34900.54
654.282	34675.68
654.633	34685.85
654.985	34782.12
655.337	34802.23
655.688	34863.02
656.039	34889.46
656.391	34699.64
656.742	34648.11
657.094	34673.65
657.445	34796.81
657.796	34670.49
658.147	34597.49
658.498	34703.93
658.849	34774.44
659.2	34676.59
659.551	34586.42
659.902	34689.7
660.253	34648.57
660.604	34609.92
660.955	34443.15
661.306	34541.45
661.656	34472.75
662.007	34552.75
662.358	34636.59
662.708	34436.82
663.059	34590.49
663.409	34444.5
663.76	34568.12
664.11	34499.19
664.461	34655.8
664.811	34567.66
665.161	34584.16
665.511	34590.26
665.862	34578.96
666.212	34620.54
666.562	34674.1
666.912	34566.08
667.262	34494.22
667.612	34380.1
667.962	34483.82
668.312	34488.34
668.662	34700.99
669.011	34443.15
669.361	34516.59
669.711	34567.66
670.06	34337.61
670.41	34295.58
670.76	34387.78
671.109	34455.8
671.459	34366.99
671.808	34396.14
672.157	34373.32
672.507	34118.64
672.856	34335.58
673.205	34294.45
673.554	34375.35
673.904	34281.57
674.253	34286.99
674.602	34353.43
674.951	33780.34
675.3	33694.02
675.649	34175.58
675.998	34072.99
676.346	34185.53
676.695	34317.95
677.044	34090.84
677.393	34057.62
677.741	34282.47
678.09	34042.25
678.438	33997.51
678.787	33990.05
679.135	34164.74
679.484	33743.28
679.832	34016.72
680.181	33744.18
680.529	33930.17
680.877	33855.82
681.225	33725.88
681.573	34006.78
681.922	33820.11
682.27	33704.86
682.618	33701.02
682.966	33536.05
683.314	33672.77
683.661	33512.78
684.009	33346
684.357	33340.35
684.705	33278.66
685.053	33186.68
685.4	33296.74
685.748	32940.14
686.095	33202.05
686.443	32827.37
686.79	32908.27
687.138	33069.4
687.485	33104.43
687.832	32934.71
688.18	33006.12
688.527	32722.52
688.874	32813.59
689.221	32626.02
689.568	32549.86
689.915	32491.33
690.262	32490.88
690.609	32425.35
690.956	32309.87
691.303	32252.7
691.65	32139.71
691.997	32088.18
692.344	31960.05
692.69	31903.33
693.037	32096.77
693.383	31677.57
693.73	31884.12
694.077	31551.25
694.423	31683.22
694.769	31429.67
695.116	31400.06
695.462	31416.11
695.808	31322.78
696.155	31416.33
696.501	31047.98
696.847	31221.99
697.193	30984.71
697.539	31060.64
697.885	30722.12
698.231	30624.27
698.577	30739.52
698.923	30576.58
699.269	30492.07
699.614	30405.06
699.96	30387.44
700.306	30284.16
700.651	30205.97
700.997	30129.14
701.342	30125.75
701.688	30030.16
702.033	29934.57
702.379	29841.46
702.724	29855.47
703.069	29803.27
703.415	29488.48
703.76	29500.91
704.105	29559.89
704.45	29481.02
704.795	29312.89
705.14	29317.41
705.485	29183.63
705.83	29115.15
706.175	29186.56
706.52	29118.09
706.865	28942.95
707.209	28882.16
707.554	28879.23
707.899	28915.61
708.243	28740.93
708.588	28670.42
708.932	28425.45
709.277	28557.65
709.621	28520.82
709.966	28366.92
710.31	28467.94
710.654	28190.43
710.998	28271.56
711.342	28221.62
711.687	28157.89
712.031	27940.04
712.375	27897.78
712.719	27965.35
713.063	28044.67
713.407	27848.75
713.75	27722.65
714.094	27805.58
714.438	27733.72
714.782	27630.9
715.125	27443.33
715.469	27697.79
715.812	27575.31
716.156	27415.99
716.499	27324.92
716.843	27506.16
717.186	27293.96
717.53	27286.5
717.873	27290.12
718.216	27160.18
718.559	27105.49
718.902	26901.65
719.246	27042.66
719.589	26848.09
719.932	26844.48
720.275	26733.97
720.617	26726.51
720.96	26861.65
721.303	26686.52
721.646	26736.23
721.989	26482.91
722.331	26603.81
722.674	26580.98
723.016	26512.28
723.359	26522.9
723.701	26501.89
724.044	26225.06
724.386	26259.86
724.729	26329.92
725.071	26289.69
725.413	26296.92
725.755	26098.96
726.097	26109.58
726.439	25922.92
726.782	26041.56
727.124	26133.08
727.465	25827.1
727.807	25930.38
728.149	25783.04
728.491	25708.46
728.833	25727.44
729.175	25691.51
729.516	25726.99
729.858	25613.55
730.199	25601.12
730.541	25631.18
730.882	25536.72
731.224	25653.77
731.565	25472.31
731.906	25487.45
732.248	25522.48
732.589	25348.25
732.93	25246.1
733.271	25284.07
733.612	25236.84
733.953	25307.8
734.294	25108.7
734.635	25097.41
734.976	25096.5
735.317	24982.15
735.658	25117.07
735.999	25037.52
736.339	24961.36
736.68	25068.71
737.021	24995.71
737.361	24853.8
737.702	24981.7
738.042	24800.46
738.383	24749.84
738.723	24826
739.063	24709.84
739.404	24767.02
739.744	24782.16
740.084	24574.71
740.424	24608.83
740.764	24551.2
741.104	24588.72
741.444	24459
741.784	24476.86
742.124	24443.18
742.464	24440.47
742.804	24335.39
743.143	24361.83
743.483	24240.25
743.823	24198.45
744.162	24177.2
744.502	24184.66
744.841	24059.24
745.181	24240.25
745.52	24053.36
745.86	24131.55
746.199	23945.57
746.538	23957.32
746.877	23974.72
747.216	23995.51
747.556	23827.38
747.895	23883.43
748.234	23738.34
748.573	23647.5
748.911	23669.42
749.25	23736.76
749.589	23604.56
749.928	23589.2
750.267	23626.71
750.605	23525.47
750.944	23446.83
751.283	23297.68
751.621	23436.66
751.96	23280.05
752.298	23313.95
752.636	23306.49
752.975	23210.68
753.313	23149.43
753.651	23049.55
753.989	23079.61
754.327	23084.35
754.666	22947.63
755.004	22874.86
755.342	22877.35
755.679	22891.36
756.017	22764.36
756.355	22813.85
756.693	22736.11
757.031	22758.48
757.368	22454.08
757.706	22602.33
758.044	22535.66
758.381	22440.3
758.719	22451.6
759.056	22334.77
759.394	22317.37
759.731	22255.45
760.068	22281.66
