Data from hue_270_FLMS001491_00048.txt Node
Date: Tue Feb 07 15:57:15 GMT 2017
User: dcchb
Spectrometer: FLMS00149
Trigger mode: 0
Integration Time (sec): 2.000000E-2
Scans to average: 10
Electric dark correction enabled: true
Nonlinearity correction enabled: false
Boxcar width: 0
XAxis mode: Wavelengths
Number of Pixels in Spectrum: 2048
>>>>>Begin Spectral Data<<<<<
341.393	3.62
341.776	3.62
342.16	3.62
342.543	-75.25
342.927	-58.3
343.31	-65.08
343.693	-78.87
344.077	-62.15
344.46	-45.2
344.843	-58.53
345.226	-41.58
345.61	-46.33
345.993	-5.65
346.376	-3.16
346.759	16.04
347.142	33.67
347.525	41.58
347.908	68.7
348.291	66.21
348.674	70.73
349.057	109.6
349.44	125.19
349.823	136.04
350.206	151.41
350.588	168.36
350.971	208.13
351.354	216.04
351.737	222.82
352.119	240.9
352.502	242.93
352.884	277.51
353.267	277.05
353.65	305.3
354.032	290.39
354.414	304.62
354.797	308.24
355.179	291.07
355.562	294.23
355.944	325.87
356.326	341.46
356.709	341.69
357.091	327.45
357.473	321.57
357.855	315.25
358.238	340.56
358.62	315.7
359.002	341.46
359.384	330.61
359.766	335.81
360.148	340.56
360.53	329.26
360.912	331.52
361.294	329.48
361.676	335.81
362.057	314.57
362.439	308.92
362.821	313.21
363.203	326.55
363.584	320.22
363.966	307.79
364.348	313.66
364.729	317.96
365.111	348.92
365.493	321.57
365.874	296.94
366.256	302.14
366.637	289.71
367.019	289.26
367.4	317.73
367.781	326.32
368.163	286.32
368.544	302.82
368.925	311.86
369.306	314.34
369.688	302.59
370.069	310.27
370.45	313.89
370.831	296.26
371.212	296.04
371.593	306.66
371.974	323.61
372.355	326.77
372.736	323.38
373.117	316.83
373.498	310.95
373.879	318.41
374.26	327.9
374.641	319.31
375.021	324.74
375.402	326.32
375.783	319.31
376.163	319.99
376.544	332.42
376.925	324.96
377.305	315.02
377.686	330.84
378.066	331.06
378.447	328.35
378.827	319.09
379.208	339.88
379.588	317.51
379.968	338.07
380.349	331.06
380.729	329.93
381.109	328.13
381.489	328.13
381.87	332.65
382.25	329.93
382.63	367.22
383.01	332.87
383.39	337.62
383.77	331.97
384.15	342.59
384.53	335.13
384.91	356.83
385.29	337.84
385.67	331.74
386.049	355.47
386.429	355.92
386.809	335.13
387.189	343.95
387.568	341.91
387.948	357.05
388.328	358.41
388.707	332.42
389.087	362.25
389.466	368.8
389.846	366.32
390.225	376.49
390.605	367.45
390.984	387.56
391.363	377.62
391.743	379.65
392.122	388.69
392.501	374.45
392.881	381.68
393.26	392.76
393.639	366.32
394.018	367.22
394.397	374.68
394.776	391.4
395.155	393.89
395.534	379.43
395.913	395.92
396.292	370.84
396.671	416.26
397.05	386.43
397.429	382.59
397.808	396.37
398.186	408.12
398.565	391.63
398.944	393.21
399.323	409.03
399.701	418.29
400.08	419.42
400.458	411.06
400.837	389.14
401.215	417.39
401.594	410.38
401.972	427.11
402.351	446.99
402.729	435.69
403.107	439.54
403.486	427.11
403.864	428.24
404.242	436.6
404.62	441.57
404.999	456.26
405.377	468.69
405.755	458.74
406.133	442.93
406.511	457.39
406.889	484.06
407.267	461.46
407.645	487.67
408.023	484.51
408.401	483.15
408.779	496.03
409.156	502.36
409.534	491.96
409.912	507.78
410.29	529.7
410.667	532.19
411.045	532.42
411.422	523.15
411.8	541.45
412.178	536.26
412.555	538.06
412.933	554.11
413.31	537.84
413.687	569.02
414.065	569.02
414.442	594.11
414.819	591.62
415.197	590.72
415.574	625.97
415.951	602.47
416.328	633.2
416.705	611.51
417.082	649.25
417.46	630.72
417.837	681.34
418.214	663.03
418.591	655.12
418.967	672.07
419.344	651.06
419.721	669.13
420.098	679.08
420.475	668.23
420.852	719.08
421.228	705.97
421.605	722.47
421.982	736.48
422.358	750.71
422.735	764.05
423.111	762.47
423.488	782.8
423.864	807.89
424.241	796.36
424.617	781
424.994	809.92
425.37	823.71
425.746	829.13
426.123	827.32
426.499	858.51
426.875	854.67
427.251	883.82
427.627	874.78
428.003	888.11
428.379	887.89
428.756	904.38
429.132	923.59
429.507	924.04
429.883	915.23
430.259	944.38
430.635	976.25
431.011	967.21
431.387	993.19
431.763	992.52
432.138	994.32
432.514	1027.32
432.89	1044.04
433.265	1057.83
433.641	1083.14
434.016	1086.3
434.392	1113.42
434.767	1111.84
435.143	1135.56
435.518	1145.28
435.894	1161.55
436.269	1157.48
436.644	1223.02
437.02	1222.34
437.395	1239.52
437.77	1243.36
438.145	1251.49
438.52	1269.57
438.895	1300.98
439.271	1311.6
439.646	1345.95
440.021	1338.72
440.395	1331.94
440.77	1351.6
441.145	1374.43
441.52	1395.44
441.895	1397.7
442.27	1415.78
442.645	1426.86
443.019	1451.94
443.394	1445.84
443.769	1461.88
444.143	1451.71
444.518	1487.19
444.892	1491.03
445.267	1493.07
445.641	1515.21
446.016	1513.18
446.39	1543.69
446.764	1536.46
447.139	1517.93
447.513	1538.94
447.887	1571.94
448.262	1544.59
448.636	1566.06
449.01	1585.27
449.384	1592.73
449.758	1610.13
450.132	1622.56
450.506	1635.44
450.88	1633.63
451.254	1623.01
451.628	1665.27
452.002	1675.66
452.376	1695.55
452.75	1712.27
453.123	1720.86
453.497	1741.65
453.871	1753.17
454.244	1781.65
454.618	1782.1
454.992	1789.78
455.365	1806.28
455.739	1867.3
456.112	1885.83
456.486	1877.01
456.859	1913.62
457.232	1930.57
457.606	1930.57
457.979	1915.66
458.352	1972.15
458.725	1966.28
459.099	1990
459.472	2065.48
459.845	2041.08
460.218	2072.71
460.591	2073.39
460.964	2088.08
461.337	2122.43
461.71	2159.04
462.083	2149.77
462.456	2190.9
462.829	2210.34
463.201	2226.38
463.574	2233.84
463.947	2246.95
464.32	2270.45
464.692	2303.89
465.065	2338.7
465.438	2346.15
465.81	2328.3
466.183	2434.06
466.555	2441.07
466.928	2445.13
467.3	2465.7
467.672	2490.56
468.045	2554.74
468.417	2538.24
468.789	2552.48
469.161	2581.18
469.534	2643.55
469.906	2671.34
470.278	2667.73
470.65	2703.43
471.022	2773.49
471.394	2816.88
471.766	2802.64
472.138	2816.2
472.51	2858
472.882	2949.98
473.253	2928.74
473.625	2963.31
473.997	3025.46
474.369	3048.96
474.74	3043.08
475.112	3113.36
475.484	3162.4
475.855	3175.74
476.227	3225.9
476.598	3257.99
476.97	3339.12
477.341	3382.28
477.713	3402.85
478.084	3410.98
478.455	3488.04
478.827	3556.74
479.198	3576.4
479.569	3624.76
479.94	3647.14
480.311	3684.2
480.682	3767.13
481.053	3805.1
481.424	3897.75
481.795	3909.5
482.166	3953.34
482.537	3990.4
482.908	4072.89
483.279	4116.73
483.65	4174.35
484.021	4200.34
484.391	4240.34
484.762	4231.53
485.133	4298.42
485.503	4380
485.874	4422.26
486.244	4478.53
486.615	4548.58
486.985	4600.78
487.356	4675.58
487.726	4663.61
488.097	4717.62
488.467	4733.66
488.837	4826.54
489.207	4890.04
489.578	4880.1
489.948	4937.72
490.318	5027.21
490.688	4992.41
491.058	5105.63
491.428	5104.72
491.798	5209.35
492.168	5256.81
492.538	5317.15
492.908	5362.8
493.278	5363.93
493.648	5375.23
494.017	5439.86
494.387	5486.64
494.757	5502.68
495.126	5565.05
495.496	5565.5
495.866	5617.25
496.235	5671.04
496.605	5664.26
496.974	5658.83
497.344	5760.53
497.713	5755.33
498.082	5775.22
498.452	5853.18
498.821	5823.35
499.19	5866.29
499.559	5897.92
499.928	5916.23
500.298	6006.85
500.667	5992.61
501.036	6027.64
501.405	6009.79
501.774	6022.21
502.143	6090.91
502.512	6059.28
502.88	6115.55
503.249	6132.27
503.618	6156.9
503.987	6142.89
504.356	6229.67
504.724	6221.98
505.093	6205.94
505.462	6249.33
505.83	6290.23
506.199	6345.82
506.567	6382.66
506.936	6373.39
507.304	6413.16
507.672	6418.81
508.041	6466.04
508.409	6465.82
508.777	6564.12
509.145	6535.2
509.514	6498.59
509.882	6581.3
510.25	6597.34
510.618	6637.79
510.986	6606.61
511.354	6663.55
511.722	6694.51
512.09	6698.35
512.458	6675.3
512.826	6747.39
513.193	6788.75
513.561	6781.06
513.929	6815.19
514.297	6865.58
514.664	6882.98
515.032	6894.28
515.4	6858.12
515.767	6903.32
516.135	6912.36
516.502	6859.71
516.869	6985.81
517.237	7021.74
517.604	6950.1
517.972	7005.01
518.339	7049.53
518.706	7047.95
519.073	7017.22
519.44	7035.52
519.808	7063.09
520.175	7054.73
520.542	7127.04
520.909	7112.58
521.276	7142.86
521.643	7204.78
522.009	7211.56
522.376	7195.74
522.743	7299.47
523.11	7355.74
523.477	7285.01
523.843	7337.21
524.21	7440.26
524.577	7357.32
524.943	7460.37
525.31	7436.19
525.676	7488.16
526.043	7515.51
526.409	7538.11
526.776	7661.95
527.142	7496.3
527.508	7606.13
527.874	7692.23
528.241	7626.01
528.607	7670.08
528.973	7736.07
529.339	7744.88
529.705	7751.66
530.071	7820.81
530.437	7795.05
530.803	7828.27
531.169	7862.84
531.535	7820.59
531.901	7827.82
532.267	7836.18
532.632	7834.82
532.998	7938.55
533.364	7938.77
533.73	7938.55
534.095	7980.36
534.461	7970.64
534.826	7977.87
535.192	8011.77
535.557	8102.61
535.923	8062.61
536.288	8103.29
536.653	8046.12
537.019	8106.45
537.384	8095.61
537.749	8105.78
538.114	8111.65
538.479	8133.57
538.845	8129.28
539.21	8096.06
539.575	8142.84
539.94	8106.91
540.305	8183.74
540.67	8155.49
541.034	8153.01
541.399	8235.72
541.764	8146.9
542.129	8207.92
542.494	8207.92
542.858	8253.79
543.223	8229.16
543.587	8307.58
543.952	8160.01
544.316	8224.19
544.681	8258.31
545.045	8203.17
545.41	8296.28
545.774	8294.47
546.138	8281.59
546.503	8302.15
546.867	8326.11
547.231	8291.08
547.595	8318.65
547.959	8333.11
548.324	8347.8
548.688	8362.72
549.052	8300.35
549.416	8330.18
549.779	8399.33
550.143	8422.15
550.507	8424.86
550.871	8433
551.235	8419.21
551.599	8493.56
551.962	8495.82
552.326	8449.5
552.689	8524.07
553.053	8479.55
553.417	8520.23
553.78	8590.96
554.143	8488.14
554.507	8580.57
554.87	8590.51
555.234	8681.81
555.597	8591.64
555.96	8592.99
556.323	8630.96
556.686	8635.93
557.05	8651.75
557.413	8741.01
557.776	8727.91
558.139	8668.47
558.502	8710.05
558.865	8774.23
559.228	8842.48
559.59	8783.05
559.953	8857.62
560.316	8900.56
560.679	8941.91
561.041	8964.74
561.404	8925.19
561.767	8994.57
562.129	8985.98
562.492	9087.9
562.854	9088.57
563.217	9028.24
563.579	9081.57
563.941	9098.74
564.304	9214
564.666	9224.16
565.028	9278.85
565.39	9253.32
565.753	9240.66
566.115	9314.56
566.477	9380.32
566.839	9406.08
567.201	9445.18
567.563	9412.86
567.925	9476.14
568.287	9420.09
568.648	9576.02
569.01	9587.54
569.372	9613.53
569.734	9524.04
570.095	9649.01
570.457	9654.89
570.819	9737.15
571.18	9762.68
571.542	9792.74
571.903	9845.84
572.265	9835.22
572.626	9835.45
572.987	9859.4
573.349	9906.18
573.71	9958.38
574.071	10024.6
574.432	9998.83
574.794	10008.78
575.155	10049
575.516	10030.92
575.877	10120.86
576.238	10169
576.599	10194.08
576.96	10224.59
577.32	10225.27
577.681	10279.5
578.042	10304.81
578.403	10345.26
578.763	10330.8
579.124	10390.91
579.485	10420.97
579.845	10435.66
580.206	10480.4
580.566	10413.51
580.927	10534.86
581.287	10597.69
581.648	10613.96
582.008	10559.95
582.368	10648.31
582.728	10690.57
583.089	10626.61
583.449	10641.98
583.809	10721.07
584.169	10780.51
584.529	10708.42
584.889	10930.56
585.249	10838.36
585.609	10811.47
585.969	10914.29
586.329	10858.25
586.688	10965.36
587.048	10962.65
587.408	10992.48
587.768	11002.2
588.127	11003.1
588.487	11013.27
588.846	11128.07
589.206	10996.1
589.565	11001.07
589.925	11149.76
590.284	11190.67
590.643	11181.4
591.003	11265.47
591.362	11353.37
591.721	11291.68
592.08	11212.59
592.44	11311.79
592.799	11360.83
593.158	11353.83
593.517	11317.22
593.876	11386.37
594.235	11366.48
594.593	11452.58
594.952	11433.82
595.311	11441.51
595.67	11444.9
596.029	11551.56
596.387	11526.48
596.746	11595.85
597.104	11584.1
597.463	11578.45
597.822	11677.43
598.18	11610.32
598.538	11630.88
598.897	11669.75
599.255	11568.51
599.613	11729.86
599.972	11730.76
600.33	11707.26
600.688	11656.19
601.046	11750.88
601.404	11754.27
601.762	11806.92
602.12	11832.01
602.478	11886.92
602.836	11829.75
603.194	11798.11
603.552	11814.83
603.91	11796.53
604.268	11861.83
604.625	11833.36
604.983	11894.38
605.341	11859.12
605.698	11869.74
606.056	11937.31
606.413	11897.54
606.771	11937.77
607.128	12002.62
607.485	11958.1
607.843	11956.3
608.2	12015.5
608.557	11990.19
608.914	12006.69
609.272	12072
609.629	12075.39
609.986	12159.45
610.343	12099.79
610.7	12155.39
611.057	12126.23
611.414	12105.22
611.771	12105.67
612.127	12174.14
612.484	12158.32
612.841	12293.69
613.198	12234.71
613.554	12136.4
613.911	12322.84
614.267	12263.18
614.624	12285.1
614.98	12266.12
615.337	12328.72
615.693	12253.24
616.05	12258.43
616.406	12373.46
616.762	12325.78
617.118	12315.61
617.475	12389.96
617.831	12347.25
618.187	12362.84
618.543	12371.65
618.899	12476.73
619.255	12438.99
619.611	12364.87
619.967	12466.11
620.323	12492.1
620.678	12438.54
621.034	12448.03
621.39	12347.92
621.746	12431.09
622.101	12432.67
622.457	12386.57
622.812	12391.76
623.168	12504.53
623.523	12481.25
623.879	12525.32
624.234	12480.12
624.589	12579.78
624.945	12467.69
625.3	12446
625.655	12438.32
626.01	12470.86
626.365	12430.63
626.72	12436.51
627.075	12414.36
627.43	12486.45
627.785	12441.48
628.14	12426.57
628.495	12493.68
628.85	12416.85
629.205	12368.04
629.559	12405.78
629.914	12377.98
630.269	12390.86
630.623	12410.07
630.978	12349.96
631.332	12403.52
631.687	12409.84
632.041	12400.13
632.396	12392.89
632.75	12302.73
633.104	12340.69
633.459	12241.49
633.813	12246.46
634.167	12268.15
634.521	12281.71
634.875	12320.13
635.229	12269.28
635.583	12222.96
635.937	12253.69
636.291	12178.66
636.645	12255.72
636.999	12149.96
637.352	12197.42
637.706	12088.72
638.06	12095.73
638.413	12161.26
638.767	12088.27
639.121	12083.75
639.474	12064.99
639.828	12078.78
640.181	12021.15
640.534	12060.7
640.888	11975.5
641.241	11970.76
641.594	11922.17
641.947	12017.99
642.301	12017.31
642.654	11992.45
643.007	12035.16
643.36	11957.2
643.713	11993.81
644.066	12017.54
644.419	11928.5
644.771	11804.66
645.124	11796.53
645.477	11767.15
645.83	11625.46
646.182	11603.76
646.535	11547.27
646.888	11551.56
647.24	11542.75
647.593	11587.49
647.945	11554.72
648.298	11488.29
648.65	11407.38
649.002	11490.55
649.355	11483.31
649.707	11559.92
650.059	11488.96
650.411	11778.45
650.763	11677.43
651.115	11789.07
651.467	11778.67
651.819	11702.29
652.171	11772.57
652.523	11717.88
652.875	11712.69
653.227	11679.69
653.578	11791.55
653.93	11757.66
654.282	11674.04
654.633	11608.06
654.985	11667.94
655.337	11692.35
655.688	11683.31
656.039	11759.01
656.391	11691.67
656.742	11606.93
657.094	11719.01
657.445	11804.66
657.796	11700.26
658.147	11674.27
658.498	11648.06
658.849	11794.04
659.2	11714.72
659.551	11666.59
659.902	11736.41
660.253	11769.86
660.604	11723.08
660.955	11672.24
661.306	11720.37
661.656	11647.38
662.007	11692.12
662.358	11699.13
662.708	11650.09
663.059	11771.22
663.409	11687.6
663.76	11683.08
664.11	11796.53
664.461	11636.3
664.811	11730.09
665.161	11716.3
665.511	11742.74
665.862	11723.53
666.212	11715.62
666.562	11721.05
666.912	11750.88
667.262	11777.77
667.612	11767.6
667.962	11658.9
668.312	11764.66
668.662	11781.84
669.011	11682.63
669.361	11669.98
669.711	11696.42
670.06	11746.13
670.41	11780.93
670.76	11737.09
671.109	11759.46
671.459	11726.25
671.808	11629.52
672.157	11650.54
672.507	11638.11
672.856	11574.16
673.205	11594.05
673.554	11683.53
673.904	11559.24
674.253	11673.82
674.602	11582.29
674.951	11441.73
675.3	11347.5
675.649	11547.04
675.998	11575.74
676.346	11533.93
676.695	11565.12
677.044	11428.63
677.393	11500.26
677.741	11555.18
678.09	11510.43
678.438	11476.31
678.787	11463.88
679.135	11503.88
679.484	11404.45
679.832	11433.37
680.181	11416.65
680.529	11354.5
680.877	11339.36
681.225	11361.28
681.573	11349.31
681.922	11276.77
682.27	11378.23
682.618	11286.93
682.966	11281.96
683.314	11277.44
683.661	11290.32
684.009	11145.7
684.357	11211.91
684.705	11115.87
685.053	11182.3
685.4	11191.57
685.748	11032.93
686.095	11023.89
686.443	11013.04
686.79	11012.82
687.138	10989.99
687.485	10993.84
687.832	10945.7
688.18	10972.14
688.527	10827.29
688.874	10944.12
689.221	10828.87
689.568	10799.94
689.915	10762.43
690.262	10804.69
690.609	10739.38
690.956	10651.92
691.303	10666.61
691.65	10701.41
691.997	10601.3
692.344	10554.3
692.69	10536.67
693.037	10511.81
693.383	10433.85
693.73	10540.06
694.077	10356.34
694.423	10430.69
694.769	10372.16
695.116	10247.19
695.462	10268.43
695.808	10287.41
696.155	10304.14
696.501	10247.19
696.847	10228.43
697.193	10119.28
697.539	10129.9
697.885	10056.46
698.231	10007.87
698.577	9971.94
698.923	9973.3
699.269	9940.53
699.614	9936.91
699.96	9876.58
700.306	9810.59
700.651	9768.78
700.997	9786.64
701.342	9692.17
701.688	9709.12
702.033	9624.61
702.379	9610.82
702.724	9556.13
703.069	9626.87
703.415	9532.18
703.76	9519.75
704.105	9549.58
704.45	9518.62
704.795	9409.47
705.14	9372.18
705.485	9339.19
705.83	9255.12
706.175	9356.82
706.52	9356.14
706.865	9263.49
707.209	9327.89
707.554	9239.98
707.899	9300.32
708.243	9186.65
708.588	9172.64
708.932	9141.45
709.277	9117.05
709.621	9145.3
709.966	9030.27
710.31	9016.94
710.654	8940.78
710.998	8959.76
711.342	8910.27
711.687	8912.31
712.031	8923.16
712.375	8867.56
712.719	8928.8
713.063	8917.28
713.407	8895.81
713.75	8851.74
714.094	8911.18
714.438	8814.46
714.782	8730.17
715.125	8784.4
715.469	8778.3
715.812	8733.1
716.156	8713.44
716.499	8701.01
716.843	8676.83
717.186	8652.2
717.53	8706.66
717.873	8722.26
718.216	8696.49
718.559	8641.58
718.902	8577.4
719.246	8597.29
719.589	8510.96
719.932	8552.77
720.275	8504.41
720.617	8525.88
720.96	8514.8
721.303	8535.59
721.646	8517.52
721.989	8483.84
722.331	8510.06
722.674	8514.8
723.016	8512.32
723.359	8440.68
723.701	8477.97
724.044	8413.79
724.386	8396.84
724.729	8373.34
725.071	8427.12
725.413	8415.82
725.755	8395.71
726.097	8333.79
726.439	8332.66
726.782	8357.07
727.124	8404.75
727.465	8358.42
727.807	8350.29
728.149	8293.12
728.491	8269.61
728.833	8322.49
729.175	8278.43
729.516	8275.71
729.858	8312.78
730.199	8303.06
730.541	8270.52
730.882	8221.93
731.224	8321.36
731.565	8247.92
731.906	8293.12
732.248	8283.85
732.589	8232.78
732.93	8191.42
733.271	8253.12
733.612	8244.53
733.953	8284.98
734.294	8181.71
734.635	8184.19
734.976	8222.61
735.317	8171.54
735.658	8209.05
735.999	8210.18
736.339	8191.2
736.68	8212.44
737.021	8214.25
737.361	8166.34
737.702	8255.38
738.042	8250.4
738.383	8272.32
738.723	8265.32
739.063	8240.69
739.404	8257.18
739.744	8304.41
740.084	8227.35
740.424	8318.88
740.764	8267.35
741.104	8316.62
741.444	8298.99
741.784	8281.36
742.124	8265.32
742.464	8332.44
742.804	8352.55
743.143	8363.62
743.483	8405.43
743.823	8342.15
744.162	8382.83
744.502	8361.36
744.841	8387.12
745.181	8458.53
745.52	8454.01
745.86	8540.11
746.199	8496.95
746.538	8578.98
746.877	8608.81
747.216	8658.08
747.556	8649.04
747.895	8739.43
748.234	8719.77
748.573	8718.64
748.911	8775.81
749.25	8868.47
749.589	8883.61
749.928	8935.36
750.267	9030.05
750.605	9082.93
750.944	9152.53
751.283	9106.65
751.621	9288.57
751.96	9344.61
752.298	9393.43
752.636	9470.26
752.975	9519.75
753.313	9606.75
753.651	9737.15
753.989	9749.57
754.327	9893.98
754.666	9923.13
755.004	10077.02
755.342	10175.1
755.679	10321.31
756.017	10377.13
756.355	10507.52
756.693	10546.62
757.031	10725.59
757.368	10796.55
757.706	11005.59
758.044	11075.41
758.381	11236.09
758.719	11384.79
759.056	11504.78
759.394	11643.08
759.731	11712.01
760.068	11895.28
760.405	12093.47
760.743	12152
761.08	12376.4
761.417	12466.34
761.754	12573.91
762.091	12785.88
