Data from hue_10_FLMS001491_51.txt Node
Date: Mon Feb 06 15:32:08 GMT 2017
User: dcchb
Spectrometer: FLMS00149
Trigger mode: 0
Integration Time (sec): 2.000000E-2
Scans to average: 10
Electric dark correction enabled: true
Nonlinearity correction enabled: false
Boxcar width: 0
XAxis mode: Wavelengths
Number of Pixels in Spectrum: 2048
>>>>>Begin Spectral Data<<<<<
341.393	-9.6
341.776	-9.6
342.16	-9.6
342.543	-56.16
342.927	-67.91
343.31	-66.78
343.693	-79.21
344.077	-56.61
344.46	-60
344.843	-49.6
345.226	-56.16
345.61	-33.11
345.993	-10.96
346.376	-5.76
346.759	6.89
347.142	26.1
347.525	43.5
347.908	64.74
348.291	68.13
348.674	94.8
349.057	114.01
349.44	124.86
349.823	151.97
350.206	159.2
350.588	190.62
350.971	189.71
351.354	238.75
351.737	226.1
352.119	271.07
352.502	257.06
352.884	254.34
353.267	288.92
353.65	287.34
354.032	290.27
354.414	306.09
354.797	290.73
355.179	328.24
355.562	330.73
355.944	321.69
356.326	318.07
356.709	333.44
357.091	325.53
357.473	341.57
357.855	332.31
358.238	327.79
358.62	334.79
359.002	323.72
359.384	329.14
359.766	321.69
360.148	328.24
360.53	339.77
360.912	358.97
361.294	344.96
361.676	333.66
362.057	337.96
362.439	328.69
362.821	314.91
363.203	334.12
363.584	333.89
363.966	332.31
364.348	315.58
364.729	327.79
365.111	310.84
365.493	325.08
365.874	326.21
366.256	306.55
366.637	320.78
367.019	304.06
367.4	321.23
367.781	304.06
368.163	323.49
368.544	328.92
368.925	316.49
369.306	321.91
369.688	313.1
370.069	312.42
370.45	292.99
370.831	309.48
371.212	307
371.593	304.74
371.974	309.26
372.355	297.05
372.736	333.44
373.117	295.25
373.498	324.62
373.879	306.77
374.26	302.48
374.641	295.25
375.021	309.26
375.402	327.56
375.783	305.64
376.163	332.53
376.544	331.18
376.925	321.23
377.305	310.61
377.686	316.04
378.066	328.47
378.447	311.74
378.827	321.23
379.208	313.55
379.588	313.1
379.968	336.6
380.349	323.27
380.729	338.86
381.109	340.89
381.489	302.7
381.87	327.56
382.25	328.92
382.63	327.56
383.01	350.61
383.39	333.21
383.77	321.46
384.15	335.7
384.53	315.58
384.91	325.3
385.29	344.06
385.67	342.25
386.049	347.22
386.429	364.17
386.809	344.06
387.189	356.71
387.568	337.05
387.948	361.01
388.328	324.4
388.707	360.33
389.087	347.9
389.466	355.81
389.846	344.96
390.225	353.32
390.605	332.76
390.984	347.45
391.363	331.63
391.743	368.46
392.122	359.43
392.501	354.68
392.881	344.28
393.26	370.72
393.639	352.65
394.018	366.88
394.397	365.75
394.776	371.63
395.155	365.08
395.534	352.42
395.913	371.4
396.292	364.85
396.671	372.53
397.05	361.69
397.429	373.21
397.808	395.13
398.186	377.73
398.565	373.66
398.944	380.89
399.323	351.74
399.701	403.49
400.08	393.1
400.458	389.71
400.837	378.18
401.215	381.12
401.594	389.93
401.972	382.48
402.351	376.83
402.729	393.55
403.107	373.66
403.486	378.18
403.864	398.75
404.242	406.43
404.62	401.01
404.999	381.57
405.377	402.81
405.755	391.52
406.133	393.1
406.511	405.07
406.889	412.53
407.267	410.5
407.645	411.85
408.023	403.94
408.401	403.04
408.779	407.56
409.156	413.89
409.534	404.17
409.912	435.81
410.29	433.1
410.667	443.04
411.045	441.01
411.422	420.44
411.8	441.91
412.178	429.03
412.555	447.56
412.933	432.19
413.31	445.98
413.687	437.39
414.065	459.54
414.442	448.46
414.819	457.73
415.197	445.75
415.574	448.46
415.951	462.25
416.328	453.21
416.705	484.62
417.082	462.02
417.46	478.07
417.837	473.77
418.214	472.87
418.591	475.58
418.967	468.58
419.344	492.76
419.721	511.06
420.098	485.52
420.475	484.62
420.852	474
421.228	483.72
421.605	489.59
421.982	505.41
422.358	494.11
422.735	500.44
423.111	485.75
423.488	483.72
423.864	502.92
424.241	515.58
424.617	488.24
424.994	502.47
425.37	512.64
425.746	510.61
426.123	527.33
426.499	503.83
426.875	536.14
427.251	523.49
427.627	520.1
428.003	546.09
428.379	535.69
428.756	551.74
429.132	560.78
429.507	575.24
429.883	544.96
430.259	575.01
430.635	563.49
431.011	568.46
431.387	560.1
431.763	581.57
432.138	558.74
432.514	589.7
432.89	586.99
433.265	608.68
433.641	591.28
434.016	622.92
434.392	638.51
434.767	620.21
435.143	597.16
435.518	617.05
435.894	612.3
436.269	645.29
436.644	615.01
437.02	643.94
437.395	646.42
437.77	659.98
438.145	673.32
438.52	666.76
438.895	665.63
439.271	650.27
439.646	672.86
440.021	687.33
440.395	679.87
440.77	680.77
441.145	685.07
441.52	667.67
441.895	701.11
442.27	684.39
442.645	678.29
443.019	717.61
443.394	709.02
443.769	715.12
444.143	702.92
444.518	705.18
444.892	706.08
445.267	731.62
445.641	727.78
446.016	726.87
446.39	735.69
446.764	761.9
447.139	757.61
447.513	741.56
447.887	758.96
448.262	746.08
448.636	746.76
449.01	768.91
449.384	753.31
449.758	755.12
450.132	794.44
450.506	775.23
450.88	770.71
451.254	789.24
451.628	776.14
452.002	804.61
452.376	764.84
452.75	813.2
453.123	794.89
453.497	824.5
453.871	819.75
454.244	818.4
454.618	850.94
454.992	833.99
455.365	836.02
455.739	871.28
456.112	871.95
456.486	879.64
456.859	886.87
457.232	895.23
457.606	888.45
457.979	920.31
458.352	914.89
458.725	915.8
459.099	935.23
459.472	932.52
459.845	931.39
460.218	955.34
460.591	971.16
460.964	961.22
461.337	989.47
461.71	979.3
462.083	978.62
462.456	983.36
462.829	994.44
463.201	1011.61
463.574	1011.39
463.947	1017.71
464.32	1057.49
464.692	1068.11
465.065	1066.3
465.438	1095.23
465.81	1121.89
466.183	1093.19
466.555	1136.81
466.928	1112.4
467.3	1132.06
467.672	1157.82
468.045	1189.23
468.417	1159.4
468.789	1179.29
469.161	1226.07
469.534	1209.57
469.906	1234.2
470.278	1209.57
470.65	1255.67
471.022	1269.23
471.394	1294.77
471.766	1316.01
472.138	1337.03
472.51	1351.04
472.882	1373.18
473.253	1386.29
473.625	1388.1
473.997	1439.85
474.369	1426.52
474.74	1436.69
475.112	1501.77
475.484	1500.86
475.855	1525.5
476.227	1531.6
476.598	1582.44
476.97	1591.03
477.341	1597.36
477.713	1652.72
478.084	1682.78
478.455	1714.42
478.827	1747.64
479.198	1753.74
479.569	1781.76
479.94	1848.2
480.311	1888.65
480.682	1894.75
481.053	1931.36
481.424	1947.41
481.795	1981.3
482.166	2061.98
482.537	2021.98
482.908	2106.72
483.279	2141.75
483.65	2174.97
484.021	2210.68
484.391	2259.71
484.762	2260.84
485.133	2284.57
485.503	2313.72
485.874	2389.65
486.244	2399.82
486.615	2485.7
486.985	2483.44
487.356	2528.18
487.726	2576.09
488.097	2591.23
488.467	2677.1
488.837	2695.41
489.207	2702.64
489.578	2759.59
489.948	2800.04
490.318	2864.44
490.688	2831.9
491.058	2936.53
491.428	2959.13
491.798	2975.4
492.168	3034.84
492.538	3042.52
492.908	3085.91
493.278	3139.01
493.648	3159.8
494.017	3189.86
494.387	3290.2
494.757	3266.47
495.126	3289.52
495.496	3304.66
495.866	3337.65
496.235	3381.27
496.605	3415.62
496.974	3409.97
497.344	3433.7
497.713	3496.07
498.082	3541.71
498.452	3536.07
498.821	3560.47
499.19	3571.77
499.559	3624.88
499.928	3653.8
500.298	3666.91
500.667	3682.73
501.036	3709.85
501.405	3691.32
501.774	3743.29
502.143	3769.28
502.512	3823.74
502.88	3828.49
503.249	3820.58
503.618	3832.55
503.987	3865.32
504.356	3908.03
504.724	3910.52
505.093	3937.86
505.462	3939.67
505.83	3998.88
506.199	4018.99
506.567	4061.48
506.936	4056.05
507.304	4090.85
507.672	4077.75
508.041	4113
508.409	4117.52
508.777	4181.02
509.145	4219.89
509.514	4183.73
509.882	4217.63
510.25	4255.37
510.618	4273.22
510.986	4250.85
511.354	4271.19
511.722	4301.92
512.09	4332.65
512.458	4343.5
512.826	4403.16
513.193	4366.1
513.561	4410.17
513.929	4397.29
514.297	4451.52
514.664	4499.43
515.032	4515.25
515.4	4553.44
515.767	4530.84
516.135	4562.93
516.502	4476.61
516.869	4582.59
517.237	4634.12
517.604	4583.5
517.972	4642.93
518.339	4665.3
518.706	4657.39
519.073	4677.05
519.44	4651.52
519.808	4714.57
520.175	4719.31
520.542	4764.51
520.909	4820.55
521.276	4771.74
521.643	4844.28
522.009	4881.11
522.376	4843.6
522.743	4894
523.11	4862.58
523.477	4954.11
523.843	4996.59
524.21	4994.33
524.577	5048.79
524.943	5073.88
525.31	5073.88
525.676	5075.23
526.043	5139.41
526.409	5195.23
526.776	5168.34
527.142	5239.3
527.508	5245.62
527.874	5287.66
528.241	5272.74
528.607	5286.08
528.973	5336.92
529.339	5388.67
529.705	5378.95
530.071	5411.72
530.437	5458.73
530.803	5502.12
531.169	5540.98
531.535	5508.22
531.901	5498.95
532.267	5552.96
532.632	5553.87
532.998	5609.23
533.364	5644.94
533.73	5698.95
534.095	5739.85
534.461	5771.71
534.826	5748.89
535.192	5747.08
535.557	5786.18
535.923	5847.87
536.288	5819.85
536.653	5860.3
537.019	5884.93
537.384	5922.67
537.749	5937.58
538.114	5910.01
538.479	5976.23
538.845	5974.65
539.21	5976.23
539.575	6015.32
539.94	6046.73
540.305	6071.37
540.67	6099.16
541.034	6111.36
541.399	6149.56
541.764	6143
542.129	6172.83
542.494	6231.81
542.858	6270.23
543.223	6241.53
543.587	6281.3
543.952	6322.43
544.316	6350.91
544.681	6292.15
545.045	6389.78
545.41	6385.48
545.774	6398.36
546.138	6425.25
546.503	6413.05
546.867	6420.51
547.231	6500.28
547.595	6472.26
547.959	6518.36
548.324	6613.72
548.688	6614.63
549.052	6592.26
549.416	6622.99
549.779	6676.32
550.143	6760.39
550.507	6687.62
550.871	6766.49
551.235	6749.99
551.599	6802.19
551.962	6800.84
552.326	6858.46
552.689	6824.11
553.053	6833.61
553.417	6895.75
553.78	7004.45
554.143	6902.08
554.507	6936.65
554.87	6971.46
555.234	7070.89
555.597	7049.19
555.96	7045.35
556.323	7057.78
556.686	7084.45
557.05	7139.81
557.413	7133.03
557.776	7135.29
558.139	7159.92
558.502	7206.93
558.865	7192.69
559.228	7262.07
559.59	7294.84
559.953	7325.8
560.316	7425.68
560.679	7324.21
561.041	7416.42
561.404	7417.77
561.767	7462.74
562.129	7421.84
562.492	7520.82
562.854	7485.79
563.217	7514.49
563.579	7548.62
563.941	7627.94
564.304	7635.39
564.666	7676.07
565.028	7649.4
565.39	7725.11
565.753	7747.25
566.115	7701.61
566.477	7740.02
566.839	7830.19
567.201	7822.51
567.563	7887.36
567.925	7896.85
568.287	7916.97
568.648	7983.86
569.01	8010.75
569.372	8004.87
569.734	8100.24
570.095	8073.35
570.457	8074.25
570.819	8183.63
571.18	8214.81
571.542	8224.08
571.903	8265.21
572.265	8306.79
572.626	8349.5
572.987	8306.79
573.349	8462.26
573.71	8425.65
574.071	8517.86
574.432	8545.65
574.794	8618.64
575.155	8736.15
575.516	8692.09
575.877	8776.83
576.238	8796.04
576.599	8858.19
576.96	8942.93
577.32	8977.96
577.681	8984.74
578.042	9132.08
578.403	9158.29
578.763	9291.62
579.124	9323.48
579.485	9453.42
579.845	9565.96
580.206	9622.91
580.566	9690.25
580.927	9803.47
581.287	9933.64
581.648	9977.25
582.008	10141.99
582.368	10310.35
582.728	10339.95
583.089	10537.01
583.449	10578.59
583.809	10767.06
584.169	10963.44
584.529	11085.47
584.889	11237.33
585.249	11353.03
585.609	11460.38
585.969	11755.74
586.329	11858.56
586.688	12097.65
587.048	12272.78
587.408	12472.33
587.768	12617.86
588.127	12845.42
588.487	12968.59
588.846	13297.39
589.206	13403.15
589.565	13672.3
589.925	13935.79
590.284	14123.13
590.643	14400.19
591.003	14665.72
591.362	14843.56
591.721	15039.49
592.08	15330.78
592.44	15625.46
592.799	15903.42
593.158	16142.29
593.517	16373.47
593.876	16623.18
594.235	16865.66
594.593	17189.94
594.952	17431.75
595.311	17664.06
595.67	17985.4
596.029	18332.51
596.387	18631.26
596.746	18833.52
597.104	19118.03
597.463	19366.16
597.822	19624.46
598.18	19884.11
598.538	20081.39
598.897	20524.55
599.255	20581.94
599.613	21219.89
599.972	21252.44
600.33	21523.39
600.688	21710.73
601.046	22006.31
601.404	22302.13
601.762	22733.07
602.12	22998.38
602.478	23289.44
602.836	23437.91
603.194	23577.35
603.552	23956.32
603.91	23990.22
604.268	24475.18
604.625	24604.66
604.983	24999.91
605.341	25013.01
605.698	25452.78
606.056	25632.21
606.413	25959.2
606.771	26276.94
607.128	26373.43
607.485	26501.34
607.843	26793.08
608.2	27161.21
608.557	27290.92
608.914	27462.22
609.272	27662.44
609.629	27993.28
609.986	28273.49
610.343	28403.89
610.7	28795.74
611.057	28892.69
611.414	28885.68
611.771	29224.43
612.127	29463.75
612.484	29486.8
612.841	29832.32
613.198	29853.57
613.554	29977.63
613.911	30409.93
614.267	30484.28
614.624	30585.07
614.98	30782.81
615.337	31127.88
615.693	31223.47
616.05	31252.85
616.406	31670.01
616.762	31733.97
617.118	31688.55
617.475	31813.74
617.831	32143.22
618.187	32157.01
618.543	32435.87
618.899	32792.25
619.255	32584.79
619.611	32694.85
619.967	32803.32
620.323	33081.05
620.678	33173.7
621.034	33060.94
621.39	33323.3
621.746	33274.94
622.101	33774.14
622.457	33600.36
622.812	33784.31
623.168	33983.63
623.523	34043.96
623.879	34151.31
624.234	34154.7
624.589	34257.29
624.945	34375.93
625.3	34473.56
625.655	34514.46
626.01	34583.16
626.365	34689.37
626.72	34639.43
627.075	34788.8
627.43	34832.42
627.785	34739.54
628.14	34919.19
628.495	35011.62
628.85	34872.19
629.205	34983.83
629.559	35251.84
629.914	35232.41
630.269	35196.7
630.623	35036.25
630.978	34995.35
631.332	35318.05
631.687	35485.96
632.041	35320.31
632.396	35419.97
632.75	35233.31
633.104	35429.24
633.459	35230.6
633.813	35299.98
634.167	35301.33
634.521	35327.09
634.875	35510.37
635.229	35388.11
635.583	35440.54
635.937	35246.19
636.291	35427.88
636.645	35236.25
636.999	35319.18
637.352	35377.71
637.706	35292.52
638.06	35550.14
638.413	35329.13
638.767	35310.37
639.121	35415.23
639.474	35080.55
639.828	35382.46
640.181	35350.14
640.534	35437.6
640.888	35300.2
641.241	35170.94
641.594	35247.55
641.947	35321.9
642.301	35348.34
642.654	35317.15
643.007	35286.64
643.36	35323.7
643.713	35181.11
644.066	35292.52
644.419	35071.06
644.771	34966.43
645.124	34656.6
645.477	34663.16
645.83	34488.02
646.182	34374.35
646.535	34213
646.888	34290.74
647.24	34140.91
647.593	34385.65
647.945	34263.84
648.298	34072.66
648.65	34164.86
649.002	33998.77
649.355	34181.81
649.707	34049.16
650.059	34297.52
650.411	34545.87
650.763	34812.98
651.115	34874.22
651.467	34814.79
651.819	34881.23
652.171	34870.38
652.523	34820.67
652.875	34842.36
653.227	34731.4
653.578	34873.32
653.93	34845.3
654.282	34676.94
654.633	34618.41
654.985	34751.74
655.337	34786.77
655.688	34635.13
656.039	34944.96
656.391	34485.99
656.742	34555.59
657.094	34612.08
657.445	34762.36
657.796	34643.04
658.147	34564.63
658.498	34588.36
658.849	34583.84
659.2	34541.8
659.551	34555.81
659.902	34582.25
660.253	34484.86
660.604	34558.07
660.955	34429.49
661.306	34628.81
661.656	34332.77
662.007	34409.15
662.358	34464.07
662.708	34534.57
663.059	34554.01
663.409	34236.73
663.76	34500
664.11	34505.42
664.461	34545.87
664.811	34547.91
665.161	34411.86
665.511	34381.58
665.862	34421.13
666.212	34547.68
666.562	34465.87
666.912	34531.18
667.262	34411.19
667.612	34424.52
667.962	34459.09
668.312	34486.66
668.662	34563.5
669.011	34433.11
669.361	34497.29
669.711	34354.69
670.06	34379.77
670.41	34192.66
670.76	34239.21
671.109	34503.39
671.459	34255.48
671.808	34320.57
672.157	34365.54
672.507	34025.21
672.856	34099.78
673.205	34074.25
673.554	34368.47
673.904	34140.68
674.253	34250.06
674.602	34068.82
674.951	33728.27
675.3	33511.55
675.649	33952.21
675.998	34075.83
676.346	34128.93
676.695	34066.56
677.044	34004.19
677.393	34001.7
677.741	33959.67
678.09	33880.13
678.438	33676.97
678.787	33762.84
679.135	33976.39
679.484	33778.43
679.832	33876.51
680.181	33733.46
680.529	33807.13
680.877	33709.51
681.225	33584.31
681.573	33827.02
681.922	33508.61
682.27	33509.06
682.618	33550.42
682.966	33356.3
683.314	33430.87
683.661	33369.41
684.009	33234.27
684.357	33219.8
684.705	33205.12
685.053	33188.39
685.4	33027.49
685.748	32960.15
686.095	32988.17
686.443	32823.2
686.79	32777.78
687.138	32866.59
687.485	32796.54
687.832	32700.72
688.18	32828.18
688.527	32715.18
688.874	32578.01
689.221	32571.69
689.568	32454.85
689.915	32417.34
690.262	32312.26
690.609	32098.93
690.956	32040.63
691.303	32128.99
691.65	31831.82
691.997	32055.99
692.344	31738.04
692.69	31727.64
693.037	31706.4
693.383	31455.33
693.73	31544.82
694.077	31438.16
694.423	31373.3
694.769	31277.26
695.116	31197.26
695.462	31179.86
695.808	31153.87
696.155	31239.29
696.501	30857.15
696.847	30878.4
697.193	30681.11
697.539	30805.18
697.885	30593.43
698.231	30447.67
698.577	30501.01
698.923	30532.19
699.269	30364.74
699.614	30161.81
699.96	30115.71
700.306	30235.25
700.651	30043.16
700.997	29994.35
701.342	29931.98
701.688	29749.39
702.033	29708.71
702.379	29701.25
702.724	29557.98
703.069	29693.12
703.415	29379
703.76	29290.42
704.105	29362.73
704.45	29341.26
704.795	29084.32
705.14	29035.96
705.485	29090.87
705.83	28925.45
706.175	28842.97
706.52	28870.31
706.865	28776.31
707.209	28601.39
707.554	28726.59
707.899	28684.56
708.243	28467.61
708.588	28449.53
708.932	28341.29
709.277	28395.98
709.621	28238.69
709.966	28139.03
710.31	28181.52
710.654	27949.21
710.998	27994.63
711.342	27960.73
711.687	27919.6
712.031	27743.56
712.375	27624.92
712.719	27722.1
713.063	27513.74
713.407	27662.21
713.75	27554.87
714.094	27572.95
714.438	27467.64
714.782	27479.16
715.125	27350.58
715.469	27393.52
715.812	27201.88
716.156	27085.28
716.499	27137.48
716.843	27238.72
717.186	27008.67
717.53	27080.98
717.873	27109
718.216	27017.71
718.559	26852.74
718.902	26718.96
719.246	26820.65
719.589	26571.17
719.932	26528.46
720.275	26663.59
720.617	26408.01
720.96	26474.45
721.303	26477.38
721.646	26475.58
721.989	26238.07
722.331	26418.4
722.674	26236.94
723.016	26240.1
723.359	26220.44
723.701	26180.89
724.044	26158.52
724.386	26008.92
724.729	26075.81
725.071	25984.29
725.413	25989.71
725.755	25976.15
726.097	25949.94
726.439	25715.82
726.782	25710.4
727.124	25911.97
727.465	25715.6
727.807	25655.03
728.149	25634.02
728.491	25589.04
728.833	25621.36
729.175	25509.05
729.516	25426.56
729.858	25369.84
730.199	25380.46
730.541	25267.7
730.882	25390.86
731.224	25405.32
731.565	25143.41
731.906	25226.34
732.248	25177.76
732.589	25072
732.93	25062.05
733.271	25014.6
733.612	24995.84
733.953	25055.5
734.294	24901.83
734.635	24880.59
734.976	24940.02
735.317	24835.17
735.658	24811.89
735.999	24805.11
736.339	24844.66
736.68	24847.37
737.021	24785.9
737.361	24725.34
737.702	24762.85
738.042	24751.1
738.383	24637.21
738.723	24683.98
739.063	24575.51
739.404	24593.59
739.744	24441.05
740.084	24460.71
740.424	24473.14
740.764	24301.62
741.104	24458.68
741.444	24213.26
741.784	24234.5
742.124	24194.96
742.464	24226.82
742.804	24116.54
743.143	24169.65
743.483	24023.44
743.823	24018.24
744.162	23994.06
744.502	23992.7
744.841	23903.89
745.181	24068.41
745.52	23797.23
745.86	24036.32
746.199	23797.45
746.538	23919.48
746.877	23949.31
747.216	24001.74
747.556	23855.53
747.895	23803.33
748.234	23613.5
748.573	23671.35
748.911	23704.12
749.25	23640.17
749.589	23495.09
749.928	23442.89
750.267	23487.18
750.605	23372.38
750.944	23314.98
751.283	23305.71
751.621	23293.96
751.96	23129.22
752.298	23241.31
752.636	23199.05
752.975	23110.92
753.313	23064.59
753.651	23176.45
753.989	23044.03
754.327	23033.18
754.666	22878.83
755.004	22888.1
755.342	22901.43
755.679	22887.42
756.017	22776.92
756.355	22827.99
756.693	22749.57
757.031	22654.21
757.368	22599.97
757.706	22580.31
758.044	22502.12
758.381	22560.2
758.719	22488.11
759.056	22535.11
759.394	22390.26
759.731	22254.44
760.068	22295.8
760.405	22150.49
760.743	22084.28
761.08	22191.85
