Data from hue_140_FLMS001491_00012.txt Node
Date: Tue Feb 07 16:55:28 GMT 2017
User: dcchb
Spectrometer: FLMS00149
Trigger mode: 0
Integration Time (sec): 2.000000E-2
Scans to average: 10
Electric dark correction enabled: true
Nonlinearity correction enabled: false
Boxcar width: 0
XAxis mode: Wavelengths
Number of Pixels in Spectrum: 2048
>>>>>Begin Spectral Data<<<<<
341.393	-10.34
341.776	-10.34
342.16	-10.34
342.543	-87.85
342.927	-66.16
343.31	-66.38
343.693	-77.46
344.077	-71.35
344.46	-47.17
344.843	-33.61
345.226	-36.33
345.61	-18.25
345.993	-12.82
346.376	-14.86
346.759	3.9
347.142	34.63
347.525	38.47
347.908	54.07
348.291	71.24
348.674	84.8
349.057	91.13
349.44	116.89
349.823	129.09
350.206	135.65
350.588	180.39
350.971	203.21
351.354	218.58
351.737	223.55
352.119	236.89
352.502	239.82
352.884	257.45
353.267	268.52
353.65	300.84
354.032	270.33
354.414	287.51
354.797	289.54
355.179	292.03
355.562	327.73
355.944	312.36
356.326	294.74
356.709	313.27
357.091	321.18
357.473	341.29
357.855	335.41
358.238	328.18
358.62	332.48
359.002	343.78
359.384	334.96
359.766	320.27
360.148	338.35
360.53	322.99
360.912	326.38
361.294	334.96
361.676	333.61
362.057	325.47
362.439	327.96
362.821	329.09
363.203	330.9
363.584	331.8
363.966	322.31
364.348	322.53
364.729	301.07
365.111	299.26
365.493	321.18
365.874	318.24
366.256	282.08
366.637	304
367.019	307.17
367.4	326.6
367.781	307.39
368.163	308.3
368.544	312.82
368.925	306.72
369.306	318.92
369.688	317.56
370.069	322.99
370.45	317.34
370.831	326.15
371.212	305.59
371.593	300.16
371.974	301.74
372.355	323.66
372.736	318.47
373.117	321.86
373.498	305.59
373.879	326.83
374.26	306.04
374.641	318.24
375.021	308.3
375.402	317.11
375.783	316.21
376.163	305.36
376.544	318.47
376.925	330.67
377.305	320.27
377.686	321.63
378.066	307.62
378.447	321.4
378.827	325.25
379.208	301.52
379.588	318.92
379.968	320.95
380.349	332.7
380.729	355.75
381.109	328.86
381.489	333.38
381.87	327.73
382.25	328.41
382.63	337.67
383.01	320.5
383.39	350.33
383.77	350.1
384.15	316.21
384.53	335.19
384.91	338.58
385.29	346.71
385.67	340.39
386.049	340.39
386.429	346.26
386.809	354.62
387.189	342.65
387.568	343.78
387.948	355.98
388.328	339.26
388.707	348.07
389.087	361.85
389.466	355.53
389.846	363.21
390.225	353.04
390.605	372.93
390.984	351.01
391.363	358.01
391.743	362.76
392.122	360.95
392.501	356.88
392.881	352.36
393.26	369.99
393.639	371.8
394.018	384
394.397	372.48
394.776	377
395.155	379.93
395.534	368.86
395.913	352.82
396.292	366.15
396.671	377.22
397.05	353.72
397.429	362.08
397.808	385.13
398.186	376.32
398.565	402.53
398.944	389.42
399.323	391.01
399.701	380.61
400.08	398.92
400.458	382.42
400.837	404.34
401.215	405.02
401.594	407.73
401.972	395.53
402.351	392.81
402.729	394.85
403.107	398.92
403.486	400.5
403.864	417.67
404.242	410.22
404.62	426.03
404.999	410.22
405.377	431.68
405.755	422.19
406.133	409.76
406.511	442.98
406.889	408.41
407.267	454.96
407.645	445.02
408.023	459.48
408.401	441.17
408.779	431.68
409.156	445.02
409.534	444.11
409.912	438.46
410.29	460.84
410.667	454.28
411.045	448.63
411.422	456.77
411.8	459.71
412.178	482.08
412.555	467.39
412.933	464
413.31	465.81
413.687	464.45
414.065	465.35
414.442	499.03
414.819	487.73
415.197	482.98
415.574	493.6
415.951	498.35
416.328	503.55
416.705	508.29
417.082	496.09
417.46	522.53
417.837	509.65
418.214	502.64
418.591	508.07
418.967	487.05
419.344	503.32
419.721	541.51
420.098	537.9
420.475	536.09
420.852	517.78
421.228	525.92
421.605	528.4
421.982	538.12
422.358	552.81
422.735	532.7
423.111	558.46
423.488	563.21
423.864	558.69
424.241	578.35
424.617	587.39
424.994	560.72
425.37	584
425.746	565.47
426.123	594.39
426.499	600.49
426.875	593.04
427.251	618.35
427.627	598.23
428.003	607.05
428.379	597.78
428.756	597.78
429.132	608.18
429.507	624.45
429.883	625.12
430.259	636.88
430.635	641.17
431.011	646.14
431.387	636.88
431.763	621.51
432.138	662.41
432.514	682.98
432.89	685.46
433.265	684.56
433.641	681.85
434.016	684.56
434.392	697.21
434.767	711.22
435.143	692.02
435.518	706.48
435.894	711.9
436.269	710.55
436.644	726.14
437.02	715.52
437.395	764.1
437.77	744.9
438.145	746.48
438.52	751.45
438.895	770.21
439.271	746.48
439.646	789.19
440.021	788.51
440.395	776.99
440.77	769.75
441.145	793.93
441.52	804.56
441.895	807.94
442.27	822.18
442.645	795.52
443.019	814.5
443.394	819.7
443.769	834.61
444.143	827.83
444.518	834.84
444.892	821.96
445.267	840.26
445.641	854.5
446.016	856.31
446.39	834.61
446.764	888.62
447.139	870.54
447.513	870.99
447.887	882.97
448.262	873.03
448.636	901.5
449.01	898.56
449.384	883.2
449.758	892.69
450.132	917.32
450.506	915.51
450.88	922.97
451.254	948.96
451.628	952.12
452.002	968.39
452.376	964.32
452.75	968.39
453.123	989.41
453.497	981.05
453.871	1000.48
454.244	1045.45
454.618	1020.82
454.992	1023.53
455.365	1041.61
455.739	1051.1
456.112	1076.86
456.486	1056.53
456.859	1107.6
457.232	1086.36
457.606	1081.38
457.979	1097.65
458.352	1147.37
458.725	1140.59
459.099	1157.54
459.472	1161.16
459.845	1194.15
460.218	1194.38
460.591	1228.5
460.964	1228.95
461.337	1234.15
461.71	1286.35
462.083	1271.44
462.456	1290.42
462.829	1304.43
463.201	1338.78
463.574	1318.67
463.947	1352.79
464.32	1371.77
464.692	1423.75
465.065	1398.44
465.438	1436.4
465.81	1444.54
466.183	1467.59
466.555	1483.41
466.928	1491.99
467.3	1512.56
467.672	1522.95
468.045	1573.57
468.417	1612.9
468.789	1617.19
469.161	1654.7
469.534	1686.34
469.906	1725.21
470.278	1734.25
470.65	1751.65
471.022	1794.81
471.394	1833.68
471.766	1890.85
472.138	1896.5
472.51	1934.47
472.882	1982.15
473.253	2044.3
473.625	2044.75
473.997	2116.16
474.369	2113.9
474.74	2187.57
475.112	2249.94
475.484	2317.96
475.855	2327.45
476.227	2389.37
476.598	2446.09
476.97	2505.98
477.341	2566.09
477.713	2621.23
478.084	2673.43
478.455	2791.85
478.827	2832.3
479.198	2903.48
479.569	2929.7
479.94	3078.39
480.311	3125.4
480.682	3252.4
481.053	3322
481.424	3411.04
481.795	3491.94
482.166	3607.42
482.537	3692.16
482.908	3800.63
483.279	3867.98
483.65	3961.76
484.021	4068.42
484.391	4169.21
484.762	4249.21
485.133	4367.4
485.503	4505.25
485.874	4626.15
486.244	4708.86
486.615	4882.87
486.985	4942.3
487.356	5120.83
487.726	5183.65
488.097	5417.54
488.467	5428.61
488.837	5595.39
489.207	5706.57
489.578	5881.48
489.948	5992.67
490.318	6189.95
490.688	6240.34
491.058	6384.52
491.428	6575.93
491.798	6649.15
492.168	6811.85
492.538	6918.07
492.908	7049.81
493.278	7231.73
493.648	7287.32
494.017	7447.09
494.387	7546.75
494.757	7718.05
495.126	7860.41
495.496	7994.2
495.866	8093.63
496.235	8245.04
496.605	8275.55
496.974	8441.87
497.344	8543.33
497.713	8627.17
498.082	8733.39
498.452	8916.21
498.821	8990.1
499.19	9041.17
499.559	9140.16
499.928	9305.35
500.298	9441.39
500.667	9565.91
501.036	9607.71
501.405	9756.64
501.774	9772.91
502.143	9871.44
502.512	9949.63
502.88	10085.67
503.249	10127.02
503.618	10186
503.987	10346.45
504.356	10361.37
504.724	10484.98
505.093	10558.65
505.462	10566.11
505.83	10678.19
506.199	10755.03
506.567	10903.72
506.936	10902.82
507.304	11043.38
507.672	11046.77
508.041	11149.82
508.409	11248.8
508.777	11345.29
509.145	11399.53
509.514	11422.36
509.882	11462.81
510.25	11554.33
510.618	11515.69
510.986	11675.68
511.354	11742.8
511.722	11772.4
512.09	11878.16
512.458	11925.39
512.826	12024.37
513.193	11980.98
513.561	12066.63
513.929	12081.32
514.297	12222.33
514.664	12172.39
515.032	12345.49
515.4	12391.6
515.767	12409
516.135	12389.11
516.502	12376
516.869	12566.73
517.237	12560.86
517.604	12452.16
517.972	12613.06
518.339	12654.41
518.706	12594.3
519.073	12661.87
519.44	12745.03
519.808	12785.71
520.175	12773.96
520.542	12872.94
520.909	12935.08
521.276	12937.8
521.643	13002.43
522.009	13054.18
522.376	13154.06
522.743	13086.27
523.11	13150.67
523.477	13224.34
523.843	13199.48
524.21	13371.68
524.577	13307.05
524.943	13394.05
525.31	13390.89
525.676	13452.58
526.043	13496.88
526.409	13394.05
526.776	13547.95
527.142	13538.23
527.508	13489.65
527.874	13569.64
528.241	13615.97
528.607	13650.32
528.973	13646.93
529.339	13651
529.705	13715.63
530.071	13756.3
530.437	13639.7
530.803	13757.21
531.169	13683.54
531.535	13656.42
531.901	13665.46
532.267	13723.99
532.632	13766.47
532.998	13697.1
533.364	13712.92
533.73	13673.82
534.095	13772.12
534.461	13725.8
534.826	13759.69
535.192	13757.21
535.557	13734.61
535.923	13647.16
536.288	13624.11
536.653	13592.69
537.019	13562.19
537.384	13555.18
537.749	13587.72
538.114	13549.08
538.479	13430.66
538.845	13483.54
539.21	13399.03
539.575	13501.17
539.94	13374.17
540.305	13418.23
540.67	13378.01
541.034	13413.94
541.399	13387.5
541.764	13284.68
542.129	13317.22
542.494	13216.66
542.858	13232.7
543.223	13164.46
543.587	13245.58
543.952	13144.12
544.316	13056.21
544.681	13093.5
545.045	13041.52
545.41	13038.58
545.774	13005.82
546.138	12947.06
546.503	12935.54
546.867	12931.02
547.231	12915.42
547.595	12866.16
547.959	12847.18
548.324	12906.61
548.688	12786.39
549.052	12829.1
549.416	12764.47
549.779	12719.5
550.143	12694.41
550.507	12659.16
550.871	12686.73
551.235	12579.61
551.599	12608.09
551.962	12574.64
552.326	12545.49
552.689	12588.88
553.053	12488.77
553.417	12405.15
553.78	12602.21
554.143	12365.38
554.507	12406.06
554.87	12474.08
555.234	12465.27
555.597	12399.05
555.96	12349.79
556.323	12343.91
556.686	12332.61
557.05	12303.91
557.413	12360.64
557.776	12376.68
558.139	12400.18
558.502	12354.99
558.865	12230.92
559.228	12355.89
559.59	12325.61
559.953	12324.7
560.316	12394.53
560.679	12432.05
561.041	12412.84
561.404	12394.98
561.767	12445.15
562.129	12326.96
562.492	12417.36
562.854	12405.83
563.217	12342.78
563.579	12370.58
563.941	12446.28
564.304	12376
564.666	12480.63
565.028	12421.65
565.39	12436.79
565.753	12479.5
566.115	12379.39
566.477	12461.88
566.839	12487.64
567.201	12553.4
567.563	12551.59
567.925	12491.71
568.287	12568.99
568.648	12519.28
569.01	12577.8
569.372	12606.73
569.734	12585.94
570.095	12656.45
570.457	12731.7
570.819	12591.82
571.18	12619.84
571.542	12674.75
571.903	12714.98
572.265	12682.89
572.626	12617.35
572.987	12713.62
573.349	12728.08
573.71	12707.74
574.071	12734.41
574.432	12756.56
574.794	12853.96
575.155	12837.23
575.516	12758.37
575.877	12791.13
576.238	12806.73
576.599	12850.11
576.96	12789.55
577.32	12853.73
577.681	12853.28
578.042	12788.87
578.403	12869.1
578.763	12764.47
579.124	12866.16
579.485	12845.82
579.845	12893.95
580.206	12817.57
580.566	12783
580.927	12851.7
581.287	12873.84
581.648	12856.67
582.008	12848.53
582.368	12772.15
582.728	12870
583.089	12794.97
583.449	12769.89
583.809	12790.68
584.169	12936.44
584.529	12827.74
584.889	12875.88
585.249	12821.87
585.609	12739.16
585.969	12757.01
586.329	12734.18
586.688	12772.83
587.048	12684.47
587.408	12705.49
587.768	12677.01
588.127	12777.8
588.487	12674.07
588.846	12774.64
589.206	12765.6
589.565	12653.28
589.925	12723.34
590.284	12708.42
590.643	12706.84
591.003	12737.57
591.362	12676.79
591.721	12671.59
592.08	12635.66
592.44	12690.34
592.799	12632.27
593.158	12658.03
593.517	12716.56
593.876	12588.2
594.235	12639.27
594.593	12654.86
594.952	12646.73
595.311	12539.16
595.67	12594.08
596.029	12633.62
596.387	12592.49
596.746	12678.14
597.104	12609.44
597.463	12563.79
597.822	12582.55
598.18	12518.82
598.538	12496.23
598.897	12654.41
599.255	12500.07
599.613	12646.05
599.972	12614.64
600.33	12563.79
600.688	12546.17
601.046	12637.24
601.404	12652.83
601.762	12583.45
602.12	12663
602.478	12690.57
602.836	12588.88
603.194	12600.18
603.552	12597.92
603.91	12472.5
604.268	12602.21
604.625	12557.01
604.983	12537.35
605.341	12538.26
605.698	12555.43
606.056	12587.07
606.413	12632.27
606.771	12638.37
607.128	12611.93
607.485	12566.73
607.843	12622.55
608.2	12681.3
608.557	12665.03
608.914	12666.84
609.272	12696.22
609.629	12660.29
609.986	12689.89
610.343	12713.62
610.7	12692.15
611.057	12779.38
611.414	12750
611.771	12658.48
612.127	12826.16
612.484	12747.97
612.841	12834.3
613.198	12776.44
613.554	12747.52
613.911	12766.27
614.267	12795.2
614.624	12719.95
614.98	12831.81
615.337	12862.09
615.693	12896.44
616.05	12793.17
616.406	12909.77
616.762	12856.67
617.118	12894.63
617.475	12893.95
617.831	12964.24
618.187	12987.06
618.543	12902.09
618.899	12957.91
619.255	12991.58
619.611	12970.34
619.967	12971.24
620.323	12996.1
620.678	12988.19
621.034	12992.71
621.39	12939.38
621.746	12869.1
622.101	13056.21
622.457	12971.92
622.812	13057.34
623.168	12996.32
623.523	12984.8
623.879	13030
624.234	12909.32
624.589	12913.62
624.945	13041.3
625.3	12942.54
625.655	13007.17
626.01	12991.13
626.365	12953.39
626.72	12912.26
627.075	12973.27
627.43	12952.48
627.785	13000.17
628.14	13036.1
628.495	13052.59
628.85	12932.82
629.205	12969.43
629.559	12975.31
629.914	12935.08
630.269	12904.58
630.623	12898.93
630.978	12843.33
631.332	12978.92
631.687	12958.59
632.041	12931.92
632.396	12890.79
632.75	12762.66
633.104	12866.38
633.459	12768.99
633.813	12767.63
634.167	12737.8
634.521	12727.86
634.875	12794.52
635.229	12791.13
635.583	12707.29
635.937	12720.17
636.291	12682.43
636.645	12604.02
636.999	12651.25
637.352	12634.75
637.706	12568.31
638.06	12620.06
638.413	12520.41
638.767	12551.59
639.121	12592.04
639.474	12519.5
639.828	12558.82
640.181	12475.66
640.534	12470.01
640.888	12520.41
641.241	12465.94
641.594	12500.07
641.947	12492.61
642.301	12380.3
642.654	12528.77
643.007	12481.99
643.36	12431.59
643.713	12372.39
644.066	12493.51
644.419	12425.72
644.771	12358.83
645.124	12195.67
645.477	12228.89
645.83	12094.2
646.182	12124.48
646.535	12110.92
646.888	12040.87
647.24	12006.52
647.593	11999.29
647.945	12063.24
648.298	11947.99
648.65	11983.92
649.002	11971.04
649.355	11970.14
649.707	11967.43
650.059	12026.63
650.411	12126.97
650.763	12156.35
651.115	12333.07
651.467	12308.43
651.819	12283.35
652.171	12223.92
652.523	12215.33
652.875	12209.9
653.227	12210.58
653.578	12265.72
653.93	12237.25
654.282	12164.71
654.633	12179.62
654.985	12217.14
655.337	12215.78
655.688	12273.86
656.039	12357.02
656.391	12157.93
656.742	12276.8
657.094	12269.56
657.445	12282.9
657.796	12312.5
658.147	12207.65
658.498	12236.12
658.849	12285.38
659.2	12290.13
659.551	12200.87
659.902	12273.41
660.253	12213.97
660.604	12295.1
660.955	12277.93
661.306	12264.37
661.656	12284.25
662.007	12249.9
662.358	12253.52
662.708	12344.82
663.059	12270.02
663.409	12202
663.76	12284.71
664.11	12352.73
664.461	12300.07
664.811	12349.34
665.161	12252.62
665.511	12289.45
665.862	12252.84
666.212	12342.1
666.562	12312.05
666.912	12352.05
667.262	12277.7
667.612	12338.49
667.962	12334.87
668.312	12234.99
668.662	12312.05
669.011	12230.02
669.361	12309.79
669.711	12259.17
670.06	12226.63
670.41	12315.21
670.76	12258.94
671.109	12290.35
671.459	12279.51
671.808	12189.11
672.157	12271.37
672.507	12161.54
672.856	12319.51
673.205	12215.55
673.554	12297.36
673.904	12229.34
674.253	12290.35
674.602	12250.81
674.951	11958.84
675.3	11929.46
675.649	12179.62
675.998	12160.41
676.346	12104.37
676.695	12183.69
677.044	12066.86
677.393	12125.39
677.741	12174.43
678.09	12115.44
678.438	12071.38
678.787	12096.91
679.135	12049.46
679.484	11980.98
679.832	11984.37
680.181	11931.49
680.529	11960.65
680.877	11931.27
681.225	11871.16
681.573	11947.54
681.922	11881.1
682.27	11801.33
682.618	11807.88
682.966	11811.5
683.314	11843.59
683.661	11730.82
684.009	11689.24
684.357	11722.69
684.705	11683.37
685.053	11716.13
685.4	11616.25
685.748	11631.16
686.095	11571.96
686.443	11567.89
686.79	11480.88
687.138	11545.97
687.485	11588
687.832	11522.47
688.18	11501.67
688.527	11419.64
688.874	11445.41
689.221	11375.12
689.568	11359.76
689.915	11336.03
690.262	11273.43
690.609	11253.55
690.956	11228.01
691.303	11193.21
691.65	11213.55
691.997	11210.84
692.344	11084.96
692.69	11027.34
693.037	11065.3
693.383	10901.69
693.73	11025.76
694.077	10943.95
694.423	10913.44
694.769	10870.05
695.116	10835.7
695.462	10768.59
695.808	10737.85
696.155	10724.97
696.501	10673.9
696.847	10601.81
697.193	10549.16
697.539	10561.59
697.885	10580.12
698.231	10517.75
698.577	10438.65
698.923	10342.61
699.269	10401.82
699.614	10318.43
699.96	10341.25
700.306	10279.56
700.651	10288.15
700.997	10173.12
701.342	10169.05
701.688	10121.15
702.033	10054.03
702.379	10062.84
702.724	10052.45
703.069	10079.57
703.415	9969.74
703.76	9946.91
704.105	9924.09
704.45	9864.2
704.795	9850.19
705.14	9755.96
705.485	9820.36
705.83	9710.31
706.175	9722.29
706.52	9663.31
706.865	9765
707.209	9710.54
707.554	9657.66
707.899	9643.42
708.243	9553.7
708.588	9585.34
708.932	9480.26
709.277	9539.01
709.621	9557.09
709.966	9419.47
710.31	9394.16
710.654	9269.64
710.998	9428.96
711.342	9381.28
711.687	9316.87
712.031	9280.94
712.375	9292.02
712.719	9325.91
713.063	9225.58
713.407	9238.91
713.75	9134.51
714.094	9233.94
714.438	9169.08
714.782	9139.25
715.125	9133.15
715.469	9166.37
715.812	9095.41
716.156	9048.41
716.499	9034.85
716.843	9042.76
717.186	8970.44
717.53	9023.77
717.873	9025.13
718.216	9005.92
718.559	8970.67
718.902	8889.54
719.246	8968.18
719.589	8916.21
719.932	8855.64
720.275	8864.46
720.617	8882.76
720.96	8866.49
721.303	8842.99
721.646	8894.96
721.989	8867.39
722.331	8814.51
722.674	8855.87
723.016	8885.25
723.359	8779.94
723.701	8838.47
724.044	8765.02
724.386	8724.12
724.729	8740.39
725.071	8729.54
725.413	8749.66
725.755	8727.28
726.097	8763.89
726.439	8711.69
726.782	8732.26
727.124	8755.31
727.465	8715.31
727.807	8696.1
728.149	8688.19
728.491	8666.95
728.833	8707.4
729.175	8665.59
729.516	8675.53
729.858	8678.25
730.199	8646.38
730.541	8672.6
730.882	8636.44
731.224	8647.74
731.565	8580.17
731.906	8686.61
732.248	8591.92
732.589	8604.8
732.93	8554.18
733.271	8617.23
733.612	8627.63
733.953	8634.41
734.294	8526.84
734.635	8559.83
734.976	8553.96
735.317	8509.21
735.658	8581.75
735.999	8529.55
736.339	8569.77
736.68	8589.21
737.021	8529.55
737.361	8579.49
737.702	8602.09
738.042	8612.49
738.383	8574.52
738.723	8662.43
739.063	8587.63
739.404	8673.27
739.744	8624.69
740.084	8657.23
740.424	8605.03
740.764	8601.86
741.104	8695.2
741.444	8652.26
741.784	8720.28
742.124	8637.57
742.464	8743.33
742.804	8737
743.143	8760.28
743.483	8795.76
743.823	8757.79
744.162	8830.33
744.502	8817.9
744.841	8854.29
745.181	8936.54
745.52	8975.87
745.86	8959.82
746.199	8953.72
746.538	9055.64
746.877	9122.3
747.216	9130.89
747.556	9132.02
747.895	9212.92
748.234	9246.14
748.573	9236.88
748.911	9284.11
749.25	9401.84
749.589	9438.23
749.928	9486.13
750.267	9569.52
750.605	9590.99
750.944	9670.31
751.283	9728.61
751.621	9826.24
751.96	9885.45
752.298	9949.4
752.636	10062.16
752.975	10157.3
753.313	10245.44
753.651	10388.94
753.989	10363.85
754.327	10513
754.666	10538.54
755.004	10719.32
755.342	10888.13
755.679	10995.47
756.017	11123.83
756.355	11218.52
756.693	11298.52
757.031	11533.99
757.368	11620.09
757.706	11773.76
758.044	11886.75
758.381	12043.36
758.719	12280.41
759.056	12460.97
759.394	12528.99
759.731	12622.32
