Data from hue_90_FLMS001491_36.txt Node
Date: Mon Feb 06 15:25:03 GMT 2017
User: dcchb
Spectrometer: FLMS00149
Trigger mode: 0
Integration Time (sec): 2.000000E-2
Scans to average: 10
Electric dark correction enabled: true
Nonlinearity correction enabled: false
Boxcar width: 0
XAxis mode: Wavelengths
Number of Pixels in Spectrum: 2048
>>>>>Begin Spectral Data<<<<<
341.393	-28.62
341.776	-28.62
342.16	-28.62
342.543	-58.44
342.927	-75.85
343.31	-47.37
343.693	-69.07
344.077	-52.8
344.46	-55.28
344.843	-66.13
345.226	-35.39
345.61	-25.9
345.993	-20.25
346.376	-2.63
346.759	8.22
347.142	24.94
347.525	34.43
347.908	46.64
348.291	89.35
348.674	79.4
349.057	91.83
349.44	112.17
349.823	130.02
350.206	151.49
350.588	205.28
350.971	224.94
351.354	227.42
351.737	237.82
352.119	254.09
352.502	266.97
352.884	264.48
353.267	266.29
353.65	289.79
354.032	304.48
354.414	309.23
354.797	297.48
355.179	325.95
355.562	327.53
355.944	304.48
356.326	330.7
356.709	354.88
357.091	345.39
357.473	351.04
357.855	345.39
358.238	348.78
358.62	355.56
359.002	345.16
359.384	327.08
359.766	332.05
360.148	350.58
360.53	358.49
360.912	347.65
361.294	344.71
361.676	354.65
362.057	331.83
362.439	334.09
362.821	332.96
363.203	327.99
363.584	332.73
363.966	323.69
364.348	319.17
364.729	326.86
365.111	332.28
365.493	328.66
365.874	327.99
366.256	306.74
366.637	312.39
367.019	312.17
367.4	326.4
367.781	334.31
368.163	329.34
368.544	327.53
368.925	317.82
369.306	335.9
369.688	299.51
370.069	320.53
370.45	287.31
370.831	318.72
371.212	318.95
371.593	289.79
371.974	329.34
372.355	322.34
372.736	340.41
373.117	332.05
373.498	317.59
373.879	323.47
374.26	341.77
374.641	318.27
375.021	328.44
375.402	342
375.783	322.79
376.163	314.2
376.544	346.06
376.925	317.82
377.305	329.57
377.686	319.17
378.066	338.83
378.447	332.05
378.827	333.18
379.208	330.47
379.588	326.86
379.968	337.25
380.349	350.36
380.729	347.19
381.109	340.64
381.489	325.27
381.87	342.22
382.25	347.19
382.63	359.4
383.01	356.69
383.39	350.58
383.77	356.23
384.15	326.63
384.53	334.99
384.91	346.97
385.29	354.2
385.67	350.58
386.049	362.56
386.429	343.13
386.809	392.84
387.189	373.18
387.568	362.11
387.948	358.95
388.328	347.42
388.707	373.18
389.087	365.5
389.466	366.63
389.846	373.41
390.225	364.14
390.605	372.96
390.984	351.26
391.363	372.28
391.743	381.54
392.122	388.1
392.501	398.72
392.881	379.74
393.26	385.61
393.639	387.65
394.018	385.61
394.397	383.8
394.776	387.87
395.155	380.64
395.534	392.84
395.913	386.74
396.292	413.41
396.671	403.46
397.05	390.58
397.429	397.36
397.808	414.09
398.186	429.45
398.565	403.92
398.944	414.31
399.323	407.53
399.701	408.44
400.08	406.63
400.458	412.28
400.837	438.94
401.215	409.34
401.594	414.09
401.972	434.88
402.351	426.51
402.729	432.84
403.107	439.85
403.486	431.03
403.864	439.62
404.242	405.95
404.62	439.4
404.999	441.66
405.377	478.26
405.755	430.36
406.133	427.64
406.511	444.59
406.889	450.69
407.267	457.93
407.645	447.98
408.023	433.75
408.401	461.32
408.779	481.43
409.156	473.29
409.534	473.97
409.912	484.37
410.29	478.49
410.667	487.98
411.045	504.93
411.422	481.65
411.8	484.37
412.178	497.47
412.555	489.79
412.933	497.25
413.31	518.04
413.687	496.57
414.065	495.21
414.442	520.98
414.819	532.05
415.197	516
415.574	512.84
415.951	535.66
416.328	514.42
416.705	546.06
417.082	547.19
417.46	546.51
417.837	547.64
418.214	549.67
418.591	556.45
418.967	564.82
419.344	574.08
419.721	562.56
420.098	569.79
420.475	546.06
420.852	571.14
421.228	563.69
421.605	571.82
421.982	569.79
422.358	582.67
422.735	588.54
423.111	581.76
423.488	589.67
423.864	615.89
424.241	603.23
424.617	612.5
424.994	624.25
425.37	593.06
425.746	633.06
426.123	632.84
426.499	632.84
426.875	666.51
427.251	639.84
427.627	642.1
428.003	660.41
428.379	664.7
428.756	667.86
429.132	679.16
429.507	667.64
429.883	692.72
430.259	680.97
430.635	688.65
431.011	702.67
431.387	711.93
431.763	699.28
432.138	710.57
432.514	732.72
432.89	739.05
433.265	749.9
433.641	747.64
434.016	720.52
434.392	755.09
434.767	764.58
435.143	794.41
435.518	780.18
435.894	797.8
436.269	785.6
436.644	822.89
437.02	806.62
437.395	812.72
437.77	821.31
438.145	810.23
438.52	862.66
438.895	832.15
439.271	851.36
439.646	880.06
440.021	868.31
440.395	867.41
440.77	872.6
441.145	869.89
441.52	910.12
441.895	869.89
442.27	878.48
442.645	872.38
443.019	887.29
443.394	895.43
443.769	928.42
444.143	916.22
444.518	926.61
444.892	923
445.267	912.15
445.641	966.61
446.016	947.4
446.39	974.3
446.764	965.94
447.139	953.05
447.513	967.06
447.887	974.52
448.262	974.75
448.636	977.69
449.01	1000.74
449.384	1007.97
449.758	1025.59
450.132	1032.6
450.506	1022.66
450.88	1013.39
451.254	1051.36
451.628	1065.37
452.002	1056.1
452.376	1089.55
452.75	1049.32
453.123	1092.26
453.497	1098.13
453.871	1116.89
454.244	1113.05
454.618	1134.07
454.992	1124.57
455.365	1140.85
455.739	1177.68
456.112	1179.49
456.486	1207.51
456.859	1200.96
457.232	1233.27
457.606	1204.57
457.979	1243.22
458.352	1247.51
458.725	1294.51
459.099	1323.67
459.472	1304.91
459.845	1315.76
460.218	1347.39
460.591	1354.17
460.964	1353.27
461.337	1407.73
461.71	1416.77
462.083	1419.26
462.456	1419.48
462.829	1454.51
463.201	1466.03
463.574	1463.1
463.947	1508.29
464.32	1515.07
464.692	1558.46
465.065	1574.73
465.438	1564.56
465.81	1603.66
466.183	1640.27
466.555	1673.26
466.928	1685.69
467.3	1700.61
467.672	1719.59
468.045	1751.23
468.417	1791.68
468.789	1786.48
469.161	1805.91
469.534	1836.87
469.906	1901.05
470.278	1894.05
470.65	1911.67
471.022	1995.51
471.394	2029.86
471.766	2051.1
472.138	2135.4
472.51	2147.37
472.882	2214.04
473.253	2214.94
473.625	2287.93
473.997	2351.89
474.369	2363.19
474.74	2411.32
475.112	2452.9
475.484	2502.17
475.855	2583.07
476.227	2622.16
476.598	2716.4
476.97	2764.08
477.341	2878.43
477.713	2874.36
478.084	2967.24
478.455	3076.39
478.827	3114.58
479.198	3237.74
479.569	3259.21
479.94	3375.82
480.311	3479.77
480.682	3583.95
481.053	3642.93
481.424	3782.36
481.795	3879.53
482.166	3952.3
482.537	4039.07
482.908	4200.43
483.279	4302.34
483.65	4395.9
484.021	4518.16
484.391	4621.88
484.762	4712.5
485.133	4804.48
485.503	4944.36
485.874	5114.98
486.244	5226.61
486.615	5382.77
486.985	5489.66
487.356	5664.12
487.726	5782.53
488.097	5887.16
488.467	6033.37
488.837	6234.05
489.207	6335.51
489.578	6484.43
489.948	6656.86
490.318	6809.4
490.688	6894.14
491.058	7142.72
491.428	7287.12
491.798	7365.77
492.168	7609.15
492.538	7685.98
492.908	7768.02
493.278	8010.72
493.648	8104.73
494.017	8320.77
494.387	8438.05
494.757	8557.37
495.126	8713.75
495.496	8782
495.866	9010.02
496.235	9164.14
496.605	9259.28
496.974	9401.19
497.344	9505.6
497.713	9665.59
498.082	9762.09
498.452	9924.34
498.821	10023.32
499.19	10129.31
499.559	10246.37
499.928	10422.41
500.298	10492.24
500.667	10607.26
501.036	10565
501.405	10844.55
501.774	10948.5
502.143	11012
502.512	11104.88
502.88	11229.62
503.249	11278.88
503.618	11402.5
503.987	11480.46
504.356	11633.23
504.724	11666.9
505.093	11684.3
505.462	11849.26
505.83	11992.76
506.199	12052.2
506.567	12276.37
506.936	12247.9
507.304	12390.27
507.672	12464.39
508.041	12481.79
508.409	12553.65
508.777	12725.17
509.145	12830.03
509.514	12758.17
509.882	12881.78
510.25	12920.2
510.618	13035.45
510.986	13096.92
511.354	13171.72
511.722	13237.7
512.09	13380.3
512.458	13314.31
512.826	13481.54
513.193	13537.58
513.561	13557.47
513.929	13575.1
514.297	13705.26
514.664	13776.67
515.032	13858.7
515.4	13869.32
515.767	13947.51
516.135	13943.67
516.502	13942.77
516.869	14130.11
517.237	14061.18
517.604	14073.39
517.972	14187.28
518.339	14256.43
518.706	14193.61
519.073	14271.57
519.44	14329.65
519.808	14474.73
520.175	14473.15
520.542	14547.05
520.909	14599.47
521.276	14468.18
521.643	14598.8
522.009	14679.7
522.376	14700.49
522.743	14825.68
523.11	14937.09
523.477	14950.43
523.843	14968.5
524.21	15012.8
524.577	15069.52
524.943	15092.8
525.31	15070.65
525.676	15174.15
526.043	15306.8
526.409	15262.73
526.776	15340.47
527.142	15317.2
527.508	15353.13
527.874	15443.97
528.241	15525.33
528.607	15481.03
528.973	15502.28
529.339	15406.91
529.705	15563.97
530.071	15567.59
530.437	15631.54
530.803	15562.39
531.169	15616.4
531.535	15493.24
531.901	15621.59
532.267	15624.53
532.632	15643.06
532.998	15638.32
533.364	15601.71
533.73	15604.65
534.095	15585.21
534.461	15585.89
534.826	15683.06
535.192	15561.94
535.557	15608.04
535.923	15564.65
536.288	15573.01
536.653	15684.87
537.019	15421.37
537.384	15468.38
537.749	15555.83
538.114	15468.6
538.479	15401.04
538.845	15431.54
539.21	15418.66
539.575	15378.44
539.94	15374.82
540.305	15316.07
540.67	15233.58
541.034	15276.75
541.399	15355.16
541.764	15321.94
542.129	15246.24
542.494	15199.01
542.858	15280.59
543.223	15163.08
543.587	15194.49
543.952	15085.11
544.316	15121.95
544.681	15036.75
545.045	15000.14
545.41	15004.44
545.774	14992.23
546.138	14913.59
546.503	14921.05
546.867	14819.81
547.231	14966.47
547.595	14803.09
547.959	14862.97
548.324	14873.59
548.688	14725.12
549.052	14740.26
549.416	14712.01
549.779	14594.5
550.143	14622.53
550.507	14702.52
550.871	14644.22
551.235	14675.18
551.599	14619.14
551.962	14571.9
552.326	14518.8
552.689	14531
553.053	14436.54
553.417	14430.67
553.78	14578.68
554.143	14339.59
554.507	14501.85
554.87	14470.21
555.234	14502.98
555.597	14318.13
555.96	14291.69
556.323	14345.92
556.686	14501.4
557.05	14418.69
557.413	14339.59
557.776	14396.32
558.139	14346.83
558.502	14346.15
558.865	14457.33
559.228	14458.91
559.59	14476.54
559.953	14414.85
560.316	14508.86
560.679	14463.21
561.041	14524.45
561.404	14456.43
561.767	14439.03
562.129	14438.12
562.492	14488.74
562.854	14451.91
563.217	14451.23
563.579	14522.64
563.941	14530.1
564.304	14528.52
564.666	14614.39
565.028	14522.41
565.39	14590.66
565.753	14620.72
566.115	14629.98
566.477	14680.38
566.839	14646.25
567.201	14741.17
567.563	14708.85
567.925	14807.15
568.287	14751.34
568.648	14669.08
569.01	14875.63
569.372	14787.72
569.734	14809.19
570.095	14754.27
570.457	14945.23
570.819	14920.82
571.18	14847.38
571.542	14850.99
571.903	14926.47
572.265	14868.62
572.626	14985.23
572.987	15066.58
573.349	15005.34
573.71	14948.62
574.071	15051.67
574.432	15011.67
574.794	15112.46
575.155	15117.65
575.516	15092.8
575.877	15108.61
576.238	15087.6
576.599	15202.17
576.96	15114.26
577.32	15110.65
577.681	15158.78
578.042	15205.11
578.403	15211.89
578.763	15108.61
579.124	15182.74
579.485	15277.88
579.845	15190.65
580.206	15190.42
580.566	15114.49
580.927	15198.56
581.287	15257.08
581.648	15108.16
582.008	15242.4
582.368	15189.97
582.728	15207.82
583.089	15206.24
583.449	15117.43
583.809	15054.6
584.169	15196.97
584.529	15066.58
584.889	15255.28
585.249	15102.74
585.609	15138.9
585.969	15168.73
586.329	15050.31
586.688	15190.87
587.048	15057.32
587.408	15122.62
587.768	15024.32
588.127	15054.38
588.487	14992.68
588.846	15109.29
589.206	14937.09
589.565	15031.33
589.925	15041.27
590.284	15002.63
590.643	15035.62
591.003	15089.18
591.362	15017.99
591.721	15015.51
592.08	15029.75
592.44	14988.62
592.799	14959.92
593.158	15031.1
593.517	14949.07
593.876	14921.73
594.235	14940.93
594.593	15059.8
594.952	14953.82
595.311	14941.84
595.67	14953.36
596.029	14943.87
596.387	15054.6
596.746	15014.15
597.104	14929.86
597.463	14929.41
597.822	14961.5
598.18	14915.17
598.538	14839.47
598.897	15038.56
599.255	14869.98
599.613	15013.48
599.972	14963.76
600.33	14956.75
600.688	14912.91
601.046	15046.69
601.404	14955.17
601.762	14994.94
602.12	14970.99
602.478	15030.42
602.836	15021.38
603.194	14916.53
603.552	14892.35
603.91	14877.21
604.268	14976.41
604.625	14856.19
604.983	14952.69
605.341	14881.73
605.698	14956.08
606.056	15031.55
606.413	15026.36
606.771	15041.05
607.128	15074.72
607.485	14984.32
607.843	15002.18
608.2	15046.24
608.557	15085.79
608.914	14975.06
609.272	15031.1
609.629	15057.32
609.986	15106.13
610.343	15035.62
610.7	15151.78
611.057	15052.8
611.414	15153.58
611.771	15107.26
612.127	15292.79
612.484	15164.21
612.841	15255.05
613.198	15148.16
613.554	15109.52
613.911	15213.24
614.267	15232.9
614.624	15169.63
614.98	15248.05
615.337	15300.25
615.693	15307.93
616.05	15187.71
616.406	15354.26
616.762	15272.23
617.118	15285.56
617.475	15258.21
617.831	15279.01
618.187	15274.94
618.543	15368.04
618.899	15403.3
619.255	15408.72
619.611	15340.7
619.967	15455.72
620.323	15436.06
620.678	15389.28
621.034	15357.65
621.39	15435.39
621.746	15359.23
622.101	15560.35
622.457	15367.14
622.812	15335.5
623.168	15374.82
623.523	15508.15
623.879	15443.29
624.234	15317.2
624.589	15536.17
624.945	15408.04
625.3	15416.18
625.655	15435.84
626.01	15453.69
626.365	15419.11
626.72	15378.44
627.075	15439
627.43	15369.17
627.785	15389.74
628.14	15421.6
628.495	15391.32
628.85	15396.06
629.205	15352.45
629.559	15473.12
629.914	15458.66
630.269	15309.29
630.623	15319
630.978	15208.27
631.332	15312.9
631.687	15297.31
632.041	15273.36
632.396	15285.33
632.75	15227.03
633.104	15185.45
633.459	15143.42
633.813	15208.5
634.167	15110.2
634.521	15234.26
634.875	15219.57
635.229	15223.19
635.583	15084.21
635.937	15075.85
636.291	15121.27
636.645	15095.06
636.999	15009.18
637.352	15095.06
637.706	15042.4
638.06	15026.58
638.413	14984.32
638.767	14957.21
639.121	14959.47
639.474	14904.33
639.828	14965.34
640.181	14842.86
640.534	14921.27
640.888	14832.24
641.241	14889.86
641.594	14833.37
641.947	14852.12
642.301	14847.83
642.654	14766.7
643.007	14822.07
643.36	14875.85
643.713	14829.75
644.066	14829.07
644.419	14722.18
644.771	14685.8
645.124	14607.84
645.477	14445.81
645.83	14478.8
646.182	14401.74
646.535	14370.78
646.888	14365.81
647.24	14211.01
647.593	14391.8
647.945	14232.7
648.298	14247.85
648.65	14197.23
649.002	14194.29
649.355	14209.43
649.707	14244
650.059	14190.22
650.411	14496.43
650.763	14500.95
651.115	14676.99
651.467	14556.09
651.819	14637.89
652.171	14548.18
652.523	14569.65
652.875	14536.2
653.227	14488.74
653.578	14578.01
653.93	14535.07
654.282	14468.18
654.633	14468.63
654.985	14474.05
655.337	14481.96
655.688	14476.54
656.039	14569.19
656.391	14398.8
656.742	14472.25
657.094	14445.58
657.445	14583.66
657.796	14463.66
658.147	14517.44
658.498	14442.19
658.849	14500.27
659.2	14516.99
659.551	14398.12
659.902	14620.49
660.253	14553.15
660.604	14547.27
660.955	14497.33
661.306	14579.59
661.656	14509.08
662.007	14476.99
662.358	14554.05
662.708	14503.88
663.059	14481.96
663.409	14418.24
663.76	14582.75
664.11	14520.61
664.461	14586.82
664.811	14504.56
665.161	14574.84
665.511	14610.55
665.862	14540.95
666.212	14654.84
666.562	14556.76
666.912	14531.45
667.262	14488.29
667.612	14563.09
667.962	14596.09
668.312	14521.06
668.662	14520.83
669.011	14586.82
669.361	14516.77
669.711	14487.61
670.06	14459.82
670.41	14480.61
670.76	14558.12
671.109	14626.14
671.459	14534.84
671.808	14494.17
672.157	14494.84
672.507	14386.37
672.856	14400.84
673.205	14417.78
673.554	14494.62
673.904	14399.48
674.253	14485.35
674.602	14513.83
674.951	14261.4
675.3	14143.67
675.649	14363.32
675.998	14349.54
676.346	14425.92
676.695	14406.03
677.044	14303.44
677.393	14318.8
677.741	14324.91
678.09	14318.58
678.438	14319.03
678.787	14297.79
679.135	14236.77
679.484	14133.5
679.832	14241.07
680.181	14107.74
680.529	14194.51
680.877	14115.42
681.225	14077.45
681.573	14231.8
681.922	14055.31
682.27	13978.02
682.618	14058.02
682.966	14013.5
683.314	14004.91
683.661	13963.79
684.009	13889.44
684.357	13860.96
684.705	13760.85
685.053	13766.73
685.4	13791.36
685.748	13724.92
686.095	13629.56
686.443	13682.66
686.79	13641.99
687.138	13620.07
687.485	13598.37
687.832	13610.57
688.18	13624.81
688.527	13507.75
688.874	13531.71
689.221	13462.78
689.568	13465.27
689.915	13395.66
690.262	13383.69
690.609	13291.94
690.956	13251.71
691.303	13232.28
691.65	13208.78
691.997	13228.66
692.344	13086.97
692.69	13082.68
693.037	13114.09
693.383	12909.58
693.73	13026.63
694.077	12834.1
694.423	12839.52
694.769	12918.84
695.116	12831.84
695.462	12689.92
695.808	12742.8
696.155	12727.89
696.501	12570.6
696.847	12605.85
697.193	12502.58
697.539	12444.73
697.885	12424.84
698.231	12397.5
698.577	12386.2
698.923	12362.47
699.269	12324.51
699.614	12222.36
699.96	12202.7
700.306	12192.08
700.651	12123.61
700.997	12183.72
701.342	12027.57
701.688	12026.89
702.033	12049.26
702.379	12103.27
702.724	11935.36
703.069	11920
703.415	11775.14
703.76	11733.79
704.105	11769.94
704.45	11720.68
704.795	11648.14
705.14	11564.98
705.485	11633.68
705.83	11535.15
706.175	11523.85
706.52	11532.21
706.865	11421.71
707.209	11409.5
707.554	11425.32
707.899	11431.42
708.243	11269.84
708.588	11302.16
708.932	11230.3
709.277	11258.77
709.621	11270.3
709.966	11162.28
710.31	11176.74
710.654	11032.34
710.998	11087.93
711.342	11041.38
711.687	11063.52
712.031	10983.75
712.375	10966.12
712.719	10933.58
713.063	10988.72
713.407	11014.26
713.75	10903.53
714.094	10915.05
714.438	10870.08
714.782	10838.9
715.125	10800.7
715.469	10835.96
715.812	10750.31
716.156	10689.07
716.499	10661.73
716.843	10696.75
717.186	10697.2
717.53	10718.9
717.873	10710.31
718.216	10719.35
718.559	10611.78
718.902	10569.75
719.246	10546.93
719.589	10574.72
719.932	10520.03
720.275	10529.98
720.617	10555.51
720.96	10499.24
721.303	10505.12
721.646	10464.67
721.989	10445.69
722.331	10493.14
722.674	10424.9
723.016	10454.05
723.359	10464.22
723.701	10390.09
724.044	10380.38
724.386	10326.14
724.729	10401.85
725.071	10391.22
725.413	10323.2
725.755	10320.49
726.097	10349.42
726.439	10251.79
726.782	10222.64
727.124	10318.23
727.465	10282.98
727.807	10260.61
728.149	10285.46
728.491	10221.51
728.833	10252.24
729.175	10168.18
729.516	10280.49
729.858	10204.11
730.199	10230.55
730.541	10194.62
730.882	10182.64
731.224	10234.17
731.565	10190.33
731.906	10220.38
732.248	10211.12
732.589	10140.16
732.93	10166.6
733.271	10107.62
733.612	10173.83
733.953	10193.04
734.294	10167.05
734.635	10113.04
734.976	10109.42
735.317	10160.95
735.658	10126.82
735.999	10159.14
736.339	10098.8
736.68	10138.58
737.021	10139.48
737.361	10190.55
737.702	10187.16
738.042	10149.2
738.383	10099.71
738.723	10231.91
739.063	10139.48
739.404	10163.43
739.744	10130.21
740.084	10167.28
740.424	10195.3
740.764	10242.75
741.104	10243.88
741.444	10217.67
741.784	10197.78
742.124	10196.88
742.464	10239.14
742.804	10271.91
743.143	10200.95
743.483	10317.78
743.823	10291.79
744.162	10336.76
744.502	10362.75
744.841	10345.35
745.181	10509.19
745.52	10402.07
745.86	10499.02
746.199	10557.77
746.538	10524.1
746.877	10600.71
747.216	10696.98
747.556	10697.2
747.895	10708.5
748.234	10724.55
748.573	10749.63
748.911	10889.74
749.25	10906.46
749.589	10983.98
749.928	11037.08
750.267	11229.85
750.605	11225.78
750.944	11228.49
751.283	11355.04
751.621	11438.43
751.96	11452.89
752.298	11616.5
752.636	11771.07
752.975	11741.92
753.313	11857.17
753.651	12075.7
753.989	12086.32
754.327	12198.41
754.666	12256.26
755.004	12423.94
755.342	12566.08
755.679	12671.62
756.017	12858.73
756.355	12944.15
