Data from hue_350_FLMS001491_36.txt Node
Date: Mon Feb 06 15:37:56 GMT 2017
User: dcchb
Spectrometer: FLMS00149
Trigger mode: 0
Integration Time (sec): 2.000000E-2
Scans to average: 10
Electric dark correction enabled: true
Nonlinearity correction enabled: false
Boxcar width: 0
XAxis mode: Wavelengths
Number of Pixels in Spectrum: 2048
>>>>>Begin Spectral Data<<<<<
341.393	-14.46
341.776	-14.46
342.16	-14.46
342.543	-77.74
342.927	-66.44
343.31	-83.61
343.693	-72.77
344.077	-40.68
344.46	-50.85
344.843	-56.27
345.226	-44.07
345.61	-25.54
345.993	-42.03
346.376	-20.34
346.759	23.28
347.142	22.6
347.525	47
347.908	49.72
348.291	87
348.674	100.56
349.057	105.99
349.44	131.3
349.823	134.69
350.206	162.48
350.588	212.42
350.971	180.11
351.354	204.06
351.737	232.08
352.119	235.25
352.502	247.9
352.884	272.54
353.267	286.09
353.65	280.22
354.032	303.95
354.414	293.78
354.797	324.06
355.179	318.86
355.562	320.22
355.944	298.52
356.326	331.29
356.709	330.39
357.091	331.74
357.473	322.7
357.855	335.58
358.238	358.86
358.62	329.71
359.002	342.59
359.384	329.03
359.766	348.24
360.148	339.43
360.53	320.22
360.912	319.77
361.294	310.05
361.676	333.55
362.057	329.03
362.439	339.88
362.821	313.44
363.203	337.39
363.584	336.04
363.966	323.61
364.348	329.93
364.729	320.44
365.111	309.6
365.493	294.68
365.874	325.19
366.256	306.43
366.637	329.71
367.019	323.61
367.4	309.14
367.781	311.63
368.163	312.08
368.544	304.4
368.925	298.3
369.306	322.03
369.688	319.31
370.069	289.71
370.45	306.88
370.831	307.11
371.212	334.45
371.593	316.83
371.974	314.57
372.355	298.3
372.736	305.98
373.117	291.52
373.498	310.27
373.879	306.21
374.26	321.35
374.641	315.25
375.021	329.03
375.402	325.42
375.783	317.51
376.163	303.04
376.544	326.77
376.925	309.14
377.305	310.05
377.686	319.31
378.066	328.35
378.447	313.89
378.827	315.02
379.208	322.93
379.588	317.51
379.968	321.57
380.349	337.17
380.729	313.44
381.109	340.1
381.489	317.51
381.87	329.03
382.25	319.54
382.63	298.52
383.01	319.77
383.39	335.81
383.77	327.45
384.15	345.98
384.53	339.88
384.91	334.68
385.29	354.34
385.67	321.8
386.049	328.58
386.429	344.85
386.809	343.95
387.189	337.62
387.568	334.68
387.948	329.26
388.328	346.66
388.707	355.24
389.087	342.36
389.466	360.44
389.846	350.27
390.225	342.14
390.605	372.87
390.984	346.88
391.363	333.55
391.743	373.55
392.122	335.13
392.501	360.44
392.881	343.72
393.26	343.27
393.639	341.69
394.018	370.39
394.397	355.7
394.776	359.99
395.155	373.55
395.534	367.22
395.913	355.24
396.292	357.96
396.671	368.58
397.05	382.36
397.429	359.54
397.808	370.16
398.186	361.35
398.565	349.37
398.944	378.3
399.323	363.83
399.701	367.22
400.08	359.31
400.458	369.48
400.837	389.59
401.215	388.46
401.594	364.06
401.972	380.55
402.351	395.7
402.729	385.53
403.107	374.23
403.486	376.71
403.864	371.97
404.242	395.92
404.62	402.25
404.999	388.92
405.377	393.89
405.755	404.06
406.133	424.4
406.511	399.99
406.889	396.37
407.267	406.54
407.645	435.24
408.023	415.36
408.401	397.05
408.779	415.81
409.156	417.16
409.534	429.37
409.912	429.59
410.29	425.07
410.667	443.15
411.045	451.51
411.422	402.93
411.8	456.71
412.178	441.8
412.555	420.55
412.933	430.27
413.31	446.99
413.687	437.05
414.065	448.58
414.442	476.37
414.819	446.99
415.197	470.27
415.574	459.65
415.951	474.34
416.328	463.49
416.705	478.86
417.082	469.37
417.46	457.62
417.837	485.41
418.214	488.12
418.591	488.12
418.967	493.55
419.344	490.83
419.721	490.16
420.098	483.38
420.475	479.99
420.852	494.22
421.228	492.64
421.605	498.07
421.982	510.72
422.358	514.79
422.735	504.62
423.111	506.88
423.488	529.93
423.864	503.72
424.241	527.9
424.617	534.9
424.994	556.37
425.37	553.88
425.746	529.93
426.123	533.77
426.499	540.55
426.875	561.79
427.251	575.13
427.627	544.39
428.003	573.09
428.379	557.27
428.756	579.65
429.132	571.51
429.507	559.99
429.883	591.85
430.259	596.59
430.635	592.75
431.011	617.84
431.387	606.54
431.763	628.68
432.138	622.13
432.514	620.1
432.89	613.54
433.265	631.85
433.641	635.92
434.016	614
434.392	649.25
434.767	637.27
435.143	660.32
435.518	666.2
435.894	661.23
436.269	663.71
436.644	678.4
437.02	676.82
437.395	673.88
437.77	696.25
438.145	686.31
438.52	691.06
438.895	689.7
439.271	703.26
439.646	717.04
440.021	723.6
440.395	718.17
440.77	714.33
441.145	715.01
441.52	710.94
441.895	733.31
442.27	734.22
442.645	754.33
443.019	729.7
443.394	763.82
443.769	753.43
444.143	722.47
444.518	765.18
444.892	736.93
445.267	746.65
445.641	755.69
446.016	742.13
446.39	768.57
446.764	788.45
447.139	756.14
447.513	775.57
447.887	786.42
448.262	788.91
448.636	773.99
449.01	806.98
449.384	776.7
449.758	824.61
450.132	820.54
450.506	818.96
450.88	828.68
451.254	786.19
451.628	833.88
452.002	832.75
452.376	841.33
452.75	826.42
453.123	817.61
453.497	825.74
453.871	854.44
454.244	864.16
454.618	850.6
454.992	888.11
455.365	887.89
455.739	849.7
456.112	890.37
456.486	898.06
456.859	897.6
457.232	921.56
457.606	912.74
457.979	913.65
458.352	928.56
458.725	921.11
459.099	961.1
459.472	969.69
459.845	977.83
460.218	990.93
460.591	1003.14
460.964	960.88
461.337	1011.5
461.71	990.26
462.083	1020.31
462.456	1007.21
462.829	1011.72
463.201	1033.65
463.574	1027.77
463.947	1053.76
464.32	1078.62
464.692	1088.33
465.065	1075.9
465.438	1102.57
465.81	1093.3
466.183	1127.2
466.555	1145.73
466.928	1123.13
467.3	1124.72
467.672	1166.75
468.045	1211.27
468.417	1200.19
468.789	1205.17
469.161	1205.84
469.534	1253.75
469.906	1257.37
470.278	1244.26
470.65	1273.19
471.022	1289.01
471.394	1298.5
471.766	1337.37
472.138	1319.51
472.51	1335.11
472.882	1356.12
473.253	1356.57
473.625	1399.06
473.997	1430.24
474.369	1435.89
474.74	1445.84
475.112	1498.94
475.484	1491.03
475.855	1510.47
476.227	1541.43
476.598	1548.66
476.97	1597.47
477.341	1621.88
477.713	1648.77
478.084	1634.76
478.455	1679.73
478.827	1751.14
479.198	1771.93
479.569	1777.35
479.94	1805.38
480.311	1842.21
480.682	1854.19
481.053	1932.6
481.424	1958.59
481.795	1952.94
482.166	1983.9
482.537	2004.47
482.908	2071.81
483.279	2081.53
483.65	2125.82
484.021	2164.69
484.391	2190.9
484.762	2234.07
485.133	2237.23
485.503	2281.75
485.874	2324.01
486.244	2327.17
486.615	2394.74
486.985	2440.61
487.356	2486.71
487.726	2459.37
488.097	2532.59
488.467	2517.45
488.837	2604.9
489.207	2597.45
489.578	2636.31
489.948	2689.19
490.318	2704.56
490.688	2742.98
491.058	2782.53
491.428	2832.24
491.798	2851.9
492.168	2885.8
492.538	2914.95
492.908	2975.29
493.278	3020.03
493.648	2996.31
494.017	3021.62
494.387	3096.19
494.757	3098
495.126	3144.55
495.496	3121.05
495.866	3139.13
496.235	3212.12
496.605	3250.31
496.974	3243.98
497.344	3314.26
497.713	3304.09
498.082	3342.29
498.452	3363.3
498.821	3414.83
499.19	3398.78
499.559	3469.29
499.928	3471.77
500.298	3489.17
500.667	3474.48
501.036	3540.47
501.405	3574.37
501.774	3534.6
502.143	3589.96
502.512	3589.96
502.88	3639.45
503.249	3611.43
503.618	3666.12
503.987	3665.21
504.356	3657.76
504.724	3713.57
505.093	3753.8
505.462	3737.98
505.83	3772.33
506.199	3791.54
506.567	3819.56
506.936	3786.79
507.304	3868.15
507.672	3830.41
508.041	3831.09
508.409	3888.49
508.777	3901.37
509.145	3915.6
509.514	3938.88
509.882	3959.9
510.25	3992.66
510.618	4046.9
510.986	4010.06
511.354	4036.05
511.722	4036.05
512.09	4053
512.458	4082.6
512.826	4109.95
513.193	4137.07
513.561	4138.2
513.929	4150.17
514.297	4175.71
514.664	4167.12
515.032	4194.01
515.4	4223.62
515.767	4205.31
516.135	4211.19
516.502	4229.72
516.869	4326.89
517.237	4317.4
517.604	4314.46
517.972	4318.53
518.339	4341.13
518.706	4351.75
519.073	4306.55
519.44	4367.57
519.808	4373.44
520.175	4371.64
520.542	4452.99
520.909	4424.29
521.276	4423.16
521.643	4483.27
522.009	4515.81
522.376	4527.34
522.743	4526.21
523.11	4567.34
523.477	4615.7
523.843	4562.14
524.21	4665.41
524.577	4614.57
524.943	4678.52
525.31	4675.81
525.676	4706.77
526.043	4741.12
526.409	4813.43
526.776	4791.29
527.142	4802.59
527.508	4838.74
527.874	4873.77
528.241	4891.85
528.607	4955.58
528.973	4961.68
529.339	4979.98
529.705	4954.22
530.071	4982.02
530.437	5027.66
530.803	5041.9
531.169	5046.87
531.535	5095.91
531.901	5132.97
532.267	5161.67
532.632	5128.9
532.998	5148.79
533.364	5177.04
533.73	5203.25
534.095	5257.26
534.461	5285.74
534.826	5285.96
535.192	5324.83
535.557	5346.53
535.923	5349.92
536.288	5382.01
536.653	5374.32
537.019	5394.21
537.384	5412.97
537.749	5502.91
538.114	5458.61
538.479	5481.89
538.845	5495.67
539.21	5515.79
539.575	5533.64
539.94	5569.57
540.305	5597.82
540.67	5580.64
541.034	5578.38
541.399	5647.99
541.764	5660.42
542.129	5673.75
542.494	5707.42
542.858	5734.76
543.223	5766.18
543.587	5768.89
543.952	5813.63
544.316	5796.01
544.681	5825.38
545.045	5833.29
545.41	5895.44
545.774	5887.75
546.138	5897.25
546.503	5955.1
546.867	5966.17
547.231	6038.71
547.595	6031.48
547.959	6048.65
548.324	6042.78
548.688	6024.02
549.052	6098.82
549.416	6097.24
549.779	6138.6
550.143	6150.57
550.507	6196.9
550.871	6233.51
551.235	6205.49
551.599	6281.19
551.962	6305.82
552.326	6281.64
552.689	6348.53
553.053	6316.67
553.417	6319.61
553.78	6409.1
554.143	6411.13
554.507	6403.67
554.87	6451.36
555.234	6447.97
555.597	6452.49
555.96	6461.75
556.323	6522.54
556.686	6496.55
557.05	6577.23
557.413	6551.24
557.776	6550.34
558.139	6593.27
558.502	6680.05
558.865	6668.98
559.228	6755.08
559.59	6658.36
559.953	6731.35
560.316	6791.23
560.679	6729.54
561.041	6815.41
561.404	6840.72
561.767	6880.05
562.129	6850.22
562.492	6927.95
562.854	6913.26
563.217	6876.2
563.579	6950.1
563.941	6917.56
564.304	6923.43
564.666	7005.92
565.028	7031.23
565.39	7080.04
565.753	7113.26
566.115	7120.26
566.477	7172.01
566.839	7159.13
567.201	7213.6
567.563	7214.05
567.925	7243.43
568.287	7349.19
568.648	7231.45
569.01	7309.86
569.372	7389.18
569.734	7374.5
570.095	7379.02
570.457	7440.03
570.819	7452.01
571.18	7501.27
571.542	7553.47
571.903	7583.98
572.265	7631.44
572.626	7708.27
572.987	7621.49
573.349	7714.6
573.71	7817.65
574.071	7806.12
574.432	7891.77
574.794	7960.47
575.155	8014.25
575.516	8032.56
575.877	8052.22
576.238	8092.22
576.599	8211.31
576.96	8219.22
577.32	8306.67
577.681	8417.86
578.042	8481.36
578.403	8573.33
578.763	8574.69
579.124	8656.04
579.485	8766.55
579.845	8912.99
580.206	8989.37
580.566	9068.69
580.927	9164.73
581.287	9251.96
581.648	9358.62
582.008	9554.1
582.368	9613.08
582.728	9784.38
583.089	9922.9
583.449	10030.92
583.809	10173.52
584.169	10396.11
584.529	10501.87
584.889	10730.11
585.249	10840.39
585.609	10997
585.969	11263.66
586.329	11416.87
586.688	11533.93
587.048	11714.04
587.408	11960.36
587.768	12206.23
588.127	12477.86
588.487	12620.69
588.846	12977.96
589.206	13062.48
589.565	13306.32
589.925	13628.12
590.284	13858.84
590.643	14080.76
591.003	14267.42
591.362	14612.5
591.721	14820.63
592.08	15108.53
592.44	15390.1
592.799	15715.29
593.158	15894.95
593.517	16095.85
593.876	16506.23
594.235	16621.03
594.593	16908.26
594.952	17293.1
595.311	17601.8
595.67	17966.08
596.029	18289.01
596.387	18507.31
596.746	18830.69
597.104	19034.53
597.463	19372.37
597.822	19638.35
598.18	19965.8
598.538	20190.66
598.897	20542.28
599.255	20576.18
599.613	21206.45
599.972	21297.29
600.33	21648.7
600.688	21869.71
601.046	22247.32
601.404	22519.63
601.762	22788.78
602.12	23132.05
602.478	23506.27
602.836	23676.89
603.194	23745.59
603.552	24156.65
603.91	24251.11
604.268	24655.62
604.625	24900.36
604.983	25130.19
605.341	25341.93
605.698	25677.29
606.056	25957.28
606.413	26111.86
606.771	26357.5
607.128	26680.43
607.485	26867.54
607.843	27052.85
608.2	27359.05
608.557	27606.51
608.914	27775.77
609.272	28100.73
609.629	28354.06
609.986	28624.33
610.343	28545.92
610.7	29105.9
611.057	29169.4
611.414	29335.05
611.771	29592.89
612.127	29991.53
612.484	29973.9
612.841	30340.67
613.198	30292.99
613.554	30539.99
613.911	30854.1
614.267	30980.88
614.624	31132.06
614.98	31437.59
615.337	31525.72
615.693	31665.16
616.05	31718.94
616.406	32039.16
616.762	32105.37
617.118	32207.74
617.475	32410.67
617.831	32675.3
618.187	32812.02
618.543	32867.84
618.899	33150.99
619.255	33278.45
619.611	33231.22
619.967	33487.71
620.323	33637.99
620.678	33548.04
621.034	33647.7
621.39	33912.78
621.746	34021.93
622.101	34303.5
622.457	34228.48
622.812	34311.64
623.168	34521.13
623.523	34577.17
623.879	34747.11
624.234	34526.32
624.589	34837.73
624.945	34965.41
625.3	34963.37
625.655	35051.51
626.01	35182.13
626.365	35262.8
626.72	35431.84
627.075	35327.21
627.43	35429.35
627.785	35357.49
628.14	35646.97
628.495	35546.86
628.85	35660.31
629.205	35597.03
629.559	35851.71
629.914	35710.47
630.269	35814.2
630.623	35828.89
630.978	35795.22
631.332	36083.57
631.687	36103.01
632.041	35965.61
632.396	36072.72
632.75	36060.29
633.104	36083.8
633.459	35996.12
633.813	35982.78
634.167	36056.91
634.521	36030.24
634.875	36112.72
635.229	36262.1
635.583	35915.44
635.937	36114.3
636.291	36084.25
636.645	35965.83
636.999	36045.61
637.352	36140.52
637.706	35947.76
638.06	36179.39
638.413	36013.97
638.767	36043.35
639.121	36184.13
639.474	35944.37
639.828	36010.13
640.181	36101.42
640.534	36163.57
640.888	36084.93
641.241	35897.36
641.594	35948.89
641.947	36069.56
642.301	36077.24
642.654	36103.46
643.007	35934.2
643.36	36119.5
643.713	35931.71
644.066	36173.06
644.419	35758.16
644.771	35634.54
645.124	35382.12
645.477	35403.14
645.83	35051.96
646.182	34951.17
646.535	34983.94
646.888	35047.67
647.24	34871.63
647.593	35059.42
647.945	34888.35
648.298	34755.02
648.65	34749.37
649.002	34607.9
649.355	34954.79
649.707	34841.8
650.059	34882.92
650.411	35296.47
650.763	35298.05
651.115	35761.32
651.467	35577.14
651.819	35680.42
652.171	35616.24
652.523	35449.92
652.875	35480.42
653.227	35448.56
653.578	35722.68
653.93	35610.82
654.282	35517.71
654.633	35439.07
654.985	35426.64
655.337	35493.98
655.688	35468.45
656.039	35467.77
656.391	35150.94
656.742	35286.76
657.094	35392.74
657.445	35410.14
657.796	35345.96
658.147	35206.08
658.498	35250.15
658.849	35366.75
659.2	35217.38
659.551	35192.52
659.902	35334.89
660.253	35209.02
660.604	35292.18
660.955	35181.67
661.306	35184.61
661.656	35109.13
662.007	35156.82
662.358	35152.52
662.708	35204.05
663.059	35173.31
663.409	34965.63
663.76	35130.15
664.11	35136.93
664.461	35208.34
664.811	35152.3
665.161	35289.47
665.511	35052.41
665.862	35139.19
666.212	35242.69
666.562	35238.62
666.912	35075.46
667.262	35013.77
667.612	35007.89
667.962	35015.12
668.312	35082.02
668.662	35132.86
669.011	35134.22
669.361	35134.22
669.711	35079.98
670.06	34931.28
670.41	34932.19
670.76	34956.82
671.109	35048.12
671.459	35114.1
671.808	34967.22
672.157	35082.24
672.507	34699.88
672.856	34912.98
673.205	34830.5
673.554	34971.51
673.904	34856.48
674.253	35051.06
674.602	34875.69
674.951	34359.32
675.3	34183.06
675.649	34576.72
675.998	34754.57
676.346	34719.09
676.695	34818.07
677.044	34665.76
677.393	34698.97
677.741	34780.78
678.09	34689.94
678.438	34555.48
678.787	34679.77
679.135	34600.67
679.484	34454.01
679.832	34504.4
680.181	34359.77
680.529	34369.04
680.877	34303.05
681.225	34349.15
681.573	34388.93
681.922	34366.78
682.27	34163.85
682.618	34194.58
682.966	34174.02
683.314	34249.04
683.661	34134.24
684.009	33866.45
684.357	33885.89
684.705	33776.74
685.053	33941.71
685.4	33844.53
685.748	33699
686.095	33618.55
686.443	33495.16
686.79	33509.18
687.138	33576.52
687.485	33473.7
687.832	33440.25
688.18	33339.91
688.527	33114.16
688.874	33275.96
689.221	33245.91
689.568	33168.62
689.915	33051.11
690.262	33010.43
690.609	32853.83
690.956	32707.84
691.303	32714.17
691.65	32518.92
691.997	32613.83
692.344	32383.1
692.69	32450.67
693.037	32401.41
693.383	32158.48
693.73	32311.69
694.077	32035.99
694.423	32040.97
694.769	32042.32
695.116	31911.03
695.462	31840.07
695.808	31709.45
696.155	31878.48
696.501	31718.49
696.847	31610.24
697.193	31362.34
697.539	31517.82
697.885	31214.77
698.231	31200.54
698.577	31238.5
698.923	31161.67
699.269	31062.91
699.614	30862.24
699.96	30768
700.306	30793.09
700.651	30792.64
700.997	30571.63
701.342	30504.51
701.688	30532.08
702.033	30408.92
702.379	30328.47
702.724	30250.96
703.069	30403.72
703.415	29966.67
703.76	30026.1
704.105	30079.89
704.45	29993.34
704.795	29824.07
705.14	29780.69
705.485	29697.07
705.83	29585.89
706.175	29650.07
706.52	29558.09
706.865	29333.01
707.209	29324.43
707.554	29323.75
707.899	29373.46
708.243	29204.43
708.588	29089.86
708.932	28981.38
709.277	29021.61
709.621	28932.8
709.966	28653.26
710.31	28822.52
710.654	28641.51
710.998	28665.46
711.342	28584.11
711.687	28471.57
712.031	28451.91
712.375	28369.65
712.719	28347.5
713.063	28293.49
713.407	28373.72
713.75	28149.99
714.094	28034.97
714.438	28011.92
714.782	28080.62
715.125	28022.31
715.469	28075.65
715.812	27803.11
716.156	27778.7
716.499	27689.67
716.843	27808.08
717.186	27687.86
717.53	27745.49
717.873	27681.08
718.216	27554.98
718.559	27458.04
718.902	27233.18
719.246	27350.92
719.589	27278.38
719.932	27194.77
720.275	27197.48
720.617	27222.34
720.96	27044.94
721.303	27106.41
721.646	26973.53
721.989	26948.9
722.331	26994.09
722.674	26982.12
723.016	26917.48
723.359	26875.9
723.701	26887.2
724.044	26714.1
724.386	26397.27
724.729	26645.85
725.071	26592.75
725.413	26550.94
725.755	26570.37
726.097	26428.46
726.439	26425.29
726.782	26355.47
727.124	26378.97
727.465	26301
727.807	26273.66
728.149	26189.37
728.491	26221.68
728.833	26305.3
729.175	26063.04
729.516	26116.38
729.858	25955.93
730.199	25954.35
730.541	26018.75
730.882	25981.69
731.224	26002.25
731.565	25817.85
731.906	25835.93
732.248	25809.26
732.589	25693.34
732.93	25718.87
733.271	25558.88
733.612	25748.48
733.953	25605.43
734.294	25507.58
734.635	25426.68
734.976	25521.81
735.317	25276.85
735.658	25396.39
735.999	25421.25
736.339	25322.95
736.68	25400.01
737.021	25289.05
737.361	25187.36
737.702	25173.58
738.042	25139.45
738.383	25118.66
738.723	25124.54
739.063	24888.39
739.404	25057.42
739.744	24910.76
740.084	24889.29
740.424	24825.79
740.764	24908.5
741.104	24981.72
741.444	24736.75
741.784	24647.49
742.124	24734.49
742.464	24743.53
742.804	24640.26
743.143	24599.81
743.483	24669.63
743.823	24527.94
744.162	24565.91
744.502	24586.02
744.841	24348.51
745.181	24533.82
745.52	24380.15
745.86	24446.59
746.199	24261.06
746.538	24286.82
746.877	24387.61
747.216	24386.93
747.556	24276.65
747.895	24264.22
748.234	24162.3
748.573	24020.61
748.911	24134.28
749.25	24126.37
749.589	23862.2
749.928	24066.94
750.267	24029.88
750.605	23944.46
750.944	23848.86
751.283	23764.35
751.621	23810.22
751.96	23706.72
752.298	23646.16
752.636	23751.92
752.975	23636.89
753.313	23413.85
753.651	23536.56
753.989	23419.5
754.327	23362.55
754.666	23318.71
755.004	23334.53
755.342	23412.94
755.679	23345.6
756.017	23142.44
756.355	23223.34
756.693	23052.5
757.031	23198.94
757.368	22953.75
757.706	22981.99
758.044	22951.49
758.381	23024.48
758.719	22833.3
759.056	22851.15
759.394	22723.47
759.731	22621.78
760.068	22494.1
760.405	22501.56
760.743	22464.72
761.08	22555.79
