Data from hue_60_FLMS001491_14.txt Node
Date: Mon Feb 06 15:12:00 GMT 2017
User: dcchb
Spectrometer: FLMS00149
Trigger mode: 0
Integration Time (sec): 2.000000E-2
Scans to average: 10
Electric dark correction enabled: true
Nonlinearity correction enabled: false
Boxcar width: 0
XAxis mode: Wavelengths
Number of Pixels in Spectrum: 2048
>>>>>Begin Spectral Data<<<<<
341.393	-27.87
341.776	-27.87
342.16	-27.87
342.543	-37.36
342.927	-49.33
343.31	-60.18
343.693	-72.16
344.077	-80.75
344.46	-61.54
344.843	-41.43
345.226	-39.62
345.61	-18.38
345.993	-18.6
346.376	-5.04
346.759	18.23
347.142	29.99
347.525	22.53
347.908	44.45
348.291	61.17
348.674	107.5
349.057	113.82
349.44	103.43
349.823	141.62
350.206	154.73
350.588	193.37
350.971	198.34
351.354	204.22
351.737	239.02
352.119	257.55
352.502	271.79
352.884	287.83
353.267	285.57
353.65	276.08
354.032	320.6
354.414	304.33
354.797	329.19
355.179	317.66
355.562	325.12
355.944	333.03
356.326	352.46
356.709	346.59
357.091	346.13
357.473	340.94
357.855	336.87
358.238	365.8
358.62	342.29
359.002	347.49
359.384	346.36
359.766	338.68
360.148	345.23
360.53	351.56
360.912	358.11
361.294	327.6
361.676	319.47
362.057	331.45
362.439	316.08
362.821	333.71
363.203	322.41
363.584	342.75
363.966	333.03
364.348	322.41
364.729	337.1
365.111	336.42
365.493	330.32
365.874	343.2
366.256	326.02
366.637	340.49
367.019	326.7
367.4	304.33
367.781	315.4
368.163	324.44
368.544	326.7
368.925	288.06
369.306	309.53
369.688	321.28
370.069	314.5
370.45	294.61
370.831	309.75
371.212	309.3
371.593	300.94
371.974	322.63
372.355	330.99
372.736	307.72
373.117	335.06
373.498	321.5
373.879	287.15
374.26	336.42
374.641	328.06
375.021	315.63
375.402	319.69
375.783	321.28
376.163	331.45
376.544	344.78
376.925	338.23
377.305	327.38
377.686	326.7
378.066	349.75
378.447	324.67
378.827	332.58
379.208	352.24
379.588	329.64
379.968	314.5
380.349	339.58
380.729	345.68
381.109	343.42
381.489	339.13
381.87	341.16
382.25	352.69
382.63	356.08
383.01	334.16
383.39	366.02
383.77	360.15
384.15	336.64
384.53	357.43
384.91	348.62
385.29	354.95
385.67	356.98
386.049	361.5
386.429	378.9
386.809	345.68
387.189	342.52
387.568	349.98
387.948	343.42
388.328	364.21
388.707	368.73
389.087	350.88
389.466	343.88
389.846	353.82
390.225	362.41
390.605	353.14
390.984	388.85
391.363	360.82
391.743	364.44
392.122	386.36
392.501	375.29
392.881	368.28
393.26	359.02
393.639	398.34
394.018	374.16
394.397	395.63
394.776	361.5
395.155	377.32
395.534	359.24
395.913	376.42
396.292	392.69
396.671	378.68
397.05	396.08
397.429	390.2
397.808	374.61
398.186	382.74
398.565	365.8
398.944	407.38
399.323	382.52
399.701	382.97
400.08	393.59
400.458	387.94
400.837	388.17
401.215	394.27
401.594	386.59
401.972	406.7
402.351	386.36
402.729	390.43
403.107	398.79
403.486	408.05
403.864	399.24
404.242	407.6
404.62	401.73
404.999	415.74
405.377	414.61
405.755	412.35
406.133	413.03
406.511	408.28
406.889	399.47
407.267	424.1
407.645	426.36
408.023	415.74
408.401	412.8
408.779	426.58
409.156	429.07
409.534	449.86
409.912	430.65
410.29	423.87
410.667	444.89
411.045	459.8
411.422	448.96
411.8	439.69
412.178	454.83
412.555	437.21
412.933	450.54
413.31	459.8
413.687	480.14
414.065	467.04
414.442	457.32
414.819	452.8
415.197	481.95
415.574	477.88
415.951	480.82
416.328	487.6
416.705	481.72
417.082	472.91
417.46	486.47
417.837	507.03
418.214	502.52
418.591	499.13
418.967	498.45
419.344	486.47
419.721	509.52
420.098	519.01
420.475	502.06
420.852	529.63
421.228	523.31
421.605	502.97
421.982	508.84
422.358	534.83
422.735	512.23
423.111	526.7
423.488	535.51
423.864	533.47
424.241	545.45
424.617	549.75
424.994	541.61
425.37	556.98
425.746	560.59
426.123	558.56
426.499	536.64
426.875	554.04
427.251	557.65
427.627	561.5
428.003	569.86
428.379	572.8
428.756	588.61
429.132	580.48
429.507	587.26
429.883	615.96
430.259	587.94
430.635	591.33
431.011	575.06
431.387	588.61
431.763	602.63
432.138	598.78
432.514	617.99
432.89	622.06
433.265	609.63
433.641	622.96
434.016	624.09
434.392	639.69
434.767	655.28
435.143	650.53
435.518	662.51
435.894	659.8
436.269	647.6
436.644	689.4
437.02	679.23
437.395	668.61
437.77	675.17
438.145	688.5
438.52	674.49
438.895	710.87
439.271	697.99
439.646	703.87
440.021	704.54
440.395	712.45
440.77	684.66
441.145	709.06
441.52	709.06
441.895	709.97
442.27	742.28
442.645	742.28
443.019	733.24
443.394	721.94
443.769	737.76
444.143	743.41
444.518	754.03
444.892	743.64
445.267	766.01
445.641	771.21
446.016	768.04
446.39	784.77
446.764	782.73
447.139	784.09
447.513	759.68
447.887	764.66
448.262	787.25
448.636	787.71
449.01	806.01
449.384	783.19
449.758	804.65
450.132	802.62
450.506	824.99
450.88	824.99
451.254	832.68
451.628	845.1
452.002	846.46
452.376	850.75
452.75	829.29
453.123	860.92
453.497	868.61
453.871	865.9
454.244	880.81
454.618	898.21
454.992	899.57
455.365	893.69
455.739	933.01
456.112	931.88
456.486	938.21
456.859	957.19
457.232	947.48
457.606	951.77
457.979	966.91
458.352	997.64
458.725	980.47
459.099	1016.4
459.472	1010.75
459.845	1011.65
460.218	1004.87
460.591	1036.74
460.964	1056.62
461.337	1065.21
461.71	1083.52
462.083	1101.82
462.456	1093.23
462.829	1113.35
463.201	1103.86
463.574	1140.92
463.947	1143.4
464.32	1161.71
464.692	1160.8
465.065	1180.24
465.438	1187.47
465.81	1193.12
466.183	1211.87
466.555	1264.08
466.928	1272.89
467.3	1273.79
467.672	1287.58
468.045	1334.13
468.417	1354.7
468.789	1356.96
469.161	1377.75
469.534	1398.54
469.906	1441.93
470.278	1446.22
470.65	1481.02
471.022	1521.7
471.394	1523.28
471.766	1596.5
472.138	1595.14
472.51	1655.03
472.882	1678.53
473.253	1723.05
473.625	1730.51
473.997	1762.37
474.369	1810.96
474.74	1817.06
475.112	1879.88
475.484	1953.32
475.855	1966.43
476.227	2024.51
476.598	2074
476.97	2126.2
477.341	2182.7
477.713	2239.42
478.084	2246.2
478.455	2382.47
478.827	2420.43
479.198	2486.87
479.569	2539.75
479.94	2651.39
480.311	2706.52
480.682	2776.13
481.053	2864.71
481.424	2948.1
481.795	3012.73
482.166	3139.51
482.537	3196
482.908	3307.64
483.279	3377.47
483.65	3480.52
484.021	3595.09
484.391	3692.94
484.762	3829.89
485.133	3925.93
485.503	4000.73
485.874	4173.83
486.244	4188.97
486.615	4358.68
486.985	4450.21
487.356	4673.93
487.726	4744.21
488.097	4939.91
488.467	4974.71
488.837	5179
489.207	5302.39
489.578	5429.62
489.948	5602.72
490.318	5747.57
490.688	5833.22
491.058	5973.33
491.428	6155.93
491.798	6290.16
492.168	6472.98
492.538	6563.82
492.908	6773.54
493.278	6940.31
493.648	7014.89
494.017	7205.16
494.387	7316.8
494.757	7477.7
495.126	7624.36
495.496	7783.23
495.866	7953.17
496.235	8105.7
496.605	8340.28
496.974	8444.91
497.344	8633.37
497.713	8706.37
498.082	8876.31
498.452	9054.61
498.821	9174.38
499.19	9309.52
499.559	9448.95
499.928	9553.58
500.298	9744.98
500.667	9953.79
501.036	10030.63
501.405	10213.45
501.774	10262.71
502.143	10482.82
502.512	10542.03
502.88	10703.38
503.249	10836.93
503.618	10948.79
503.987	11147.66
504.356	11310.37
504.724	11366.18
505.093	11526.86
505.462	11612.96
505.83	11865.83
506.199	11976.34
506.567	12218.37
506.936	12199.16
507.304	12374.97
507.672	12603.21
508.041	12654.06
508.409	12823.77
508.777	13028.29
509.145	13089.98
509.514	13159.58
509.882	13369.75
510.25	13443.42
510.618	13557.54
510.986	13723.86
511.354	13871.43
511.722	14011.76
512.09	14195.26
512.458	14244.3
512.826	14415.6
513.193	14494.01
513.561	14670.96
513.929	14814.23
514.297	14934.45
514.664	15113.88
515.032	15243.6
515.4	15232.52
515.767	15438.39
516.135	15541.89
516.502	15565.62
516.869	15903.01
517.237	15938.72
517.604	15952.96
517.972	16109.11
518.339	16280.18
518.706	16358.14
519.073	16487.41
519.44	16630
519.808	16902.54
520.175	16887.17
520.542	17148.86
520.909	17240.38
521.276	17302.07
521.643	17528.96
522.009	17704.77
522.376	17808.95
522.743	17930.31
523.11	18134.59
523.477	18334.59
523.843	18335.72
524.21	18591.53
524.577	18755.14
524.943	18858.64
525.31	18985.64
525.676	19119.88
526.043	19274
526.409	19376.37
526.776	19638.51
527.142	19584.05
527.508	19768.45
527.874	20000.53
528.241	20171.83
528.607	20160.3
528.973	20377.02
529.339	20422.9
529.705	20628.09
530.071	20753.51
530.437	20857.01
530.803	20950.34
531.169	21090.9
531.535	21127.96
531.901	21306.94
532.267	21379.71
532.632	21480.72
532.998	21594.84
533.364	21729.53
533.73	21734.05
534.095	21955.51
534.461	22066.92
534.826	22220.14
535.192	22225.79
535.557	22476.4
535.923	22418.77
536.288	22429.85
536.653	22687.69
537.019	22588.71
537.384	22711.87
537.749	22920.46
538.114	22908.71
538.479	23051.3
538.845	23011.3
539.21	23124.52
539.575	23231.63
539.94	23272.54
540.305	23497.62
540.67	23483.38
541.034	23555.02
541.399	23574.45
541.764	23727.89
542.129	23754.79
542.494	23865.29
542.858	23981.9
543.223	23936.02
543.587	24178.28
543.952	24039.3
544.316	24217.37
544.681	24125.17
545.045	24306.63
545.41	24547.53
545.774	24569.68
546.138	24529.45
546.503	24712.5
546.867	24685.83
547.231	25082.89
547.595	24918.14
547.959	25032.04
548.324	25035.88
548.688	25091.7
549.052	25168.08
549.416	25252.15
549.779	25358.36
550.143	25333.95
550.507	25671.8
550.871	25657.11
551.235	25598.8
551.599	25773.49
551.962	25887.61
552.326	25958.79
552.689	26201.95
553.053	26014.39
553.417	26172.12
553.78	26394.49
554.143	26455.73
554.507	26552.45
554.87	26570.98
555.234	26861.37
555.597	26679.91
555.96	26871.09
556.323	26893.69
556.686	27098.88
557.05	27230.85
557.413	27358.08
557.776	27294.58
558.139	27565.31
558.502	27590.39
558.865	27727.11
559.228	28019.53
559.59	28002.81
559.953	28035.35
560.316	28349.69
560.679	28427.66
561.041	28524.6
561.404	28575
561.767	28873.75
562.129	28718.95
562.492	29070.58
562.854	28905.61
563.217	28999.62
563.579	29187.86
563.941	29413.85
564.304	29491.81
564.666	29660.17
565.028	29816.09
565.39	29926.15
565.753	30040.72
566.115	30113.94
566.477	30265.8
566.839	30374.27
567.201	30503.99
567.563	30512.8
567.925	30784.2
568.287	30843.19
568.648	30834.37
569.01	31020.81
569.372	31295.6
569.734	31168.38
570.095	31327.02
570.457	31493.11
570.819	31550.06
571.18	31676.84
571.542	31734.01
571.903	31747.57
572.265	31891.52
572.626	31958.41
572.987	32155.92
573.349	32122.02
573.71	32355.24
574.071	32348.91
574.432	32543.48
574.794	32759.75
575.155	32639.52
575.516	32619.86
575.877	32930.14
576.238	32906.41
576.599	33061.88
576.96	33016.69
577.32	33091.94
577.681	33128.1
578.042	33346.17
578.403	33226.63
578.763	33399.5
579.124	33392.95
579.485	33406.51
579.845	33634.3
580.206	33564.24
580.566	33591.14
580.927	33672.04
581.287	33762.21
581.648	33803.33
582.008	33803.79
582.368	33876.78
582.728	33789.32
583.089	33810.57
583.449	33829.55
583.809	33915.87
584.169	34062.54
584.529	33923.11
584.889	34222.08
585.249	33881.75
585.609	33848.3
585.969	34080.84
586.329	33988.64
586.688	34153.38
587.048	34110.44
587.408	34078.58
587.768	34121.29
588.127	33974.63
588.487	33932.82
588.846	34288.07
589.206	34026.15
589.565	34154.74
589.925	34291.23
590.284	34246.94
590.643	34220.95
591.003	34233.61
591.362	34431.79
591.721	34313.15
592.08	34157.45
592.44	34470.44
592.799	34447.16
593.158	34428.4
593.517	34263.66
593.876	34505.01
594.235	34393.83
594.593	34572.13
594.952	34611.22
595.311	34358.8
595.67	34506.14
596.029	34773.93
596.387	34887.83
596.746	34811.67
597.104	34703.2
597.463	34816.64
597.822	34930.54
598.18	34753.14
598.538	34851.22
598.897	34949.74
599.255	34585.69
599.613	35229.29
599.972	34938.9
600.33	35253.01
600.688	34982.29
601.046	35169.85
601.404	35328.94
601.762	35211.21
602.12	35326.23
602.478	35420.69
602.836	35351.32
603.194	35157.65
603.552	35460.24
603.91	35295.27
604.268	35567.13
604.625	35459.34
604.983	35546.79
605.341	35449.17
605.698	35590.86
606.056	35700.01
606.413	35681.48
606.771	35901.58
607.128	35871.3
607.485	35882.15
607.843	35873.34
608.2	36074.69
608.557	36179.09
608.914	35933.45
609.272	36265.19
609.629	36262.7
609.986	36431.06
610.343	36247.11
610.7	36581.57
611.057	36439.65
611.414	36533.88
611.771	36494.34
612.127	36695.91
612.484	36701.79
612.841	36826.76
613.198	36710.38
613.554	36771.39
613.911	37016.36
614.267	36920.09
614.624	36972.29
614.98	37108.11
615.337	37245.5
615.693	37178.39
616.05	37104.04
616.406	37423.13
616.762	37308.78
617.118	37240.31
617.475	37273.07
617.831	37475.55
618.187	37546.06
618.543	37565.72
618.899	37805.04
619.255	37782.66
619.611	37665.83
619.967	37862.44
620.323	38005.94
620.678	37718.94
621.034	37780.63
621.39	37828.54
621.746	37728.43
622.101	38180.62
622.457	37838.26
622.812	38068.08
623.168	38158.47
623.523	38175.2
623.879	38246.61
624.234	38048.19
624.589	38158.7
624.945	38263.56
625.3	38425.13
625.655	38390.78
626.01	38204.35
626.365	38381.97
626.72	38342.88
627.075	38507.17
627.43	38396.89
627.785	38350.11
628.14	38295.42
628.495	38450.67
628.85	38447.73
629.205	38273.95
629.559	38426.94
629.914	38290.9
630.269	38320.5
630.623	38303.33
630.978	38120.96
631.332	38240.51
631.687	38472.14
632.041	38318.02
632.396	38436.21
632.75	38157.34
633.104	38291.35
633.459	38000.51
633.813	38224.01
634.167	38156.89
634.521	38115.09
634.875	38194.63
635.229	38196.44
635.583	38187.4
635.937	38094.97
636.291	37988.54
636.645	37994.86
636.999	37965.26
637.352	38164.58
637.706	37823.57
638.06	38057.23
638.413	38035.31
638.767	37812.72
639.121	37982.66
639.474	37701.76
639.828	37809.56
640.181	37862.89
640.534	37837.8
640.888	37820.4
641.241	37601.2
641.594	37677.81
641.947	37713.97
642.301	37615.89
642.654	37593.52
643.007	37743.34
643.36	37591.71
643.713	37546.74
644.066	37669.45
644.419	37377.93
644.771	37330.47
645.124	36923.03
645.477	36850.03
645.83	36546.09
646.182	36560.78
646.535	36456.82
646.888	36452.3
647.24	36335.25
647.593	36510.16
647.945	36469.93
648.298	36227.23
648.65	36284.63
649.002	36173.44
649.355	36297.28
649.707	36282.14
650.059	36327.34
650.411	36707.89
650.763	36743.82
651.115	37184.26
651.467	37012.52
651.819	36902.24
652.171	37021.33
652.523	36893.65
652.875	36918.05
653.227	36822.01
653.578	37102
653.93	36873.76
654.282	36563.49
654.633	36711.51
654.985	36770.94
655.337	36681.9
655.688	36553.09
656.039	36817.49
656.391	36407.56
656.742	36613.2
657.094	36543.15
657.445	36798.74
657.796	36612.98
658.147	36502.7
658.498	36532.98
658.849	36633.99
659.2	36590.15
659.551	36475.13
659.902	36631.51
660.253	36587.89
660.604	36706.31
660.955	36284.63
661.306	36428.35
661.656	36391.29
662.007	36377.28
662.358	36487.56
662.708	36462.93
663.059	36446.43
663.409	36207.11
663.76	36597.84
664.11	36535.92
664.461	36482.59
664.811	36405.75
665.161	36434.45
665.511	36265.42
665.862	36382.93
666.212	36325.3
666.562	36457.05
666.912	36407.33
667.262	36316.71
667.612	36353.55
667.962	36344.28
668.312	36229.71
668.662	36417.28
669.011	36196.94
669.361	36261.12
669.711	36280.56
670.06	36209.15
670.41	36227.45
670.76	36078.53
671.109	36177.28
671.459	36099.55
671.808	36076.72
672.157	36304.74
672.507	36044.63
672.856	36015.93
673.205	36127.57
673.554	36132.09
673.904	36046.67
674.253	36143.61
674.602	36079.43
674.951	35576.85
675.3	35384.31
675.649	36024.97
675.998	35798.08
676.346	35905.43
676.695	35920.79
677.044	35671.08
677.393	35784.53
677.741	35789.27
678.09	35662.95
678.438	35672.66
678.787	35792.21
679.135	35842.6
679.484	35478.32
679.832	35668.6
680.181	35413.46
680.529	35530.07
680.877	35478.77
681.225	35301.37
681.573	35660.91
681.922	35372.78
682.27	35210.98
682.618	35300.92
682.966	35326.01
683.314	35330.3
683.661	35099.35
684.009	35104.09
684.357	34890.54
684.705	34863.19
685.053	35098.44
685.4	34879.92
685.748	34712.24
686.095	34791.56
686.443	34622.52
686.79	34667.27
687.138	34638.57
687.485	34588.17
687.832	34458.01
688.18	34444.9
688.527	34288.29
688.874	34283.77
689.221	34311.57
689.568	34269.08
689.915	34180.73
690.262	34091.01
690.609	33987.06
690.956	33954.29
691.303	33867.51
691.65	33703
691.997	33613.96
692.344	33520.63
692.69	33427.53
693.037	33360.63
693.383	33154.31
693.73	33381.65
694.077	33185.27
694.423	33071.83
694.769	33037.03
695.116	32945.05
695.462	32983.02
695.808	32710.71
696.155	32894.21
696.501	32603.14
696.847	32625.06
697.193	32392.07
697.539	32545.97
697.885	32357.5
698.231	32152.3
698.577	32261.68
698.923	32249.7
699.269	32078.41
699.614	31764.52
699.96	31823.5
700.306	31804.52
700.651	31643.17
700.997	31580.79
701.342	31569.49
701.688	31445.88
702.033	31418.54
702.379	31412.66
702.724	31275.27
703.069	31365.66
703.415	31004.31
703.76	31174.02
704.105	31081.37
704.45	30858.1
704.795	30762.96
705.14	30678.67
705.485	30761.61
705.83	30610.42
706.175	30538.79
706.52	30463.08
706.865	30413.37
707.209	30320.49
707.554	30329.98
707.899	30410.43
708.243	30122.3
708.588	30039.37
708.932	29875.75
709.277	29812.7
709.621	29875.3
709.966	29642.09
710.31	29831.24
710.654	29550.79
710.998	29593.05
711.342	29493.84
711.687	29398.48
712.031	29375.65
712.375	29204.36
712.719	29278.71
713.063	29229.22
713.407	29229.67
713.75	29086.4
714.094	29064.25
714.438	28909.45
714.782	28926.63
715.125	28970.24
715.469	28946.29
715.812	28667.42
716.156	28644.6
716.499	28687.99
716.843	28601.21
717.186	28546.07
717.53	28590.82
717.873	28568.22
718.216	28619.29
718.559	28406.64
718.902	28244.84
719.246	28228.79
719.589	28231.96
719.932	28080.77
720.275	28184.95
720.617	28133.43
720.96	28028.12
721.303	27987.67
721.646	27890.72
721.989	27802.81
722.331	27770.72
722.674	27861.34
723.016	27811.85
723.359	27813.66
723.701	27768.46
724.044	27518.98
724.386	27429.49
724.729	27577.06
725.071	27492.09
725.413	27426.1
725.755	27468.13
726.097	27190.85
726.439	27138.42
726.782	27147.69
727.124	27279.89
727.465	27068.6
727.807	27109.73
728.149	27014.36
728.491	26934.14
728.833	26924.19
729.175	26857.08
729.516	26808.04
729.858	26866.12
730.199	26779.34
730.541	26719.23
730.882	26740.02
731.224	26764.2
731.565	26522.62
731.906	26639.68
732.248	26682.39
732.589	26450.08
732.93	26506.13
733.271	26503.64
733.612	26492.57
733.953	26385.9
734.294	26356.3
734.635	26257.77
734.976	26394.94
735.317	26200.37
735.658	26202.86
735.999	26168.96
736.339	26083.54
736.68	26102.29
737.021	26049.41
737.361	25926.71
737.702	26173.25
738.042	25948.85
738.383	25853.71
738.723	25988.17
739.063	25825.24
739.404	25899.81
739.744	25748.86
740.084	25653.27
740.424	25781.62
740.764	25558.35
741.104	25678.35
741.444	25554.96
741.784	25442.88
742.124	25605.36
742.464	25491.69
742.804	25364.69
743.143	25335.08
743.483	25375.99
743.823	25157.91
744.162	25288.08
744.502	25278.13
744.841	25198.81
745.181	25168.53
745.52	25029.1
745.86	25190
746.199	25056.67
746.538	25064.81
746.877	25082.66
747.216	25001.53
747.556	25012.38
747.895	24945.49
748.234	24939.16
748.573	24828.43
748.911	24701.43
749.25	24744.82
749.589	24539.17
749.928	24670.47
750.267	24691.26
750.605	24552.96
750.944	24467.99
751.283	24363.36
751.621	24437.7
751.96	24312.28
752.298	24355.22
752.636	24195.68
752.975	24152.97
753.313	24089.01
753.651	24181.21
753.989	24103.7
754.327	24043.36
754.666	23855.12
755.004	23876.36
755.342	23905.52
755.679	23834.78
756.017	23640.89
756.355	23682.92
756.693	23710.94
