Data from hue_34_FLMS001491_00048.txt Node
Date: Tue Feb 07 17:25:41 GMT 2017
User: dcchb
Spectrometer: FLMS00149
Trigger mode: 0
Integration Time (sec): 2.000000E-2
Scans to average: 10
Electric dark correction enabled: true
Nonlinearity correction enabled: false
Boxcar width: 0
XAxis mode: Wavelengths
Number of Pixels in Spectrum: 2048
>>>>>Begin Spectral Data<<<<<
341.393	-0.82
341.776	-0.82
342.16	-0.82
342.543	-62.74
342.927	-67.48
343.31	-65
343.693	-92.57
344.077	-65.22
344.46	-67.26
344.843	-65.45
345.226	-36.07
345.61	-17.99
345.993	-3.3
346.376	-15.96
346.759	12.97
347.142	45.96
347.525	27.43
347.908	69.24
348.291	60.87
348.674	96.13
349.057	116.24
349.44	124.15
349.823	137.48
350.206	164.83
350.588	206.41
350.971	205.5
351.354	242.56
351.737	226.97
352.119	252.51
352.502	269.23
352.884	290.92
353.267	283.69
353.65	292.51
354.032	298.16
354.414	308.33
354.797	335.44
355.179	346.74
355.562	316.23
355.944	343.8
356.326	337.7
356.709	335.22
357.091	339.74
357.473	360.98
357.855	344.71
358.238	331.38
358.62	351.26
359.002	341.54
359.384	333.18
359.766	342
360.148	357.14
360.53	374.54
360.912	355.1
361.294	342.22
361.676	316.23
362.057	352.17
362.439	336.12
362.821	335.9
363.203	341.54
363.584	334.54
363.966	314.65
364.348	341.32
364.729	321.66
365.111	333.41
365.493	325.27
365.874	338.15
366.256	323.47
366.637	336.8
367.019	334.09
367.4	302.68
367.781	314.43
368.163	314.2
368.544	336.35
368.925	324.6
369.306	330.25
369.688	321.66
370.069	319.4
370.45	323.69
370.831	314.2
371.212	327.76
371.593	330.02
371.974	332.28
372.355	310.36
372.736	334.99
373.117	353.52
373.498	312.39
373.879	317.82
374.26	331.83
374.641	323.92
375.021	344.03
375.402	331.6
375.783	338.38
376.163	319.17
376.544	352.84
376.925	331.83
377.305	325.5
377.686	342.22
378.066	363.01
378.447	322.79
378.827	340.41
379.208	339.96
379.588	353.97
379.968	337.93
380.349	343.35
380.729	353.07
381.109	348.78
381.489	333.41
381.87	341.77
382.25	337.03
382.63	361.88
383.01	381.09
383.39	352.39
383.77	363.92
384.15	344.26
384.53	329.34
384.91	348.32
385.29	366.18
385.67	357.36
386.049	372.05
386.429	362.34
386.809	358.27
387.189	357.82
387.568	379.51
387.948	372.28
388.328	373.86
388.707	354.88
389.087	374.99
389.466	374.99
389.846	379.51
390.225	382.67
390.605	365.5
390.984	390.81
391.363	359.62
391.743	375.89
392.122	366.18
392.501	367.08
392.881	384.03
393.26	376.12
393.639	395.1
394.018	382.67
394.397	376.12
394.776	382
395.155	364.14
395.534	384.71
395.913	403.46
396.292	403.92
396.671	392.39
397.05	421.77
397.429	399.85
397.808	390.13
398.186	402.79
398.565	407.53
398.944	390.81
399.323	405.72
399.701	401.66
400.08	403.92
400.458	402.33
400.837	410.47
401.215	421.99
401.594	428.32
401.972	408.89
402.351	412.5
402.729	418.38
403.107	419.73
403.486	435.1
403.864	409.79
404.242	442.11
404.62	412.05
404.999	413.86
405.377	439.85
405.755	418.83
406.133	421.09
406.511	444.59
406.889	441.88
407.267	425.84
407.645	447.53
408.023	443.69
408.401	460.41
408.779	444.82
409.156	461.99
409.534	460.41
409.912	465.61
410.29	452.05
410.667	466.74
411.045	480.3
411.422	452.28
411.8	481.65
412.178	483.46
412.555	473.29
412.933	486.17
413.31	514.2
413.687	473.52
414.065	484.82
414.442	496.57
414.819	495.89
415.197	493.86
415.574	511.71
415.951	524.36
416.328	526.85
416.705	500.86
417.082	502.44
417.46	520.3
417.837	506.96
418.214	514.65
418.591	523.69
418.967	547.64
419.344	541.09
419.721	537.47
420.098	534.53
420.475	550.8
420.852	553.74
421.228	554.42
421.605	551.71
421.982	543.35
422.358	565.72
422.735	576.11
423.111	565.04
423.488	573.4
423.864	581.31
424.241	567.53
424.617	572.05
424.994	574.31
425.37	574.98
425.746	590.8
426.123	596.23
426.499	596.91
426.875	589
427.251	606.85
427.627	610.69
428.003	626.51
428.379	619.05
428.756	630.12
429.132	632.61
429.507	626.73
429.883	625.38
430.259	652.05
430.635	660.63
431.011	653.4
431.387	660.18
431.763	657.02
432.138	664.47
432.514	653.17
432.89	675.1
433.265	690.24
433.641	687.07
434.016	707.86
434.392	678.48
434.767	694.76
435.143	699.5
435.518	697.47
435.894	705.15
436.269	747.41
436.644	730.69
437.02	735.21
437.395	740.4
437.77	764.58
438.145	748.54
438.52	769.56
438.895	744.25
439.271	775.88
439.646	780.86
440.021	784.02
440.395	801.87
440.77	790.12
441.145	783.57
441.52	810.68
441.895	808.88
442.27	800.97
442.645	802.1
443.019	816.56
443.394	797.8
443.769	798.93
444.143	812.49
444.518	791.25
444.892	828.09
445.267	857.01
445.641	848.42
446.016	861.76
446.39	877.35
446.764	872.38
447.139	862.21
447.513	856.11
447.887	859.05
448.262	885.26
448.636	883.68
449.01	912.6
449.384	882.55
449.758	903.11
450.132	912.15
450.506	918.93
450.88	921.87
451.254	914.19
451.628	925.03
452.002	936.78
452.376	969.78
452.75	973.17
453.123	948.76
453.497	996.67
453.871	967.29
454.244	1003
454.618	966.16
454.992	1006.84
455.365	1007.29
455.739	1033.96
456.112	1044.13
456.486	1058.81
456.859	1085.93
457.232	1076.21
457.606	1070.11
457.979	1070.57
458.352	1076.44
458.725	1111.02
459.099	1100.17
459.472	1144.01
459.845	1120.96
460.218	1133.39
460.591	1161.86
460.964	1183.78
461.337	1182.43
461.71	1193.27
462.083	1243.22
462.456	1210.67
462.829	1247.96
463.201	1269.66
463.574	1266.49
463.947	1275.76
464.32	1295.42
464.692	1296.55
465.065	1325.47
465.438	1339.48
465.81	1353.5
466.183	1382.87
466.555	1391.69
466.928	1413.83
467.3	1378.13
467.672	1449.54
468.045	1489.09
468.417	1485.7
468.789	1505.58
469.161	1514.4
469.534	1527.73
469.906	1575.18
470.278	1601.4
470.65	1617.22
471.022	1672.13
471.394	1683.66
471.766	1684.56
472.138	1715.75
472.51	1753.94
472.882	1790.32
473.253	1804.56
473.625	1848.17
473.997	1886.81
474.369	1864.67
474.74	1943.99
475.112	1975.63
475.484	1988.28
475.855	2052.23
476.227	2099.46
476.598	2158.45
476.97	2170.2
477.341	2218.11
477.713	2258.78
478.084	2323.87
478.455	2377.42
478.827	2393.92
479.198	2497.19
479.569	2518.21
479.94	2587.81
480.311	2639.11
480.682	2713.69
481.053	2778.09
481.424	2849.73
481.795	2947.8
482.166	2961.36
482.537	3016.28
482.908	3083.62
483.279	3179.66
483.65	3272.32
484.021	3354.57
484.391	3413.55
484.762	3439.54
485.133	3522.03
485.503	3600.89
485.874	3673.43
486.244	3742.59
486.615	3897.84
486.985	3949.59
487.356	4043.37
487.726	4094.89
488.097	4232.97
488.467	4250.59
488.837	4413.98
489.207	4490.59
489.578	4570.13
489.948	4642
490.318	4756.57
490.688	4807.64
491.058	4906.62
491.428	5026.17
491.798	5056.67
492.168	5220.29
492.538	5279.95
492.908	5373.28
493.278	5436.78
493.648	5523.56
494.017	5628.41
494.387	5683.33
494.757	5830.67
495.126	5858.69
495.496	5946.14
495.866	6036.31
496.235	6105.46
496.605	6180.71
496.974	6312.46
497.344	6374.38
497.713	6377.09
498.082	6500.7
498.452	6606.92
498.821	6660.7
499.19	6733.92
499.559	6743.86
499.928	6827.25
500.298	6890.98
500.667	7020.01
501.036	7018.66
501.405	7158.99
501.774	7143.63
502.143	7310.18
502.512	7333.23
502.88	7376.16
503.249	7420
503.618	7506.78
503.987	7591.98
504.356	7617.29
504.724	7725.31
505.093	7771.86
505.462	7845.53
505.83	7835.81
506.199	7973.21
506.567	8056.82
506.936	8051.4
507.304	8189.47
507.672	8256.36
508.041	8285.97
508.409	8333.88
508.777	8391.95
509.145	8536.36
509.514	8518.5
509.882	8528.67
510.25	8626.52
510.618	8717.14
510.986	8677.82
511.354	8744.49
511.722	8893.18
512.09	8893.41
512.458	8918.72
512.826	8964.82
513.193	9080.75
513.561	9144.03
513.929	9209.33
514.297	9292.95
514.664	9283.91
515.032	9330.69
515.4	9433.06
515.767	9443
516.135	9507.41
516.502	9480.06
516.869	9699.94
517.237	9697.23
517.604	9668.53
517.972	9840.28
518.339	9786.95
518.706	9817.23
519.073	9854.97
519.44	9906.94
519.808	10117.33
520.175	10057.9
520.542	10130.44
520.909	10187.84
521.276	10215.41
521.643	10315.75
522.009	10329.53
522.376	10364.56
522.743	10480.71
523.11	10550.32
523.477	10695.17
523.843	10709.18
524.21	10840.25
524.577	10874.15
524.943	10912.79
525.31	10994.37
525.676	11114.14
526.043	11127.02
526.409	11157.31
526.776	11227.59
527.142	11279.34
527.508	11415.38
527.874	11440.01
528.241	11483.4
528.607	11563.62
528.973	11616.73
529.339	11642.72
529.705	11814.69
530.071	11884.97
530.437	11875.25
530.803	11972.88
531.169	11969.94
531.535	12010.62
531.901	12002.48
532.267	12134.45
532.632	12168.13
532.998	12193.21
533.364	12332.64
533.73	12357.95
534.095	12450.15
534.461	12498.29
534.826	12591.17
535.192	12644.5
535.557	12733.08
535.923	12765.17
536.288	12788
536.653	12826.64
537.019	12776.47
537.384	12853.98
537.749	12898.73
538.114	13037.93
538.479	12995
538.845	13100.53
539.21	13124.49
539.575	13112.06
539.94	13132.85
540.305	13321.54
540.67	13311.83
541.034	13309.34
541.399	13479.05
541.764	13475.66
542.129	13506.62
542.494	13522.89
542.858	13648.77
543.223	13657.8
543.587	13804.92
543.952	13768.99
544.316	13822.09
544.681	13855.77
545.045	13857.57
545.41	13995.87
545.774	14044.46
546.138	14027.74
546.503	14173.05
546.867	14130.79
547.231	14278.13
547.595	14305.47
547.959	14322.87
548.324	14359.26
548.688	14401.74
549.052	14449.87
549.416	14459.37
549.779	14567.84
550.143	14548.4
550.507	14759.24
550.871	14685.57
551.235	14751.79
551.599	14830.66
551.962	14847.38
552.326	14943.87
552.689	14985.91
553.053	14968.5
553.417	14990.88
553.78	15208.27
554.143	15111.55
554.507	15183.19
554.87	15286.69
555.234	15353.13
555.597	15317.42
555.96	15374.82
556.323	15443.29
556.686	15454.37
557.05	15534.82
557.413	15526
557.776	15586.12
558.139	15693.91
558.502	15789.05
558.865	15774.13
559.228	15923.06
559.59	15908.59
559.953	15951.98
560.316	16154.91
560.679	16084.63
561.041	16160.34
561.404	16345.19
561.767	16397.62
562.129	16306.55
562.492	16494.57
562.854	16492.76
563.217	16526.66
563.579	16586.54
563.941	16677.39
564.304	16702.92
564.666	16902.92
565.028	16841.9
565.39	16934.1
565.753	17059.98
566.115	17015.91
566.477	17190.82
566.839	17183.14
567.201	17240.54
567.563	17221.78
567.925	17342.45
568.287	17422.68
568.648	17492.96
569.01	17563.24
569.372	17689.34
569.734	17628.1
570.095	17855.43
570.457	17812.5
570.819	17893.85
571.18	17888.2
571.542	18027.63
571.903	18005.94
572.265	18134.07
572.626	18262.88
572.987	18308.98
573.349	18342.65
573.71	18497.23
574.071	18661.06
574.432	18650.22
574.794	18896.31
575.155	18942.19
575.516	18864.22
575.877	19013.37
576.238	19036.65
576.599	19246.81
576.96	19379.91
577.32	19450.19
577.681	19556.86
578.042	19659.68
578.403	19763.63
578.763	19900.8
579.124	20016.73
579.485	20266.9
579.845	20430.51
580.206	20438.64
580.566	20579.88
580.927	20795.92
581.287	20973.09
581.648	20995.24
582.008	21230.94
582.368	21354.1
582.728	21634.54
583.089	21790.02
583.449	21893.75
583.809	22072.95
584.169	22329.22
584.529	22418.03
584.889	22824.12
585.249	22846.26
585.609	22939.37
585.969	23330.77
586.329	23390.66
586.688	23768.27
587.048	23990.64
587.408	24140.01
587.768	24444.41
588.127	24649.38
588.487	24786.33
588.846	25130.27
589.206	25209.82
589.565	25488.45
589.925	25822.23
590.284	25996.46
590.643	26262.45
591.003	26513.96
591.362	26827.63
591.721	27007.96
592.08	27244.34
592.44	27513.71
592.799	27689.07
593.158	27930.88
593.517	28133.13
593.876	28353.46
594.235	28623.51
594.593	28874.58
594.952	29144.86
595.311	29355.02
595.67	29604.5
596.029	30065.28
596.387	30256.69
596.746	30420.53
597.104	30567.64
597.463	30866.62
597.822	31248.75
598.18	31314.52
598.538	31607.84
598.897	31915.18
599.255	31782.98
599.613	32572.34
599.972	32493.92
600.33	32863.18
600.688	32868.15
601.046	33239.21
601.404	33571.18
601.762	33661.8
602.12	33938.18
602.478	34101.33
602.836	34365.51
603.194	34386.07
603.552	34545.84
603.91	34706.06
604.268	35097.24
604.625	35125.94
604.983	35512.82
605.341	35357.35
605.698	35776.32
606.056	35929.08
606.413	36186.48
606.771	36366.13
607.128	36494.49
607.485	36549.41
607.843	36753.02
608.2	37007.7
608.557	37257.86
608.914	37241.82
609.272	37643.39
609.629	37752.54
609.986	38004.96
610.343	37923.38
610.7	38322.47
611.057	38426.42
611.414	38486.3
611.771	38645.4
612.127	38890.36
612.484	38965.39
612.841	39291.03
613.198	39128.1
613.554	39347.52
613.911	39556.33
614.267	39764.91
614.624	39671.13
614.98	39896.21
615.337	40204.9
615.693	40068.41
616.05	40320.38
616.406	40543.65
616.762	40370.1
617.118	40500.26
617.475	40722.63
617.831	40982.51
618.187	41060.7
618.543	41148.61
618.899	41302.05
619.255	41401.03
619.611	41323.74
619.967	41544.3
620.323	41588.82
620.678	41583.17
621.034	41637.63
621.39	41662.72
621.746	41631.76
622.101	42096.83
622.457	41948.59
622.812	42077.4
623.168	42134.12
623.523	42180.44
623.879	42374.11
624.234	42231.74
624.589	42336.15
624.945	42470.15
625.3	42471.96
625.655	42619.76
626.01	42586.31
626.365	42558.06
626.72	42543.82
627.075	42674.44
627.43	42617.72
627.785	42575.91
628.14	42678.74
628.495	42932.52
628.85	42909.69
629.205	42709.02
629.559	42960.76
629.914	42849.81
630.269	42843.25
630.623	42875.12
630.978	42717.61
631.332	42956.47
631.687	42994.21
632.041	42926.64
632.396	43014.09
632.75	42920.54
633.104	43032.17
633.459	42735.23
633.813	42928
634.167	42963.93
634.521	42909.92
634.875	42983.14
635.229	42949.69
635.583	42767.55
635.937	42671.05
636.291	42885.28
636.645	42888.9
636.999	42837.15
637.352	42902.91
637.706	42726.19
638.06	42892.29
638.413	42766.87
638.767	42840.09
639.121	42763.71
639.474	42505.18
639.828	42585.63
640.181	42680.54
640.534	42650.94
640.888	42486.65
641.241	42419.08
641.594	42589.25
641.947	42648.23
642.301	42438.29
642.654	42628.34
643.007	42551.28
643.36	42476.48
643.713	42498.85
644.066	42524.62
644.419	42351.51
644.771	42121.92
645.124	41765.54
645.477	41746.56
645.83	41463.18
646.182	41257.98
646.535	41254.37
646.888	41335.5
647.24	40987.26
647.593	41310.41
647.945	41328.04
648.298	40995.62
648.65	40989.06
649.002	40832.91
649.355	41178.21
649.707	41185.89
650.059	41265.44
650.411	41734.13
650.763	41791.98
651.115	42055.02
651.467	41993.56
651.819	41981.13
652.171	41970.51
652.523	41953.56
652.875	41916.27
653.227	41807.35
653.578	41988.13
653.93	41767.35
654.282	41754.69
654.633	41666.33
654.985	41806.22
655.337	41767.8
655.688	41813.22
656.039	41955.14
656.391	41556.28
656.742	41552.44
657.094	41758.76
657.445	41820.91
657.796	41561.25
658.147	41572.1
658.498	41572.55
658.849	41697.29
659.2	41676.96
659.551	41397.87
659.902	41633.57
660.253	41575.04
660.604	41546.56
660.955	41328.49
661.306	41566
661.656	41436.28
662.007	41494.59
662.358	41509.73
662.708	41493.46
663.059	41393.57
663.409	41138.66
663.76	41617.97
664.11	41447.36
664.461	41403.97
664.811	41396.96
665.161	41290.3
665.511	41283.52
665.862	41398.09
666.212	41544.76
666.562	41407.58
666.912	41353.35
667.262	41291.2
667.612	41326.23
667.962	41277.19
668.312	41264.31
668.662	41512.89
669.011	41356.96
669.361	41354.7
669.711	41253.24
670.06	41242.84
670.41	41118.55
670.76	41074.26
671.109	41240.81
671.459	41255.95
671.808	41243.97
672.157	41172.56
672.507	41029.29
672.856	41009.63
673.205	41169.62
673.554	41199
673.904	41082.17
674.253	41150.64
674.602	41126.46
674.951	40577.77
675.3	40388.4
675.649	40940.03
675.998	41065.22
676.346	41008.5
676.695	41115.84
677.044	40829.07
677.393	40810.31
677.741	40943.64
678.09	40756.53
678.438	40826.81
678.787	40883.53
679.135	40693.03
679.484	40493.03
679.832	40735.51
680.181	40485.8
680.529	40684.66
680.877	40342.53
681.225	40376.88
681.573	40584.33
681.922	40341.4
682.27	40198.35
682.618	40195.86
682.966	39975.08
683.314	40181.63
683.661	40055.98
684.009	39907.06
684.357	39818.47
684.705	39861.18
685.053	39914.97
685.4	39848.3
685.748	39557.91
686.095	39532.15
686.443	39404.02
686.79	39523.11
687.138	39518.14
687.485	39458.93
687.832	39304.36
688.18	39486.28
688.527	39218.94
688.874	39225.95
689.221	39119.28
689.568	38965.84
689.915	38972.85
690.262	38987.99
690.609	38816.69
690.956	38672.29
691.303	38732.17
691.65	38525.17
691.997	38510.71
692.344	38373.99
692.69	38247.67
693.037	38120.89
693.383	38085.64
693.73	38131.74
694.077	37996.6
694.423	37908.47
694.769	37763.84
695.116	37675.03
695.462	37626.89
695.808	37651.98
696.155	37631.86
696.501	37201.82
696.847	37149.16
697.193	37096.74
697.539	37180.35
697.885	36912.11
698.231	36751.89
698.577	36866.69
698.923	36620.36
699.269	36542.63
699.614	36406.36
699.96	36461.95
700.306	36427.83
700.651	36200.26
700.997	36105.58
701.342	35956.65
701.688	35936.09
702.033	35840.27
702.379	35810.44
702.724	35647.06
703.069	35734.51
703.415	35407.06
703.76	35485.25
704.105	35443.67
704.45	35299.04
704.795	35291.59
705.14	35128.2
705.485	35131.36
705.83	34930.01
706.175	35018.15
706.52	34650.47
706.865	34753.3
707.209	34584.94
707.554	34580.42
707.899	34662
708.243	34579.74
708.588	34437.15
708.932	34143.37
709.277	34179.53
709.621	34214.1
709.966	33944.5
710.31	34058.4
710.654	33653.21
710.998	33759.65
711.342	33716.94
711.687	33652.08
712.031	33571.86
712.375	33470.39
712.719	33566.43
713.063	33439.88
713.407	33503.16
713.75	33418.42
714.094	33277.18
714.438	33181.81
714.782	33183.39
715.125	33062.04
715.469	33148.37
715.812	32916.73
716.156	32728.94
716.499	32833.12
716.843	32863.85
717.186	32559.68
717.53	32721.26
717.873	32750.64
718.216	32651.66
718.559	32487.14
718.902	32244.21
719.246	32401.94
719.589	32319.69
719.932	32103.2
720.275	32268.61
720.617	32078.56
720.96	32061.16
721.303	32081.95
721.646	32081.28
721.989	31765.8
722.331	31884.67
722.674	31723.32
723.016	31724.22
723.359	31782.07
723.701	31870.21
724.044	31581.63
724.386	31430.44
724.729	31616.88
725.071	31568.97
725.413	31539.14
725.755	31449.65
726.097	31341.86
726.439	31192.94
726.782	31225.48
727.124	31317.23
727.465	31179.6
727.807	31055.77
728.149	30981.42
728.491	30875.88
728.833	30827.97
729.175	30860.06
729.516	30747.3
729.858	30776.22
730.199	30766.51
730.541	30647.19
730.882	30718.15
731.224	30706.85
731.565	30470.24
731.906	30533.75
732.248	30582.78
732.589	30318.61
732.93	30228.44
733.271	30261.66
733.612	30284.03
733.953	30384.6
734.294	30277.93
734.635	30143.47
734.976	30218.95
735.317	30064.83
735.658	30143.7
735.999	30063.7
736.339	29946.19
736.68	30092.4
737.021	29743.03
737.361	29829.36
737.702	29937.15
738.042	29822.58
738.383	29754.78
738.723	29745.07
739.063	29637.72
739.404	29762.24
739.744	29611.51
740.084	29536.48
740.424	29580.78
740.764	29561.34
741.104	29658.06
741.444	29358.41
741.784	29315.7
742.124	29272.76
742.464	29178.53
742.804	29226.89
743.143	29218.3
743.483	29334.91
743.823	29037.97
744.162	29015.82
744.502	29040.68
744.841	28920.45
745.181	29047
745.52	28890.85
745.86	28939.21
746.199	28968.14
746.538	28842.04
746.877	28960.23
747.216	28823.73
747.556	28698.77
747.895	28800.23
748.234	28518.88
748.573	28504.87
748.911	28486.79
749.25	28490.18
749.589	28360.02
749.928	28421.26
750.267	28379
750.605	28377.19
750.944	28273.01
751.283	28142.85
751.621	28230.53
751.96	27937.66
752.298	28115.73
752.636	28054.26
752.975	27903.98
753.313	27842.06
753.651	28028.27
753.989	27720.26
754.327	27700.6
754.666	27649.98
755.004	27719.36
755.342	27683.65
755.679	27584.44
756.017	27537.67
756.355	27542.41
756.693	27452.47
757.031	27462.41
757.368	27217.22
757.706	27142.2
