Data from hue_170_FLMS001491_00002.txt Node
Date: Tue Feb 07 16:48:09 GMT 2017
User: dcchb
Spectrometer: FLMS00149
Trigger mode: 0
Integration Time (sec): 2.000000E-2
Scans to average: 10
Electric dark correction enabled: true
Nonlinearity correction enabled: false
Boxcar width: 0
XAxis mode: Wavelengths
Number of Pixels in Spectrum: 2048
>>>>>Begin Spectral Data<<<<<
341.393	-1.17
341.776	-1.17
342.16	-1.17
342.543	-81.4
342.927	-70.32
343.31	-78.91
343.693	-83.88
344.077	-59.48
344.46	-72.13
344.843	-49.08
345.226	-26.48
345.61	-23.77
345.993	-15.64
346.376	-14.28
346.759	23.69
347.142	14.87
347.525	48.54
347.908	42.89
348.291	68.88
348.674	110.69
349.057	114.08
349.44	149.33
349.823	142.33
350.206	165.83
350.588	186.39
350.971	197.24
351.354	232.72
351.737	228.65
352.119	232.95
352.502	264.81
352.884	280.18
353.267	281.08
353.65	296
354.032	319.05
354.414	309.1
354.797	314.98
355.179	325.37
355.562	318.82
355.944	336.22
356.326	336.9
356.709	329.21
357.091	348.65
357.473	351.36
357.855	328.99
358.238	351.59
358.62	350.91
359.002	331.25
359.384	333.28
359.766	323.11
360.148	340.06
360.53	346.16
360.912	345.26
361.294	352.94
361.676	354.98
362.057	326.73
362.439	325.82
362.821	317.69
363.203	343.9
363.584	317.24
363.966	331.47
364.348	290.57
364.729	322.89
365.111	334.86
365.493	321.53
365.874	321.76
366.256	300.29
366.637	339.61
367.019	320.4
367.4	319.05
367.781	307.97
368.163	324.69
368.544	323.79
368.925	299.84
369.306	317.24
369.688	308.42
370.069	296.67
370.45	301.87
370.831	307.75
371.212	334.19
371.593	286.05
371.974	305.03
372.355	316.11
372.736	311.81
373.117	307.52
373.498	314.75
373.879	327.41
374.26	308.42
374.641	320.63
375.021	312.72
375.402	301.42
375.783	328.31
376.163	323.11
376.544	329.67
376.925	316.11
377.305	323.11
377.686	317.01
378.066	323.11
378.447	349.78
378.827	340.29
379.208	345.49
379.588	331.25
379.968	340.29
380.349	349.33
380.729	338.48
381.109	322.21
381.489	340.06
381.87	331.7
382.25	330.57
382.63	328.08
383.01	352.04
383.39	335.99
383.77	349.55
384.15	338.93
384.53	352.04
384.91	338.71
385.29	352.49
385.67	365.6
386.049	343.9
386.429	351.36
386.809	352.94
387.189	355.88
387.568	353.62
387.948	351.59
388.328	358.82
388.707	339.61
389.087	360.63
389.466	366.05
389.846	360.4
390.225	352.94
390.605	376.22
390.984	364.02
391.363	374.64
391.743	334.41
392.122	393.39
392.501	363.34
392.881	373.51
393.26	370.12
393.639	382.32
394.018	371.02
394.397	384.35
394.776	387.97
395.155	388.2
395.534	379.83
395.913	379.61
396.292	407.63
396.671	378.48
397.05	391.81
397.429	394.07
397.808	394.98
398.186	402.66
398.565	402.21
398.944	410.57
399.323	383.22
399.701	401.75
400.08	414.18
400.458	417.57
400.837	409.89
401.215	407.86
401.594	416.9
401.972	421.19
402.351	432.71
402.729	429.1
403.107	432.71
403.486	429.32
403.864	424.81
404.242	428.65
404.62	438.36
404.999	438.82
405.377	457.8
405.755	447.86
406.133	439.49
406.511	469.1
406.889	462.32
407.267	433.62
407.645	447.86
408.023	463.22
408.401	468.19
408.779	479.04
409.156	474.97
409.534	460.51
409.912	471.13
410.29	467.29
410.667	501.64
411.045	488.98
411.422	515.42
411.8	507.74
412.178	514.97
412.555	522.88
412.933	515.65
413.31	538.7
413.687	542.09
414.065	543.67
414.442	542.09
414.819	552.26
415.197	542.77
415.574	572.6
415.951	577.12
416.328	561.75
416.705	556.55
417.082	573.05
417.46	564.01
417.837	604.24
418.214	596.33
418.591	594.29
418.967	617.79
419.344	607.63
419.721	609.89
420.098	610.79
420.475	630.22
420.852	647.4
421.228	628.87
421.605	610.79
421.982	663.67
422.358	647.62
422.735	652.37
423.111	651.01
423.488	689.21
423.864	685.36
424.241	705.02
424.617	710.9
424.994	699.37
425.37	726.72
425.746	721.75
426.123	713.84
426.499	726.04
426.875	732.59
427.251	739.37
427.627	755.19
428.003	773.95
428.379	754.51
428.756	785.93
429.132	791.35
429.507	780.5
429.883	815.3
430.259	815.3
430.635	826.83
431.011	809.43
431.387	836.55
431.763	846.49
432.138	848.3
432.514	862.53
432.89	884
433.265	883.55
433.641	872.7
434.016	916.09
434.392	910.22
434.767	930.33
435.143	941.4
435.518	947.96
435.894	976.43
436.269	957.45
436.644	966.03
437.02	978.01
437.395	1019.82
437.77	1014.39
438.145	1034.05
438.52	1039.48
438.895	1032.47
439.271	1047.61
439.646	1068.86
440.021	1084.9
440.395	1087.39
440.77	1071.34
441.145	1114.96
441.52	1125.35
441.895	1122.87
442.27	1146.59
442.645	1163.32
443.019	1161.28
443.394	1171.45
443.769	1186.59
444.143	1184.11
444.518	1214.61
444.892	1196.31
445.267	1221.39
445.641	1232.47
446.016	1224.78
446.39	1249.64
446.764	1267.04
447.139	1250.09
447.513	1247.83
447.887	1279.92
448.262	1290.77
448.636	1295.29
449.01	1323.54
449.384	1324.89
449.758	1325.12
450.132	1346.36
450.506	1375.29
450.88	1353.59
451.254	1346.81
451.628	1403.76
452.002	1397.66
452.376	1386.81
452.75	1421.16
453.123	1429.75
453.497	1470.88
453.871	1478.56
454.244	1500.94
454.618	1496.64
454.992	1553.59
455.365	1524.44
455.739	1565.57
456.112	1578
456.486	1585.45
456.859	1588.16
457.232	1632.23
457.606	1644.43
457.979	1664.55
458.352	1711.78
458.725	1722.62
459.099	1733.25
459.472	1757.65
459.845	1805.11
460.218	1808.5
460.591	1790.87
460.964	1812.11
461.337	1879.68
461.71	1895.5
462.083	1928.95
462.456	1911.55
462.829	1947.03
463.201	1995.39
463.574	1997.19
463.947	2062.95
464.32	2071.32
464.692	2078.55
465.065	2105.66
465.438	2162.61
465.81	2181.37
466.183	2220.92
466.555	2246.68
466.928	2315.38
467.3	2287.36
467.672	2340.91
468.045	2393.79
468.417	2428.14
468.789	2420.46
469.161	2490.97
469.534	2537.97
469.906	2610.74
470.278	2613.9
470.65	2657.29
471.022	2737.96
471.394	2802.14
471.766	2809.15
472.138	2840.79
472.51	2920.11
472.882	2955.36
473.253	3098.86
473.625	3092.76
473.997	3167.56
474.369	3192.64
474.74	3258.18
475.112	3328.46
475.484	3394.22
475.855	3448.23
476.227	3516.93
476.598	3666.53
476.97	3706.07
477.341	3791.04
477.713	3836.69
478.084	3909.46
478.455	4061.77
478.827	4101.09
479.198	4221.99
479.569	4288.88
479.94	4457.24
480.311	4552.38
480.682	4658.37
481.053	4791.02
481.424	4884.8
481.795	4952.14
482.166	5038.24
482.537	5132.25
482.908	5279.82
483.279	5342.64
483.65	5525.24
484.021	5655.18
484.391	5736.76
484.762	5846.81
485.133	5932.23
485.503	6068.72
485.874	6238.21
486.244	6358.21
486.615	6495.15
486.985	6615.83
487.356	6760.23
487.726	6896.73
488.097	7070.05
488.467	7140.56
488.837	7278.18
489.207	7434.11
489.578	7596.37
489.948	7714.11
490.318	7865.51
490.688	7971.95
491.058	8108.22
491.428	8270.7
491.798	8340.3
492.168	8658.49
492.538	8633.85
492.908	8782.33
493.278	8982.77
493.648	8973.51
494.017	9134.18
494.387	9233.39
494.757	9372.14
495.126	9529.42
495.496	9574.62
495.866	9726.03
496.235	9840.15
496.605	9934.39
496.974	10030.43
497.344	10183.87
497.713	10217.77
498.082	10361.04
498.452	10445.11
498.821	10624.31
499.19	10608.04
499.559	10776.4
499.928	10818.2
500.298	10892.55
500.667	11043.51
501.036	11085.77
501.405	11211.19
501.774	11213.45
502.143	11302.49
502.512	11333.67
502.88	11527.79
503.249	11423.16
503.618	11580.67
503.987	11695.47
504.356	11773.89
504.724	11763.26
505.093	11830.83
505.462	11938.4
505.83	11927.78
506.199	12010.26
506.567	12176.81
506.936	12210.03
507.304	12338.84
507.672	12330.93
508.041	12451.16
508.409	12515.11
508.777	12578.16
509.145	12734.54
509.514	12673.52
509.882	12654.09
510.25	12699.06
510.618	12824.03
510.986	12834.2
511.354	12916.68
511.722	12961.65
512.09	13045.49
512.458	13080.74
512.826	13065.38
513.193	13197.12
513.561	13144.47
513.929	13308.08
514.297	13320.74
514.664	13422.2
515.032	13473.28
515.4	13478.02
515.767	13490.68
516.135	13563.22
516.502	13360.96
516.869	13624.01
517.237	13614.51
517.604	13559.6
517.972	13606.38
518.339	13789.65
518.706	13682.76
519.073	13748.52
519.44	13773.38
519.808	13887.28
520.175	13777.9
520.542	13921.4
520.909	13898.12
521.276	13847.05
521.643	13990.1
522.009	13998.23
522.376	14061.73
522.743	14009.76
523.11	14127.27
523.477	14235.06
523.843	14164.78
524.21	14309.19
524.577	14283.88
524.943	14373.37
525.31	14342.86
525.676	14440.48
526.043	14463.76
526.409	14475.28
526.776	14613.58
527.142	14527.26
527.508	14584.43
527.874	14551.67
528.241	14615.17
528.607	14540.37
528.973	14675.73
529.339	14572.23
529.705	14525.23
530.071	14713.47
530.437	14679.8
530.803	14613.58
531.169	14682.74
531.535	14529.97
531.901	14557.77
532.267	14519.58
532.632	14508.05
532.998	14548.5
533.364	14624.43
533.73	14535.39
534.095	14605.22
534.461	14613.81
534.826	14510.31
535.192	14537.2
535.557	14559.35
535.923	14487.26
536.288	14489.29
536.653	14426.92
537.019	14369.07
537.384	14339.02
537.749	14348.73
538.114	14277.77
538.479	14169.08
538.845	14157.1
539.21	14197.1
539.575	14170.21
539.94	14115.97
540.305	14110.77
540.67	14065.8
541.034	14065.8
541.399	13979.7
541.764	14092.02
542.129	13946.48
542.494	13886.37
542.858	13916.65
543.223	13945.13
543.587	13851.12
543.952	13783.1
544.316	13724.34
544.681	13683.21
545.045	13727.28
545.41	13737.22
545.774	13673.27
546.138	13559.38
546.503	13545.36
546.867	13458.59
547.231	13438.02
547.595	13441.64
547.959	13481.64
548.324	13431.92
548.688	13304.47
549.052	13236.22
549.416	13234.41
549.779	13159.39
550.143	13205.94
550.507	13177.69
550.871	13194.64
551.235	13097.47
551.599	13054.53
551.962	13041.2
552.326	12934.08
552.689	12945.38
553.053	12960.29
553.417	12893.4
553.78	12935.21
554.143	12904.25
554.507	12899.28
554.87	12790.58
555.234	12897.02
555.597	12737.48
555.96	12724.14
556.323	12736.57
556.686	12741.09
557.05	12714.2
557.413	12733.18
557.776	12727.76
558.139	12682.11
558.502	12665.16
558.865	12685.73
559.228	12726.85
559.59	12725.72
559.953	12690.02
560.316	12750.58
560.679	12680.53
561.041	12665.39
561.404	12638.27
561.767	12732.96
562.129	12603.92
562.492	12722.79
562.854	12697.48
563.217	12656.8
563.579	12643.69
563.941	12687.53
564.304	12579.06
564.666	12699.74
565.028	12672.17
565.39	12663.35
565.753	12758.27
566.115	12683.47
566.477	12736.12
566.839	12663.13
567.201	12724.59
567.563	12686.63
567.925	12772.28
568.287	12781.32
568.648	12745.39
569.01	12765.05
569.372	12787.19
569.734	12757.59
570.095	12829
570.457	12795.1
570.819	12877.59
571.18	12844.82
571.542	12842.56
571.903	12826.29
572.265	12862.44
572.626	12834.42
572.987	12942.44
573.349	12883.46
573.71	12897.47
574.071	12919.84
574.432	12916.68
574.794	12964.36
575.155	12992.16
575.516	12912.84
575.877	12985.15
576.238	12924.59
576.599	12972.27
576.96	13008.88
577.32	13012.5
577.681	12980.86
578.042	13075.55
578.403	13007.75
578.763	12927.3
579.124	12955.55
579.485	13035.1
579.845	12984.25
580.206	13066.73
580.566	12928.88
580.927	12954.19
581.287	13028.09
581.648	12921.88
582.008	13035.1
582.368	12979.28
582.728	12912.16
583.089	12923.91
583.449	12927.3
583.809	12906.74
584.169	12909.22
584.529	12844.14
584.889	12858.15
585.249	12717.59
585.609	12870.58
585.969	12895.66
586.329	12804.82
586.688	12851.37
587.048	12787.64
587.408	12727.98
587.768	12822.67
588.127	12777.93
588.487	12700.64
588.846	12817.93
589.206	12807.98
589.565	12784.03
589.925	12791.94
590.284	12712.39
590.643	12794.88
591.003	12812.28
591.362	12715.56
591.721	12808.21
592.08	12716.69
592.44	12712.84
592.799	12727.98
593.158	12688.89
593.517	12629.91
593.876	12718.72
594.235	12590.36
594.593	12520.53
594.952	12648.66
595.311	12505.84
595.67	12646.63
596.029	12715.33
596.387	12731.15
596.746	12705.39
597.104	12683.69
597.463	12615.9
597.822	12642.11
598.18	12604.15
598.538	12588.55
598.897	12657.25
599.255	12538.84
599.613	12703.13
599.972	12590.59
600.33	12643.69
600.688	12587.42
601.046	12593.75
601.404	12660.64
601.762	12592.85
602.12	12619.29
602.478	12682.11
602.836	12681.21
603.194	12553.75
603.552	12592.17
603.91	12591.94
604.268	12565.28
604.625	12560.08
604.983	12510.82
605.341	12530.7
605.698	12613.41
606.056	12541.55
606.413	12579.74
606.771	12677.82
607.128	12547.2
607.485	12612.73
607.843	12563.02
608.2	12561.44
608.557	12702
608.914	12539.29
609.272	12746.06
609.629	12693.41
609.986	12721.66
610.343	12674.2
610.7	12735.67
611.057	12740.41
611.414	12694.77
611.771	12674.65
612.127	12768.21
612.484	12716.91
612.841	12758.72
613.198	12684.14
613.554	12660.87
613.911	12742.67
614.267	12822.9
614.624	12734.76
614.98	12734.76
615.337	12823.58
615.693	12818.15
616.05	12759.17
616.406	12837.81
616.762	12760.07
617.118	12883.01
617.475	12781.54
617.831	12883.46
618.187	12854.76
618.543	12944.02
618.899	12932.27
619.255	12898.83
619.611	12907.19
619.967	12964.36
620.323	12952.39
620.678	12844.82
621.034	12870.58
621.39	12936.57
621.746	12812.5
622.101	13008.88
622.457	12974.31
622.812	12867.19
623.168	13051.59
623.523	13001.42
623.879	13031.03
624.234	12846.85
624.589	12864.48
624.945	12882.33
625.3	12943.12
625.655	12961.42
626.01	12945.38
626.365	12895.21
626.72	12911.26
627.075	12917.36
627.43	12923.23
627.785	12859.73
628.14	12854.99
628.495	12895.89
628.85	12910.58
629.205	12788.32
629.559	12854.08
629.914	12793.75
630.269	12786.29
630.623	12804.14
630.978	12732.05
631.332	12851.6
631.687	12840.07
632.041	12783.8
632.396	12691.15
632.75	12710.58
633.104	12734.09
633.459	12704.93
633.813	12653.86
634.167	12660.87
634.521	12697.93
634.875	12660.87
635.229	12589.46
635.583	12556.46
635.937	12624.71
636.291	12599.17
636.645	12541.32
636.999	12634.88
637.352	12624.48
637.706	12492.96
638.06	12612.73
638.413	12533.64
638.767	12484.83
639.121	12486.18
639.474	12426.07
639.828	12466.75
640.181	12431.27
640.534	12402.12
640.888	12374.32
641.241	12384.49
641.594	12355.56
641.947	12413.64
642.301	12416.13
642.654	12356.02
643.007	12345.4
643.36	12320.99
643.713	12370.71
644.066	12342.01
644.419	12246.19
644.771	12290.03
645.124	12095.91
645.477	12108.57
645.83	12070.15
646.182	11953.54
646.535	11959.42
646.888	11949.47
647.24	11880.32
647.593	11978.85
647.945	11897.72
648.298	11885.75
648.65	11824.96
649.002	11831.74
649.355	11876.26
649.707	11905.63
650.059	11901.57
650.411	12128.9
650.763	12033.99
651.115	12210.48
651.467	12199.18
651.819	12216.81
652.171	12206.42
652.523	12137.27
652.875	12180.2
653.227	12086.65
653.578	12192.86
653.93	12151.05
654.282	12129.36
654.633	12139.75
654.985	12172.29
655.337	12190.37
655.688	12228.56
656.039	12217.04
656.391	12069.92
656.742	12176.81
657.094	12178.17
657.445	12252.06
657.796	12158.06
658.147	12174.55
658.498	12228.34
658.849	12207.77
659.2	12177.04
659.551	12227.21
659.902	12247.77
660.253	12162.8
660.604	12222.46
660.955	12175.91
661.306	12297.94
661.656	12191.05
662.007	12220.43
662.358	12233.08
662.708	12254.55
663.059	12192.63
663.409	12183.82
663.76	12234.66
664.11	12218.62
664.461	12233.08
664.811	12279.41
665.161	12238.28
665.511	12213.65
665.862	12263.59
666.212	12222.24
666.562	12320.99
666.912	12193.31
667.262	12266.08
667.612	12266.98
667.962	12233.99
668.312	12230.82
668.662	12276.25
669.011	12281.67
669.361	12269.69
669.711	12244.83
670.06	12244.38
670.41	12242.57
670.76	12202.35
671.109	12194.89
671.459	12175.91
671.808	12192.86
672.157	12241.9
672.507	12115.35
672.856	12212.74
673.205	12192.18
673.554	12214.33
673.904	12131.39
674.253	12183.37
674.602	12168
674.951	11934.56
675.3	11983.15
675.649	12070.6
675.998	12066.53
676.346	12060.43
676.695	12059.98
677.044	12076.93
677.393	12031.05
677.741	11998.51
678.09	11996.03
678.438	11933.2
678.787	11977.72
679.135	12008.46
679.484	11888.46
679.832	11885.29
680.181	11880.32
680.529	11843.71
680.877	11889.36
681.225	11775.92
681.573	11863.6
681.922	11803.26
682.27	11819.53
682.618	11755.35
682.966	11718.07
683.314	11723.27
683.661	11683.27
684.009	11556.72
684.357	11627
684.705	11579.77
685.053	11605.08
685.4	11579.31
685.748	11481.24
686.095	11456.15
686.443	11478.07
686.79	11431.75
687.138	11443.72
687.485	11376.61
687.832	11394.23
688.18	11386.78
688.527	11313.56
688.874	11302.71
689.221	11274.24
689.568	11216.61
689.915	11187.69
690.262	11220.23
690.609	11128.93
690.956	11143.17
691.303	11042.61
691.65	10994.02
691.997	10988.6
692.344	10958.77
692.69	10914.92
693.037	10921.48
693.383	10878.77
693.73	10893.46
694.077	10781.6
694.423	10798.54
694.769	10728.94
695.116	10703.63
695.462	10689.85
695.808	10580.02
696.155	10691.43
696.501	10562.62
696.847	10561.49
697.193	10488.04
697.539	10515.61
697.885	10400.81
698.231	10349.52
698.577	10299.12
698.923	10368.95
699.269	10206.02
699.614	10223.42
699.96	10216.86
700.306	10193.14
700.651	10141.39
700.997	10039.02
701.342	10101.16
701.688	10033.37
702.033	9973.25
702.379	9978
702.724	9895.52
703.069	9933.48
703.415	9870.66
703.76	9829.76
704.105	9817.78
704.45	9781.4
704.795	9737.1
705.14	9712.24
705.485	9699.36
705.83	9562.42
706.175	9658.91
706.52	9579.14
706.865	9552.93
707.209	9580.04
707.554	9415.08
707.899	9501.4
708.243	9424.57
708.588	9415.08
708.932	9313.84
709.277	9325.36
709.621	9404.23
709.966	9211.24
710.31	9281.52
710.654	9193.84
710.998	9247.4
711.342	9241.07
711.687	9204.69
712.031	9114.52
712.375	9149.55
712.719	9144.35
713.063	9134.41
713.407	9119.94
713.75	9042.88
714.094	9046.95
714.438	9018.93
714.782	9034.52
715.125	9023.9
715.469	8938.93
715.812	8914.53
716.156	8851.7
716.499	8855.77
716.843	8969.44
717.186	8839.5
717.53	8857.58
717.873	8875.2
718.216	8878.59
718.559	8834.53
718.902	8721.76
719.246	8830.46
719.589	8739.16
719.932	8703.23
720.275	8728.54
720.617	8761.31
720.96	8699.16
721.303	8703.23
721.646	8713.63
721.989	8694.64
722.331	8720.86
722.674	8635.21
723.016	8688.09
723.359	8602.9
723.701	8609
724.044	8617.58
724.386	8552.28
724.729	8540.3
725.071	8540.3
725.413	8609.22
725.755	8584.82
726.097	8552.5
726.439	8554.53
726.782	8497.59
727.124	8561.09
727.465	8530.35
727.807	8558.15
728.149	8484.71
728.491	8536.68
728.833	8545.27
729.175	8462.33
729.516	8514.54
729.858	8494.2
730.199	8501.2
730.541	8504.82
730.882	8488.32
731.224	8522.22
731.565	8476.57
731.906	8557.02
732.248	8533.97
732.589	8488.32
732.93	8448.55
733.271	8466.4
733.612	8526.74
733.953	8513.63
734.294	8505.5
734.635	8426.4
734.976	8499.85
735.317	8521.77
735.658	8468.89
735.999	8542.56
736.339	8510.69
736.68	8497.59
737.021	8493.29
737.361	8448.55
737.702	8491.49
738.042	8572.61
738.383	8511.37
738.723	8521.99
739.063	8537.81
739.404	8546.17
739.744	8593.63
740.084	8605.83
740.424	8597.7
740.764	8565.38
741.104	8619.84
741.444	8618.94
741.784	8534.2
742.124	8688.09
742.464	8645.83
742.804	8674.08
743.143	8719.28
743.483	8752.5
743.823	8761.99
744.162	8752.04
744.502	8764.02
744.841	8826.62
745.181	8911.14
745.52	8863.23
745.86	8931.7
746.199	8942.32
746.538	9037.91
746.877	9098.93
747.216	9049.89
747.556	9105.48
747.895	9189.32
748.234	9212.6
748.573	9302.31
748.911	9295.53
749.25	9421.63
749.589	9425.7
749.928	9580.04
750.267	9714.28
750.605	9726.71
750.944	9781.4
751.283	9825.01
751.621	9925.35
751.96	10019.81
752.298	10129.41
752.636	10187.26
752.975	10290.99
753.313	10307.26
753.651	10498.66
753.989	10575.27
754.327	10664.08
754.666	10795.61
755.004	10968.03
755.342	11061.36
755.679	11170.29
756.017	11323.73
756.355	11558.98
756.693	11649.14
757.031	11878.52
757.368	11874.67
757.706	12171.16
758.044	12198.05
