Data from hue_120_FLMS001491_00004.txt Node
Date: Tue Feb 07 16:58:51 GMT 2017
User: dcchb
Spectrometer: FLMS00149
Trigger mode: 0
Integration Time (sec): 2.000000E-2
Scans to average: 10
Electric dark correction enabled: true
Nonlinearity correction enabled: false
Boxcar width: 0
XAxis mode: Wavelengths
Number of Pixels in Spectrum: 2048
>>>>>Begin Spectral Data<<<<<
341.393	-6.29
341.776	-6.29
342.16	-6.29
342.543	-64.81
342.927	-62.78
343.31	-77.02
343.693	-84.7
344.077	-58.04
344.46	-55.1
344.843	-56.23
345.226	-44.02
345.61	-38.6
345.993	-13.97
346.376	10.44
346.759	2.53
347.142	23.32
347.525	48.18
347.908	49.76
348.291	80.49
348.674	75.97
349.057	136.99
349.44	110.1
349.823	120.72
350.206	192.81
350.588	206.36
350.971	207.04
351.354	202.3
351.737	268.51
352.119	249.3
352.502	261.73
352.884	262.63
353.267	306.7
353.65	301.73
354.032	327.72
354.414	310.54
354.797	324.55
355.179	319.36
355.562	310.54
355.944	327.72
356.326	329.53
356.709	340.82
357.091	350.32
357.473	338.79
357.855	344.89
358.238	329.3
358.62	338.11
359.002	325.23
359.384	336.08
359.766	345.57
360.148	339.92
360.53	343.08
360.912	338.11
361.294	337.43
361.676	325.68
362.057	338.11
362.439	332.91
362.821	330.88
363.203	339.47
363.584	334.95
363.966	331.56
364.348	332.01
364.729	321.84
365.111	308.51
365.493	308.96
365.874	321.39
366.256	327.04
366.637	310.99
367.019	300.6
367.4	301.05
367.781	320.26
368.163	338.11
368.544	325.01
368.925	343.54
369.306	333.14
369.688	332.69
370.069	297.44
370.45	321.62
370.831	320.26
371.212	320.94
371.593	329.75
371.974	345.8
372.355	317.32
372.736	338.56
373.117	340.15
373.498	336.53
373.879	320.26
374.26	320.71
374.641	295.4
375.021	335.4
375.402	316.64
375.783	334.04
376.163	350.32
376.544	335.63
376.925	335.63
377.305	351.22
377.686	333.82
378.066	365
378.447	330.2
378.827	349.86
379.208	335.4
379.588	309.86
379.968	337.43
380.349	333.14
380.729	322.52
381.109	346.7
381.489	324.55
381.87	364.33
382.25	347.6
382.63	356.87
383.01	362.74
383.39	352.12
383.77	331.56
384.15	357.55
384.53	360.03
384.91	353.25
385.29	358.45
385.67	355.06
386.049	335.17
386.429	366.36
386.809	352.12
387.189	358
387.568	362.52
387.948	375.4
388.328	365.68
388.707	377.21
389.087	369.98
389.466	379.69
389.846	369.98
390.225	374.72
390.605	381.73
390.984	387.38
391.363	376.53
391.743	390.77
392.122	380.82
392.501	378.34
392.881	373.37
393.26	378.56
393.639	376.3
394.018	380.82
394.397	411.56
394.776	392.35
395.155	393.7
395.534	399.13
395.913	411.78
396.292	391.44
396.671	388.51
397.05	426.7
397.429	401.16
397.808	394.38
398.186	390.77
398.565	395.96
398.944	393.7
399.323	426.25
399.701	407.94
400.08	390.31
400.458	406.81
400.837	439.58
401.215	418.56
401.594	421.05
401.972	419.01
402.351	399.58
402.729	411.11
403.107	410.43
403.486	416.3
403.864	423.08
404.242	433.7
404.62	442.74
404.999	446.13
405.377	440.48
405.755	439.35
406.133	449.52
406.511	436.19
406.889	465.11
407.267	442.52
407.645	447.04
408.023	452.01
408.401	448.39
408.779	433.25
409.156	466.24
409.534	464.66
409.912	485.91
410.29	477.32
410.667	464.89
411.045	472.12
411.422	487.94
411.8	486.58
412.178	486.81
412.555	483.19
412.933	506.7
413.31	496.07
413.687	514.61
414.065	497.2
414.442	517.99
414.819	507.6
415.197	518.67
415.574	514.38
415.951	517.77
416.328	521.38
416.705	526.36
417.082	527.03
417.46	530.65
417.837	533.59
418.214	531.55
418.591	541.05
418.967	565.9
419.344	542.85
419.721	555.06
420.098	549.86
420.475	562.74
420.852	571.78
421.228	560.93
421.605	574.04
421.982	574.04
422.358	596.41
422.735	565.9
423.111	596.18
423.488	582.17
423.864	584.66
424.241	598.9
424.617	590.08
424.994	602.51
425.37	591.21
425.746	609.74
426.123	625.79
426.499	609.97
426.875	624.88
427.251	618.78
427.627	609.52
428.003	645.22
428.379	641.83
428.756	635.28
429.132	651.1
429.507	669.4
429.883	649.74
430.259	683.64
430.635	690.65
431.011	673.7
431.387	682.28
431.763	692
432.138	694.26
432.514	692.23
432.89	701.94
433.265	726.8
433.641	725.22
434.016	732.23
434.392	747.14
434.767	749.4
435.143	723.19
435.518	762.51
435.894	751.44
436.269	756.41
436.644	766.35
437.02	810.19
437.395	788.04
437.77	799.34
438.145	805.67
438.52	802.06
438.895	801.6
439.271	793.02
439.646	810.64
440.021	847.25
440.395	825.33
440.77	820.59
441.145	823.75
441.52	872.56
441.895	844.99
442.27	848.16
442.645	872.56
443.019	856.97
443.394	882.05
443.769	901.04
444.143	879.57
444.518	886.35
444.892	934.26
445.267	908.27
445.641	922.73
446.016	905.56
446.39	929.96
446.764	908.72
447.139	905.1
447.513	940.36
447.887	946.68
448.262	930.41
448.636	961.37
449.01	972.45
449.384	977.87
449.758	964.99
450.132	993.69
450.506	976.06
450.88	1007.25
451.254	1025.55
451.628	989.17
452.002	1026.23
452.376	1049.73
452.75	1039.56
453.123	1053.57
453.497	1051.77
453.871	1054.48
454.244	1091.99
454.618	1077.75
454.992	1118.43
455.365	1116.62
455.739	1123.4
456.112	1138.77
456.486	1140.58
456.859	1156.62
457.232	1175.38
457.606	1180.35
457.979	1190.29
458.352	1201.14
458.725	1233.68
459.099	1239.33
459.472	1221.71
459.845	1293.34
460.218	1283.4
460.591	1282.72
460.964	1307.13
461.337	1340.12
461.71	1337.86
462.083	1400.46
462.456	1377.86
462.829	1388.48
463.201	1414.69
463.574	1425.54
463.947	1428.93
464.32	1478.2
464.692	1505.77
465.065	1506.44
465.438	1496.27
465.81	1558.19
466.183	1557.06
466.555	1610.17
466.928	1627.34
467.3	1593.67
467.672	1655.59
468.045	1715.48
468.417	1716.61
468.789	1737.17
469.161	1766.78
469.534	1803.38
469.906	1844.29
470.278	1877.51
470.65	1892.42
471.022	1929.71
471.394	1988.69
471.766	1972.42
472.138	2028.46
472.51	2091.74
472.882	2148.23
473.253	2145.52
473.625	2223.49
473.997	2266.88
474.369	2286.76
474.74	2365.86
475.112	2382.13
475.484	2487.89
475.855	2530.15
476.227	2557.04
476.598	2673.19
476.97	2723.13
477.341	2780.99
477.713	2866.18
478.084	2914.09
478.455	2990.47
478.827	3056.01
479.198	3221.43
479.569	3220.97
479.94	3342.1
480.311	3413.74
480.682	3493.51
481.053	3652.6
481.424	3728.08
481.795	3786.61
482.166	3868.87
482.537	3968.75
482.908	4155.64
483.279	4236.54
483.65	4362.19
484.021	4467.72
484.391	4553.82
484.762	4627.94
485.133	4776.64
485.503	4934.6
485.874	5066.8
486.244	5153.81
486.615	5314.25
486.985	5442.84
487.356	5602.38
487.726	5780.91
488.097	5886.67
488.467	5951.98
488.837	6175.93
489.207	6288.01
489.578	6445.97
489.948	6653.43
490.318	6670.15
490.688	6894.78
491.058	7063.81
491.428	7237.37
491.798	7320.53
492.168	7589.9
492.538	7718.03
492.908	7851.81
493.278	7995.76
493.648	8108.3
494.017	8317.79
494.387	8405.25
494.757	8509.42
495.126	8715.07
495.496	8807.49
495.866	8999.13
496.235	9162.97
496.605	9314.15
496.974	9373.13
497.344	9553.01
497.713	9672.78
498.082	9768.83
498.452	9934.24
498.821	10067.8
499.19	10127.01
499.559	10385.53
499.928	10397.74
500.298	10538.75
500.667	10624.85
501.036	10709.37
501.405	10832.07
501.774	10946.2
502.143	11116.81
502.512	11180.99
502.88	11278.84
503.249	11381.66
503.618	11458.5
503.987	11606.52
504.356	11650.13
504.724	11839.05
505.093	11849.67
505.462	11934.42
505.83	12086.5
506.199	12142.55
506.567	12347.74
506.936	12363.79
507.304	12449.88
507.672	12580.05
508.041	12627.73
508.409	12709.54
508.777	12765.36
509.145	12843.09
509.514	12926.93
509.882	12979.36
510.25	13112.01
510.618	13200.37
510.986	13285.34
511.354	13359.01
511.722	13498.22
512.09	13523.08
512.458	13479.24
512.826	13607.59
513.193	13585
513.561	13641.04
513.929	13775.5
514.297	13878.32
514.664	13836.06
515.032	13883.07
515.4	13972.78
515.767	14036.06
516.135	14173.91
516.502	14017.75
516.869	14292.77
517.237	14243.74
517.604	14209.61
517.972	14371.19
518.339	14465.42
518.706	14384.07
519.073	14375.94
519.44	14465.2
519.808	14582.03
520.175	14484.86
520.542	14678.3
520.909	14694.57
521.276	14591.98
521.643	14731.63
522.009	14813.66
522.376	14802.14
522.743	14866.54
523.11	14979.31
523.477	15063.38
523.843	15115.58
524.21	15099.76
524.577	15163.03
524.943	15115.8
525.31	15148.12
525.676	15274.22
526.043	15228.57
526.409	15352.41
526.776	15389.24
527.142	15393.54
527.508	15343.82
527.874	15417.26
528.241	15409.13
528.607	15472.18
528.973	15533.42
529.339	15535.23
529.705	15513.08
530.071	15527.32
530.437	15580.42
530.803	15694.54
531.169	15598.73
531.535	15537.94
531.901	15508.56
532.267	15599.18
532.632	15590.14
532.998	15503.36
533.364	15631.95
533.73	15552.4
534.095	15516.92
534.461	15462.46
534.826	15516.92
535.192	15542.01
535.557	15495.45
535.923	15510.37
536.288	15559.41
536.653	15418.62
537.019	15299.3
537.384	15321.45
537.749	15337.49
538.114	15285.06
538.479	15198.51
538.845	15326.65
539.21	15210.26
539.575	15249.58
539.94	15163.94
540.305	15195.8
540.67	15103.37
541.034	15154.45
541.399	15088.91
541.764	15021.57
542.129	15017.27
542.494	15001.91
542.858	14905.87
543.223	14926.2
543.587	14915.13
543.952	14845.3
544.316	14813.21
544.681	14714.46
545.045	14695.02
545.41	14774.34
545.774	14668.13
546.138	14689.83
546.503	14641.69
546.867	14610.51
547.231	14608.47
547.595	14490.73
547.959	14466.33
548.324	14474.92
548.688	14340.91
549.052	14411.19
549.416	14383.39
549.779	14246.67
550.143	14257.75
550.507	14260.01
550.871	14226.33
551.235	14186.79
551.599	14114.25
551.962	14137.3
552.326	14108.82
552.689	14146.34
553.053	13963.07
553.417	13990.86
553.78	14102.27
554.143	13973.01
554.507	13982.95
554.87	14002.39
555.234	14062.27
555.597	13906.34
555.96	13965.55
556.323	13981.14
556.686	13836.97
557.05	13897.76
557.413	13930.07
557.776	13816.18
558.139	13859.56
558.502	13896.4
558.865	13853.92
559.228	13848.94
559.59	13879.9
559.953	13800.13
560.316	13840.58
560.679	13744.99
561.041	13826.57
561.404	13855.72
561.767	13839.68
562.129	13710.64
562.492	13858.66
562.854	13822.28
563.217	13859.11
563.579	13884.88
563.941	13864.54
564.304	13881.71
564.666	13948.6
565.028	13812.79
565.39	13943.86
565.753	13950.18
566.115	13992.89
566.477	13953.12
566.839	14005.55
567.201	14014.14
567.563	13960.35
567.925	14088.94
568.287	14034.93
568.648	13975.27
569.01	14006.91
569.372	14141.59
569.734	14021.82
570.095	14125.32
570.457	14147.02
570.819	14087.81
571.18	14065.66
571.542	14171.65
571.903	14100.91
572.265	14206.45
572.626	14153.12
572.987	14253.68
573.349	14210.29
573.71	14283.96
574.071	14177.3
574.432	14307.01
574.794	14356.28
575.155	14300.01
575.516	14190.63
575.877	14255.03
576.238	14274.7
576.599	14332.09
576.96	14368.93
577.32	14255.71
577.681	14229.05
578.042	14308.14
578.403	14293.68
578.763	14345.65
579.124	14298.65
579.485	14373
579.845	14365.99
580.206	14272.66
580.566	14306.33
580.927	14267.01
581.287	14408.25
581.648	14309.72
582.008	14329.38
582.368	14280.57
582.728	14315.37
583.089	14232.89
583.449	14255.03
583.809	14323.96
584.169	14289.16
584.529	14255.71
584.889	14362.83
585.249	14235.37
585.609	14210.52
585.969	14255.94
586.329	14232.66
586.688	14208.26
587.048	14229.5
587.408	14124.42
587.768	14156.73
588.127	14111.76
588.487	14137.07
588.846	14189.73
589.206	14081.25
589.565	14134.81
589.925	14195.15
590.284	14079.67
590.643	14120.35
591.003	14107.69
591.362	14092.33
591.721	14075.83
592.08	14111.76
592.44	14107.69
592.799	14079.9
593.158	14075.38
593.517	14066.79
593.876	14055.72
594.235	14050.97
594.593	14056.85
594.952	14078.32
595.311	13921.94
595.67	14065.89
596.029	14137.07
596.387	14077.19
596.746	14120.58
597.104	14047.58
597.463	14011.65
597.822	14048.26
598.18	14061.14
598.538	14028.37
598.897	14077.86
599.255	13920.81
599.613	14101.37
599.972	14066.34
600.33	14008.49
600.688	14012.1
601.046	13976.62
601.404	14048.03
601.762	13969.39
602.12	14075.83
602.478	14011.2
602.836	14044.19
603.194	13991.09
603.552	13970.07
603.91	13932.11
604.268	14088.26
604.625	13979.56
604.983	14041.93
605.341	13996.74
605.698	14080.8
606.056	14076.28
606.413	13969.62
606.771	14039
607.128	14192.66
607.485	13965.32
607.843	13991.54
608.2	14082.16
608.557	14109.95
608.914	14008.26
609.272	14091.88
609.629	14194.47
609.986	14158.31
610.343	14158.77
610.7	14195.83
611.057	14148.82
611.414	14171.2
611.771	14091.2
612.127	14208.71
612.484	14138.2
612.841	14152.21
613.198	14105.43
613.554	14126.9
613.911	14290.06
614.267	14258.88
614.624	14260.01
614.98	14218.43
615.337	14327.8
615.693	14319.44
616.05	14254.58
616.406	14385.43
616.762	14302.27
617.118	14284.41
617.475	14271.08
617.831	14298.65
618.187	14388.59
618.543	14391.75
618.899	14401.7
619.255	14451.19
619.611	14374.35
619.967	14502.26
620.323	14395.37
620.678	14439.21
621.034	14407.8
621.39	14407.12
621.746	14398.08
622.101	14527.12
622.457	14384.3
622.812	14441.7
623.168	14420
623.523	14458.42
623.879	14468.59
624.234	14413.22
624.589	14465.42
624.945	14444.63
625.3	14417.52
625.655	14379.55
626.01	14446.22
626.365	14508.81
626.72	14467.68
627.075	14422.71
627.43	14359.89
627.785	14420.91
628.14	14391.53
628.495	14397.4
628.85	14378.2
629.205	14344.75
629.559	14476.27
629.914	14368.25
630.269	14410.06
630.623	14282.15
630.978	14323.51
631.332	14279.21
631.687	14341.36
632.041	14287.8
632.396	14339.1
632.75	14298.65
633.104	14294.36
633.459	14220.91
633.813	14156.51
634.167	14213.68
634.521	14178.43
634.875	14218.2
635.229	14116.73
635.583	14088.71
635.937	14081.25
636.291	14012.56
636.645	14069.28
636.999	14066.11
637.352	14025.89
637.706	13987.7
638.06	14049.39
638.413	14028.15
638.767	13900.02
639.121	14008.26
639.474	13938.43
639.828	13936.17
640.181	13958.09
640.534	13959.45
640.888	13925.55
641.241	13855.95
641.594	13808.04
641.947	13921.48
642.301	13826.8
642.654	13901.15
643.007	13802.17
643.36	13855.05
643.713	13873.8
644.066	13808.04
644.419	13821.83
644.771	13644.43
645.124	13608.27
645.477	13510.2
645.83	13491.44
646.182	13404.21
646.535	13471.1
646.888	13448.95
647.24	13381.39
647.593	13445.34
647.945	13345.45
648.298	13329.41
648.65	13265.23
649.002	13326.02
649.355	13303.42
649.707	13321.95
650.059	13387.71
650.411	13632
650.763	13562.85
651.115	13735.73
651.467	13611.89
651.819	13718.78
652.171	13567.14
652.523	13606.46
652.875	13596.3
653.227	13556.3
653.578	13739.34
653.93	13697.76
654.282	13612.79
654.633	13556.97
654.985	13759.23
655.337	13647.37
655.688	13728.72
656.039	13653.24
656.391	13529.18
656.742	13580.93
657.094	13619.57
657.445	13710.42
657.796	13698.21
658.147	13657.31
658.498	13647.82
658.849	13677.2
659.2	13694.15
659.551	13589.06
659.902	13674.94
660.253	13683.52
660.604	13679.46
660.955	13696.63
661.306	13639.23
661.656	13637.2
662.007	13617.99
662.358	13659.34
662.708	13679
663.059	13629.06
663.409	13598.1
663.76	13715.84
664.11	13634.49
664.461	13712.45
664.811	13684.65
665.161	13796.06
665.511	13622.74
665.862	13714.03
666.212	13677.42
666.562	13719.91
666.912	13733.01
667.262	13764.43
667.612	13717.42
667.962	13779.57
668.312	13687.59
668.662	13744.54
669.011	13715.61
669.361	13715.39
669.711	13686.24
670.06	13749.29
670.41	13645.33
670.76	13624.09
671.109	13679.68
671.459	13623.64
671.808	13698.44
672.157	13689.4
672.507	13541.61
672.856	13575.73
673.205	13560.82
673.554	13634.71
673.904	13565.34
674.253	13622.06
674.602	13563.3
674.951	13327.6
675.3	13312.23
675.649	13560.14
675.998	13495.51
676.346	13539.35
676.695	13565.34
677.044	13418.9
677.393	13398.79
677.741	13471.78
678.09	13434.94
678.438	13407.6
678.787	13392.46
679.135	13401.95
679.484	13360.14
679.832	13369.63
680.181	13262.97
680.529	13352.46
680.877	13275.63
681.225	13260.48
681.573	13331.44
681.922	13188.85
682.27	13147.49
682.618	13167.83
682.966	13106.14
683.314	13124.9
683.661	13178
684.009	13022.07
684.357	13038.34
684.705	13013.94
685.053	12997.44
685.4	12997.89
685.748	12850.78
686.095	12851.23
686.443	12820.95
686.79	12852.36
687.138	12794.51
687.485	12798.8
687.832	12774.4
688.18	12702.31
688.527	12688.3
688.874	12669.99
689.221	12636.55
689.568	12671.12
689.915	12600.16
690.262	12537.79
690.609	12531.92
690.956	12530.11
691.303	12458.47
691.65	12389.55
691.997	12362.2
692.344	12264.8
692.69	12385.71
693.037	12281.75
693.383	12154.53
693.73	12208.53
694.077	12166.95
694.423	12074.75
694.769	12108.2
695.116	11985.04
695.462	11962.67
695.808	11943.46
696.155	11881.31
696.501	11857.13
696.847	11833.86
697.193	11725.16
697.539	11801.31
697.885	11701.43
698.231	11632.5
698.577	11619.4
698.923	11602.45
699.269	11536.69
699.614	11466.86
699.96	11427.54
700.306	11409.91
700.651	11363.59
700.997	11355.9
701.342	11263.25
701.688	11242.91
702.033	11259.41
702.379	11206.75
702.724	11121.56
703.069	11186.41
703.415	11034.33
703.76	11040.66
704.105	11041.11
704.45	11044.72
704.795	10930.83
705.14	10961.11
705.485	10850.6
705.83	10840.66
706.175	10799.31
706.52	10766.09
706.865	10721.79
707.209	10649.71
707.554	10646.32
707.899	10707.56
708.243	10636.15
708.588	10608.58
708.932	10517.73
709.277	10509.82
709.621	10479.31
709.966	10401.35
710.31	10421.92
710.654	10373.1
710.998	10399.32
711.342	10440.22
711.687	10297.62
712.031	10276.61
712.375	10287.46
712.719	10292.43
713.063	10255.14
713.407	10249.72
713.75	10188.93
714.094	10215.59
714.438	10201.13
714.782	10236.38
715.125	10075.94
715.469	10195.93
715.812	10146.44
716.156	10008.37
716.499	10122.94
716.843	10110.51
717.186	10089.49
717.53	10047.24
717.873	10022.83
718.216	10000.46
718.559	9926.56
718.902	9909.84
719.246	9937.63
719.589	9958.2
719.932	9887.01
720.275	9826.22
720.617	9792.78
720.96	9846.11
721.303	9837.75
721.646	9861.93
721.989	9779.67
722.331	9833.23
722.674	9806.11
723.016	9762.05
723.359	9739.22
723.701	9751.65
724.044	9719.56
724.386	9638.66
724.729	9782.38
725.071	9657.19
725.413	9727.92
725.755	9672.78
726.097	9614.48
726.439	9601.37
726.782	9583.29
727.124	9656.96
727.465	9597.53
727.807	9601.6
728.149	9626.23
728.491	9651.31
728.833	9648.6
729.175	9570.19
729.516	9594.59
729.858	9604.99
730.199	9580.81
730.541	9619
730.882	9603.63
731.224	9626.91
731.565	9556.18
731.906	9567.25
732.248	9574.25
732.589	9547.59
732.93	9472.79
733.271	9540.58
733.612	9571.32
733.953	9590.98
734.294	9538.55
734.635	9513.24
734.976	9579.45
735.317	9521.15
735.658	9460.81
735.999	9520.02
736.339	9593.24
736.68	9613.57
737.021	9588.94
737.361	9500.36
737.702	9555.05
738.042	9495.16
738.383	9543.97
738.723	9581.49
739.063	9564.76
739.404	9558.21
739.744	9603.86
740.084	9603.63
740.424	9660.13
740.764	9694.7
741.104	9720.46
741.444	9678.43
741.784	9650.41
742.124	9713.23
742.464	9713.23
742.804	9748.49
743.143	9725.21
743.483	9772.89
743.823	9771.54
744.162	9786.23
744.502	9851.08
744.841	9910.29
745.181	9939.67
745.52	9931.98
745.86	10000.68
746.199	9964.98
746.538	10012.66
746.877	10080.68
747.216	10182.37
747.556	10210.62
747.895	10252.43
748.234	10264.41
748.573	10275.48
748.911	10401.58
749.25	10432.99
749.589	10542.82
749.928	10543.72
750.267	10670.72
750.605	10772.64
750.944	10794.56
751.283	10860.1
751.621	10996.59
751.96	11027.78
752.298	11156.13
752.636	11242.68
752.975	11310.25
753.313	11399.74
753.651	11598.16
753.989	11641.32
754.327	11755.44
754.666	11865.72
755.004	12013.96
755.342	12165.82
755.679	12449.43
756.017	12446.72
756.355	12655.75
756.693	12742.53
757.031	12942.53
757.368	13104.78
757.706	13232.01
758.044	13369.63
