Data from hue_160_FLMS001491_00026.txt Node
Date: Tue Feb 07 16:50:58 GMT 2017
User: dcchb
Spectrometer: FLMS00149
Trigger mode: 0
Integration Time (sec): 2.000000E-2
Scans to average: 10
Electric dark correction enabled: true
Nonlinearity correction enabled: false
Boxcar width: 0
XAxis mode: Wavelengths
Number of Pixels in Spectrum: 2048
>>>>>Begin Spectral Data<<<<<
341.393	-1.21
341.776	-1.21
342.16	-1.21
342.543	-59.29
342.927	-86.64
343.31	-65.17
343.693	-83.47
344.077	-83.47
344.46	-59.29
344.843	-38.95
345.226	-53.42
345.61	-15
345.993	-27.88
346.376	9.18
346.759	27.26
347.142	28.39
347.525	55.51
347.908	41.72
348.291	57.31
348.674	95.51
349.057	111.78
349.44	123.53
349.823	139.57
350.206	158.33
350.588	184.32
350.971	193.58
351.354	221.6
351.737	229.06
352.119	241.04
352.502	250.76
352.884	259.8
353.267	290.76
353.65	284.43
354.032	281.49
354.414	306.12
354.797	295.73
355.179	325.56
355.562	321.04
355.944	319.68
356.326	311.77
356.709	329.85
357.091	313.81
357.473	314.03
357.855	328.72
358.238	326.01
358.62	356.52
359.002	351.77
359.384	320.58
359.766	344.31
360.148	331.21
360.53	307.25
360.912	317.87
361.294	354.71
361.676	329.85
362.057	321.49
362.439	322.17
362.821	322.62
363.203	308.16
363.584	307.48
363.966	330.3
364.348	292.79
364.729	310.19
365.111	318.78
365.493	300.92
365.874	290.08
366.256	306.12
366.637	306.8
367.019	319.45
367.4	333.01
367.781	302.28
368.163	306.35
368.544	317.87
368.925	297.08
369.306	304.77
369.688	293.24
370.069	300.02
370.45	306.8
370.831	293.69
371.212	300.47
371.593	298.44
371.974	308.83
372.355	321.71
372.736	297.76
373.117	307.7
373.498	297.53
373.879	316.74
374.26	330.53
374.641	316.74
375.021	313.58
375.402	321.71
375.783	302.05
376.163	319.91
376.544	313.58
376.925	316.07
377.305	309.74
377.686	324.65
378.066	317.87
378.447	322.39
378.827	335.05
379.208	319.45
379.588	322.62
379.968	315.61
380.349	325.56
380.729	333.01
381.109	323.75
381.489	330.98
381.87	315.16
382.25	326.69
382.63	306.12
383.01	322.84
383.39	333.01
383.77	341.38
384.15	358.1
384.53	352.45
384.91	327.14
385.29	356.97
385.67	343.18
386.049	351.77
386.429	327.59
386.809	342.51
387.189	351.09
387.568	349.51
387.948	344.99
388.328	337.08
388.707	371.2
389.087	320.36
389.466	360.58
389.846	346.57
390.225	361.26
390.605	373.46
390.984	357.42
391.363	347.48
391.743	367.36
392.122	360.13
392.501	347.02
392.881	373.24
393.26	365.78
393.639	359.45
394.018	353.13
394.397	358.55
394.776	364.65
395.155	365.78
395.534	368.04
395.913	359
396.292	389.74
396.671	378.21
397.05	382.28
397.429	387.02
397.808	366.01
398.186	371.2
398.565	392.9
398.944	393.8
399.323	391.32
399.701	395.61
400.08	369.85
400.458	369.62
400.837	401.71
401.215	378.21
401.594	397.87
401.972	403.29
402.351	387.48
402.729	388.61
403.107	413.69
403.486	415.27
403.864	393.13
404.242	420.02
404.62	415.72
404.999	418.66
405.377	403.29
405.755	418.44
406.133	425.67
406.511	411.43
406.889	441.03
407.267	427.25
407.645	434.93
408.023	414.37
408.401	439.68
408.779	450.07
409.156	452.11
409.534	434.48
409.912	434.03
410.29	445.33
410.667	442.16
411.045	434.48
411.422	450.52
411.8	460.24
412.178	467.25
412.555	458.21
412.933	490.3
413.31	469.28
413.687	467.7
414.065	480.81
414.442	475.16
414.819	474.93
415.197	491.65
415.574	482.84
415.951	499.79
416.328	487.59
416.705	530.3
417.082	464.31
417.46	521.71
417.837	520.81
418.214	504.08
418.591	510.18
418.967	497.98
419.344	520.13
419.721	531.2
420.098	523.74
420.475	538.88
420.852	541.37
421.228	550.18
421.605	551.09
421.982	531.88
422.358	539.11
422.735	543.63
423.111	541.37
423.488	558.09
423.864	578.43
424.241	582.05
424.617	573.91
424.994	587.92
425.37	579.11
425.746	591.31
426.123	587.02
426.499	569.84
426.875	603.06
427.251	579.56
427.627	601.26
428.003	616.17
428.379	603.74
428.756	627.92
429.132	626.57
429.507	619.33
429.883	635.83
430.259	657.53
430.635	665.43
431.011	651.88
431.387	661.14
431.763	677.86
432.138	674.25
432.514	690.07
432.89	686
433.265	688.26
433.641	709.28
434.016	720.57
434.392	716.73
434.767	699.78
435.143	709.05
435.518	718.77
435.894	758.09
436.269	743.4
436.644	769.39
437.02	756.51
437.395	737.07
437.77	765.77
438.145	777.52
438.52	778.43
438.895	809.39
439.271	780.69
439.646	805.32
440.021	791.98
440.395	812.78
440.77	811.19
441.145	816.16
441.52	835.6
441.895	842.6
442.27	853.45
442.645	833.34
443.019	843.73
443.394	861.59
443.769	862.04
444.143	869.5
444.518	862.27
444.892	878.54
445.267	900.46
445.641	881.25
446.016	906.56
446.39	899.1
446.764	919.89
447.139	910.85
447.513	926.9
447.887	939.33
448.262	929.83
448.636	943.17
449.01	957.63
449.384	965.99
449.758	947.01
450.132	959.66
450.506	978.65
450.88	970.29
451.254	1011.19
451.628	1018.65
452.002	1026.1
452.376	1007.8
452.75	1042.37
453.123	1033.79
453.497	1043.73
453.871	1031.3
454.244	1065.2
454.618	1075.14
454.992	1067.23
455.365	1108.36
455.739	1128.7
456.112	1142.94
456.486	1144.29
456.859	1160.11
457.232	1174.35
457.606	1197.17
457.979	1200.56
458.352	1218.19
458.725	1213.89
459.099	1236.72
459.472	1260.45
459.845	1274.23
460.218	1247.57
460.591	1289.15
460.964	1295.02
461.337	1342.7
461.71	1336.15
462.083	1395.36
462.456	1391.29
462.829	1394
463.201	1405.75
463.574	1433.78
463.947	1445.53
464.32	1450.05
464.692	1492.98
465.065	1488.92
465.438	1537.28
465.81	1522.59
466.183	1572.98
466.555	1610.72
466.928	1632.41
467.3	1615.24
467.672	1672.87
468.045	1694.56
468.417	1695.24
468.789	1721.23
469.161	1757.16
469.534	1798.06
469.906	1852.97
470.278	1852.52
470.65	1903.37
471.022	1907.66
471.394	1935.23
471.766	2013.42
472.138	1989.02
472.51	2087.54
472.882	2117.37
473.253	2158.5
473.625	2187.43
473.997	2266.75
474.369	2289.12
474.74	2379.29
475.112	2376.8
475.484	2419.51
475.855	2517.14
476.227	2535.22
476.598	2610.92
476.97	2661.99
477.341	2770.24
477.713	2828.09
478.084	2871.48
478.455	2927.75
478.827	3010.01
479.198	3109.89
479.569	3180.85
479.94	3257.91
480.311	3368.87
480.682	3418.58
481.053	3519.82
481.424	3621.06
481.795	3710.1
482.166	3797.1
482.537	3881.4
482.908	3965.23
483.279	4076.87
483.65	4181.27
484.021	4297.2
484.391	4445.22
484.762	4486.35
485.133	4554.6
485.503	4658.78
485.874	4785.1
486.244	4898.54
486.615	5059.9
486.985	5150.29
487.356	5271.87
487.726	5424.86
488.097	5557.51
488.467	5611.52
488.837	5795.47
489.207	5873.43
489.578	6066.65
489.948	6113.2
490.318	6266.64
490.688	6374.89
491.058	6529.24
491.428	6657.82
491.798	6722.68
492.168	6917.93
492.538	7032.95
492.908	7164.92
493.278	7315.66
493.648	7414.64
494.017	7540.51
494.387	7689.66
494.757	7778.92
495.126	7909.31
495.496	7971.23
495.866	8049.2
496.235	8225.69
496.605	8337.1
496.974	8359.02
497.344	8542.97
497.713	8654.15
498.082	8757.65
498.452	8893.69
498.821	8944.31
499.19	9025.89
499.559	9165.55
499.928	9242.84
500.298	9317.18
500.667	9426.56
501.036	9479.21
501.405	9561.7
501.774	9592.66
502.143	9708.59
502.512	9791.97
502.88	9906.55
503.249	9960.33
503.618	10007.34
503.987	10087.33
504.356	10199.87
504.724	10276.03
505.093	10276.48
505.462	10308.34
505.83	10418.4
506.199	10449.36
506.567	10659.97
506.936	10640.09
507.304	10765.06
507.672	10806.18
508.041	10906.52
508.409	10946.29
508.777	10972.51
509.145	11113.75
509.514	11020.19
509.882	11118.49
510.25	11231.48
510.618	11284.36
510.986	11259.05
511.354	11393.97
511.722	11388.32
512.09	11503.34
512.458	11467.64
512.826	11567.75
513.193	11623.34
513.561	11622.66
513.929	11675.99
514.297	11716.9
514.664	11797.12
515.032	11753.5
515.4	11828.53
515.767	11913.95
516.135	11900.39
516.502	11844.12
516.869	12013.16
517.237	12070.78
517.604	12070.78
517.972	12139.71
518.339	12049.54
518.706	12132.25
519.073	12162.76
519.44	12197.33
519.808	12254.06
520.175	12230.33
520.542	12339.03
520.909	12311
521.276	12366.37
521.643	12409.98
522.009	12408.85
522.376	12486.37
522.743	12493.6
523.11	12497.89
523.477	12556.42
523.843	12601.39
524.21	12673.48
524.577	12678.68
524.943	12638.9
525.31	12736.76
525.676	12766.36
526.043	12798.22
526.409	12842.06
526.776	12861.5
527.142	12838.9
527.508	12847.04
527.874	12920.48
528.241	12941.27
528.607	12882.97
528.973	12885.9
529.339	12882.74
529.705	12992.12
530.071	12980.59
530.437	12974.72
530.803	12964.55
531.169	13066.24
531.535	12929.29
531.901	12894.72
532.267	12861.27
532.632	12899.69
532.998	12901.72
533.364	12898.56
533.73	12937.43
534.095	12949.86
534.461	12929.74
534.826	12847.71
535.192	12919.8
535.557	12902.63
535.923	12833.25
536.288	12873.93
536.653	12752.8
537.019	12756.42
537.384	12691.78
537.749	12798
538.114	12663.31
538.479	12632.13
538.845	12562.75
539.21	12596.87
539.575	12594.16
539.94	12501.96
540.305	12612.24
540.67	12480.27
541.034	12427.84
541.399	12428.74
541.764	12429.64
542.129	12373.15
542.494	12331.34
542.858	12354.17
543.223	12339.7
543.587	12357.1
543.952	12223.32
544.316	12230.33
544.681	12164.34
545.045	12204.34
545.41	12163.21
545.774	12081.41
546.138	12024.91
546.503	12047.96
546.867	12030.56
547.231	11988.75
547.595	11899.72
547.959	11908.53
548.324	11934.52
548.688	11845.48
549.052	11831.47
549.416	11812.03
549.779	11751.47
550.143	11717.57
550.507	11805.93
550.871	11687.29
551.235	11641.64
551.599	11659.72
551.962	11630.12
552.326	11613.62
552.689	11586.28
553.053	11514.64
553.417	11514.41
553.78	11617.46
554.143	11459.05
554.507	11451.82
554.87	11445.72
555.234	11464.92
555.597	11360.52
555.96	11397.58
556.323	11422.89
556.686	11401.2
557.05	11392.84
557.413	11297.25
557.776	11424.7
558.139	11320.3
558.502	11286.17
558.865	11305.38
559.228	11377.7
559.59	11346.28
559.953	11314.65
560.316	11389.9
560.679	11403.68
561.041	11291.14
561.404	11321.43
561.767	11303.12
562.129	11274.65
562.492	11428.99
562.854	11317.13
563.217	11266.51
563.579	11338.37
563.941	11344.93
564.304	11386.28
564.666	11369.11
565.028	11391.93
565.39	11461.76
565.753	11454.53
566.115	11388.32
566.477	11442.55
566.839	11474.87
567.201	11520.97
567.563	11434.64
567.925	11527.07
568.287	11465.83
568.648	11446.39
569.01	11498.82
569.372	11464.25
569.734	11504.02
570.095	11545.15
570.457	11503.79
570.819	11516.9
571.18	11543.11
571.542	11515.77
571.903	11548.76
572.265	11581.08
572.626	11591.02
572.987	11560.74
573.349	11615.43
573.71	11606.84
574.071	11589.22
574.432	11686.16
574.794	11724.35
575.155	11633.28
575.516	11651.36
575.877	11712.83
576.238	11609.55
576.599	11672.83
576.96	11704.24
577.32	11674.41
577.681	11716.9
578.042	11678.03
578.403	11701.08
578.763	11691.59
579.124	11607.07
579.485	11788.76
579.845	11730.45
580.206	11746.05
580.566	11703.79
580.927	11720.51
581.287	11706.73
581.648	11688.2
582.008	11663.34
582.368	11664.02
582.728	11725.26
583.089	11643.68
583.449	11611.36
583.809	11692.04
584.169	11691.13
584.529	11653.62
584.889	11722.54
585.249	11696.56
585.609	11624.69
585.969	11700.85
586.329	11619.95
586.688	11616.33
587.048	11544.02
587.408	11566.16
587.768	11609.1
588.127	11478.26
588.487	11530.46
588.846	11616.78
589.206	11478.03
589.565	11505.83
589.925	11615.66
590.284	11538.82
590.643	11519.16
591.003	11571.36
591.362	11546.96
591.721	11520.29
592.08	11563.9
592.44	11511.7
592.799	11518.93
593.158	11424.7
593.517	11532.72
593.876	11417.92
594.235	11449.33
594.593	11503.57
594.952	11487.52
595.311	11479.84
595.67	11487.97
596.029	11490.01
596.387	11523.23
596.746	11493.85
597.104	11410.91
597.463	11379.73
597.822	11427.19
598.18	11400.97
598.538	11396.45
598.897	11456.34
599.255	11333.4
599.613	11497.69
599.972	11478.26
600.33	11426.96
600.688	11399.39
601.046	11413.4
601.404	11459.73
601.762	11383.34
602.12	11522.1
602.478	11489.56
602.836	11484.81
603.194	11342.67
603.552	11402.33
603.91	11391.48
604.268	11516.45
604.625	11333.4
604.983	11464.47
605.341	11430.35
605.698	11427.64
606.056	11387.19
606.413	11433.29
606.771	11504.92
607.128	11454.76
607.485	11346.06
607.843	11427.19
608.2	11442.78
608.557	11433.51
608.914	11426.28
609.272	11450.24
609.629	11498.6
609.986	11538.37
610.343	11451.37
610.7	11631.02
611.057	11511.48
611.414	11505.6
611.771	11488.2
612.127	11551.93
612.484	11485.94
612.841	11591.7
613.198	11523
613.554	11592.6
613.911	11585.6
614.267	11551.93
614.624	11662.43
614.98	11598.03
615.337	11635.77
615.693	11575.2
616.05	11683.9
616.406	11642.77
616.762	11683.22
617.118	11626.05
617.475	11630.34
617.831	11674.64
618.187	11691.13
618.543	11826.04
618.899	11681.19
619.255	11717.57
619.611	11671.02
619.967	11772.04
620.323	11808.64
620.678	11727.52
621.034	11695.43
621.39	11710.79
621.746	11629.21
622.101	11871.69
622.457	11844.35
622.812	11664.02
623.168	11783.79
623.523	11688.65
623.879	11711.25
624.234	11716.9
624.589	11762.32
624.945	11695.43
625.3	11813.16
625.655	11752.37
626.01	11751.02
626.365	11759.61
626.72	11694.75
627.075	11721.87
627.43	11731.13
627.785	11690
628.14	11678.93
628.495	11762.77
628.85	11728.19
629.205	11697.01
629.559	11767.52
629.914	11711.25
630.269	11667.18
630.623	11671.92
630.978	11609.33
631.332	11625.6
631.687	11653.62
632.041	11674.64
632.396	11655.2
632.75	11555.77
633.104	11613.62
633.459	11508.77
633.813	11569.78
634.167	11542.89
634.521	11545.6
634.875	11509.44
635.229	11529.56
635.583	11486.84
635.937	11605.03
636.291	11436.45
636.645	11471.48
636.999	11521.87
637.352	11454.76
637.706	11363.01
638.06	11432.38
638.413	11423.12
638.767	11405.94
639.121	11424.25
639.474	11284.36
639.828	11364.81
640.181	11422.67
640.534	11358.49
640.888	11313.06
641.241	11279.17
641.594	11300.41
641.947	11273.52
642.301	11279.84
642.654	11308.77
643.007	11237.36
643.36	11238.49
643.713	11269.45
644.066	11279.17
644.419	11196.91
644.771	11095.22
645.124	11016.35
645.477	10984.03
645.83	10935.67
646.182	10902.23
646.535	10867.43
646.888	10922.11
647.24	10874.66
647.593	10877.82
647.945	10848.67
648.298	10842.12
648.65	10798.95
649.002	10810.25
649.355	10878.5
649.707	10857.71
650.059	10908.78
650.411	11038.95
650.763	11000.76
651.115	11150.58
651.467	11146.29
651.819	11133.86
652.171	11107.87
652.523	11032.62
652.875	11066.52
653.227	11018.83
653.578	11081.21
653.93	11138.83
654.282	11101.09
654.633	11109.68
654.985	11072.17
655.337	11113.75
655.688	11130.7
656.039	11145.38
656.391	11020.87
656.742	11136.8
657.094	11091.38
657.445	11200.98
657.796	11095.22
658.147	11073.52
658.498	11031.26
658.849	11146.29
659.2	11058.38
659.551	11047.08
659.902	11125.72
660.253	11146.51
660.604	11119.17
660.955	11069.45
661.306	11078.27
661.656	11179.73
662.007	11083.01
662.358	11091.6
662.708	11118.94
663.059	11095.22
663.409	11049.79
663.76	11189.23
664.11	11169.57
664.461	11141.09
664.811	11219.28
665.161	11156.01
665.511	11136.8
665.862	11180.86
666.212	11209.79
666.562	11270.58
666.912	11151.94
667.262	11150.36
667.612	11088.21
667.962	11119.62
668.312	11149.68
668.662	11195.78
669.011	11199.62
669.361	11068.55
669.711	11131.83
670.06	11127.98
670.41	11101.77
670.76	11144.48
671.109	11107.19
671.459	11060.64
671.808	11041.66
672.157	11083.92
672.507	11098.61
672.856	11106.97
673.205	11045.27
673.554	11171.6
673.904	11112.39
674.253	11129.11
674.602	11125.05
674.951	10931.38
675.3	10798.5
675.649	11093.18
675.998	11089.57
676.346	11035.11
676.695	11049.57
677.044	10922.79
677.393	11065.16
677.741	11032.62
678.09	11000.08
678.438	10897.26
678.787	10974.09
679.135	10937.48
679.484	10883.02
679.832	10883.47
680.181	10855.68
680.529	10935.45
680.877	10810.7
681.225	10800.76
681.573	10916.69
681.922	10789.91
682.27	10836.69
682.618	10767.32
682.966	10728.45
683.314	10796.69
683.661	10758.5
684.009	10612.29
684.357	10593.76
684.705	10631.5
685.053	10624.04
685.4	10604.61
685.748	10562.35
686.095	10460.43
686.443	10476.7
686.79	10445.06
687.138	10436.03
687.485	10451.84
687.832	10397.38
688.18	10435.8
688.527	10387.89
688.874	10433.31
689.221	10332.52
689.568	10341.34
689.915	10236.71
690.262	10293.66
690.609	10238.29
690.956	10217.73
691.303	10150.83
691.65	10064.74
691.997	10166.43
692.344	10093.66
692.69	10049.82
693.037	10027.67
693.383	9978.86
693.73	10011.4
694.077	9885.76
694.423	9896.83
694.769	9854.12
695.116	9806.66
695.462	9843.05
695.808	9730.51
696.155	9848.02
696.501	9707
696.847	9656.84
697.193	9654.35
697.539	9661.13
697.885	9625.42
698.231	9474.92
698.577	9567.57
698.923	9441.93
699.269	9446.45
699.614	9372.1
699.96	9372.55
700.306	9351.08
700.651	9350.63
700.997	9264.3
701.342	9167.58
701.688	9235.83
702.033	9171.88
702.379	9132.33
702.724	9105.21
703.069	9111.09
703.415	9034.48
703.76	9008.27
704.105	9010.3
704.45	8978.66
704.795	8919.68
705.14	8889.4
705.485	8876.29
705.83	8846.24
706.175	8860.7
706.52	8841.72
706.865	8848.5
707.209	8789.97
707.554	8682.85
707.899	8723.3
708.243	8663.87
708.588	8644.89
708.932	8574.61
709.277	8607.6
709.621	8597.88
709.966	8525.79
710.31	8556.98
710.654	8497.09
710.998	8486.25
711.342	8502.52
711.687	8531.67
712.031	8392.24
712.375	8439.92
712.719	8401.73
713.063	8375.51
713.407	8420.26
713.75	8404.89
714.094	8385.01
714.438	8329.19
714.782	8335.74
715.125	8263.88
715.469	8265.91
715.812	8244.67
716.156	8217.1
716.499	8185.91
716.843	8198.34
717.186	8219.81
717.53	8232.92
717.873	8212.58
718.216	8233.37
718.559	8228.17
718.902	8110.66
719.246	8088.97
719.589	8111.34
719.932	8050.1
720.275	8069.99
720.617	8095.07
720.96	8074.96
721.303	8081.96
721.646	8074.73
721.989	7996.77
722.331	8050.33
722.674	7996.09
723.016	8017.78
723.359	8040.16
723.701	8040.16
724.044	8019.59
724.386	7969.65
724.729	7986.15
725.071	7995.64
725.413	7955.64
725.755	7962.64
726.097	7888.75
726.439	7864.79
726.782	7921.74
727.124	7930.33
727.465	7932.81
727.807	7934.17
728.149	7937.79
728.491	7895.75
728.833	7891.91
729.175	7882.65
729.516	7891.23
729.858	7871.8
730.199	7802.65
730.541	7829.54
730.882	7883.32
731.224	7902.31
731.565	7813.5
731.906	7888.07
732.248	7877.9
732.589	7795.87
732.93	7800.39
733.271	7821.63
733.612	7864.79
733.953	7851.91
734.294	7888.75
734.635	7804.91
734.976	7891.01
735.317	7780.73
735.658	7820.05
735.999	7818.92
736.339	7881.52
736.68	7848.3
737.021	7865.47
737.361	7860.27
737.702	7865.47
738.042	7834.96
738.383	7839.03
738.723	7864.34
739.063	7833.16
739.404	7841.29
739.744	7909.76
740.084	7896.2
740.424	7947.73
740.764	7933.94
741.104	8027.5
741.444	7940.5
741.784	7980.95
742.124	8001.74
742.464	7952.02
742.804	8054.39
743.143	8012.59
743.483	8098.46
743.823	8031.79
744.162	8110.21
744.502	8134.84
744.841	8138.91
745.181	8182.3
745.52	8245.35
745.86	8264.1
746.199	8215.97
746.538	8262.75
746.877	8355.85
747.216	8408.96
747.556	8416.64
747.895	8501.16
748.234	8517.43
748.573	8519.24
748.911	8548.39
749.25	8656.86
749.589	8721.49
749.928	8768.72
750.267	8917.42
750.605	8844.43
750.944	8999
751.283	8951.54
751.621	9086.68
751.96	9130.75
752.298	9318.99
752.636	9384.75
752.975	9453.9
753.313	9506.11
753.651	9690.73
753.989	9756.27
754.327	9768.7
754.666	9886.21
755.004	10038.75
755.342	10170.27
755.679	10317.84
756.017	10314.22
756.355	10501.11
756.693	10629.01
757.031	10725.73
757.368	10881.66
757.706	11033.52
758.044	11127.76
758.381	11355.77
758.719	11448.88
759.056	11648.42
759.394	11774.75
759.731	11827.4
760.068	12015.19
