Data from hue_26_FLMS001491_00070.txt Node
Date: Tue Feb 07 17:14:22 GMT 2017
User: dcchb
Spectrometer: FLMS00149
Trigger mode: 0
Integration Time (sec): 2.000000E-2
Scans to average: 10
Electric dark correction enabled: true
Nonlinearity correction enabled: false
Boxcar width: 0
XAxis mode: Wavelengths
Number of Pixels in Spectrum: 2048
>>>>>Begin Spectral Data<<<<<
341.393	0.85
341.776	0.85
342.16	0.85
342.543	-49.09
342.927	-62.88
343.31	-82.31
343.693	-80.96
344.077	-66.27
344.46	-66.95
344.843	-59.72
345.226	-29.43
345.61	-55.42
345.993	-17.23
346.376	25.71
346.759	20.06
347.142	28.87
347.525	31.81
347.908	80.62
348.291	69.55
348.674	101.41
349.057	100.28
349.44	135.53
349.823	166.49
350.206	159.26
350.588	185.25
350.971	224.12
351.354	233.16
351.737	244
352.119	241.29
352.502	272.48
352.884	297.11
353.267	294.4
353.65	292.82
354.032	315.42
354.414	306.15
354.797	312.03
355.179	333.72
355.562	322.42
355.944	331.23
356.326	342.31
356.709	339.14
357.091	349.54
357.473	355.19
357.855	367.17
358.238	344.57
358.62	352.02
359.002	359.48
359.384	355.19
359.766	350.22
360.148	363.55
360.53	379.82
360.912	355.41
361.294	350.22
361.676	354.28
362.057	381.63
362.439	346.15
362.821	333.72
363.203	352.02
363.584	327.62
363.966	340.5
364.348	338.01
364.729	347.28
365.111	342.76
365.493	310.9
365.874	346.15
366.256	318.35
366.637	333.72
367.019	321.97
367.4	343.21
367.781	317.68
368.163	305.7
368.544	324.23
368.925	326.71
369.306	337.11
369.688	329.43
370.069	322.19
370.45	340.5
370.831	316.09
371.212	334.4
371.593	330.78
371.974	339.14
372.355	328.3
372.736	330.1
373.117	334.85
373.498	350.89
373.879	318.35
374.26	321.29
374.641	323.78
375.021	326.26
375.402	337.11
375.783	345.02
376.163	351.12
376.544	351.8
376.925	363.1
377.305	329.65
377.686	355.64
378.066	363.78
378.447	355.87
378.827	359.26
379.208	357
379.588	350.44
379.968	366.94
380.349	348.63
380.729	361.97
381.109	380.5
381.489	361.97
381.87	341.86
382.25	362.19
382.63	348.18
383.01	372.59
383.39	356.09
383.77	379.82
384.15	354.96
384.53	375.3
384.91	381.4
385.29	395.19
385.67	350.22
386.049	386.83
386.429	365.58
386.809	379.82
387.189	358.13
387.568	387.5
387.948	383.89
388.328	391.12
388.707	390.89
389.087	396.32
389.466	373.94
389.846	393.15
390.225	382.76
390.605	399.48
390.984	375.07
391.363	400.61
391.743	408.07
392.122	388.86
392.501	383.89
392.881	393.61
393.26	387.28
393.639	414.62
394.018	406.71
394.397	408.29
394.776	420.72
395.155	424.34
395.534	422.08
395.913	413.04
396.292	415.07
396.671	420.5
397.05	413.49
397.429	408.97
397.808	435.41
398.186	415.07
398.565	437.22
398.944	413.49
399.323	426.82
399.701	416.66
400.08	430.89
400.458	437.45
400.837	433.6
401.215	453.49
401.594	447.39
401.972	455.3
402.351	457.11
402.729	461.4
403.107	450.55
403.486	448.52
403.864	467.28
404.242	452.59
404.62	450.1
404.999	459.59
405.377	459.37
405.755	466.82
406.133	466.15
406.511	468.18
406.889	484.45
407.267	493.49
407.645	488.74
408.023	485.81
408.401	498.46
408.779	493.04
409.156	490.33
409.534	499.14
409.912	506.37
410.29	514.05
410.667	506.82
411.045	509.99
411.422	525.13
411.8	524
412.178	516.31
412.555	535.97
412.933	515.18
413.31	540.72
413.687	538.91
414.065	542.98
414.442	531
414.819	543.21
415.197	552.02
415.574	550.44
415.951	538.23
416.328	551.57
416.705	569.19
417.082	539.14
417.46	554.73
417.837	582.08
418.214	588.85
418.591	581.62
418.967	570.1
419.344	622.07
419.721	585.69
420.098	586.37
420.475	590.89
420.852	594.05
421.228	615.07
421.605	620.27
421.982	608.29
422.358	619.59
422.735	616.88
423.111	617.78
423.488	655.97
423.864	649.19
424.241	644.67
424.617	641.51
424.994	646.25
425.37	645.58
425.746	671.34
426.123	645.8
426.499	673.15
426.875	669.76
427.251	694.16
427.627	692.81
428.003	684.9
428.379	714.28
428.756	683.54
429.132	712.69
429.507	718.12
429.883	712.02
430.259	714.95
430.635	745.91
431.011	762.86
431.387	747.72
431.763	762.86
432.138	757.44
432.514	768.74
432.89	780.71
433.265	799.02
433.641	811.45
434.016	776.65
434.392	808.74
434.767	820.49
435.143	833.37
435.518	801.5
435.894	860.49
436.269	824.78
436.644	849.64
437.02	852.35
437.395	855.97
437.77	855.51
438.145	865.23
438.52	887.83
438.895	881.73
439.271	886.7
439.646	912.91
440.021	899.81
440.395	896.87
440.77	910.2
441.145	904.33
441.52	931.22
441.895	926.02
442.27	942.97
442.645	937.77
443.019	936.19
443.394	953.14
443.769	960.14
444.143	937.32
444.518	981.39
444.892	966.7
445.267	980.48
445.641	985.91
446.016	978.22
446.39	988.39
446.764	979.8
447.139	999.01
447.513	997.43
447.887	1009.18
448.262	1023.42
448.636	1019.13
449.01	1036.98
449.384	1024.32
449.758	1045.11
450.132	1057.77
450.506	1054.83
450.88	1056.64
451.254	1058.45
451.628	1090.54
452.002	1088.73
452.376	1108.16
452.75	1106.81
453.123	1127.15
453.497	1156.07
453.871	1154.04
454.244	1160.14
454.618	1173.7
454.992	1189.06
455.365	1162.62
455.739	1199.69
456.112	1215.05
456.486	1221.38
456.859	1215.5
457.232	1246.01
457.606	1242.17
457.979	1273.58
458.352	1277.42
458.725	1311.1
459.099	1305.67
459.472	1356.74
459.845	1341.6
460.218	1341.6
460.591	1342.96
460.964	1356.07
461.337	1375.5
461.71	1404.43
462.083	1415.95
462.456	1429.28
462.829	1449.17
463.201	1474.71
463.574	1474.26
463.947	1521.71
464.32	1527.59
464.692	1528.26
465.065	1544.54
465.438	1575.04
465.81	1578.43
466.183	1581.82
466.555	1623.4
466.928	1646
467.3	1617.75
467.672	1662.72
468.045	1704.76
468.417	1692.55
468.789	1724.19
469.161	1738.88
469.534	1756.96
469.906	1808.03
470.278	1808.71
470.65	1864.53
471.022	1887.13
471.394	1932.77
471.766	1910.4
472.138	1951.53
472.51	1980.68
472.882	2021.59
473.253	2062.26
473.625	2079.21
473.997	2141.58
474.369	2140
474.74	2169.15
475.112	2198.3
475.484	2251.18
475.855	2270.84
476.227	2307.45
476.598	2375.47
476.97	2393.33
477.341	2473.1
477.713	2510.16
478.084	2517.84
478.455	2596.94
478.827	2589.48
479.198	2708.8
479.569	2702.7
479.94	2756.48
480.311	2784.5
480.682	2864.73
481.053	2943.82
481.424	2983.59
481.795	3053.2
482.166	3079.18
482.537	3111.5
482.908	3210.03
483.279	3241.89
483.65	3289.57
484.021	3367.31
484.391	3410.93
484.762	3464.03
485.133	3472.62
485.503	3595.78
485.874	3632.62
486.244	3686.63
486.615	3792.61
486.985	3826.74
487.356	3896.79
487.726	3911.93
488.097	4017.46
488.467	4063.57
488.837	4172.49
489.207	4193.73
489.578	4272.83
489.948	4311.47
490.318	4334.74
490.688	4402.77
491.058	4508.07
491.428	4566.38
491.798	4600.27
492.168	4707.39
492.538	4721.85
492.908	4809.08
493.278	4851.57
493.648	4901.74
494.017	4954.16
494.387	4986.03
494.757	5089.08
495.126	5150.99
495.496	5112.35
495.866	5191.45
496.235	5311.67
496.605	5297.21
496.974	5340.37
497.344	5387.6
497.713	5397.09
498.082	5462.85
498.452	5557.54
498.821	5557.76
499.19	5676.86
499.559	5677.08
499.928	5674.6
500.298	5744.65
500.667	5809.73
501.036	5825.55
501.405	5869.85
501.774	5859.45
502.143	5924.08
502.512	6059.45
502.88	6066.68
503.249	6007.02
503.618	6133.12
503.987	6138.54
504.356	6140.8
504.724	6240.46
505.093	6227.58
505.462	6266.67
505.83	6318.2
506.199	6364.3
506.567	6475.93
506.936	6416.5
507.304	6504.18
507.672	6489.26
508.041	6521.35
508.409	6520.22
508.777	6620.33
509.145	6719.99
509.514	6668.92
509.882	6714.57
510.25	6730.84
510.618	6774.45
510.986	6789.82
511.354	6854.45
511.722	6887.67
512.09	6972.64
512.458	6960.44
512.826	7018.97
513.193	7069.81
513.561	7075.92
513.929	7113.65
514.297	7150.94
514.664	7243.82
515.032	7250.83
515.4	7247.21
515.767	7302.35
516.135	7359.98
516.502	7258.51
516.869	7396.13
517.237	7442.01
517.604	7398.85
517.972	7501.22
518.339	7526.75
518.706	7567.65
519.073	7536.92
519.44	7629.57
519.808	7673.41
520.175	7707.76
520.542	7793.18
520.909	7757.93
521.276	7841.77
521.643	7898.94
522.009	7945.95
522.376	7987.53
522.743	8026.85
523.11	8097.36
523.477	8168.99
523.843	8216.68
524.21	8254.19
524.577	8307.3
524.943	8272.72
525.31	8392.49
525.676	8421.87
526.043	8451.25
526.409	8498.7
526.776	8589.1
527.142	8670.68
527.508	8653.73
527.874	8749.77
528.241	8749.32
528.607	8790.45
528.973	8821.18
529.339	8843.55
529.705	8993.83
530.071	8969.43
530.437	9038.35
530.803	9044
531.169	9206.26
531.535	9229.08
531.901	9202.64
532.267	9207.61
532.632	9292.58
532.998	9302.52
533.364	9406.93
533.73	9406.7
534.095	9419.13
534.461	9488.28
534.826	9560.14
535.192	9554.04
535.557	9659.12
535.923	9616.41
536.288	9639.69
536.653	9708.16
537.019	9749.97
537.384	9814.83
537.749	9809.63
538.114	9855.28
538.479	9934.82
538.845	10032
539.21	9996.29
539.575	10017.53
539.94	10124.65
540.305	10108.83
540.67	10114.48
541.034	10182.95
541.399	10243.97
541.764	10274.93
542.129	10357.41
542.494	10356.96
542.858	10395.6
543.223	10466.56
543.587	10464.98
543.952	10500.91
544.316	10526.22
544.681	10521.7
545.045	10593.11
545.41	10713.33
545.774	10699.32
546.138	10738.42
546.503	10765.31
546.867	10757.85
547.231	10927.34
547.595	10917.4
547.959	10933.22
548.324	10923.27
548.688	11008.92
549.052	11001.91
549.416	11094.12
549.779	11176.82
550.143	11153.77
550.507	11194.9
550.871	11268.12
551.235	11295.47
551.599	11365.29
551.962	11348.12
552.326	11439.87
552.689	11399.42
553.053	11352.64
553.417	11451.62
553.78	11629.69
554.143	11586.08
554.507	11655.91
554.87	11659.3
555.234	11709.24
555.597	11724.83
555.96	11758.96
556.323	11845.73
556.686	11822.46
557.05	11918.95
557.413	11984.04
557.776	11933.64
558.139	12075.33
558.502	12107.87
558.865	12117.82
559.228	12189
559.59	12213.63
559.953	12271.49
560.316	12416.34
560.679	12366.17
561.041	12452.72
561.404	12473.97
561.767	12555.09
562.129	12519.39
562.492	12624.47
562.854	12643.23
563.217	12612.95
563.579	12630.57
563.941	12772.94
564.304	12799.83
564.666	12930.9
565.028	12931.35
565.39	12972.48
565.753	13047.51
566.115	13094.97
566.477	13087.28
566.839	13204.12
567.201	13240.73
567.563	13278.46
567.925	13313.27
568.287	13318.24
568.648	13480.72
569.01	13508.06
569.372	13496.09
569.734	13498.12
570.095	13660.6
570.457	13738.11
570.819	13726.81
571.18	13777.89
571.542	13917.32
571.903	13902.63
572.265	13980.14
572.626	14016.3
572.987	14080.03
573.349	14040.48
573.71	14214.03
574.071	14340.58
574.432	14360.92
574.794	14512.56
575.155	14556.85
575.516	14562.5
575.877	14622.84
576.238	14698.77
576.599	14825.77
576.96	14840.91
577.32	14984.41
577.681	15096.04
578.042	15197.74
578.403	15214.01
578.763	15319.54
579.124	15422.81
579.485	15616.26
579.845	15653.54
580.206	15857.61
580.566	15968.11
580.927	16079.07
581.287	16249.46
581.648	16451.94
582.008	16587.53
582.368	16671.37
582.728	16924.7
583.089	17006.5
583.449	17177.57
583.809	17401.75
584.169	17648.07
584.529	17766.71
584.889	17998.57
585.249	18119.02
585.609	18270.88
585.969	18688.72
586.329	18965.55
586.688	19139.33
587.048	19271.08
587.408	19558.98
587.768	19863.6
588.127	19949.48
588.487	20257.04
588.846	20586.97
589.206	20781.54
589.565	21113.51
589.925	21537.23
590.284	21602.09
590.643	22106.71
591.003	22306.93
591.362	22700.59
591.721	22908.27
592.08	23230.07
592.44	23598.42
592.799	23821.69
593.158	24198.86
593.517	24513.2
593.876	24946.41
594.235	25227.53
594.593	25516.56
594.952	25891.69
595.311	26189.76
595.67	26500.94
596.029	26891.21
596.387	27205.1
596.746	27650.29
597.104	27739.1
597.463	28189.71
597.822	28565.97
598.18	28729.13
598.538	29168.44
598.897	29631.48
599.255	29743.34
599.613	30504
599.972	30531.57
600.33	31036.42
600.688	31285.67
601.046	31753.23
601.404	31967.69
601.762	32305.08
602.12	32715.69
602.478	33042.01
602.836	33301.67
603.194	33522.9
603.552	33855.55
603.91	33959.73
604.268	34541.86
604.625	34698.92
604.983	35132.35
605.341	35125.35
605.698	35737.53
606.056	35943.41
606.413	36215.94
606.771	36544.97
607.128	36865.19
607.485	36975.02
607.843	37230.6
608.2	37723.47
608.557	37880.98
608.914	38089.56
609.272	38541.75
609.629	38818.81
609.986	39161.4
610.343	39138.12
610.7	39637.55
611.057	39780.37
611.414	39943.98
611.771	40069.17
612.127	40600.01
612.484	40730.85
612.841	40924.07
613.198	41124.96
613.554	41212.65
613.911	41609.7
614.267	41771.27
614.624	41938.73
614.98	42176.01
615.337	42552.5
615.693	42585.26
616.05	42689.22
616.406	43013.5
616.762	43086.72
617.118	43174.4
617.475	43380.27
617.831	43482.64
618.187	43780.94
618.543	44040.37
618.899	44269.06
619.255	44256.18
619.611	44335.27
619.967	44553.8
620.323	44661.59
620.678	44894.13
621.034	44861.14
621.39	45038.53
621.746	45064.75
622.101	45561.01
622.457	45255.25
622.812	45429.03
623.168	45661.12
623.523	45796.25
623.879	45916.93
624.234	45790.6
624.589	46051.61
624.945	46110.37
625.3	46205.28
625.655	46285.96
626.01	46414.77
626.365	46513.97
626.72	46483.02
627.075	46586.29
627.43	46607.53
627.785	46469.46
628.14	46755.1
628.495	46810.46
628.85	46723.46
629.205	46685.04
629.559	47048.2
629.914	46796
630.269	46928.43
630.623	46995.09
630.978	46899.95
631.332	47016.33
631.687	47200.06
632.041	47064.92
632.396	47180.85
632.75	47104.02
633.104	47200.96
633.459	47059.95
633.813	47092.04
634.167	47159.16
634.521	47250.45
634.875	47197.8
635.229	47203
635.583	47026.28
635.937	47143.11
636.291	47129.33
636.645	47187.63
636.999	46921.42
637.352	47175.43
637.706	47023.34
638.06	47165.26
638.413	47105.15
638.767	47047.97
639.121	47125.94
639.474	46973.17
639.828	47067.86
640.181	47083.68
640.534	47117.8
640.888	46991.02
641.241	46814.53
641.594	46994.87
641.947	47081.64
642.301	46873.29
642.654	47046.16
643.007	46863.57
643.36	46882.1
643.713	46888.43
644.066	47057.92
644.419	46883.46
644.771	46633.75
645.124	46079.41
645.477	46097.26
645.83	45881.67
646.182	45852.3
646.535	45615.47
646.888	45860.21
647.24	45488.69
647.593	45773.43
647.945	45754.67
648.298	45606.65
648.65	45528.01
649.002	45460.9
649.355	45523.94
649.707	45436.49
650.059	45712.41
650.411	46225.17
650.763	46154.66
651.115	46669
651.467	46398.95
651.819	46512.84
652.171	46409.8
652.523	46309.69
652.875	46461.77
653.227	46187.2
653.578	46392.17
653.93	46277.14
654.282	46275.56
654.633	46223.81
654.985	46288.44
655.337	46372.06
655.688	46276.24
656.039	46373.19
656.391	46026.53
656.742	46090.26
657.094	46148.56
657.445	46262.23
657.796	46154.21
658.147	46130.26
658.498	46113.76
658.849	46219.29
659.2	46151.95
659.551	45943.59
659.902	46214.32
660.253	46056.59
660.604	46044.61
660.955	45949.47
661.306	46186.3
661.656	45944.95
662.007	46090.48
662.358	45929.58
662.708	46047.32
663.059	46038.51
663.409	45785.63
663.76	46076.47
664.11	45956.7
664.461	46020.88
664.811	46018.39
665.161	45997.38
665.511	45953.09
665.862	45831.96
666.212	46022.24
666.562	46044.16
666.912	45956.48
667.262	45742.92
667.612	45802.81
667.962	45949.24
668.312	45865.4
668.662	45960.09
669.011	45932.07
669.361	45762.81
669.711	45864.27
670.06	45862.01
670.41	45812.98
670.76	45730.94
671.109	45734.79
671.459	45785.41
671.808	45698.4
672.157	45812.07
672.507	45521.91
672.856	45548.35
673.205	45565.53
673.554	45610.95
673.904	45545.64
674.253	45737.5
674.602	45682.36
674.951	45032.66
675.3	44772.33
675.649	45469.26
675.998	45440.33
676.346	45404.17
676.695	45531.18
677.044	45354.46
677.393	45385.19
677.741	45383.83
678.09	45269.49
678.438	45204.86
678.787	45305.42
679.135	45250.96
679.484	45139.32
679.832	45177.29
680.181	44907.01
680.529	45066.1
680.877	44958.31
681.225	44960.8
681.573	45225.2
681.922	44848.93
682.27	44733
682.618	44802.16
682.966	44676.28
683.314	44820.91
683.661	44614.14
684.009	44495.72
684.357	44359.68
684.705	44393.58
685.053	44399.45
685.4	44221.83
685.748	44145
686.095	44134.15
686.443	44037.2
686.79	43941.16
687.138	44065
687.485	44053.02
687.832	43749.98
688.18	43815.51
688.527	43578.01
688.874	43491
689.221	43510.44
689.568	43367.62
689.915	43330.56
690.262	43284.46
690.609	43199.94
690.956	43074.52
691.303	43013.28
691.65	42921.75
691.997	42872.04
692.344	42554.08
692.69	42599.28
693.037	42706.39
693.383	42246.74
693.73	42371.94
694.077	42149.34
694.423	42096.24
694.769	42225.5
695.116	41928.56
695.462	42004.04
695.808	41852.63
696.155	41892.4
696.501	41637.04
696.847	41718.85
697.193	41406.76
697.539	41492.41
697.885	41101.91
698.231	41145.3
698.577	41103.95
698.923	41041.35
699.269	40840
699.614	40579.44
699.96	40541.02
700.306	40545.77
700.651	40391.2
700.997	40250.41
701.342	40163.18
701.688	40080.7
702.033	40118.89
702.379	40023.52
702.724	39947.82
703.069	40109.4
703.415	39689.97
703.76	39712.12
704.105	39544.89
704.45	39530.43
704.795	39280.72
705.14	39209.53
705.485	39166.15
705.83	38873.95
706.175	39028.97
706.52	38920.73
706.865	38788.53
707.209	38777.68
707.554	38635.09
707.899	38674.41
708.243	38453.62
708.588	38515.31
708.932	38111.94
709.277	38132.95
709.621	38157.81
709.966	37864.03
710.31	38011.37
710.654	37731.61
710.998	37721.66
711.342	37825.84
711.687	37760.08
712.031	37593.76
712.375	37386.08
712.719	37514.66
713.063	37332.52
713.407	37403.93
713.75	37375.23
714.094	37103.37
714.438	37067.67
714.782	36980.44
715.125	36896.83
715.469	37018.63
715.812	36742.71
716.156	36562.37
716.499	36628.13
716.843	36652.09
717.186	36413.68
717.53	36671.97
717.873	36655.48
718.216	36429.95
718.559	36425.88
718.902	36141.37
719.246	36042.61
719.589	36179.56
719.932	35989.73
720.275	35921.94
720.617	35847.81
720.96	35763.97
721.303	35783.86
721.646	35814.37
721.989	35569.4
722.331	35730.08
722.674	35555.84
723.016	35675.84
723.359	35524.21
723.701	35547.71
724.044	35177.1
724.386	35145.23
724.729	35312.24
725.071	35126.48
725.413	35225.68
725.755	35058.68
726.097	34922.87
726.439	34828.41
726.782	34758.13
727.124	34960.61
727.465	34894.39
727.807	34878.35
728.149	34727.84
728.491	34699.6
728.833	34611.46
729.175	34509.09
729.516	34522.43
729.858	34458.92
730.199	34371.7
730.541	34206.05
730.882	34228.2
731.224	34354.97
731.565	34051.03
731.906	34090.8
732.248	34152.49
732.589	33978.94
732.93	33885.83
733.271	33953.63
733.612	33829.56
733.953	33813.52
734.294	33682.45
734.635	33750.92
734.976	33765.16
735.317	33564.03
735.658	33483.58
735.999	33618.72
736.339	33444.04
736.68	33645.39
737.021	33439.29
737.361	33242.01
737.702	33486.29
738.042	33271.16
738.383	33365.39
738.723	33393.19
739.063	33148.22
739.404	33123.37
739.744	33128.79
740.084	33037.72
740.424	33064.38
740.764	32876.14
741.104	32887.21
741.444	32835.46
741.784	32728.8
742.124	32844.5
742.464	32758.18
742.804	32691.29
743.143	32618.75
743.483	32581.91
743.823	32276.61
744.162	32380.34
744.502	32304.86
744.841	32261.47
745.181	32433.22
745.52	32235.71
745.86	32222.15
746.199	32174.24
746.538	32132.66
746.877	32176.27
747.216	32308.02
747.556	32150.51
747.895	32053.34
748.234	31992.55
748.573	31871.42
748.911	31826.45
749.25	31970.4
749.589	31670.98
749.928	31749.84
750.267	31855.6
750.605	31674.59
750.944	31696.96
751.283	31430.08
751.621	31443.64
751.96	31376.97
752.298	31511.88
752.636	31447.48
752.975	31254.49
753.313	31146.02
753.651	31399.57
753.989	31080.93
754.327	31013.37
754.666	30820.6
755.004	30976.76
755.342	30915.51
755.679	30861.28
756.017	30686.59
756.355	30714.84
756.693	30610.44
757.031	30659.02
757.368	30426.71
757.706	30415.64
758.044	30255.19
758.381	30406.6
758.719	30228.3
