Data from hue_110_FLMS001491_00038.txt Node
Date: Tue Feb 07 17:01:14 GMT 2017
User: dcchb
Spectrometer: FLMS00149
Trigger mode: 0
Integration Time (sec): 2.000000E-2
Scans to average: 10
Electric dark correction enabled: true
Nonlinearity correction enabled: false
Boxcar width: 0
XAxis mode: Wavelengths
Number of Pixels in Spectrum: 2048
>>>>>Begin Spectral Data<<<<<
341.393	-12.6
341.776	-12.6
342.16	-12.6
342.543	-62.77
342.927	-59.83
343.31	-66.16
343.693	-66.38
344.077	-57.8
344.46	-81.3
344.843	-53.28
345.226	-48.76
345.61	-31.58
345.993	-14.86
346.376	-2.43
346.759	17.01
347.142	28.76
347.525	47.29
347.908	67.63
348.291	68.53
348.674	104.23
349.057	89.09
349.44	122.31
349.823	140.62
350.206	155.53
350.588	197.34
350.971	218.81
351.354	224.68
351.737	240.05
352.119	254.06
352.502	257
352.884	281.86
353.267	267.62
353.65	278.02
354.032	294.74
354.414	304.23
354.797	304.91
355.179	326.6
355.562	318.47
355.944	338.58
356.326	335.87
356.709	334.06
357.091	347.17
357.473	339.26
357.855	357.56
358.238	352.82
358.62	358.01
359.002	346.26
359.384	332.7
359.766	350.33
360.148	329.31
360.53	321.4
360.912	361.4
361.294	346.49
361.676	337.67
362.057	335.19
362.439	324.79
362.821	338.58
363.203	341.52
363.584	346.49
363.966	332.03
364.348	337.45
364.729	340.16
365.111	322.08
365.493	307.39
365.874	317.11
366.256	344
366.637	280.5
367.019	322.99
367.4	306.49
367.781	316.66
368.163	298.81
368.544	308.97
368.925	318.69
369.306	327.05
369.688	320.95
370.069	329.99
370.45	319.6
370.831	308.75
371.212	306.94
371.593	320.05
371.974	316.88
372.355	335.19
372.736	327.28
373.117	334.51
373.498	317.79
373.879	331.12
374.26	330.9
374.641	314.4
375.021	308.07
375.402	314.62
375.783	321.86
376.163	339.93
376.544	313.04
376.925	340.61
377.305	343.78
377.686	323.89
378.066	329.31
378.447	344.45
378.827	305.81
379.208	340.84
379.588	353.04
379.968	342.65
380.349	306.94
380.729	328.41
381.109	331.35
381.489	322.76
381.87	366.37
382.25	338.8
382.63	356.66
383.01	342.42
383.39	356.66
383.77	359.37
384.15	357.34
384.53	330.67
384.91	343.32
385.29	361.4
385.67	367.73
386.049	349.43
386.429	354.85
386.809	350.1
387.189	356.66
387.568	360.5
387.948	367.96
388.328	359.14
388.707	362.08
389.087	379.93
389.466	359.37
389.846	365.24
390.225	372.48
390.605	357.34
390.984	372.02
391.363	376.54
391.743	373.15
392.122	377
392.501	360.27
392.881	359.14
393.26	393.49
393.639	378.8
394.018	373.38
394.397	374.06
394.776	392.14
395.155	385.13
395.534	395.53
395.913	376.77
396.292	410.22
396.671	418.8
397.05	397.56
397.429	412.48
397.808	374.96
398.186	412.25
398.565	413.38
398.944	400.72
399.323	392.36
399.701	405.47
400.08	414.51
400.458	389.2
400.837	426.71
401.215	415.41
401.594	404.79
401.972	412.25
402.351	422.42
402.729	405.47
403.107	427.84
403.486	425.81
403.864	419.25
404.242	425.81
404.62	415.19
404.999	431.46
405.377	429.42
405.755	431.23
406.133	431.68
406.511	442.76
406.889	448.41
407.267	448.41
407.645	460.16
408.023	466.71
408.401	451.8
408.779	462.42
409.156	474.62
409.534	440.72
409.912	477.11
410.29	470.1
410.667	465.35
411.045	478.01
411.422	467.61
411.8	477.11
412.178	484.34
412.555	499.25
412.933	482.08
413.31	522.53
413.687	513.04
414.065	492.47
414.442	510.1
414.819	493.83
415.197	503.55
415.574	515.3
415.951	539.03
416.328	511.91
416.705	522.75
417.082	518.01
417.46	517.78
417.837	543.09
418.214	528.63
418.591	537.44
418.967	552.13
419.344	560.49
419.721	544
420.098	540.61
420.475	551.91
420.852	539.7
421.228	558.23
421.605	541.29
421.982	571.11
422.358	562.75
422.735	594.17
423.111	585.58
423.488	594.62
423.864	581.06
424.241	602.53
424.617	590.55
424.994	609.98
425.37	602.3
425.746	609.31
426.123	589.87
426.499	607.72
426.875	635.29
427.251	621.96
427.627	608.63
428.003	644.79
428.379	629.87
428.756	668.06
429.132	659.7
429.507	662.19
429.883	666.93
430.259	670.55
430.635	685.24
431.011	700.15
431.387	692.92
431.763	690.43
432.138	705.57
432.514	674.16
432.89	692.92
433.265	707.38
433.641	707.16
434.016	727.04
434.392	723.43
434.767	739.02
435.143	760.49
435.518	751.22
435.894	758.91
436.269	775.63
436.644	775.86
437.02	771.79
437.395	782.41
437.77	811.56
438.145	799.81
438.52	815.85
438.895	803.65
439.271	809.75
439.646	822.86
440.021	824.22
440.395	792.8
440.77	812.92
441.145	838.23
441.52	851.56
441.895	857.44
442.27	841.39
442.645	853.14
443.019	877.1
443.394	889.52
443.769	889.3
444.143	873.71
444.518	877.1
444.892	891.56
445.267	898.34
445.641	914.38
446.016	921.16
446.39	934.72
446.764	920.26
447.139	917.77
447.513	927.94
447.887	961.61
448.262	952.57
448.636	961.16
449.01	943.31
449.384	957.32
449.758	964.1
450.132	991.44
450.506	998.9
450.88	976.98
451.254	1002.29
451.628	1013.59
452.002	1023.76
452.376	1023.98
452.75	1012.69
453.123	1035.51
453.497	1060.14
453.871	1069.18
454.244	1090.88
454.618	1099.46
454.992	1081.16
455.365	1122.06
455.739	1125.9
456.112	1136.98
456.486	1159.35
456.859	1182.17
457.232	1163.64
457.606	1152.34
457.979	1201.61
458.352	1200.7
458.725	1248.84
459.099	1229.18
459.472	1252.9
459.845	1271.66
460.218	1290.19
460.591	1322.51
460.964	1301.27
461.337	1307.14
461.71	1359.12
462.083	1378.55
462.456	1366.57
462.829	1397.08
463.201	1428.49
463.574	1422.39
463.947	1446.12
464.32	1475.05
464.692	1489.51
465.065	1506.68
465.438	1528.15
465.81	1560.47
466.183	1567.47
466.555	1579.68
466.928	1604.76
467.3	1626.23
467.672	1656.74
468.045	1701.93
468.417	1702.61
468.789	1736.06
469.161	1770.63
469.534	1808.14
469.906	1844.08
470.278	1847.69
470.65	1882.72
471.022	1940.34
471.394	1968.14
471.766	1984.41
472.138	2011.98
472.51	2098.08
472.882	2121.81
473.253	2153.22
473.625	2167.46
473.997	2273.44
474.369	2292.65
474.74	2340.33
475.112	2362.48
475.484	2444.29
475.855	2512.76
476.227	2565.86
476.598	2649.48
476.97	2687.67
477.341	2792.75
477.713	2841.34
478.084	2884.5
478.455	2954.33
478.827	3033.2
479.198	3181.44
479.569	3229.58
479.94	3331.49
480.311	3366.07
480.682	3490.36
481.053	3603.13
481.424	3682.9
481.795	3756.12
482.166	3879.95
482.537	3948.2
482.908	4094.19
483.279	4183.9
483.65	4272.26
484.021	4438.13
484.391	4562.65
484.762	4641.29
485.133	4740.72
485.503	4886.26
485.874	5035.18
486.244	5096.65
486.615	5239.47
486.985	5342.51
487.356	5557.42
487.726	5668.16
488.097	5806.01
488.467	5933.69
488.837	6101.14
489.207	6191.98
489.578	6368.25
489.948	6477.17
490.318	6656.83
490.688	6782.25
491.058	6951.74
491.428	7098.4
491.798	7212.07
492.168	7419.07
492.538	7559.63
492.908	7695.45
493.278	7868.55
493.648	7909.91
494.017	8120.29
494.387	8274.87
494.757	8379.27
495.126	8543.56
495.496	8608.42
495.866	8782.42
496.235	8933.38
496.605	9070.78
496.974	9209.31
497.344	9361.17
497.713	9499.24
498.082	9622.4
498.452	9794.83
498.821	9792.34
499.19	9941.04
499.559	10068.94
499.928	10162.05
500.298	10178.32
500.667	10407.24
501.036	10468.26
501.405	10591.19
501.774	10690.85
502.143	10887.91
502.512	10919.54
502.88	11008.35
503.249	11058.52
503.618	11222.36
503.987	11313.66
504.356	11413.77
504.724	11513.88
505.093	11563.82
505.462	11660.09
505.83	11701.44
506.199	11878.61
506.567	12055.11
506.936	12019.4
507.304	12173.3
507.672	12219.17
508.041	12314.31
508.409	12410.58
508.777	12514.76
509.145	12616
509.514	12584.36
509.882	12684.24
510.25	12800.4
510.618	12874.97
510.986	12930.56
511.354	12975.31
511.722	13094.85
512.09	13224.79
512.458	13122.88
512.826	13319.93
513.193	13389.31
513.561	13365.58
513.929	13391.79
514.297	13518.57
514.664	13668.85
515.032	13755.4
515.4	13800.82
515.767	13725.8
516.135	13893.7
516.502	13797.66
516.869	14022.29
517.237	13935.74
517.604	13956.53
517.972	14015.06
518.339	14097.76
518.706	14059.35
519.073	14156.07
519.44	14149.29
519.808	14368.27
520.175	14233.35
520.542	14457.3
520.909	14471.09
521.276	14444.87
521.643	14559.22
522.009	14529.84
522.376	14626.11
522.743	14598.99
523.11	14683.29
523.477	14891.19
523.843	14909.04
524.21	14995.82
524.577	15022.03
524.943	14967.8
525.31	15054.12
525.676	15090.96
526.043	15100.68
526.409	15156.49
526.776	15345.87
527.142	15244.4
527.508	15311.29
527.874	15307.9
528.241	15363.27
528.607	15399.65
528.973	15429.93
529.339	15419.76
529.705	15431.29
530.071	15492.53
530.437	15408.92
530.803	15499.76
531.169	15564.17
531.535	15430.39
531.901	15454.57
532.267	15515.35
532.632	15500.89
532.998	15491.63
533.364	15668.35
533.73	15481.91
534.095	15661.11
534.461	15620.21
534.826	15545.41
535.192	15613.21
535.557	15622.02
535.923	15488.01
536.288	15535.92
536.653	15547.9
537.019	15339.31
537.384	15333.44
537.749	15516.48
538.114	15382.48
538.479	15382.25
538.845	15401.46
539.21	15335.47
539.575	15393.32
539.94	15301.8
540.305	15409.37
540.67	15306.32
541.034	15268.36
541.399	15228.36
541.764	15263.38
542.129	15274.23
542.494	15227.45
542.858	15109.49
543.223	15045.08
543.587	15201.01
543.952	15035.14
544.316	15082.15
544.681	14928.48
545.045	14973.67
545.41	15017.51
545.774	14932.77
546.138	14910.62
546.503	14876.5
546.867	14821.59
547.231	14914.92
547.595	14761.48
547.959	14790.4
548.324	14751.53
548.688	14694.59
549.052	14640.12
549.416	14691.42
549.779	14659.11
550.143	14520.35
550.507	14650.52
550.871	14563.97
551.235	14626.11
551.599	14554.48
551.962	14590.63
552.326	14580.01
552.689	14582.72
553.053	14425.89
553.417	14420.47
553.78	14623.63
554.143	14410.3
554.507	14412.78
554.87	14376.18
555.234	14529.17
555.597	14337.53
555.96	14341.83
556.323	14346.12
556.686	14315.16
557.05	14471.31
557.413	14380.24
557.776	14289.62
558.139	14341.83
558.502	14379.11
558.865	14263.41
559.228	14383.41
559.59	14304.99
559.953	14293.47
560.316	14398.32
560.679	14372.33
561.041	14346.57
561.404	14417.3
561.767	14465.89
562.129	14342.5
562.492	14511.77
562.854	14386.34
563.217	14304.31
563.579	14402.62
563.941	14418.66
564.304	14453.91
564.666	14554.48
565.028	14428.38
565.39	14581.14
565.753	14574.81
566.115	14548.15
566.477	14654.36
566.839	14594.93
567.201	14661.37
567.563	14665.43
567.925	14687.81
568.287	14695.72
568.648	14728.71
569.01	14636.28
569.372	14795.6
569.734	14655.94
570.095	14773.91
570.457	14833.56
570.819	14689.39
571.18	14711.31
571.542	14865.43
571.903	14860
572.265	14876.05
572.626	14851.64
572.987	14937.29
573.349	14893
573.71	14851.64
574.071	14949.27
574.432	14928.93
574.794	15071.52
575.155	15046.67
575.516	14901.13
575.877	14997.4
576.238	14954.69
576.599	15083.05
576.96	14984.97
577.32	14957.4
577.681	15089.38
578.042	15069.72
578.403	14943.84
578.763	15043.28
579.124	14978.87
579.485	15095.03
579.845	15122.14
580.206	15063.39
580.566	15087.34
580.927	15044.63
581.287	15067
581.648	15074.91
582.008	15088.7
582.368	15104.52
582.728	15123.05
583.089	15014.12
583.449	14985.2
583.809	14970.06
584.169	15043.95
584.529	14977.97
584.889	14962.15
585.249	14931.19
585.609	14987.69
585.969	14986.1
586.329	14938.42
586.688	14982.26
587.048	14884.64
587.408	14891.19
587.768	14988.36
588.127	14932.55
588.487	14908.14
588.846	14989.27
589.206	14923.96
589.565	14872.21
589.925	14992.88
590.284	14821.81
590.643	14943.62
591.003	14894.13
591.362	14975.93
591.721	14845.99
592.08	14905.88
592.44	14889.16
592.799	14909.72
593.158	14823.85
593.517	14755.15
593.876	14806.9
594.235	14774.36
594.593	14848.03
594.952	14768.71
595.311	14773.68
595.67	14743.85
596.029	14875.15
596.387	14743.4
596.746	14845.32
597.104	14735.94
597.463	14710.4
597.822	14844.41
598.18	14669.5
598.538	14705.66
598.897	14699.11
599.255	14612.55
599.613	14868.82
599.972	14698.43
600.33	14785.2
600.688	14726
601.046	14765.09
601.404	14798.54
601.762	14734.36
602.12	14836.5
602.478	14716.28
602.836	14799.89
603.194	14756.05
603.552	14736.17
603.91	14742.95
604.268	14772.55
604.625	14780.91
604.983	14683.06
605.341	14730.06
605.698	14767.13
606.056	14730.06
606.413	14790.85
606.771	14763.28
607.128	14826.33
607.485	14720.12
607.843	14769.61
608.2	14821.81
608.557	14818.65
608.914	14783.17
609.272	14812.55
609.629	14910.17
609.986	14948.82
610.343	14830.85
610.7	14839.44
611.057	14915.37
611.414	14932.55
611.771	14881.47
612.127	14929.61
612.484	14951.98
612.841	15017.29
613.198	14931.19
613.554	14915.14
613.911	15050.96
614.267	15024.97
614.624	14958.99
614.98	15035.14
615.337	15051.19
615.693	15076.27
616.05	14975.48
616.406	15168.92
616.762	15126.89
617.118	15101.35
617.475	15072.88
617.831	15124.86
618.187	15209.37
618.543	15182.26
618.899	15211.41
619.255	15196.04
619.611	15123.27
619.967	15201.69
620.323	15261.58
620.678	15246.89
621.034	15167.79
621.39	15095.48
621.746	15134.35
622.101	15336.83
622.457	15098.42
622.812	15235.36
623.168	15382.7
623.523	15176.83
623.879	15285.08
624.234	15243.72
624.589	15244.85
624.945	15276.26
625.3	15185.87
625.655	15247.34
626.01	15229.03
626.365	15221.8
626.72	15180.45
627.075	15325.08
627.43	15249.6
627.785	15170.51
628.14	15193.33
628.495	15348.58
628.85	15216.38
629.205	15235.59
629.559	15210.5
629.914	15114.69
630.269	15045.76
630.623	15081.47
630.978	15087.8
631.332	15073.78
631.687	15167.12
632.041	14996.5
632.396	15019.55
632.75	15123.05
633.104	15079.89
633.459	15034.46
633.813	14994.69
634.167	14950.85
634.521	14998.08
634.875	14914.24
635.229	14981.13
635.583	14948.82
635.937	14857.29
636.291	14915.37
636.645	14901.13
636.999	14847.8
637.352	14901.13
637.706	14748.6
638.06	14830.85
638.413	14747.47
638.767	14839.67
639.121	14748.6
639.474	14699.56
639.828	14687.58
640.181	14735.04
640.534	14737.52
640.888	14686.9
641.241	14630.18
641.594	14687.58
641.947	14596.06
642.301	14699.11
642.654	14592.22
643.007	14642.84
643.36	14599.45
643.713	14496.85
644.066	14665.66
644.419	14537.3
644.771	14476.96
645.124	14275.16
645.477	14438.32
645.83	14212.34
646.182	14220.7
646.535	14144.09
646.888	14120.82
647.24	14018.22
647.593	14106.13
647.945	14115.84
648.298	14048.05
648.65	14022.96
649.002	13976.64
649.355	14127.37
649.707	14042.63
650.059	14112
650.411	14354.48
650.763	14272.45
651.115	14521.48
651.467	14410.98
651.819	14453.24
652.171	14379.11
652.523	14381.15
652.875	14408.27
653.227	14415.04
653.578	14499.34
653.93	14536.4
654.282	14301.15
654.633	14419.34
654.985	14327.82
655.337	14428.15
655.688	14404.65
656.039	14486.46
656.391	14364.42
656.742	14391.09
657.094	14355.61
657.445	14404.42
657.796	14456.4
658.147	14374.14
658.498	14407.14
658.849	14474.7
659.2	14404.2
659.551	14346.35
659.902	14401.03
660.253	14450.3
660.604	14426.12
660.955	14395.84
661.306	14383.18
661.656	14402.62
662.007	14463.41
662.358	14431.77
662.708	14453.69
663.059	14508.6
663.409	14397.64
663.76	14456.63
664.11	14382.05
664.461	14406.46
664.811	14472.22
665.161	14503.86
665.511	14435.61
665.862	14401.94
666.212	14495.49
666.562	14488.94
666.912	14502.05
667.262	14408.94
667.612	14515.38
667.962	14488.72
668.312	14420.24
668.662	14493.91
669.011	14420.69
669.361	14496.4
669.711	14474.03
670.06	14436.06
670.41	14303.86
670.76	14370.75
671.109	14454.59
671.459	14353.8
671.808	14433.58
672.157	14429.28
672.507	14314.03
672.856	14285.1
673.205	14318.55
673.554	14354.26
673.904	14226.35
674.253	14380.7
674.602	14272.9
674.951	14160.36
675.3	14004.43
675.649	14197.42
675.998	14280.36
676.346	14257.53
676.695	14291.88
677.044	14163.53
677.393	14218.89
677.741	14253.69
678.09	14161.94
678.438	14137.31
678.787	14090.99
679.135	14168.5
679.484	14073.81
679.832	14110.42
680.181	13987.94
680.529	14088.5
680.877	14008.28
681.225	14039.46
681.573	14082.4
681.922	13923.98
682.27	13935.06
682.618	13922.85
682.966	13889.18
683.314	13901.16
683.661	13878.79
684.009	13779.13
684.357	13775.97
684.705	13790.2
685.053	13783.42
685.4	13673.6
685.748	13675.86
686.095	13647.83
686.443	13629.53
686.79	13564.67
687.138	13660.49
687.485	13627.72
687.832	13544.79
688.18	13462.98
688.527	13454.17
688.874	13400.83
689.221	13396.09
689.568	13318.8
689.915	13228.64
690.262	13234.51
690.609	13300.05
690.956	13117
691.303	13199.48
691.65	13086.94
691.997	13045.14
692.344	12944.8
692.69	12904.8
693.037	12959.49
693.383	12826.84
693.73	12925.37
694.077	12799.04
694.423	12756.78
694.769	12713.85
695.116	12747.29
695.462	12621.65
695.808	12577.35
696.155	12642.89
696.501	12535.55
696.847	12454.42
697.193	12414.42
697.539	12453.51
697.885	12329.9
698.231	12249.45
698.577	12298.94
698.923	12268.89
699.269	12223.24
699.614	12160.19
699.96	12117.48
700.306	12037.25
700.651	11997.71
700.997	11960.42
701.342	11934.88
701.688	11883.13
702.033	11843.36
702.379	11830.25
702.724	11859.41
703.069	11826.19
703.415	11736.25
703.76	11685.62
704.105	11637.04
704.45	11591.62
704.795	11555.23
705.14	11504.16
705.485	11523.14
705.83	11421.23
706.175	11441.11
706.52	11423.03
706.865	11390.49
707.209	11356.59
707.554	11298.74
707.899	11335.58
708.243	11242.92
708.588	11208.58
708.932	11070.73
709.277	11097.39
709.621	11078.18
709.966	11016.04
710.31	11038.18
710.654	10953.44
710.998	10928.58
711.342	11039.54
711.687	10873.67
712.031	10930.39
712.375	10840.22
712.719	10862.14
713.063	10783.28
713.407	10890.84
713.75	10769.26
714.094	10815.37
714.438	10720.68
714.782	10798.87
715.125	10712.09
715.469	10698.76
715.812	10708.25
716.156	10598.42
716.499	10584.64
716.843	10643.84
717.186	10543.73
717.53	10553.9
717.873	10605.88
718.216	10500.57
718.559	10585.31
718.902	10412.44
719.246	10450.63
719.589	10409.73
719.932	10433.23
720.275	10396.85
720.617	10405.88
720.96	10307.58
721.303	10374.25
721.646	10393.46
721.989	10309.62
722.331	10322.72
722.674	10280.69
723.016	10280.69
723.359	10296.06
723.701	10381.48
724.044	10308.71
724.386	10191.2
724.729	10228.49
725.071	10258.32
725.413	10216.29
725.755	10149.17
726.097	10148.72
726.439	10098.32
726.782	10153.69
727.124	10185.33
727.465	10148.04
727.807	10126.34
728.149	10150.98
728.491	10046.8
728.833	10145.33
729.175	10040.24
729.516	10033.92
729.858	10056.74
730.199	10049.28
730.541	10037.31
730.882	10044.99
731.224	10056.74
731.565	10072.11
731.906	10078.89
732.248	10042.05
732.589	10063.75
732.93	9994.6
733.271	10070.53
733.612	10065.1
733.953	10073.92
734.294	10049.06
734.635	9993.92
734.976	10101.03
735.317	10028.95
735.658	10007.93
735.999	10045.89
736.339	10079.34
736.68	10040.47
737.021	10074.14
737.361	10016.06
737.702	10147.13
738.042	10044.31
738.383	10051.32
738.723	10155.04
739.063	10061.26
739.404	10123.63
739.744	10105.78
740.084	10106.68
740.424	10166.34
740.764	10126.8
741.104	10177.87
741.444	10138.77
741.784	10151.43
742.124	10133.8
742.464	10240.24
742.804	10323.17
743.143	10210.41
743.483	10247.47
743.823	10296.96
744.162	10283.18
744.502	10349.84
744.841	10353.23
745.181	10426
745.52	10372.67
745.86	10459.89
746.199	10492.21
746.538	10542.38
746.877	10659.21
747.216	10662.83
747.556	10681.13
747.895	10771.52
748.234	10705.54
748.573	10854.23
748.911	10914.57
749.25	10977.17
749.589	10988.47
749.928	11058.07
750.267	11160.44
750.605	11195.02
750.944	11300.1
751.283	11357.05
751.621	11443.82
751.96	11510.49
752.298	11657.38
752.636	11767.43
752.975	11779.86
753.313	11841.55
753.651	12061.89
753.989	12136.46
754.327	12201.77
754.666	12331.71
755.004	12418.71
755.342	12604.24
755.679	12734.41
756.017	12797.91
756.355	13023.22
