Data from hue_90_FLMS001491_79.txt Node
Date: Mon Feb 06 15:25:38 GMT 2017
User: dcchb
Spectrometer: FLMS00149
Trigger mode: 0
Integration Time (sec): 2.000000E-2
Scans to average: 10
Electric dark correction enabled: true
Nonlinearity correction enabled: false
Boxcar width: 0
XAxis mode: Wavelengths
Number of Pixels in Spectrum: 2048
>>>>>Begin Spectral Data<<<<<
341.393	-1.85
341.776	-1.85
342.16	-1.85
342.543	-45.69
342.927	-47.5
343.31	-76.65
343.693	-64.67
344.077	-66.71
344.46	-52.02
344.843	-33.94
345.226	-44.11
345.61	-35.07
345.993	-31
346.376	-12.7
346.759	17.58
347.142	31.6
347.525	66.17
347.908	50.8
348.291	57.36
348.674	82.44
349.057	110.92
349.44	143.23
349.823	136.45
350.206	163.34
350.588	194.08
350.971	216.68
351.354	206.28
351.737	235.66
352.119	248.76
352.502	276.11
352.884	279.72
353.267	280.85
353.65	306.16
354.032	297.8
354.414	302.77
354.797	308.65
355.179	302.77
355.562	332.6
355.944	323.56
356.326	336.22
356.709	326.05
357.091	363.56
357.473	339.61
357.855	317.46
358.238	333.51
358.62	340.06
359.002	335.77
359.384	312.72
359.766	322.44
360.148	333.73
360.53	335.99
360.912	334.41
361.294	336.67
361.676	327.41
362.057	336.67
362.439	331.02
362.821	330.34
363.203	318.14
363.584	328.76
363.966	318.37
364.348	341.87
364.729	330.12
365.111	312.72
365.493	343.45
365.874	323.56
366.256	313.85
366.637	314.53
367.019	322.89
367.4	319.95
367.781	319.27
368.163	303.9
368.544	302.77
368.925	326.28
369.306	307.29
369.688	310.91
370.069	324.69
370.45	316.56
370.831	317.24
371.212	305.49
371.593	316.11
371.974	317.46
372.355	297.8
372.736	315.88
373.117	329.67
373.498	319.5
373.879	328.54
374.26	310.01
374.641	333.06
375.021	304.81
375.402	327.63
375.783	315.43
376.163	337.58
376.544	324.69
376.925	333.73
377.305	323.56
377.686	324.02
378.066	307.97
378.447	337.58
378.827	323.11
379.208	333.28
379.588	351.13
379.968	332.83
380.349	338.48
380.729	331.47
381.109	352.49
381.489	325.15
381.87	348.2
382.25	341.87
382.63	329.89
383.01	330.57
383.39	334.41
383.77	343.23
384.15	334.19
384.53	359.27
384.91	353.39
385.29	358.37
385.67	342.32
386.049	337.58
386.429	344.13
386.809	338.71
387.189	335.99
387.568	350
387.948	342.32
388.328	359.27
388.707	343
389.087	360.17
389.466	374.19
389.846	361.08
390.225	360.4
390.605	388.2
390.984	380.96
391.363	381.19
391.743	379.16
392.122	380.96
392.501	372.15
392.881	362.66
393.26	380.96
393.639	380.96
394.018	367.86
394.397	374.86
394.776	378.7
395.155	374.86
395.534	385.48
395.913	383.45
396.292	371.25
396.671	379.16
397.05	400.85
397.429	369.67
397.808	393.39
398.186	370.8
398.565	390
398.944	406.05
399.323	391.13
399.701	387.52
400.08	407.86
400.458	407.86
400.837	399.27
401.215	409.44
401.594	394.75
401.972	389.1
402.351	412.15
402.729	375.99
403.107	414.18
403.486	411.7
403.864	395.43
404.242	407.63
404.62	424.13
404.999	413.28
405.377	437.91
405.755	413.05
406.133	416.67
406.511	404.47
406.889	414.64
407.267	434.07
407.645	424.58
408.023	444.69
408.401	433.17
408.779	452.15
409.156	435.43
409.534	451.47
409.912	448.99
410.29	454.18
410.667	451.7
411.045	451.02
411.422	449.66
411.8	454.41
412.178	483.79
412.555	473.17
412.933	468.19
413.31	457.8
413.687	463
414.065	480.4
414.442	488.98
414.819	463
415.197	478.59
415.574	463.22
415.951	487.18
416.328	499.38
416.705	512.26
417.082	483.33
417.46	511.13
417.837	489.89
418.214	521.75
418.591	499.38
418.967	509.77
419.344	508.87
419.721	510
420.098	521.3
420.475	512.49
420.852	515.88
421.228	521.98
421.605	539.6
421.982	532.82
422.358	539.38
422.735	527.63
423.111	531.7
423.488	536.21
423.864	548.87
424.241	580.28
424.617	584.58
424.994	562.65
425.37	568.08
425.746	569.66
426.123	563.56
426.499	594.07
426.875	602.65
427.251	568.3
427.627	607.85
428.003	603.78
428.379	618.7
428.756	580.96
429.132	612.14
429.507	591.13
429.883	604.01
430.259	615.99
430.635	611.92
431.011	651.69
431.387	651.24
431.763	622.09
432.138	631.13
432.514	640.39
432.89	697.57
433.265	657.57
433.641	664.12
434.016	676.32
434.392	664.57
434.767	701.86
435.143	688.08
435.518	711.8
435.894	725.36
436.269	696.44
436.644	702.76
437.02	693.72
437.395	688.75
437.77	726.04
438.145	739.15
438.52	747.06
438.895	731.92
439.271	707.74
439.646	753.61
440.021	772.37
440.395	788.19
440.77	784.34
441.145	773.95
441.52	796.77
441.895	771.01
442.27	812.82
442.645	832.03
443.019	809.43
443.394	797.45
443.769	812.14
444.143	818.69
444.518	832.93
444.892	828.64
445.267	843.55
445.641	834.51
446.016	843.33
446.39	840.16
446.764	852.14
447.139	881.06
447.513	864.57
447.887	878.58
448.262	858.24
448.636	862.99
449.01	861.63
449.384	864.12
449.758	911.8
450.132	897.56
450.506	913.61
450.88	924
451.254	919.93
451.628	921.29
452.002	938.46
452.376	928.29
452.75	959.03
453.123	955.86
453.497	962.87
453.871	964
454.244	996.99
454.618	995.19
454.992	1024.79
455.365	1019.59
455.739	1032.47
456.112	1034.51
456.486	1051.23
456.859	1047.16
457.232	1064.79
457.606	1072.7
457.979	1063.66
458.352	1093.71
458.725	1106.82
459.099	1099.82
459.472	1140.27
459.845	1150.89
460.218	1168.97
460.591	1172.36
460.964	1182.75
461.337	1207.16
461.71	1217.1
462.083	1224.56
462.456	1233.6
462.829	1262.75
463.201	1279.02
463.574	1284.22
463.947	1297.1
464.32	1344.1
464.692	1328.51
465.065	1321.05
465.438	1363.31
465.81	1399.69
466.183	1432.24
466.555	1439.69
466.928	1455.74
467.3	1452.35
467.672	1484.89
468.045	1528.51
468.417	1544.1
468.789	1547.71
469.161	1545.23
469.534	1622.51
469.906	1628.16
470.278	1638.78
470.65	1674.94
471.022	1721.72
471.394	1758.56
471.766	1767.37
472.138	1766.01
472.51	1856.41
472.882	1892.11
473.253	1949.96
473.625	1956.52
473.997	2012.11
474.369	2039.9
474.74	2077.87
475.112	2106.34
475.484	2122.84
475.855	2213.91
476.227	2241.03
476.598	2310.18
476.97	2354.02
477.341	2440.8
477.713	2468.14
478.084	2492.77
478.455	2608.48
478.827	2643.28
479.198	2730.06
479.569	2775.25
479.94	2888.92
480.311	2953.33
480.682	3019.99
481.053	3118.29
481.424	3173.43
481.795	3256.82
482.166	3350.38
482.537	3420.66
482.908	3523.93
483.279	3582.69
483.65	3729.13
484.021	3809.35
484.391	3859.07
484.762	3932.51
485.133	4024.48
485.503	4150.58
485.874	4279.62
486.244	4360.29
486.615	4460.63
486.985	4590.12
487.356	4727.74
487.726	4800.06
488.097	4963.44
488.467	4993.95
488.837	5156.43
489.207	5287.95
489.578	5386.71
489.948	5543.99
490.318	5635.06
490.688	5708.51
491.058	5892.91
491.428	6030.31
491.798	6107.37
492.168	6261.94
492.538	6393.91
492.908	6456.51
493.278	6618.77
493.648	6694.7
494.017	6794.13
494.387	6920.23
494.757	7077.96
495.126	7167
495.496	7218.52
495.866	7310.73
496.235	7509.14
496.605	7617.16
496.974	7787.32
497.344	7832.29
497.713	7943.48
498.082	8010.59
498.452	8155.9
498.821	8246.75
499.19	8302.34
499.559	8400.64
499.928	8495.55
500.298	8637.47
500.667	8728.77
501.036	8761.31
501.405	8858.03
501.774	8986.39
502.143	9062.54
502.512	9100.96
502.88	9233.84
503.249	9259.6
503.618	9331.46
503.987	9467.96
504.356	9508.18
504.724	9534.4
505.093	9625.92
505.462	9734.62
505.83	9748.63
506.199	9856.65
506.567	10011.67
506.936	10045.12
507.304	10078.34
507.672	10223.42
508.041	10278.56
508.409	10341.38
508.777	10417.99
509.145	10452.34
509.514	10528.72
509.882	10613.24
510.25	10586.35
510.618	10686.68
510.986	10733.23
511.354	10779.56
511.722	10852.33
512.09	10955.83
512.458	10945.43
512.826	10995.15
513.193	11068.59
513.561	11101.81
513.929	11168.7
514.297	11267.91
514.664	11191.3
515.032	11253.22
515.4	11403.95
515.767	11414.8
516.135	11474.46
516.502	11396.49
516.869	11596.49
517.237	11577.51
517.604	11547.22
517.972	11596.26
518.339	11635.81
518.706	11669.26
519.073	11675.58
519.44	11709.48
519.808	11854.56
520.175	11874
520.542	11933.88
520.909	12008.46
521.276	11910.6
521.643	11989.92
522.009	12133.2
522.376	12073.99
522.743	12146.76
523.11	12140.88
523.477	12344.72
523.843	12282.57
524.21	12346.3
524.577	12395.11
524.943	12404.38
525.31	12387.65
525.676	12533.41
526.043	12493.19
526.409	12553.07
526.776	12582.9
527.142	12591.72
527.508	12650.7
527.874	12754.2
528.241	12736.57
528.607	12710.58
528.973	12781.99
529.339	12708.1
529.705	12728.89
530.071	12851.37
530.437	12834.42
530.803	12820.19
531.169	12849.11
531.535	12730.7
531.901	12800.53
532.267	12887.75
532.632	12908.54
532.998	12873.74
533.364	12899.05
533.73	12837.36
534.095	12905.83
534.461	12887.98
534.826	12860.18
535.192	12876.23
535.557	12892.95
535.923	12887.53
536.288	12827.64
536.653	12882.78
537.019	12712.84
537.384	12804.82
537.749	12874.2
538.114	12739.06
538.479	12745.39
538.845	12827.87
539.21	12635.33
539.575	12755.78
539.94	12671.26
540.305	12733.18
540.67	12629.68
541.034	12651.6
541.399	12659.74
541.764	12585.39
542.129	12635.33
542.494	12574.54
542.858	12692.96
543.223	12567.31
543.587	12589.23
543.952	12471.04
544.316	12480.08
544.681	12466.52
545.045	12462.45
545.41	12446.18
545.774	12472.62
546.138	12349.69
546.503	12354.89
546.867	12308.33
547.231	12395.56
547.595	12300.43
547.959	12269.47
548.324	12273.08
548.688	12251.16
549.052	12201.22
549.416	12106.31
549.779	12226.3
550.143	12203.7
550.507	12138.4
550.871	12098.85
551.235	12097.27
551.599	12104.05
551.962	12037.38
552.326	12073.09
552.689	12099.53
553.053	12007.1
553.417	12001.68
553.78	12161.9
554.143	11987.44
554.507	11928.91
554.87	11971.62
555.234	12093.2
555.597	11915.12
555.96	11941.56
556.323	11989.47
556.686	11910.83
557.05	11960.1
557.413	11933.43
557.776	11861.57
558.139	11907.89
558.502	11875.13
558.865	11964.61
559.228	11978.85
559.59	11953.32
559.953	11920.32
560.316	11973.43
560.679	12021.56
561.041	11903.6
561.404	12058.17
561.767	12005.74
562.129	11958.97
562.492	12083.48
562.854	11991.28
563.217	12050.94
563.579	12030.38
563.941	12043.48
564.304	12080.54
564.666	12061.11
565.028	12095.68
565.39	12037.38
565.753	12076.25
566.115	12123.93
566.477	12137.27
566.839	12114.67
567.201	12214.1
567.563	12254.32
567.925	12245.29
568.287	12261.56
568.648	12246.19
569.01	12285.51
569.372	12287.09
569.734	12263.36
570.095	12320.54
570.457	12313.08
570.819	12373.19
571.18	12299.75
571.542	12431.27
571.903	12425.85
572.265	12416.81
572.626	12380.88
572.987	12367.99
573.349	12471.95
573.71	12426.75
574.071	12460.19
574.432	12433.3
574.794	12604.6
575.155	12524.37
575.516	12403.02
575.877	12514.2
576.238	12525.05
576.599	12551.72
576.96	12583.81
577.32	12521.66
577.681	12513.75
578.042	12468.78
578.403	12529.35
578.763	12571.6
579.124	12526.86
579.485	12603.02
579.845	12545.16
580.206	12613.19
580.566	12627.42
580.927	12493.41
581.287	12588.78
581.648	12588.1
582.008	12554.43
582.368	12594.43
582.728	12510.82
583.089	12576.12
583.449	12513.3
583.809	12569.34
584.169	12548.33
584.529	12491.15
584.889	12624.48
585.249	12547.42
585.609	12537.71
585.969	12612.51
586.329	12557.14
586.688	12511.04
587.048	12534.32
587.408	12504.71
587.768	12510.36
588.127	12366.41
588.487	12402.57
588.846	12531.61
589.206	12380.88
589.565	12371.38
589.925	12451.83
590.284	12418.16
590.643	12404.38
591.003	12451.83
591.362	12446.64
591.721	12403.7
592.08	12385.17
592.44	12445.51
592.799	12464.49
593.158	12401.67
593.517	12435.11
593.876	12432.63
594.235	12400.99
594.593	12384.94
594.952	12444.15
595.311	12350.14
595.67	12445.28
596.029	12468.78
596.387	12455.45
596.746	12369.58
597.104	12394.43
597.463	12355.11
597.822	12300.65
598.18	12347.66
598.538	12349.69
598.897	12351.05
599.255	12289.13
599.613	12490.48
599.972	12416.35
600.33	12427.65
600.688	12338.16
601.046	12353.08
601.404	12427.43
601.762	12401.89
602.12	12534.77
602.478	12391.27
602.836	12432.63
603.194	12354.89
603.552	12360.31
603.91	12303.36
604.268	12344.72
604.625	12326.41
604.983	12349.92
605.341	12279.63
605.698	12360.31
606.056	12385.17
606.413	12319.86
606.771	12401.44
607.128	12340.42
607.485	12413.19
607.843	12312.4
608.2	12369.35
608.557	12433.3
608.914	12370.48
609.272	12526.18
609.629	12496.58
609.986	12466.3
610.343	12419.29
610.7	12528.22
611.057	12497.48
611.414	12439.4
611.771	12499.74
612.127	12518.05
612.484	12565.28
612.841	12641.21
613.198	12587.88
613.554	12524.15
613.911	12607.76
614.267	12569.8
614.624	12567.99
614.98	12563.02
615.337	12673.07
615.693	12612.73
616.05	12574.32
616.406	12622.9
616.762	12628.78
617.118	12528.67
617.475	12652.51
617.831	12631.26
618.187	12627.42
618.543	12657.48
618.899	12718.49
619.255	12673.52
619.611	12707.65
619.967	12724.59
620.323	12713.3
620.678	12647.53
621.034	12608.89
621.39	12703.58
621.746	12638.5
622.101	12850.47
622.457	12664.71
622.812	12719.85
623.168	12706.52
623.523	12783.58
623.879	12815.67
624.234	12660.19
624.589	12815.44
624.945	12704.48
625.3	12732.28
625.655	12701.09
626.01	12763.92
626.365	12723.46
626.72	12716.23
627.075	12698.15
627.43	12669.23
627.785	12662.68
628.14	12666.52
628.495	12727.08
628.85	12717.59
629.205	12754.42
629.559	12731.15
629.914	12667.2
630.269	12680.98
630.623	12584.71
630.978	12548.33
631.332	12642.56
631.687	12668.78
632.041	12611.6
632.396	12577.25
632.75	12552.17
633.104	12582.23
633.459	12531.83
633.813	12480.53
634.167	12538.84
634.521	12490.93
634.875	12546.07
635.229	12509.69
635.583	12430.37
635.937	12436.47
636.291	12443.7
636.645	12434.43
636.999	12379.29
637.352	12368.67
637.706	12322.35
638.06	12454.32
638.413	12316.7
638.767	12355.11
639.121	12361.89
639.474	12337.49
639.828	12305.85
640.181	12354.89
640.534	12329.35
640.888	12284.61
641.241	12202.12
641.594	12285.28
641.947	12277.37
642.301	12231.05
642.654	12247.09
643.007	12243.7
643.36	12170.26
643.713	12149.24
644.066	12200.99
644.419	12115.57
644.771	12029.47
645.124	11944.28
645.477	11962.81
645.83	11895.92
646.182	11811.4
646.535	11775.47
646.888	11730.27
647.24	11695.24
647.593	11832.19
647.945	11797.16
648.298	11711.97
648.65	11637.39
649.002	11711.97
649.355	11725.75
649.707	11727.78
650.059	11835.8
650.411	11962.13
650.763	11986.99
651.115	12048
651.467	12052.52
651.819	12020.88
652.171	12102.01
652.523	11981.79
652.875	11937.04
653.227	11845.3
653.578	12013.65
653.93	11920.32
654.282	11954.9
654.633	11892.07
654.985	11928.01
655.337	11913.32
655.688	11980.89
656.039	12013.88
656.391	11944.73
656.742	11956.25
657.094	11932.75
657.445	11975.91
657.796	11975.91
658.147	12022.01
658.498	11991.96
658.849	12044.84
659.2	12005.74
659.551	11909.02
659.902	11973.43
660.253	11986.08
660.604	11992.86
660.955	11921.23
661.306	12011.39
661.656	12021.11
662.007	11988.34
662.358	11957.38
662.708	11949.25
663.059	11980.43
663.409	11981.11
663.76	12087.1
664.11	12014.11
664.461	11989.25
664.811	12024.05
665.161	12019.75
665.511	12003.26
665.862	12032.64
666.212	12026.31
666.562	12121.67
666.912	12019.75
667.262	12113.09
667.612	12007.55
667.962	12001.9
668.312	12050.26
668.662	12015.01
669.011	11999.87
669.361	12023.6
669.711	11989.7
670.06	11982.92
670.41	11900.44
670.76	11921
671.109	11939.53
671.459	11915.35
671.808	11945.41
672.157	11961
672.507	11804.84
672.856	11910.6
673.205	11897.72
673.554	11923.49
673.904	11934.56
674.253	11885.07
674.602	11878.97
674.951	11760.78
675.3	11711.29
675.649	11864.05
675.998	11795.13
676.346	11773.21
676.695	11845.07
677.044	11669.03
677.393	11848.91
677.741	11809.36
678.09	11770.04
678.438	11749.03
678.787	11794.22
679.135	11734.56
679.484	11612.53
679.832	11777.73
680.181	11620.9
680.529	11689.37
680.877	11638.75
681.225	11606.43
681.573	11711.97
681.922	11598.97
682.27	11477.62
682.618	11572.08
682.966	11457.74
683.314	11474.23
683.661	11517.17
684.009	11476.94
684.357	11525.76
684.705	11372.99
685.053	11418.41
685.4	11387.45
685.748	11346.1
686.095	11295.71
686.443	11287.8
686.79	11279.21
687.138	11257.29
687.485	11288.7
687.832	11183.39
688.18	11281.24
688.527	11175.71
688.874	11120.34
689.221	11179.55
689.568	11043.06
689.915	11088.71
690.262	11018.88
690.609	10935.26
690.956	10953.79
691.303	10900.01
691.65	10900.91
691.997	10871.76
692.344	10818.88
692.69	10795.15
693.037	10736.62
693.383	10679.45
693.73	10647.81
694.077	10597.65
694.423	10741.14
694.769	10588.83
695.116	10524.2
695.462	10544.54
695.808	10549.51
696.155	10528.27
696.501	10455.28
696.847	10428.38
697.193	10350.42
697.539	10403.53
697.885	10185.9
698.231	10230.2
698.577	10186.81
698.923	10210.54
699.269	10163.53
699.614	10112.23
699.96	10086.92
700.306	10096.64
700.651	10024.78
700.997	9975.74
701.342	9958.34
701.688	9895.29
702.033	9820.26
702.379	9845.12
702.724	9818.91
703.069	9914.95
703.415	9784.79
703.76	9749.53
704.105	9692.36
704.45	9670.44
704.795	9572.14
705.14	9590.67
705.485	9568.52
705.83	9501.4
706.175	9552.25
706.52	9514.74
706.865	9430.22
707.209	9469.31
707.554	9384.12
707.899	9442.65
708.243	9430.22
708.588	9354.51
708.932	9255.53
709.277	9269.77
709.621	9244.69
709.966	9200.62
710.31	9204.91
710.654	9095.31
710.998	9159.04
711.342	9132.82
711.687	9089.89
712.031	9052.15
712.375	9023
712.719	9042.21
713.063	9070.91
713.407	9050.57
713.75	8985.26
714.094	9034.07
714.438	8963.79
714.782	8970.12
715.125	8955.43
715.469	8933.96
715.812	8815.09
716.156	8846.73
716.499	8839.73
716.843	8836.11
717.186	8851.48
717.53	8851.7
717.873	8814.64
718.216	8831.36
718.559	8721.76
718.902	8717.47
719.246	8694.64
719.589	8683.12
719.932	8697.36
720.275	8741.87
720.617	8659.16
720.96	8624.14
721.303	8699.62
721.646	8637.47
721.989	8544.59
722.331	8585.95
722.674	8579.39
723.016	8644.02
723.359	8619.62
723.701	8588.66
724.044	8536.68
724.386	8478.83
724.729	8549.34
725.071	8547.53
725.413	8491.03
725.755	8518.6
726.097	8456.23
726.439	8509.34
726.782	8411.04
727.124	8465.72
727.465	8453.07
727.807	8422.79
728.149	8429.79
728.491	8456.91
728.833	8487.42
729.175	8438.38
729.516	8415.78
729.858	8438.61
730.199	8443.13
730.541	8455.55
730.882	8383.92
731.224	8408.78
731.565	8424.14
731.906	8417.36
732.248	8414.43
732.589	8300.98
732.93	8328.55
733.271	8374.65
733.612	8384.14
733.953	8353.64
734.294	8371.04
734.635	8398.61
734.976	8449.45
735.317	8329.46
735.658	8278.16
735.999	8414.65
736.339	8346.18
736.68	8418.04
737.021	8318.16
737.361	8303.69
737.702	8414.65
738.042	8337.59
738.383	8340.3
738.723	8362.45
739.063	8382.56
739.404	8428.44
739.744	8399.28
740.084	8460.75
740.424	8401.09
740.764	8437.93
741.104	8447.42
741.444	8449
741.784	8491.26
742.124	8464.59
742.464	8409.91
742.804	8544.14
743.143	8443.58
743.483	8536.46
743.823	8481.77
744.162	8559.28
744.502	8568.32
744.841	8587.53
745.181	8618.49
745.52	8586.17
745.86	8630.47
746.199	8641.54
746.538	8671.37
746.877	8718.15
747.216	8781.2
747.556	8798.14
747.895	8887.86
748.234	8816
748.573	8854.41
748.911	9001.98
749.25	9071.58
749.589	9003.79
749.928	9117.46
750.267	9183.67
750.605	9238.13
750.944	9204.91
751.283	9314.29
751.621	9407.85
751.96	9503.89
752.298	9550.67
752.636	9591.34
752.975	9692.36
753.313	9725.58
753.651	9820.04
753.989	9934.61
754.327	10026.59
754.666	10073.59
755.004	10239.69
755.342	10363.07
755.679	10345.22
756.017	10497.76
756.355	10656.85
756.693	10733.69
757.031	10875.15
757.368	10902.72
757.706	11060.68
758.044	11153.56
758.381	11315.37
758.719	11443.95
759.056	11561.24
759.394	11714.45
759.731	11754
760.068	11920.32
