Data from hue_250_FLMS001491_00087.txt Node
Date: Tue Feb 07 16:01:35 GMT 2017
User: dcchb
Spectrometer: FLMS00149
Trigger mode: 0
Integration Time (sec): 2.000000E-2
Scans to average: 10
Electric dark correction enabled: true
Nonlinearity correction enabled: false
Boxcar width: 0
XAxis mode: Wavelengths
Number of Pixels in Spectrum: 2048
>>>>>Begin Spectral Data<<<<<
341.393	-25.37
341.776	-25.37
342.16	-25.37
342.543	-69.66
342.927	-69.89
343.31	-61.98
343.693	-79.83
344.077	-71.02
344.46	-54.97
344.843	-40.28
345.226	-52.03
345.61	-50
345.993	-10.68
346.376	-9.55
346.759	1.75
347.142	23.9
347.525	31.36
347.908	59.83
348.291	73.16
348.674	110.45
349.057	129.88
349.44	144.57
349.823	145.93
350.206	162.65
350.588	194.74
350.971	191.35
351.354	197.45
351.737	229.54
352.119	257.56
352.502	243.1
352.884	260.73
353.267	261.63
353.65	301.63
354.032	296.21
354.414	274.74
354.797	299.37
355.179	306.83
355.562	301.4
355.944	323.55
356.326	314.06
356.709	327.84
357.091	299.37
357.473	346.38
357.855	333.27
358.238	330.33
358.62	310.44
359.002	314.29
359.384	319.03
359.766	317.9
360.148	328.75
360.53	339.82
360.912	333.27
361.294	340.95
361.676	330.56
362.057	317.68
362.439	317.22
362.821	329.65
363.203	333.27
363.584	330.33
363.966	312.48
364.348	300.05
364.729	329.2
365.111	328.52
365.493	319.03
365.874	285.59
366.256	307.51
366.637	323.1
367.019	290.11
367.4	312.03
367.781	317.45
368.163	307.28
368.544	293.5
368.925	317.45
369.306	301.18
369.688	323.78
370.069	315.42
370.45	309.54
370.831	295.53
371.212	311.57
371.593	301.4
371.974	313.83
372.355	302.99
372.736	324.91
373.117	300.05
373.498	298.69
373.879	300.27
374.26	295.98
374.641	298.69
375.021	313.83
375.402	300.27
375.783	311.12
376.163	309.99
376.544	318.81
376.925	325.58
377.305	318.35
377.686	299.14
378.066	330.1
378.447	335.3
378.827	306.38
379.208	309.54
379.588	322.65
379.968	325.13
380.349	322.65
380.729	330.56
381.109	308.86
381.489	308.64
381.87	332.14
382.25	319.48
382.63	303.89
383.01	336.88
383.39	337.34
383.77	338.47
384.15	343.89
384.53	343.44
384.91	345.47
385.29	343.21
385.67	338.01
386.049	344.34
386.429	340.5
386.809	342.08
387.189	333.72
387.568	343.89
387.948	337.79
388.328	331.69
388.707	356.77
389.087	365.58
389.466	361.29
389.846	367.62
390.225	367.84
390.605	368.75
390.984	355.64
391.363	360.61
391.743	371.01
392.122	360.61
392.501	364.68
392.881	373.72
393.26	351.12
393.639	372.36
394.018	378.46
394.397	375.98
394.776	373.04
395.155	365.36
395.534	375.53
395.913	352.93
396.292	392.25
396.671	377.79
397.05	380.95
397.429	386.83
397.808	378.24
398.186	402.42
398.565	410.1
398.944	392.7
399.323	411.68
399.701	397.9
400.08	393.38
400.458	412.81
400.837	401.51
401.215	424.57
401.594	411.46
401.972	379.37
402.351	411.68
402.729	400.16
403.107	420.72
403.486	433.6
403.864	423.21
404.242	426.6
404.62	429.31
404.999	443.1
405.377	442.19
405.755	431.8
406.133	449.88
406.511	453.72
406.889	451.46
407.267	467.5
407.645	490.33
408.023	453.94
408.401	472.25
408.779	500.27
409.156	507.73
409.534	495.07
409.912	495.52
410.29	492.81
410.667	498.01
411.045	504.56
411.422	512.02
411.8	516.99
412.178	536.2
412.555	538.91
412.933	531
413.31	534.39
413.687	552.25
414.065	557.22
414.442	566.93
414.819	589.31
415.197	580.27
415.574	569.65
415.951	608.06
416.328	596.99
416.705	615.07
417.082	618.46
417.46	624.33
417.837	614.16
418.214	621.85
418.591	615.75
418.967	634.96
419.344	636.99
419.721	632.24
420.098	646.93
420.475	660.94
420.852	671.56
421.228	670.89
421.605	667.27
421.982	652.58
422.358	722.86
422.735	701.62
423.111	717.89
423.488	721.96
423.864	712.92
424.241	735.29
424.617	757.66
424.994	756.99
425.37	769.87
425.746	782.3
426.123	806.48
426.499	792.69
426.875	806.02
427.251	833.14
427.627	851.9
428.003	839.24
428.379	833.82
428.756	839.02
429.132	842.18
429.507	889.19
429.883	887.83
430.259	905
430.635	890.54
431.011	903.2
431.387	941.84
431.763	968.28
432.138	953.36
432.514	967.15
432.89	982.74
433.265	1009.63
433.641	1033.59
434.016	1043.98
434.392	1041.72
434.767	1055.28
435.143	1104.1
435.518	1061.38
435.894	1085.79
436.269	1121.27
436.644	1120.82
437.02	1130.76
437.395	1190.42
437.77	1198.1
438.145	1191.55
438.52	1202.4
438.895	1196.07
439.271	1234.49
439.646	1246.92
440.021	1272
440.395	1288.72
440.77	1260.25
441.145	1272.9
441.52	1307.03
441.895	1326.69
442.27	1327.82
442.645	1318.1
443.019	1369.17
443.394	1344.77
443.769	1388.83
444.143	1390.19
444.518	1405.78
444.892	1416.86
445.267	1450.3
445.641	1425.67
446.016	1444.2
446.39	1468.38
446.764	1433.58
447.139	1467.93
447.513	1484.42
447.887	1497.76
448.262	1506.57
448.636	1493.92
449.01	1513.58
449.384	1515.61
449.758	1538.89
450.132	1551.32
450.506	1582.27
450.88	1614.82
451.254	1586.12
451.628	1610.3
452.002	1645.55
452.376	1641.03
452.75	1646.23
453.123	1672.44
453.497	1725.32
453.871	1714.47
454.244	1744.08
454.618	1715.83
454.992	1733.68
455.365	1758.09
455.739	1805.55
456.112	1815.71
456.486	1829.05
456.859	1850.97
457.232	1847.35
457.606	1862.72
457.979	1900.01
458.352	1943.4
458.725	1951.53
459.099	1949.95
459.472	1981.59
459.845	2001.92
460.218	2041.25
460.591	1999.44
460.964	2039.21
461.337	2074.92
461.71	2106.55
462.083	2148.81
462.456	2096.16
462.829	2167.8
463.201	2197.4
463.574	2194.01
463.947	2259.32
464.32	2252.54
464.692	2273.56
465.065	2313.55
465.438	2285.76
465.81	2348.36
466.183	2368.69
466.555	2420.22
466.928	2439.2
467.3	2397.17
467.672	2446.43
468.045	2539.54
468.417	2502.25
468.789	2522.82
469.161	2564.4
469.534	2583.38
469.906	2643.72
470.278	2643.94
470.65	2710.15
471.022	2761
471.394	2770.49
471.766	2806.65
472.138	2856.37
472.51	2900.88
472.882	2927.55
473.253	2949.24
473.625	2979.75
473.997	3025.4
474.369	3045.97
474.74	3087.77
475.112	3111.5
475.484	3183.36
475.855	3208.67
476.227	3214.55
476.598	3300.2
476.97	3386.3
477.341	3388.55
477.713	3416.35
478.084	3444.37
478.455	3556.69
478.827	3580.41
479.198	3657.25
479.569	3648.89
479.94	3781.99
480.311	3797.58
480.682	3860.63
481.053	3919.39
481.424	4000.29
481.795	4005.71
482.166	4061.76
482.537	4116.22
482.908	4175.88
483.279	4192.38
483.65	4271.7
484.021	4334.29
484.391	4411.35
484.762	4426.49
485.133	4463.33
485.503	4507.17
485.874	4608.86
486.244	4614.51
486.615	4761.63
486.985	4748.07
487.356	4819.93
487.726	4853.83
488.097	4951.9
488.467	4906.93
488.837	5005.01
489.207	5116.87
489.578	5140.15
489.948	5218.11
490.318	5278.67
490.688	5265.79
491.058	5315.96
491.428	5353.7
491.798	5409.74
492.168	5506.24
492.538	5541.04
492.908	5575.39
493.278	5682.51
493.648	5651.09
494.017	5713.69
494.387	5790.53
494.757	5844.99
495.126	5775.84
495.496	5871.88
495.866	5926.34
496.235	5940.8
496.605	5949.17
496.974	6024.19
497.344	6037.52
497.713	6094.47
498.082	6112.78
498.452	6207.46
498.821	6154.58
499.19	6229.38
499.559	6255.37
499.928	6269.61
500.298	6327.23
500.667	6319.33
501.036	6324.3
501.405	6447.01
501.774	6381.7
502.143	6466.89
502.512	6429.38
502.88	6481.36
503.249	6523.61
503.618	6553.67
503.987	6557.29
504.356	6531.52
504.724	6560.9
505.093	6601.35
505.462	6636.83
505.83	6645.19
506.199	6721.35
506.567	6728.58
506.936	6782.82
507.304	6828.92
507.672	6785.08
508.041	6853.1
508.409	6862.59
508.777	6902.36
509.145	6959.99
509.514	6959.99
509.882	6997.95
510.25	6962.02
510.618	7054
510.986	7008.12
511.354	7065.97
511.722	7100.55
512.09	7101.45
512.458	7103.49
512.826	7143.94
513.193	7170.83
513.561	7202.69
513.929	7179.87
514.297	7192.52
514.664	7254.22
515.032	7264.39
515.4	7318.85
515.767	7279.98
516.135	7340.77
516.502	7291.5
516.869	7398.17
517.237	7399.07
517.604	7412.18
517.972	7435.23
518.339	7464.15
518.706	7401.56
519.073	7436.13
519.44	7470.26
519.808	7529.92
520.175	7540.08
520.542	7583.25
520.909	7573.3
521.276	7556.81
521.643	7623.25
522.009	7613.75
522.376	7700.76
522.743	7679.06
523.11	7713.41
523.477	7766.07
523.843	7775.33
524.21	7805.61
524.577	7865.5
524.943	7843.35
525.31	7865.27
525.676	7994.08
526.043	7959.28
526.409	7905.05
526.776	7981.2
527.142	7978.72
527.508	7959.51
527.874	8031.14
528.241	8038.38
528.607	7991.37
528.973	8049.22
529.339	8063.23
529.705	8030.01
530.071	8115.44
530.437	8072.5
530.803	8143.46
531.169	8162.44
531.535	8197.69
531.901	8117.47
532.267	8139.16
532.632	8210.12
532.998	8174.64
533.364	8190.24
533.73	8237.02
534.095	8197.24
534.461	8172.61
534.826	8192.27
535.192	8229.56
535.557	8271.82
535.923	8232.04
536.288	8225.04
536.653	8228.88
537.019	8249.44
537.384	8244.02
537.749	8281.31
538.114	8249.22
538.479	8176
538.845	8278.37
539.21	8208.32
539.575	8223.68
539.94	8227.07
540.305	8210.8
540.67	8202.67
541.034	8158.83
541.399	8195.21
541.764	8200.41
542.129	8184.81
542.494	8204.25
542.858	8243.12
543.223	8199.95
543.587	8192.72
543.952	8172.16
544.316	8200.18
544.681	8116.11
545.045	8189.11
545.41	8215.55
545.774	8140.52
546.138	8129.9
546.503	8194.08
546.867	8192.72
547.231	8202.67
547.595	8178.26
547.959	8165.6
548.324	8177.81
548.688	8129
549.052	8202.89
549.416	8116.34
549.779	8125.15
550.143	8138.03
550.507	8159.05
550.871	8181.42
551.235	8091.93
551.599	8157.47
551.962	8151.37
552.326	8155.66
552.689	8154.76
553.053	8161.54
553.417	8093.97
553.78	8173.06
554.143	8150.46
554.507	8167.41
554.87	8203.57
555.234	8218.26
555.597	8168.54
555.96	8158.15
556.323	8234.98
556.686	8184.36
557.05	8216.68
557.413	8241.31
557.776	8251.48
558.139	8297.13
558.502	8287.64
558.865	8260.97
559.228	8286.96
559.59	8288.99
559.953	8288.09
560.316	8387.29
560.679	8300.06
561.041	8390.68
561.404	8380.74
561.767	8439.04
562.129	8370.8
562.492	8479.27
562.854	8423.68
563.217	8444.69
563.579	8466.16
563.941	8472.94
564.304	8487.63
564.666	8530.57
565.028	8497.35
565.39	8572.15
565.753	8582.32
566.115	8653.95
566.477	8668.64
566.839	8619.15
567.201	8622.99
567.563	8674.29
567.925	8715.87
568.287	8711.8
568.648	8765.81
569.01	8746.61
569.372	8813.72
569.734	8823.21
570.095	8872.25
570.457	8882.2
570.819	8868.18
571.18	8891.91
571.542	8938.69
571.903	8925.58
572.265	8979.37
572.626	9009.88
572.987	8951.35
573.349	9020.95
573.71	9083.55
574.071	9100.27
574.432	9094.39
574.794	9192.02
575.155	9168.52
575.516	9133.71
575.877	9196.76
576.238	9194.28
576.599	9158.57
576.96	9213.49
577.32	9194.73
577.681	9218.91
578.042	9261.39
578.403	9300.04
578.763	9280.15
579.124	9269.76
579.485	9335.07
579.845	9442.63
580.206	9346.14
580.566	9390.88
580.927	9427.27
581.287	9382.97
581.648	9454.84
582.008	9484.89
582.368	9479.47
582.728	9486.47
583.089	9521.73
583.449	9509.98
583.809	9536.87
584.169	9582.29
584.529	9554.72
584.889	9574.61
585.249	9496.42
585.609	9550.43
585.969	9664.55
586.329	9549.3
586.688	9637.2
587.048	9611.89
587.408	9606.92
587.768	9581.61
588.127	9582.29
588.487	9648.96
588.846	9714.26
589.206	9691.44
589.565	9714.49
589.925	9711.78
590.284	9705
590.643	9735.96
591.003	9797.65
591.362	9831.1
591.721	9764.21
592.08	9790.19
592.44	9775.73
592.799	9786.35
593.158	9797.43
593.517	9772.79
593.876	9846.24
594.235	9822.28
594.593	9700.25
594.952	9829.74
595.311	9760.59
595.67	9794.26
596.029	9916.97
596.387	9837.2
596.746	9881.72
597.104	9904.77
597.463	9887.82
597.822	9924.65
598.18	9873.36
598.538	9826.13
598.897	9865.67
599.255	9894.15
599.613	9999.23
599.972	9895.28
600.33	9912.9
600.688	9951.55
601.046	9858.44
601.404	9964.88
601.762	9960.81
602.12	9989.06
602.478	10040.36
602.836	10011.43
603.194	9974.37
603.552	10097.53
603.91	9847.59
604.268	9984.77
604.625	9928.27
604.983	10012.11
605.341	9992.22
605.698	10069.51
606.056	10075.61
606.413	10045.33
606.771	10068.83
607.128	10109.73
607.485	9983.64
607.843	10044.43
608.2	10084.2
608.557	10166.46
608.914	10060.24
609.272	10144.08
609.629	10129.85
609.986	10163.97
610.343	10214.59
610.7	10136.85
611.057	10137.08
611.414	10177.75
611.771	10189.05
612.127	10247.13
612.484	10209.39
612.841	10263.85
613.198	10281.26
613.554	10225.66
613.911	10362.16
614.267	10314.7
614.624	10268.15
614.98	10179.56
615.337	10300.24
615.693	10289.16
616.05	10236.06
616.406	10355.38
616.762	10302.27
617.118	10271.31
617.475	10317.64
617.831	10309.73
618.187	10264.76
618.543	10293.01
618.899	10393.79
619.255	10322.38
619.611	10309.73
619.967	10351.76
620.323	10452.78
620.678	10329.62
621.034	10331.42
621.39	10365.09
621.746	10382.5
622.101	10476.73
622.457	10402.16
622.812	10381.37
623.168	10369.16
623.523	10426.79
623.879	10499.33
624.234	10483.06
624.589	10417.07
624.945	10425.21
625.3	10417.75
625.655	10430.4
626.01	10434.92
626.365	10442.61
626.72	10413.91
627.075	10358.09
627.43	10403.51
627.785	10307.7
628.14	10355.83
628.495	10369.16
628.85	10332.1
629.205	10313.57
629.559	10362.83
629.914	10275.83
630.269	10345.21
630.623	10324.64
630.978	10258.43
631.332	10231.99
631.687	10312.21
632.041	10227.7
632.396	10315.15
632.75	10281.03
633.104	10287.13
633.459	10125.33
633.813	10211.2
634.167	10170.3
634.521	10169.62
634.875	10233.57
635.229	10115.38
635.583	10145.44
635.937	10178.43
636.291	10175.72
636.645	10141.37
636.999	10046.68
637.352	10191.99
637.706	10018.66
638.06	10071.32
638.413	10083.75
638.767	10037.65
639.121	10050.3
639.474	10035.84
639.828	10009.85
640.181	10003.52
640.534	10021.15
640.888	9959
641.241	9929.85
641.594	9965.33
641.947	9972.11
642.301	9913.58
642.654	9872.68
643.007	9913.36
643.36	9895.28
643.713	9969.17
644.066	9839.68
644.419	9814.6
644.771	9813.47
645.124	9740.48
645.477	9764.66
645.83	9693.7
646.182	9623.19
646.535	9647.83
646.888	9588.39
647.24	9538
647.593	9563.08
647.945	9503.87
648.298	9511.56
648.65	9563.53
649.002	9487.38
649.355	9557.66
649.707	9528.51
650.059	9549.75
650.411	9653.25
650.763	9674.04
651.115	9734.38
651.467	9705.45
651.819	9688.05
652.171	9673.36
652.523	9685.56
652.875	9677.43
653.227	9640.37
653.578	9727.37
653.93	9737.99
654.282	9713.13
654.633	9700.71
654.985	9727.15
655.337	9718.56
655.688	9683.98
656.039	9769.63
656.391	9688.5
656.742	9662.06
657.094	9627.04
657.445	9719.01
657.796	9696.64
658.147	9705.45
658.498	9606.24
658.849	9683.3
659.2	9687.37
659.551	9681.72
659.902	9679.01
660.253	9660.93
660.604	9722.63
660.955	9605.34
661.306	9669.29
661.656	9694.38
662.007	9617.09
662.358	9643.76
662.708	9617.54
663.059	9652.8
663.409	9618.45
663.76	9666.81
664.11	9682.4
664.461	9633.59
664.811	9656.64
665.161	9698.67
665.511	9683.76
665.862	9626.81
666.212	9718.56
666.562	9635.4
666.912	9720.59
667.262	9650.54
667.612	9636.75
667.962	9679.69
668.312	9642.18
668.662	9680.37
669.011	9611.89
669.361	9578.45
669.711	9682.17
670.06	9622.29
670.41	9655.51
670.76	9643.76
671.109	9669.52
671.459	9594.49
671.808	9628.62
672.157	9593.82
672.507	9615.96
672.856	9578.22
673.205	9588.17
673.554	9610.76
673.904	9570.54
674.253	9583.65
674.602	9568.05
674.951	9455.97
675.3	9369.41
675.649	9497.09
675.998	9488.06
676.346	9531.9
676.695	9513.14
677.044	9487.38
677.393	9565.57
677.741	9493.25
678.09	9407.61
678.438	9453.03
678.787	9411.22
679.135	9433.59
679.484	9386.36
679.832	9423.42
680.181	9415.29
680.529	9411.22
680.877	9313.6
681.225	9364.22
681.573	9359.92
681.922	9296.65
682.27	9232.7
682.618	9227.72
682.966	9294.39
683.314	9294.84
683.661	9268.63
684.009	9179.36
684.357	9130.55
684.705	9157.22
685.053	9237.67
685.4	9143.88
685.748	9127.39
686.095	9097.33
686.443	9072.7
686.79	9072.25
687.138	9040.61
687.485	9094.17
687.832	9045.58
688.18	9044
688.527	8949.09
688.874	8974.4
689.221	8888.75
689.568	8900.5
689.915	8893.04
690.262	8833.16
690.609	8827.96
690.956	8792.03
691.303	8757.23
691.65	8722.88
691.997	8691.24
692.344	8655.99
692.69	8639.94
693.037	8660.51
693.383	8551.36
693.73	8597.23
694.077	8546.61
694.423	8559.94
694.769	8481.98
695.116	8477.01
695.462	8465.48
695.808	8488.76
696.155	8503
696.501	8442.21
696.847	8352.72
697.193	8277.69
697.539	8360.18
697.885	8265.26
698.231	8240.18
698.577	8213.51
698.923	8239.5
699.269	8175.55
699.614	8162.67
699.96	8093.52
700.306	8088.77
700.651	8145.04
700.997	8081.54
701.342	8006.06
701.688	8029.34
702.033	7989.11
702.379	7944.82
702.724	7920.87
703.069	7955.67
703.415	7831.83
703.76	7823.01
704.105	7861.43
704.45	7839.06
704.795	7782.79
705.14	7772.85
705.485	7757.93
705.83	7722.45
706.175	7749.34
706.52	7690.36
706.865	7622.57
707.209	7649.46
707.554	7591.38
707.899	7557.03
708.243	7580.08
708.588	7531.95
708.932	7499.18
709.277	7509.12
709.621	7498.5
709.966	7479.97
710.31	7410.6
710.654	7386.64
710.998	7361.33
711.342	7440.2
711.687	7379.18
712.031	7339.19
712.375	7350.03
712.719	7296.25
713.063	7310.03
713.407	7358.39
713.75	7251.96
714.094	7236.36
714.438	7222.13
714.782	7245.18
715.125	7235.69
715.469	7235.69
715.812	7219.64
716.156	7166.76
716.499	7127.21
716.843	7199.98
717.186	7129.02
717.53	7185.29
717.873	7129.02
718.216	7149.59
718.559	7039.31
718.902	7060.55
719.246	7070.04
719.589	6970.83
719.932	7022.58
720.275	7002.25
720.617	6995.47
720.96	7010.83
721.303	7059.42
721.646	7010.61
721.989	6933.09
722.331	7004.73
722.674	6980.55
723.016	6999.31
723.359	6955.24
723.701	6930.83
724.044	6905.3
724.386	6891.51
724.729	6948.46
725.071	6887.9
725.413	6901.23
725.755	6855.36
726.097	6804.51
726.439	6878.86
726.782	6812.19
727.124	6876.15
727.465	6903.94
727.807	6890.84
728.149	6857.16
728.491	6815.36
728.833	6858.07
729.175	6801.57
729.516	6814
729.858	6767.9
730.199	6877.05
730.541	6822.81
730.882	6789.37
731.224	6828.01
731.565	6799.09
731.906	6796.83
732.248	6814.91
732.589	6728.35
732.93	6768.58
733.271	6722.25
733.612	6769.48
733.953	6789.37
734.294	6755.47
734.635	6750.95
734.976	6764.96
735.317	6767.45
735.658	6743.5
735.999	6701.01
736.339	6703.95
736.68	6724.96
737.021	6748.92
737.361	6732.42
737.702	6724.96
738.042	6677.28
738.383	6771.29
738.723	6734.23
739.063	6708.92
739.404	6763.16
739.744	6769.71
740.084	6751.86
740.424	6751.4
740.764	6796.83
741.104	6840.67
741.444	6762.93
741.784	6737.85
742.124	6809.48
742.464	6793.66
742.804	6771.74
743.143	6850.84
743.483	6844.06
743.823	6766.77
744.162	6764.74
744.502	6802.25
744.841	6807.67
745.181	6867.33
745.52	6850.38
745.86	6894.45
746.199	6915.47
746.538	6908.01
746.877	6986.65
747.216	6995.01
747.556	7058.97
747.895	7053.09
748.234	7014.22
748.573	7130.6
748.911	7091.28
749.25	7164.5
749.589	7175.12
749.928	7252.41
750.267	7281.79
750.605	7273.88
750.944	7418.05
751.283	7408.79
751.621	7504.38
751.96	7540.08
752.298	7571.27
752.636	7625.28
752.975	7701.44
753.313	7712.96
753.651	7864.14
753.989	7907.08
754.327	7906.85
754.666	7993.18
755.004	8075.44
755.342	8230.46
755.679	8281.76
756.017	8262.78
756.355	8371.25
756.693	8472.04
757.031	8560.17
757.368	8665.48
757.706	8723.33
758.044	8876.09
758.381	8990.89
758.719	9029.54
759.056	9133.49
759.394	9226.59
759.731	9301.39
760.068	9332.13
760.405	9465.68
760.743	9455.51
761.08	9674.72
761.417	9756.3
761.754	9871.1
762.091	9917.87
762.428	10066.57
762.765	10162.61
763.102	10309.28
763.438	10387.02
763.775	10456.62
764.112	10570.74
764.449	10724.41
764.785	10769.15
765.122	10830.62
765.458	10887.57
765.795	10985.19
766.131	11184.28
766.467	11187.9
766.804	11303.6
767.14	11370.04
767.476	11398.51
