Data from hue_250_FLMS001491_00065.txt Node
Date: Tue Feb 07 16:01:18 GMT 2017
User: dcchb
Spectrometer: FLMS00149
Trigger mode: 0
Integration Time (sec): 2.000000E-2
Scans to average: 10
Electric dark correction enabled: true
Nonlinearity correction enabled: false
Boxcar width: 0
XAxis mode: Wavelengths
Number of Pixels in Spectrum: 2048
>>>>>Begin Spectral Data<<<<<
341.393	-15.78
341.776	-15.78
342.16	-15.78
342.543	-53.06
342.927	-68.88
343.31	-51.71
343.693	-60.07
344.077	-69.11
344.46	-71.14
344.843	-77.24
345.226	-38.37
345.61	-44.93
345.993	-25.27
346.376	-18.71
346.759	7.27
347.142	25.8
347.525	62.64
347.908	71.45
348.291	72.58
348.674	105.8
349.057	111
349.44	127.72
349.823	148.29
350.206	175.63
350.588	192.35
350.971	204.78
351.354	206.14
351.737	243.43
352.119	249.53
352.502	260.83
352.884	256.98
353.267	262.41
353.65	271.45
354.032	306.25
354.414	297.66
354.797	284.33
355.179	301.05
355.562	297.21
355.944	327.49
356.326	309.41
356.709	299.24
357.091	349.41
357.473	330.88
357.855	335.17
358.238	344.21
358.62	342.86
359.002	324.33
359.384	334.72
359.766	322.29
360.148	325.68
360.53	308.96
360.912	311.22
361.294	330.66
361.676	308.73
362.057	332.69
362.439	300.37
362.821	341.5
363.203	302.41
363.584	310.54
363.966	317.55
364.348	317.32
364.729	313.71
365.111	297.89
365.493	301.05
365.874	294.72
366.256	313.25
366.637	308.28
367.019	293.82
367.4	325.23
367.781	299.92
368.163	299.24
368.544	318.9
368.925	296.31
369.306	306.02
369.688	309.86
370.069	312.8
370.45	298.34
370.831	323.42
371.212	304.22
371.593	301.28
371.974	309.64
372.355	310.77
372.736	327.04
373.117	311.67
373.498	325.91
373.879	312.12
374.26	306.25
374.641	324.78
375.021	322.97
375.402	322.52
375.783	319.58
376.163	330.88
376.544	312.12
376.925	329.3
377.305	339.69
377.686	325.23
378.066	313.03
378.447	319.58
378.827	335.17
379.208	315.29
379.588	327.04
379.968	322.29
380.349	353.93
380.729	334.95
381.109	348.28
381.489	356.64
381.87	346.7
382.25	333.37
382.63	331.11
383.01	337.66
383.39	356.42
383.77	336.98
384.15	344.44
384.53	339.47
384.91	333.37
385.29	348.51
385.67	333.14
386.049	344.67
386.429	368.62
386.809	353.93
387.189	364.55
387.568	354.61
387.948	348.51
388.328	353.93
388.707	368.85
389.087	390.54
389.466	373.82
389.846	372.24
390.225	346.93
390.605	355.06
390.984	366.13
391.363	384.89
391.743	355.06
392.122	365.91
392.501	387.6
392.881	372.91
393.26	380.82
393.639	384.44
394.018	380.37
394.397	413.82
394.776	392.35
395.155	407.49
395.534	370.88
395.913	400.26
396.292	404.33
396.671	393.25
397.05	421.27
397.429	383.54
397.808	402.52
398.186	412.69
398.565	412.69
398.944	416.3
399.323	420.82
399.701	411.56
400.08	431.44
400.458	434.38
400.837	461.27
401.215	430.77
401.594	433.7
401.972	432.35
402.351	450.65
402.729	432.35
403.107	442.52
403.486	458.56
403.864	427.83
404.242	442.06
404.62	441.84
404.999	451.56
405.377	494.04
405.755	466.7
406.133	487.71
406.511	471.67
406.889	488.62
407.267	488.62
407.645	479.35
408.023	502.63
408.401	498.11
408.779	506.92
409.156	522.29
409.534	516.19
409.912	528.39
410.29	542.18
410.667	534.94
411.045	531.78
411.422	567.26
411.8	551.44
412.178	581.04
412.555	589.18
412.933	573.81
413.31	567.71
413.687	605
414.065	601.83
414.442	597.31
414.819	611.55
415.197	608.39
415.574	647.03
415.951	627.14
416.328	641.16
416.705	634.83
417.082	621.72
417.46	668.95
417.837	665.11
418.214	663.53
418.591	654.26
418.967	663.53
419.344	695.62
419.721	695.62
420.098	674.37
420.475	713.92
420.852	716.86
421.228	714.15
421.605	719.12
421.982	756.86
422.358	740.59
422.735	748.95
423.111	753.02
423.488	782.85
423.864	798.89
424.241	797.76
424.617	808.61
424.994	821.94
425.37	858.1
425.746	847.48
426.123	847.25
426.499	843.41
426.875	888.15
427.251	870.08
427.627	888.38
428.003	919.79
428.379	872.11
428.756	911.66
429.132	937.19
429.507	937.64
429.883	918.89
430.259	979
430.635	980.81
431.011	978.32
431.387	1015.16
431.763	1027.36
432.138	1023.74
432.514	1041.14
432.89	1042.95
433.265	1080.92
433.641	1079.79
434.016	1080.01
434.392	1118.43
434.767	1150.75
435.143	1155.04
435.518	1139
435.894	1201.82
436.269	1195.72
436.644	1233.91
437.02	1222.16
437.395	1255.6
437.77	1244.53
438.145	1284.3
438.52	1309.84
438.895	1333.79
439.271	1305.32
439.646	1368.82
440.021	1337.18
440.395	1386.67
440.77	1360.46
441.145	1412.89
441.52	1398.88
441.895	1422.38
442.27	1448.37
442.645	1444.75
443.019	1482.26
443.394	1464.18
443.769	1463.05
444.143	1465.99
444.518	1484.98
444.892	1480.91
445.267	1490.4
445.641	1528.59
446.016	1527.69
446.39	1575.59
446.764	1533.79
447.139	1562.04
447.513	1593.67
447.887	1595.93
448.262	1592.77
448.636	1602.49
449.01	1628.47
449.384	1619.89
449.758	1655.37
450.132	1681.13
450.506	1675.93
450.88	1706.21
451.254	1670.51
451.628	1717.29
452.002	1730.62
452.376	1769.71
452.75	1777.85
453.123	1789.83
453.497	1796.38
453.871	1802.48
454.244	1842.71
454.618	1850.84
454.992	1898.3
455.365	1865.98
455.739	1929.71
456.112	1933.1
456.486	1979.88
456.859	1974.23
457.232	2018.75
457.606	1985.3
457.979	2045.86
458.352	2054.68
458.725	2078.86
459.099	2092.64
459.472	2122.02
459.845	2130.61
460.218	2157.95
460.591	2184.39
460.964	2209.48
461.337	2251.06
461.71	2280.43
462.083	2266.65
462.456	2291.28
462.829	2296.93
463.201	2328.34
463.574	2361.11
463.947	2409.02
464.32	2471.62
464.692	2478.4
465.065	2475.01
465.438	2497.6
465.81	2538.51
466.183	2541.44
466.555	2625.96
466.928	2623.48
467.3	2622.8
467.672	2643.36
468.045	2696.92
468.417	2725.39
468.789	2764.49
469.161	2753.42
469.534	2840.42
469.906	2838.39
470.278	2859.63
470.65	2905.05
471.022	2978.04
471.394	3008.32
471.766	2994.31
472.138	3087.64
472.51	3143.24
472.882	3154.76
473.253	3244.02
473.625	3244.7
473.997	3304.14
474.369	3310.92
474.74	3354.3
475.112	3441.08
475.484	3469.56
475.855	3514.53
476.227	3481.08
476.598	3619.61
476.97	3639.04
477.341	3712.71
477.713	3771.24
478.084	3777.12
478.455	3813.5
478.827	3885.82
479.198	3994.74
479.569	3996.1
479.94	4078.13
480.311	4102.08
480.682	4162.64
481.053	4269.99
481.424	4330.1
481.795	4337.1
482.166	4420.27
482.537	4500.04
482.908	4569.87
483.279	4600.37
483.65	4666.81
484.021	4739.8
484.391	4800.82
484.762	4823.19
485.133	4879.91
485.503	4939.57
485.874	5035.84
486.244	5071.55
486.615	5092.56
486.985	5205.78
487.356	5242.39
487.726	5351.09
488.097	5418.66
488.467	5407.81
488.837	5550.18
489.207	5568.71
489.578	5604.87
489.948	5694.58
490.318	5764.41
490.688	5778.65
491.058	5837.4
491.428	5908.14
491.798	5950.85
492.168	6060.67
492.538	6110.16
492.908	6125.31
493.278	6254.57
493.648	6236.04
494.017	6309.03
494.387	6302.48
494.757	6342.93
495.126	6430.38
495.496	6453.43
495.866	6526.65
496.235	6586.76
496.605	6600.77
496.974	6646.65
497.344	6693.43
497.713	6693.43
498.082	6748.34
498.452	6783.37
498.821	6820.2
499.19	6834.44
499.559	6888.22
499.928	6932.52
500.298	6989.46
500.667	7040.08
501.036	7024.72
501.405	7075.79
501.774	7058.39
502.143	7165.5
502.512	7172.06
502.88	7261.77
503.249	7211.15
503.618	7305.39
503.987	7252.28
504.356	7356.01
504.724	7364.14
505.093	7345.84
505.462	7403.92
505.83	7420.19
506.199	7470.35
506.567	7562.1
506.936	7542.89
507.304	7583.12
507.672	7658.82
508.041	7678.94
508.409	7700.4
508.777	7749.67
509.145	7719.39
509.514	7796.67
509.882	7817.24
510.25	7857.91
510.618	7863.11
510.986	7860.4
511.354	7978.36
511.722	7975.2
512.09	8031.24
512.458	8029.66
512.826	8104.01
513.193	8100.39
513.561	8075.08
513.929	8178.13
514.297	8179.71
514.664	8219.26
515.032	8207.74
515.4	8220.39
515.767	8353.95
516.135	8278.02
516.502	8273.27
516.869	8330.44
517.237	8339.26
517.604	8343.1
517.972	8483.44
518.339	8487.95
518.706	8456.09
519.073	8478.01
519.44	8528.18
519.808	8602.08
520.175	8494.06
520.542	8679.14
520.909	8661.28
521.276	8670.77
521.643	8727.95
522.009	8779.25
522.376	8768.17
522.743	8738.57
523.11	8871.22
523.477	8926.14
523.843	8953.71
524.21	9009.52
524.577	8982.63
524.943	9011.1
525.31	9046.58
525.676	9127.03
526.043	9122.97
526.409	9179.24
526.776	9214.94
527.142	9183.76
527.508	9266.47
527.874	9329.29
528.241	9356.18
528.607	9283.19
528.973	9357.76
529.339	9336.52
529.705	9440.02
530.071	9463.07
530.437	9494.48
530.803	9563.18
531.169	9500.36
531.535	9564.99
531.901	9524.09
532.267	9543.52
532.632	9602.28
532.998	9600.92
533.364	9650.64
533.73	9665.78
534.095	9735.38
534.461	9673.91
534.826	9749.39
535.192	9700.13
535.557	9736.51
535.923	9737.41
536.288	9772.89
536.653	9784.42
537.019	9719.79
537.384	9731.31
537.749	9744.64
538.114	9709.84
538.479	9677.08
538.845	9821.71
539.21	9786
539.575	9797.07
539.94	9838.88
540.305	9868.26
540.67	9758.88
541.034	9809.73
541.399	9841.37
541.764	9850.18
542.129	9908.48
542.494	9918.88
542.858	9869.39
543.223	9877.97
543.587	9875.04
543.952	9828.48
544.316	9951.19
544.681	9857.64
545.045	9928.14
545.41	9915.94
545.774	9946.22
546.138	9887.01
546.503	9906.9
546.867	9972.66
547.231	9956.84
547.595	9879.1
547.959	9992.77
548.324	9957.97
548.688	9973.57
549.052	9999.33
549.416	9994.81
549.779	9940.8
550.143	10049.5
550.507	10007.46
550.871	10001.14
551.235	9993.45
551.599	9996.39
551.962	10035.03
552.326	10019.44
552.689	10051.3
553.053	9951.42
553.417	10033
553.78	10119.78
554.143	10049.72
554.507	10145.99
554.87	10124.97
555.234	10170.62
555.597	10110.06
555.96	10169.72
556.323	10167.46
556.686	10118.87
557.05	10183.28
557.413	10205.88
557.776	10177.4
558.139	10216.95
558.502	10270.73
558.865	10298.08
559.228	10255.82
559.59	10335.59
559.953	10348.02
560.316	10455.36
560.679	10409.71
561.041	10458.75
561.404	10499.88
561.767	10525.42
562.129	10479.77
562.492	10592.53
562.854	10610.38
563.217	10515.92
563.579	10582.36
563.941	10607.9
564.304	10697.39
564.666	10697.16
565.028	10781
565.39	10713.21
565.753	10815.58
566.115	10861.68
566.477	10852.64
566.839	10841.11
567.201	10961.79
567.563	10981
567.925	11037.04
568.287	11051.05
568.648	11034.1
569.01	11098.28
569.372	11125.63
569.734	11106.42
570.095	11206.98
570.457	11218.96
570.819	11160.2
571.18	11184.61
571.542	11214.21
571.903	11281.55
572.265	11356.13
572.626	11326.52
572.987	11293.98
573.349	11328.33
573.71	11462.11
574.071	11460.08
574.432	11519.74
574.794	11575.33
575.155	11517.93
575.516	11486.97
575.877	11630.02
576.238	11633.63
576.599	11682.9
576.96	11713.63
577.32	11714.31
577.681	11757.7
578.042	11766.51
578.403	11778.26
578.763	11781.2
579.124	11761.54
579.485	11886.74
579.845	11944.14
580.206	11888.09
580.566	11962.67
580.927	11977.13
581.287	11996.56
581.648	11997.24
582.008	12044.47
582.368	11983.46
582.728	12049.9
583.089	12076.34
583.449	12020.97
583.809	12097.58
584.169	12104.81
584.529	12100.52
584.889	12264.8
585.249	12142.1
585.609	12114.53
585.969	12103
586.329	12133.06
586.688	12164.92
587.048	12186.61
587.408	12172.6
587.768	12184.13
588.127	12172.15
588.487	12188.42
588.846	12337.12
589.206	12250.34
589.565	12285.82
589.925	12283.79
590.284	12314.07
590.643	12350.45
591.003	12308.87
591.362	12397.23
591.721	12346.38
592.08	12374.18
592.44	12472.71
592.799	12475.87
593.158	12419.15
593.517	12461.41
593.876	12467.74
594.235	12452.37
594.593	12399.26
594.952	12479.04
595.311	12413.28
595.67	12459.38
596.029	12564.01
596.387	12592.48
596.746	12567.4
597.104	12496.21
597.463	12511.35
597.822	12569.88
598.18	12496.21
598.538	12552.25
598.897	12637.45
599.255	12431.58
599.613	12604.23
599.972	12585.02
600.33	12638.13
600.688	12552.93
601.046	12645.13
601.404	12653.95
601.762	12612.82
602.12	12617.56
602.478	12674.06
602.836	12664.79
603.194	12646.94
603.552	12654.85
603.91	12700.5
604.268	12709.76
604.625	12693.27
604.983	12717.67
605.341	12652.82
605.698	12738.69
606.056	12774.17
606.413	12751.35
606.771	12818.69
607.128	12800.38
607.485	12717.67
607.843	12731.23
608.2	12822.53
608.557	12905.01
608.914	12767.39
609.272	12817.11
609.629	12888.74
609.986	12926.93
610.343	12881.06
610.7	12944.56
611.057	12882.19
611.414	12916.76
611.771	12940.04
612.127	12987.5
612.484	12974.84
612.841	13011
613.198	13008.29
613.554	12989.53
613.911	13035.86
614.267	13006.03
614.624	12982.07
614.98	13039.02
615.337	13185.68
615.693	13075.4
616.05	13034.5
616.406	13151.79
616.762	13091
617.118	13065.24
617.475	13072.92
617.831	13171.9
618.187	13131
618.543	13141.84
618.899	13114.95
619.255	13140.26
619.611	13112.24
619.967	13193.14
620.323	13244.89
620.678	13198.11
621.034	13224.33
621.39	13159.02
621.746	13092.81
622.101	13299.81
622.457	13136.42
622.812	13195.85
623.168	13183.42
623.523	13245.8
623.879	13307.94
624.234	13225.23
624.589	13192.01
624.945	13179.58
625.3	13225.91
625.655	13133.93
626.01	13219.13
626.365	13188.85
626.72	13218
627.075	13241.73
627.43	13225.91
627.785	13171
628.14	13216.42
628.495	13085.12
628.85	13084.22
629.205	13088.74
629.559	13159.7
629.914	13140.71
630.269	13171.9
630.623	13038.57
630.978	13052.35
631.332	13137.55
631.687	13171
632.041	13041.51
632.396	13128.96
632.75	12971.68
633.104	12999.47
633.459	13024.33
633.813	12930.78
634.167	12942.3
634.521	12924.22
634.875	12976.2
635.229	12932.36
635.583	12869.99
635.937	12899.82
636.291	12903.21
636.645	12861.4
636.999	12885.13
637.352	12890.32
637.706	12831.12
638.06	12834.73
638.413	12825.69
638.767	12735.53
639.121	12835.64
639.474	12640.39
639.828	12691.01
640.181	12688.75
640.534	12693.72
640.888	12606.49
641.241	12619.37
641.594	12719.71
641.947	12679.93
642.301	12679.93
642.654	12596.77
643.007	12604.23
643.36	12589.77
643.713	12543.67
644.066	12640.16
644.419	12496.66
644.771	12508.64
645.124	12390.68
645.477	12378.25
645.83	12236.56
646.182	12159.04
646.535	12134.41
646.888	12172.15
647.24	12043.79
647.593	12130.8
647.945	12078.14
648.298	12147.75
648.65	12062.32
649.002	12032.27
649.355	12110.91
649.707	12144.36
650.059	12056.45
650.411	12242.66
650.763	12276.33
651.115	12419.15
651.467	12369.43
651.819	12361.3
652.171	12344.8
652.523	12337.8
652.875	12291.02
653.227	12276.56
653.578	12343.9
653.93	12300.74
654.282	12227.52
654.633	12295.31
654.985	12285.14
655.337	12333.05
655.688	12375.99
656.039	12335.31
656.391	12156.11
656.742	12298.93
657.094	12255.09
657.445	12338.7
657.796	12302.09
658.147	12207.18
658.498	12246.27
658.849	12342.32
659.2	12235.65
659.551	12184.81
659.902	12216.22
660.253	12231.36
660.604	12241.53
660.955	12155.88
661.306	12298.02
661.656	12236.1
662.007	12257.8
662.358	12262.32
662.708	12192.26
663.059	12246.95
663.409	12157.01
663.76	12227.74
664.11	12231.59
664.461	12215.31
664.811	12232.94
665.161	12173.96
665.511	12203.79
665.862	12243.11
666.212	12338.25
666.562	12215.54
666.912	12252.15
667.262	12246.73
667.612	12160.85
667.962	12244.69
668.312	12165.15
668.662	12305.26
669.011	12204.47
669.361	12242.66
669.711	12149.33
670.06	12121.98
670.41	12145.49
670.76	12149.55
671.109	12194.75
671.459	12163.79
671.808	12154.98
672.157	12135.09
672.507	12125.37
672.856	12045.38
673.205	12115.88
673.554	12116.33
673.904	12072.49
674.253	12136.45
674.602	12052.38
674.951	11884.93
675.3	11881.09
675.649	12048.09
675.998	12089.67
676.346	12008.31
676.695	12071.82
677.044	11949.11
677.393	11979.16
677.741	12025.49
678.09	11941.65
678.438	11961.76
678.787	11875.66
679.135	11942.33
679.484	11957.92
679.832	11938.03
680.181	11783.91
680.529	11874.53
680.877	11815.78
681.225	11757.7
681.573	11868.88
681.922	11729.9
682.27	11707.31
682.618	11760.86
682.966	11717.47
683.314	11750.24
683.661	11718.83
684.009	11628.66
684.357	11578.04
684.705	11595.44
685.053	11559.06
685.4	11520.19
685.748	11545.95
686.095	11505.73
686.443	11418.5
686.79	11453.75
687.138	11530.13
687.485	11439.52
687.832	11367.88
688.18	11395
688.527	11288.33
688.874	11236.58
689.221	11279.75
689.568	11217.6
689.915	11206.53
690.262	11103.25
690.609	11115.23
690.956	11141.67
691.303	11083.37
691.65	11032.52
691.997	10998.85
692.344	11018.74
692.69	10954.1
693.037	11000.66
693.383	10802.92
693.73	10864.62
694.077	10775.13
694.423	10829.36
694.769	10746.2
695.116	10811.51
695.462	10717.27
695.808	10670.27
696.155	10684.96
696.501	10607.22
696.847	10663.94
697.193	10517.28
697.539	10591.85
697.885	10471.18
698.231	10464.4
698.577	10467.11
698.923	10432.54
699.269	10343.95
699.614	10295.14
699.96	10213.33
700.306	10266.89
700.651	10168.14
700.997	10156.61
701.342	10188.02
701.688	10141.02
702.033	10091.53
702.379	10050.63
702.724	10087.46
703.069	10019.44
703.415	9984.64
703.76	9942.15
704.105	9920.69
704.45	9947.13
704.795	9863.06
705.14	9810.63
705.485	9789.16
705.83	9704.42
706.175	9724.31
706.52	9652.67
706.865	9694.25
707.209	9638.21
707.554	9630.3
707.899	9648.15
708.243	9632.11
708.588	9515.72
708.932	9515.72
709.277	9461.26
709.621	9480.25
709.966	9446.8
710.31	9404.54
710.654	9364.32
710.998	9354.6
711.342	9341.72
711.687	9398.21
712.031	9449.96
712.375	9276.41
712.719	9315.05
713.063	9279.8
713.407	9383.07
713.75	9210.42
714.094	9276.86
714.438	9205.68
714.782	9221.04
715.125	9199.8
715.469	9179.69
715.812	9106.7
716.156	9074.61
716.499	9123.19
716.843	9102.85
717.186	9052.46
717.53	9085.91
717.873	9110.76
718.216	9030.31
718.559	8994.83
718.902	8921.16
719.246	8953.71
719.589	8941.05
719.932	8898.79
720.275	8962.29
720.617	8872.58
720.96	8897.21
721.303	8847.72
721.646	8875.29
721.989	8834.61
722.331	8852.69
722.674	8849.98
723.016	8883.88
723.359	8795.07
723.701	8822.64
724.044	8775.63
724.386	8735.63
724.729	8777.44
725.071	8756.87
725.413	8736.54
725.755	8752.13
726.097	8669.64
726.439	8661.06
726.782	8681.85
727.124	8767.95
727.465	8691.79
727.807	8663.54
728.149	8645.24
728.491	8619.93
728.833	8667.84
729.175	8612.02
729.516	8574.73
729.858	8561.4
730.199	8620.15
730.541	8612.02
730.882	8616.76
731.224	8628.52
731.565	8597.33
731.906	8575.64
732.248	8604.79
732.589	8581.06
732.93	8482.31
733.271	8573.6
733.612	8539.7
733.953	8567.27
734.294	8502.87
734.635	8563.43
734.976	8531.12
735.317	8540.83
735.658	8484.34
735.999	8530.21
736.339	8540.83
736.68	8504.68
737.021	8514.85
737.361	8484.34
737.702	8483.21
738.042	8494.73
738.383	8492.47
738.723	8517.33
739.063	8468.52
739.404	8547.84
739.744	8518.69
740.084	8489.54
740.424	8535.86
740.764	8563.21
741.104	8514.62
741.444	8462.42
741.784	8449.54
742.124	8479.37
742.464	8511.23
742.804	8551
743.143	8451.12
743.483	8484.57
743.823	8508.97
744.162	8613.38
744.502	8579.48
744.841	8525.24
745.181	8626.26
745.52	8596.43
745.86	8643.2
746.199	8647.5
746.538	8610.21
746.877	8759.13
747.216	8749.87
747.556	8726.14
747.895	8750.55
748.234	8770.43
748.573	8763.65
748.911	8875.29
749.25	8854.5
749.589	8895.4
749.928	8885.91
750.267	9018.56
750.605	9037.09
750.944	9100.59
751.283	9053.14
751.621	9202.29
751.96	9266.92
752.298	9270.08
752.636	9343.98
752.975	9416.74
753.313	9468.95
753.651	9566.57
753.989	9547.81
754.327	9674.82
754.666	9669.39
755.004	9830.74
755.342	9866.22
755.679	9903.51
756.017	9992.77
756.355	10049.72
756.693	10159.1
757.031	10200.9
757.368	10309.83
757.706	10423.05
758.044	10441.35
758.381	10563.15
758.719	10667.33
759.056	10754.56
759.394	10842.92
759.731	10920.21
760.068	10982.35
760.405	11134.66
760.743	11183.7
