Data from hue_00_FLMS001491_78.txt Node
Date: Mon Feb 06 15:30:13 GMT 2017
User: dcchb
Spectrometer: FLMS00149
Trigger mode: 0
Integration Time (sec): 2.000000E-2
Scans to average: 10
Electric dark correction enabled: true
Nonlinearity correction enabled: false
Boxcar width: 0
XAxis mode: Wavelengths
Number of Pixels in Spectrum: 2048
>>>>>Begin Spectral Data<<<<<
341.393	-9.25
341.776	-9.25
342.16	-9.25
342.543	-74.33
342.927	-69.14
343.31	-61.45
343.693	-73.43
344.077	-56.26
344.46	-59.19
344.843	-63.71
345.226	-37.72
345.61	-45.63
345.993	-22.58
346.376	-6.77
346.759	6.12
347.142	21.48
347.525	60.13
347.908	62.84
348.291	89.05
348.674	81.37
349.057	105.77
349.44	112.33
349.823	125.21
350.206	164.08
350.588	197.52
350.971	229.61
351.354	208.82
351.737	242.72
352.119	246.34
352.502	256.05
352.884	269.39
353.267	274.58
353.65	287.46
354.032	288.82
354.414	305.99
354.797	329.72
355.179	312.55
355.562	303.96
355.944	307.35
356.326	335.15
356.709	331.53
357.091	310.06
357.473	338.08
357.855	321.59
358.238	328.59
358.62	342.6
359.002	359.1
359.384	334.02
359.766	320.46
360.148	337.18
360.53	338.99
360.912	328.37
361.294	327.24
361.676	330.17
362.057	329.72
362.439	326.33
362.821	322.49
363.203	330.17
363.584	325.66
363.966	333.34
364.348	303.06
364.729	308.25
365.111	315.49
365.493	331.3
365.874	302.15
366.256	304.19
366.637	306.9
367.019	313.23
367.4	310.06
367.781	315.94
368.163	307.35
368.544	273.23
368.925	290.63
369.306	270.52
369.688	302.83
370.069	313.9
370.45	303.28
370.831	298.31
371.212	273
371.593	293.79
371.974	300.35
372.355	306.9
372.736	311.87
373.117	307.58
373.498	298.09
373.879	308.03
374.26	299.89
374.641	321.36
375.021	292.89
375.402	305.32
375.783	308.25
376.163	316.39
376.544	313.68
376.925	314.81
377.305	339.44
377.686	303.51
378.066	311.64
378.447	315.71
378.827	321.59
379.208	317.29
379.588	313.45
379.968	316.39
380.349	327.46
380.729	339.89
381.109	328.59
381.489	319.1
381.87	337.41
382.25	325.66
382.63	334.47
383.01	341.93
383.39	333.34
383.77	313.23
384.15	327.24
384.53	329.95
384.91	331.08
385.29	323.4
385.67	319.1
386.049	360.46
386.429	328.14
386.809	369.04
387.189	347.12
387.568	353.23
387.948	357.07
388.328	342.83
388.707	360.46
389.087	342.38
389.466	346.22
389.846	352.32
390.225	355.94
390.605	342.83
390.984	356.16
391.363	348.48
391.743	326.79
392.122	355.26
392.501	345.54
392.881	370.85
393.26	349.16
393.639	369.5
394.018	339.89
394.397	362.94
394.776	366.78
395.155	357.74
395.534	360
395.913	354.13
396.292	352.32
396.671	364.52
397.05	370.63
397.429	349.61
397.808	357.74
398.186	363.85
398.565	374.69
398.944	372.21
399.323	354.58
399.701	376.73
400.08	377.63
400.458	394.58
400.837	360
401.215	372.21
401.594	378.99
401.972	342.15
402.351	366.33
402.729	365.43
403.107	388.7
403.486	382.6
403.864	372.21
404.242	382.83
404.62	403.62
404.999	399.55
405.377	413.34
405.755	396.39
406.133	408.14
406.511	403.17
406.889	403.39
407.267	392.77
407.645	405.2
408.023	411.98
408.401	395.03
408.779	401.59
409.156	405.88
409.534	403.17
409.912	405.65
410.29	425.09
410.667	406.78
411.045	400
411.422	433
411.8	408.14
412.178	408.14
412.555	432.55
412.933	424.64
413.31	421.02
413.687	427.8
414.065	445.2
414.442	443.84
414.819	448.14
415.197	432.32
415.574	433.9
415.951	450.4
416.328	461.02
416.705	455.6
417.082	454.69
417.46	467.57
417.837	444.75
418.214	469.61
418.591	466.22
418.967	461.47
419.344	460.79
419.721	462.6
420.098	471.87
420.475	484.52
420.852	495.37
421.228	486.1
421.605	499.21
421.982	488.81
422.358	514.12
422.735	487.91
423.111	509.38
423.488	512.77
423.864	534.24
424.241	534.69
424.617	540.34
424.994	516.61
425.37	513.67
425.746	508.7
426.123	500.34
426.499	504.86
426.875	505.31
427.251	516.61
427.627	534.46
428.003	540.56
428.379	550.06
428.756	540.79
429.132	562.49
429.507	558.42
429.883	567.91
430.259	577.85
430.635	573.11
431.011	568.13
431.387	581.02
431.763	599.77
432.138	587.8
432.514	603.39
432.89	586.67
433.265	597.51
433.641	577.4
434.016	614.24
434.392	638.19
434.767	612.2
435.143	624.86
435.518	617.4
435.894	638.87
436.269	641.35
436.644	643.16
437.02	630.51
437.395	632.09
437.77	612.2
438.145	650.84
438.52	680.67
438.895	648.81
439.271	641.13
439.646	659.88
440.021	672.09
440.395	655.14
440.77	665.08
441.145	682.48
441.52	673.22
441.895	694.91
442.27	691.07
442.645	672.99
443.019	703.72
443.394	694.91
443.769	694.23
444.143	711.86
444.518	702.14
444.892	699.66
445.267	719.32
445.641	727.45
446.016	708.47
446.39	717.74
446.764	708.92
447.139	714.57
447.513	748.24
447.887	746.66
448.262	750.05
448.636	721.35
449.01	737.4
449.384	739.43
449.758	744.4
450.132	761.58
450.506	744.85
450.88	734.68
451.254	759.09
451.628	739.2
452.002	793.21
452.376	799.99
452.75	773.78
453.123	795.02
453.497	770.84
453.871	787.34
454.244	804.29
454.618	829.6
454.992	812.65
455.365	815.59
455.739	846.32
456.112	820.56
456.486	848.58
456.859	853.1
457.232	844.96
457.606	862.59
457.979	868.24
458.352	901.01
458.725	885.87
459.099	904.17
459.472	892.87
459.845	903.27
460.218	900.56
460.591	909.14
460.964	908.24
461.337	933.32
461.71	942.59
462.083	940.55
462.456	966.09
462.829	946.88
463.201	978.52
463.574	957.73
463.947	988.46
464.32	985.98
464.692	1011.96
465.065	1029.14
465.438	1025.52
465.81	1030.95
466.183	1040.66
466.555	1048.57
466.928	1076.82
467.3	1090.83
467.672	1092.87
468.045	1096.71
468.417	1087.9
468.789	1130.83
469.161	1119.98
469.534	1123.83
469.906	1176.93
470.278	1181.68
470.65	1191.17
471.022	1209.25
471.394	1209.47
471.766	1232.3
472.138	1228.91
472.51	1294.22
472.882	1295.35
473.253	1315.23
473.625	1355.23
473.997	1365.85
474.369	1369.7
474.74	1363.59
475.112	1374.22
475.484	1421.45
475.855	1444.95
476.227	1440.88
476.598	1477.72
476.97	1521.78
477.341	1488.56
477.713	1568.11
478.084	1556.58
478.455	1594.32
478.827	1613.98
479.198	1668.44
479.569	1671.61
479.94	1698.05
480.311	1738.95
480.682	1784.6
481.053	1806.75
481.424	1838.16
481.795	1859.85
482.166	1882.9
482.537	1919.74
482.908	1947.31
483.279	1977.14
483.65	2004.26
484.021	2069.11
484.391	2096
484.762	2129.45
485.133	2162.67
485.503	2189.11
485.874	2216
486.244	2241.31
486.615	2268.43
486.985	2276.34
487.356	2352.27
487.726	2384.13
488.097	2407.63
488.467	2451.02
488.837	2473.17
489.207	2518.59
489.578	2567.4
489.948	2594.97
490.318	2652.37
490.688	2639.72
491.058	2714.75
491.428	2721.52
491.798	2724.46
492.168	2806.49
492.538	2818.92
492.908	2854.18
493.278	2943.21
493.648	2861.41
494.017	2934.85
494.387	2951.8
494.757	3025.7
495.126	3045.58
495.496	3057.79
495.866	3115.41
496.235	3125.58
496.605	3136.43
496.974	3184.11
497.344	3167.16
497.713	3188.4
498.082	3238.57
498.452	3277.67
498.821	3295.29
499.19	3297.1
499.559	3368.06
499.928	3364.22
500.298	3374.39
500.667	3436.08
501.036	3388.4
501.405	3451
501.774	3491
502.143	3479.02
502.512	3510.43
502.88	3516.98
503.249	3541.62
503.618	3552.69
503.987	3595.63
504.356	3604.44
504.724	3624.33
505.093	3645.12
505.462	3613.93
505.83	3653.25
506.199	3678.79
506.567	3741.61
506.936	3731.67
507.304	3762.4
507.672	3796.52
508.041	3752.46
508.409	3806.92
508.777	3816.18
509.145	3850.99
509.514	3800.37
509.882	3853.7
510.25	3865
510.618	3933.24
510.986	3902.51
511.354	3931.89
511.722	3965.33
512.09	3999.91
512.458	3995.39
512.826	4028.16
513.193	4012.34
513.561	4013.47
513.929	4073.13
514.297	4029.06
514.664	4119.91
515.032	4108.15
515.4	4138.66
515.767	4110.41
516.135	4146.8
516.502	4139.79
516.869	4162.39
517.237	4169.4
517.604	4140.24
517.972	4208.27
518.339	4193.8
518.706	4220.47
519.073	4213.24
519.44	4236.74
519.808	4291.43
520.175	4276.74
520.542	4293.91
520.909	4283.29
521.276	4331.88
521.643	4311.77
522.009	4336.4
522.376	4371.42
522.743	4354.93
523.11	4391.54
523.477	4437.64
523.843	4404.42
524.21	4477.86
524.577	4510.86
524.943	4540.91
525.31	4560.8
525.676	4519.22
526.043	4567.35
526.409	4634.47
526.776	4694.81
527.142	4672.43
527.508	4724.86
527.874	4683.28
528.241	4732.77
528.607	4752.21
528.973	4802.15
529.339	4774.58
529.705	4826.33
530.071	4848.93
530.437	4878.3
530.803	4912.65
531.169	4935.03
531.535	4891.41
531.901	4927.57
532.267	4943.61
532.632	4990.62
532.998	5003.72
533.364	4997.17
533.73	5018.41
534.095	5059.99
534.461	5096.83
534.826	5081.24
535.192	5139.99
535.557	5160.1
535.923	5142.7
536.288	5143.61
536.653	5260.21
537.019	5230.61
537.384	5185.19
537.749	5229.26
538.114	5252.98
538.479	5270.16
538.845	5339.99
539.21	5315.35
539.575	5336.82
539.94	5338.18
540.305	5380.21
540.67	5322.13
541.034	5456.37
541.399	5463.6
541.764	5427.44
542.129	5487.55
542.494	5505.18
542.858	5544.28
543.223	5556.03
543.587	5604.84
543.952	5557.83
544.316	5603.93
544.681	5602.35
545.045	5624.95
545.41	5666.76
545.774	5708.11
546.138	5683.71
546.503	5716.47
546.867	5769.81
547.231	5789.24
547.595	5787.66
547.959	5778.39
548.324	5849.13
548.688	5867.66
549.052	5859.52
549.416	5907.43
549.779	5914.43
550.143	5925.28
550.507	5942
550.871	5969.35
551.235	6052.96
551.599	6010.93
551.962	5974.09
552.326	6063.13
552.689	6102.23
553.053	6052.06
553.417	6057.71
553.78	6176.57
554.143	6139.06
554.507	6170.25
554.87	6210.7
555.234	6248.66
555.597	6221.09
555.96	6217.7
556.323	6234.2
556.686	6270.58
557.05	6309.68
557.413	6326.63
557.776	6329.57
558.139	6344.48
558.502	6386.51
558.865	6402.33
559.228	6409.56
559.59	6479.62
559.953	6443.01
560.316	6491.82
560.679	6516.45
561.041	6511.71
561.404	6545.83
561.767	6555.1
562.129	6586.28
562.492	6621.31
562.854	6594.42
563.217	6637.81
563.579	6608.43
563.941	6657.24
564.304	6728.88
564.666	6762.1
565.028	6753.96
565.39	6788.76
565.753	6837.12
566.115	6828.76
566.477	6868.31
566.839	6900.62
567.201	6896.1
567.563	6901.53
567.925	6978.81
568.287	6953.96
568.648	6937.01
569.01	7022.65
569.372	7063.56
569.734	7101.52
570.095	7104.01
570.457	7188.53
570.819	7185.36
571.18	7203.89
571.542	7261.07
571.903	7195.31
572.265	7254.74
572.626	7284.34
572.987	7418.58
573.349	7384
573.71	7510.33
574.071	7554.39
574.432	7565.92
574.794	7644.78
575.155	7688.85
575.516	7648.4
575.877	7837.1
576.238	7829.86
576.599	7925
576.96	7939.69
577.32	8047.94
577.681	8073.93
578.042	8148.5
578.403	8279.8
578.763	8318.21
579.124	8393.92
579.485	8479.11
579.845	8651.09
580.206	8642.72
580.566	8724.53
580.927	8945.32
581.287	9004.98
581.648	9089.49
582.008	9224.86
582.368	9349.15
582.728	9519.09
583.089	9593.66
583.449	9758.18
583.809	9884.73
584.169	10092.86
584.529	10172.4
584.889	10478.38
585.249	10554.54
585.609	10714.53
585.969	10940.29
586.329	11122.43
586.688	11373.05
587.048	11498.47
587.408	11743.43
587.768	11998.57
588.127	12164.89
588.487	12434.49
588.846	12703.86
589.206	12779.11
589.565	13075.15
589.925	13391.98
590.284	13614.8
590.643	13789.26
591.003	14113.09
591.362	14396.47
591.721	14593.53
592.08	14899.28
592.44	15192.61
592.799	15432.15
593.158	15693.39
593.517	15964.57
593.876	16249.08
594.235	16498.79
594.593	16836.63
594.952	17162.05
595.311	17483.4
595.67	17678.65
596.029	18052.19
596.387	18249.93
596.746	18591.84
597.104	18810.82
597.463	19079.51
597.822	19512.5
598.18	19584.13
598.538	20057.79
598.897	20302.53
599.255	20444.45
599.613	20931.67
599.972	21189.29
600.33	21521.93
600.688	21623.17
601.046	22063.16
601.404	22286.89
601.762	22557.84
602.12	22789.02
602.478	23053.65
602.836	23397.37
603.194	23519.62
603.552	23843.91
603.91	24020.4
604.268	24369.99
604.625	24555.53
604.983	24895.86
605.341	24963.65
605.698	25309.63
606.056	25581.71
606.413	25883.4
606.771	26061.25
607.128	26366.55
607.485	26464.63
607.843	26772.64
608.2	27153.2
608.557	27482.23
608.914	27471.61
609.272	27737.36
609.629	28083.8
609.986	28372.6
610.343	28279.27
610.7	28742.08
611.057	28832.93
611.414	28996.99
611.771	29282.63
612.127	29476.53
612.484	29614.38
612.841	29896.18
613.198	29855.73
613.554	30194.25
613.911	30510.62
614.267	30476.95
614.624	30597.63
614.98	30988.35
615.337	31086.65
615.693	31256.59
616.05	31263.6
616.406	31567.32
616.762	31620.65
617.118	31758.05
617.475	31873.07
617.831	32132.28
618.187	32178.15
618.543	32383.57
618.899	32705.37
619.255	32629.66
619.611	32742.2
619.967	32964.12
620.323	33212.25
620.678	33016.32
621.034	33188.29
621.39	33206.82
621.746	33333.15
622.101	33719.13
622.457	33469.19
622.812	33727.04
623.168	33995.96
623.523	34020.36
623.879	34133.35
624.234	33966.8
624.589	34240.7
624.945	34434.36
625.3	34474.81
625.655	34442.05
626.01	34594.58
626.365	34540.35
626.72	34685.2
627.075	34703.73
627.43	34903.73
627.785	34680.01
628.14	34827.12
628.495	35009.04
628.85	34928.81
629.205	34856.5
629.559	35129.94
629.914	35092.65
630.269	35118.41
630.623	35014.01
630.978	35061.92
631.332	35251.29
631.687	35485.18
632.041	35306.43
632.396	35379.2
632.75	35228.92
633.104	35444.05
633.459	35113.44
633.813	35189.82
634.167	35425.98
634.521	35321.12
634.875	35462.81
635.229	35327.45
635.583	35221.91
635.937	35396.6
636.291	35254.68
636.645	35237.28
636.999	35246.09
637.352	35428.46
637.706	35190.73
638.06	35447.9
638.413	35219.2
638.767	35282.7
639.121	35316.6
639.474	35154.57
639.828	35138.53
640.181	35299.88
640.534	35298.07
640.888	35085.87
641.241	35059.88
641.594	35256.71
641.947	35298.07
642.301	35102.59
642.654	35167
643.007	35083.39
643.36	35195.7
643.713	35164.06
644.066	35295.36
644.419	34997.51
644.771	34773.34
645.124	34433.69
645.477	34513.91
645.83	34328.83
646.182	34216.06
646.535	34192.79
646.888	34207.25
647.24	33946.24
647.593	34255.84
647.945	34172.67
648.298	33969.06
648.65	33954.15
649.002	33862.63
649.355	34080.7
649.707	34000.7
650.059	34152.11
650.411	34543.51
650.763	34576.28
651.115	34906.21
651.467	34727.01
651.819	34802.71
652.171	34789.38
652.523	34761.81
652.875	34683.17
653.227	34483.63
653.578	34719.33
653.93	34744.64
654.282	34574.7
654.633	34452.44
654.985	34504.42
655.337	34664.64
655.688	34518.2
656.039	34689.05
656.391	34271.88
656.742	34515.26
657.094	34487.24
657.445	34580.35
657.796	34548.48
658.147	34423.52
658.498	34444.53
658.849	34540.35
659.2	34427.58
659.551	34279.79
659.902	34450.86
660.253	34442.5
660.604	34475.27
660.955	34250.64
661.306	34370.64
661.656	34310.07
662.007	34449.5
662.358	34424.19
662.708	34420.58
663.059	34390.07
663.409	34248.83
663.76	34331.09
664.11	34235.05
664.461	34330.64
664.811	34444.98
665.161	34397.53
665.511	34371.77
665.862	34342.61
666.212	34346.91
666.562	34438.88
666.912	34238.21
667.262	34330.18
667.612	34352.11
667.962	34440.24
668.312	34235.72
668.662	34464.19
669.011	34253.12
669.361	34188.27
669.711	34114.82
670.06	34174.71
670.41	34188.27
670.76	34109.63
671.109	34210.64
671.459	34180.81
671.808	34133.35
672.157	34215.61
672.507	33868.5
672.856	33893.59
673.205	33887.03
673.554	34176.06
673.904	34046.12
674.253	34243.86
674.602	33920.48
674.951	33645.68
675.3	33428.74
675.649	33987.37
675.998	33935.39
676.346	33857.65
676.695	34052
677.044	33680.03
677.393	33892
677.741	33836.19
678.09	33812.46
678.438	33871.89
678.787	33849.75
679.135	33884.55
679.484	33778.79
679.832	33682.74
680.181	33504.67
680.529	33700.6
680.877	33515.52
681.225	33480.04
681.573	33703.31
681.922	33603.42
682.27	33294.73
682.618	33309.87
682.966	33253.6
683.314	33429.64
683.661	33265.58
684.009	33164.79
684.357	33056.32
684.705	32946.49
685.053	33002.54
685.4	33048.41
685.748	32842.99
686.095	32764.58
686.443	32707.85
686.79	32601.42
687.138	32786.95
687.485	32756.89
687.832	32595.99
688.18	32656.33
688.527	32279.39
688.874	32576.56
689.221	32417.69
689.568	32333.4
689.915	32206.17
690.262	32269.22
690.609	32106.74
690.956	32023.35
691.303	32023.58
691.65	31920.3
691.997	31878.95
692.344	31533.65
692.69	31638.05
693.037	31642.8
693.383	31333.43
693.73	31549.24
694.077	31404.61
694.423	31209.81
694.769	31209.36
695.116	31100.89
695.462	31155.35
695.808	30992.19
696.155	31059.31
696.501	30802.82
696.847	30789.71
697.193	30582.94
697.539	30660.68
697.885	30395.37
698.231	30471.3
698.577	30354.24
698.923	30195.6
699.269	30204.64
699.614	30022.95
699.96	30053.01
700.306	30136.4
700.651	29900.02
700.997	29791.77
701.342	29916.74
701.688	29704.54
702.033	29601.72
702.379	29635.39
702.724	29522.4
703.069	29632
703.415	29366.25
703.76	29279.7
704.105	29246.25
704.45	29147.72
704.795	29109.31
705.14	28910.21
705.485	28964.9
705.83	28790.22
706.175	28804.23
706.52	28787.51
706.865	28611.24
707.209	28686.72
707.554	28367.4
707.899	28606.27
708.243	28331.02
708.588	28538.02
708.932	28199.95
709.277	28164.92
709.621	28210.12
709.966	27982.33
710.31	28151.14
710.654	27820.75
710.998	27924.48
711.342	27876.34
711.687	27842.67
712.031	27722
712.375	27633.19
712.719	27670.47
713.063	27629.34
713.407	27687.42
713.75	27390.25
714.094	27454.89
714.438	27277.49
714.782	27319.97
715.125	27169.7
715.469	27246.3
715.812	27196.59
716.156	27023.71
716.499	27028.91
716.843	26936.03
717.186	26904.84
717.53	27016.93
717.873	26986.2
718.216	26935.13
718.559	26713.89
718.902	26637.96
719.246	26581.69
719.589	26653.78
719.932	26416.95
720.275	26423.73
720.617	26338.76
720.96	26439.09
721.303	26402.48
721.646	26277.29
721.989	26186.44
722.331	26291.07
722.674	26233.45
723.016	26309.38
723.359	26160.23
723.701	26138.54
724.044	25870.52
724.386	25795.72
724.729	26040.46
725.071	25909.62
725.413	25847.02
725.755	25842.05
726.097	25870.75
726.439	25661.03
726.782	25686.57
727.124	25829.39
727.465	25707.36
727.807	25584.65
728.149	25525.22
728.491	25435.28
728.833	25508.95
729.175	25417.65
729.516	25496.29
729.858	25309.41
730.199	25396.86
730.541	25277.09
730.882	25229.41
731.224	25297.88
731.565	25120.71
731.906	25117.77
732.248	25178.56
732.589	25082.52
732.93	24987.61
733.271	24956.19
733.612	25002.75
733.953	25071.67
734.294	24882.07
734.635	24802.3
734.976	24789.64
735.317	24712.36
735.658	24692.25
735.999	24715.75
736.339	24676.65
736.68	24801.62
737.021	24546.26
737.361	24523.89
737.702	24622.64
738.042	24545.81
738.383	24568.86
738.723	24551.23
739.063	24427.85
739.404	24492.48
739.744	24420.16
740.084	24244.12
740.424	24360.05
740.764	24266.49
741.104	24297
741.444	24119.61
741.784	24110.57
742.124	24153.73
742.464	24173.84
742.804	24057.46
743.143	24010
743.483	24033.96
743.823	23782.89
744.162	23923.9
744.502	23951.93
744.841	23683.91
745.181	23955.99
745.52	23757.58
745.86	23770.46
746.199	23709.22
746.538	23686.62
746.877	23725.04
747.216	23777.92
747.556	23628.55
747.895	23617.02
748.234	23514.88
748.573	23450.24
748.911	23432.17
749.25	23386.97
749.589	23332.73
749.928	23369.34
750.267	23391.72
750.605	23400.98
750.944	23240.76
751.283	23243.47
751.621	23186.98
751.96	23064.94
752.298	23059.29
752.636	23084.15
752.975	22904.27
753.313	22895.46
753.651	23019.52
753.989	22882.12
754.327	22798.74
754.666	22699.53
755.004	22688.46
755.342	22686.42
755.679	22649.81
756.017	22560.1
756.355	22670.15
756.693	22429.71
757.031	22543.15
757.368	22416.15
757.706	22331.4
758.044	22292.31
758.381	22419.09
758.719	22187
759.056	22339.09
759.394	22186.1
759.731	22048.02
760.068	22023.16
760.405	21963.5
760.743	21899.78
761.08	21976.84
761.417	21702.04
761.754	21831.3
762.091	21676.28
