Data from hue_180_FLMS001491_00093.txt Node
Date: Tue Feb 07 16:47:44 GMT 2017
User: dcchb
Spectrometer: FLMS00149
Trigger mode: 0
Integration Time (sec): 2.000000E-2
Scans to average: 10
Electric dark correction enabled: true
Nonlinearity correction enabled: false
Boxcar width: 0
XAxis mode: Wavelengths
Number of Pixels in Spectrum: 2048
>>>>>Begin Spectral Data<<<<<
341.393	-9.66
341.776	-9.66
342.16	-9.66
342.543	-70.45
342.927	-57.12
343.31	-56.67
343.693	-64.35
344.077	-72.94
344.46	-57.12
344.843	-52.37
345.226	-41.75
345.61	-28.42
345.993	-23.67
346.376	-19.83
346.759	7.06
347.142	26.27
347.525	41.86
347.908	59.72
348.291	87.96
348.674	94.97
349.057	99.26
349.44	129.32
349.823	137
350.206	142.2
350.588	215.42
350.971	205.02
351.354	219.71
351.737	235.08
352.119	243.89
352.502	252.71
352.884	281.63
353.267	281.41
353.65	286.6
354.032	301.29
354.414	311.69
354.797	301.74
355.179	318.92
355.562	305.81
355.944	322.99
356.326	325.25
356.709	332.03
357.091	332.93
357.473	331.12
357.855	326.6
358.238	337.22
358.62	332.7
359.002	328.86
359.384	350.1
359.766	331.57
360.148	327.05
360.53	339.93
360.912	331.8
361.294	329.99
361.676	326.83
362.057	335.87
362.439	334.28
362.821	337.22
363.203	335.19
363.584	326.83
363.966	320.95
364.348	328.64
364.729	302.42
365.111	309.2
365.493	315.08
365.874	324.57
366.256	313.27
366.637	321.18
367.019	306.26
367.4	303.33
367.781	317.11
368.163	315.3
368.544	306.04
368.925	306.72
369.306	332.48
369.688	325.25
370.069	324.57
370.45	279.82
370.831	308.07
371.212	312.36
371.593	287.28
371.974	305.81
372.355	293.38
372.736	309.88
373.117	323.66
373.498	300.16
373.879	304.68
374.26	330.44
374.641	309.65
375.021	307.17
375.402	327.51
375.783	325.47
376.163	329.54
376.544	332.7
376.925	319.6
377.305	323.66
377.686	334.51
378.066	321.18
378.447	322.99
378.827	325.7
379.208	327.28
379.588	330.44
379.968	331.57
380.349	339.48
380.729	327.28
381.109	328.64
381.489	349.2
381.87	351.69
382.25	330.67
382.63	321.86
383.01	344
383.39	340.61
383.77	332.48
384.15	322.76
384.53	347.84
384.91	343.32
385.29	358.01
385.67	338.58
386.049	353.04
386.429	345.13
386.809	361.4
387.189	350.1
387.568	342.87
387.948	361.4
388.328	359.37
388.707	346.71
389.087	354.85
389.466	355.08
389.846	365.47
390.225	362.08
390.605	374.51
390.984	365.92
391.363	365.24
391.743	380.61
392.122	369.54
392.501	390.1
392.881	362.08
393.26	381.06
393.639	372.48
394.018	386.26
394.397	376.32
394.776	374.96
395.155	393.49
395.534	356.88
395.913	371.12
396.292	370.67
396.671	378.13
397.05	401.18
397.429	396.66
397.808	410.67
398.186	390.78
398.565	391.91
398.944	408.63
399.323	391.91
399.701	384.23
400.08	399.82
400.458	400.05
400.837	416.32
401.215	414.51
401.594	412.93
401.972	412.25
402.351	425.58
402.729	428.29
403.107	405.24
403.486	424.9
403.864	422.19
404.242	429.65
404.62	422.87
404.999	441.63
405.377	455.41
405.755	448.18
406.133	447.95
406.511	453.83
406.889	458.58
407.267	443.66
407.645	481.17
408.023	475.52
408.401	459.93
408.779	482.3
409.156	472.36
409.534	470.33
409.912	489.76
410.29	482.76
410.667	509.2
411.045	521.17
411.422	503.77
411.8	522.3
412.178	534.51
412.555	515.75
412.933	537.22
413.31	536.09
413.687	556.88
414.065	549.65
414.442	563.21
414.819	563.43
415.197	589.42
415.574	580.15
415.951	587.84
416.328	570.21
416.705	608.4
417.082	614.5
417.46	628.29
417.837	607.05
418.214	621.74
418.591	642.3
418.967	630.1
419.344	645.69
419.721	669.19
420.098	678.91
420.475	696.76
420.852	691.34
421.228	704.22
421.605	691.34
421.982	720.94
422.358	716.2
422.735	719.13
423.111	750.09
423.488	750.77
423.864	744.22
424.241	793.71
424.617	790.77
424.994	777.66
425.37	811.79
425.746	815.63
426.123	843.42
426.499	823.99
426.875	838
427.251	833.93
427.627	872.8
428.003	888.39
428.379	890.43
428.756	870.09
429.132	902.63
429.507	923.42
429.883	940.6
430.259	925.91
430.635	917.32
431.011	945.34
431.387	994.15
431.763	971.56
432.138	995.96
432.514	991.44
432.89	1033.48
433.265	1030.99
433.641	1017.88
434.016	1053.14
434.392	1081.38
434.767	1101.04
435.143	1091.78
435.518	1117.77
435.894	1156.18
436.269	1176.75
436.644	1186.92
437.02	1195.51
437.395	1204.77
437.77	1215.84
438.145	1245.67
438.52	1266.24
438.895	1279.8
439.271	1289.29
439.646	1313.02
440.021	1322.96
440.395	1338.78
440.77	1339.68
441.145	1383.97
441.52	1371.09
441.895	1435.72
442.27	1380.13
442.645	1428.04
443.019	1458.1
443.394	1442.05
443.769	1477.76
444.143	1470.3
444.518	1479.34
444.892	1464.42
445.267	1527.25
445.641	1506.01
446.016	1531.77
446.39	1564.31
446.764	1571.09
447.139	1554.14
447.513	1573.12
447.887	1584.42
448.262	1605.21
448.636	1593.01
449.01	1618.55
449.384	1659.67
449.758	1663.52
450.132	1687.02
450.506	1689.73
450.88	1694.93
451.254	1741.71
451.628	1747.36
452.002	1769.05
452.376	1766.34
452.75	1770.63
453.123	1795.04
453.497	1843.17
453.871	1841.36
454.244	1875.71
454.618	1885.2
454.992	1907.35
455.365	1933.79
455.739	1934.24
456.112	2011.08
456.486	1999.55
456.859	2003.62
457.232	2089.72
457.606	2064.86
457.979	2072.32
458.352	2133.56
458.725	2143.05
459.099	2165.2
459.472	2193.9
459.845	2198.64
460.218	2251.75
460.591	2265.53
460.964	2295.82
461.337	2307.11
461.71	2377.4
462.083	2395.25
462.456	2396.15
462.829	2424.85
463.201	2454.23
463.574	2487
463.947	2518.63
464.32	2591.4
464.692	2620.78
465.065	2646.54
465.438	2674.79
465.81	2738.74
466.183	2729.48
466.555	2803.15
466.928	2814.45
467.3	2812.41
467.672	2886.08
468.045	2959.98
468.417	2976.48
468.789	3001.79
469.161	3018.73
469.534	3094.89
469.906	3145.96
470.278	3162.46
470.65	3245.17
471.022	3292.17
471.394	3352.06
471.766	3425.96
472.138	3427.99
472.51	3507.08
472.882	3574.2
473.253	3602.67
473.625	3661.2
473.997	3741.88
474.369	3791.37
474.74	3822.33
475.112	3898.03
475.484	4015.09
475.855	4050.35
476.227	4125.15
476.598	4245.82
476.97	4325.82
477.341	4357.46
477.713	4427.96
478.084	4504.34
478.455	4606.94
478.827	4673.15
479.198	4821.4
479.569	4854.39
479.94	5011
480.311	5065.46
480.682	5177.77
481.053	5295.74
481.424	5395.85
481.795	5462.51
482.166	5526.69
482.537	5632.68
482.908	5775.5
483.279	5848.72
483.65	5988.15
484.021	6082.38
484.391	6192.66
484.762	6207.58
485.133	6320.12
485.503	6408.02
485.874	6497.51
486.244	6622.71
486.615	6743.83
486.985	6876.03
487.356	7026.54
487.726	7029.25
488.097	7224.5
488.467	7250.49
488.837	7410.71
489.207	7462.91
489.578	7625.62
489.948	7725.05
490.318	7819.51
490.688	7829.46
491.058	8021.77
491.428	8119.84
491.798	8204.36
492.168	8382.21
492.538	8420.17
492.908	8594.86
493.278	8624.01
493.648	8648.64
494.017	8770.22
494.387	8820.84
494.757	8925.92
495.126	9042.76
495.496	9072.59
495.866	9093.83
496.235	9170.44
496.605	9303.54
496.974	9338.57
497.344	9514.16
497.713	9407.72
498.082	9503.31
498.452	9678.45
498.821	9676.64
499.19	9685.9
499.559	9756.86
499.928	9783.08
500.298	9859.46
500.667	10061.94
501.036	9993.92
501.405	10074.82
501.774	10059.23
502.143	10100.58
502.512	10170.41
502.88	10270.75
503.249	10299.45
503.618	10300.35
503.987	10359.33
504.356	10389.61
504.724	10500.57
505.093	10412.21
505.462	10528.82
505.83	10569.04
506.199	10647.23
506.567	10651.75
506.936	10681.81
507.304	10747.8
507.672	10776.5
508.041	10789.6
508.409	10892.88
508.777	10949.83
509.145	10968.13
509.514	10913.44
509.882	10979.2
510.25	10967
510.618	11024.17
510.986	10986.43
511.354	11050.61
511.722	11152.08
512.09	11207.9
512.458	11159.76
512.826	11222.81
513.193	11251.74
513.561	11262.13
513.929	11284.96
514.297	11335.8
514.664	11325.41
515.032	11342.36
515.4	11416.93
515.767	11425.29
516.135	11521.34
516.502	11308.23
516.869	11623.48
517.237	11475.46
517.604	11421.9
517.972	11535.12
518.339	11588.23
518.706	11582.58
519.073	11534.22
519.44	11608.34
519.808	11650.37
520.175	11548.23
520.542	11722.46
520.909	11687.21
521.276	11684.27
521.643	11686.3
522.009	11672.29
522.376	11782.8
522.743	11733.08
523.11	11734.89
523.477	11906.86
523.843	11767.43
524.21	11928.78
524.577	11910.48
524.943	11890.59
525.31	11986.86
525.676	11965.62
526.043	11933.53
526.409	11954.77
526.776	11993.19
527.142	12042.68
527.508	12037.93
527.874	12092.39
528.241	12087.87
528.607	12012.17
528.973	12018.05
529.339	11974.43
529.705	12019.18
530.071	12058.95
530.437	12049.46
530.803	12042
531.169	11974.2
531.535	11977.37
531.901	11996.13
532.267	11913.87
532.632	11965.84
532.998	11852.17
533.364	11977.82
533.73	11828.9
534.095	11858.28
534.461	11828.9
534.826	11771.95
535.192	11802.91
535.557	11839.29
535.923	11716.13
536.288	11676.59
536.653	11687.43
537.019	11597.72
537.384	11584.84
537.749	11611.28
538.114	11551.62
538.479	11486.31
538.845	11483.37
539.21	11381.23
539.575	11319.76
539.94	11357.27
540.305	11376.25
540.67	11327.89
541.034	11288.12
541.399	11238.86
541.764	11140.55
542.129	11143.94
542.494	11166.99
542.858	11093.1
543.223	11072.99
543.587	11064.62
543.952	10972.65
544.316	10937.85
544.681	10934.91
545.045	10911.86
545.41	10835.48
545.774	10775.59
546.138	10813.33
546.503	10796.16
546.867	10689.49
547.231	10684.97
547.595	10619.21
547.959	10571.08
548.324	10517.75
548.688	10489.27
549.052	10481.59
549.416	10422.38
549.779	10425.77
550.143	10348.26
550.507	10411.53
550.871	10324.76
551.235	10215.83
551.599	10251.76
551.962	10218.32
552.326	10192.33
552.689	10139
553.053	10065.55
553.417	10048.38
553.78	10083.63
554.143	10034.59
554.507	10021.94
554.87	10000.92
555.234	9998.89
555.597	9942.17
555.96	9873.24
556.323	9913.47
556.686	9831.89
557.05	9853.81
557.413	9855.16
557.776	9806.13
558.139	9819.91
558.502	9751.66
558.865	9762.29
559.228	9775.62
559.59	9795.28
559.953	9719.35
560.316	9792.34
560.679	9674.6
561.041	9738.56
561.404	9720.25
561.767	9742.4
562.129	9672.34
562.492	9715.28
562.854	9719.57
563.217	9725.45
563.579	9706.69
563.941	9686.81
564.304	9658.56
564.666	9729.97
565.028	9670.31
565.39	9653.59
565.753	9707.37
566.115	9692.91
566.477	9655.4
566.839	9671.21
567.201	9716.41
567.563	9720.25
567.925	9698.78
568.287	9674.83
568.648	9662.63
569.01	9715.73
569.372	9676.86
569.734	9699.69
570.095	9713.02
570.457	9712.8
570.819	9742.4
571.18	9731.55
571.542	9751.66
571.903	9733.81
572.265	9729.07
572.626	9717.99
572.987	9713.47
573.349	9778.78
573.71	9770.65
574.071	9682.51
574.432	9696.52
574.794	9765.68
575.155	9741.72
575.516	9702.17
575.877	9670.31
576.238	9743.53
576.599	9781.72
576.96	9745.11
577.32	9762.74
577.681	9708.28
578.042	9785.11
578.403	9771.32
578.763	9750.08
579.124	9780.59
579.485	9750.31
579.845	9833.47
580.206	9672.34
580.566	9760.93
580.927	9733.13
581.287	9725
581.648	9772.68
582.008	9691.78
582.368	9692.46
582.728	9709.18
583.089	9689.75
583.449	9702.17
583.809	9733.13
584.169	9667.6
584.529	9649.52
584.889	9739.69
585.249	9617.66
585.609	9607.26
585.969	9626.7
586.329	9668.05
586.688	9632.57
587.048	9610.65
587.408	9567.04
587.768	9570.2
588.127	9565.68
588.487	9490.65
588.846	9579.01
589.206	9531.33
589.565	9471.9
589.925	9610.88
590.284	9525.23
590.643	9496.53
591.003	9475.29
591.362	9515.06
591.721	9538.34
592.08	9477.77
592.44	9507.83
592.799	9444.1
593.158	9504.21
593.517	9438.23
593.876	9435.74
594.235	9445.91
594.593	9457.43
594.952	9450.88
595.311	9366.36
595.67	9415.4
596.029	9455.85
596.387	9434.38
596.746	9381.73
597.104	9436.19
597.463	9411.56
597.822	9465.8
598.18	9343.31
598.538	9329.3
598.897	9372.47
599.255	9354.16
599.613	9413.82
599.972	9382.63
600.33	9387.38
600.688	9314.84
601.046	9313.03
601.404	9362.52
601.762	9367.27
602.12	9436.19
602.478	9371.79
602.836	9345.12
603.194	9319.59
603.552	9380.6
603.91	9343.54
604.268	9317.1
604.625	9281.39
604.983	9265.58
605.341	9260.15
605.698	9348.51
606.056	9402.07
606.413	9339.92
606.771	9381.28
607.128	9359.81
607.485	9300.15
607.843	9248.85
608.2	9393.03
608.557	9339.02
608.914	9318.68
609.272	9503.99
609.629	9358
609.986	9388.06
610.343	9333.37
610.7	9411.33
611.057	9416.31
611.414	9365.01
611.771	9377.66
612.127	9412.92
612.484	9397.1
612.841	9435.06
613.198	9366.14
613.554	9376.31
613.911	9430.77
614.267	9441.84
614.624	9402.97
614.98	9511.44
615.337	9442.07
615.693	9446.14
616.05	9430.09
616.406	9536.53
616.762	9482.07
617.118	9435.06
617.475	9441.62
617.831	9429.64
618.187	9518.68
618.543	9449.3
618.899	9534.5
619.255	9581.27
619.611	9522.29
619.967	9558
620.323	9593.93
620.678	9494.04
621.034	9489.75
621.39	9536.08
621.746	9518.68
622.101	9584.21
622.457	9513.93
622.812	9569.75
623.168	9605
623.523	9577.43
623.879	9599.35
624.234	9504.89
624.589	9510.54
624.945	9521.16
625.3	9596.64
625.655	9525.23
626.01	9502.63
626.365	9503.08
626.72	9530.2
627.075	9494.27
627.43	9474.84
627.785	9516.64
628.14	9491.78
628.495	9495.17
628.85	9521.61
629.205	9484.55
629.559	9516.87
629.914	9511.67
630.269	9490.43
630.623	9452.92
630.978	9428.06
631.332	9426.93
631.687	9408.4
632.041	9435.51
632.396	9435.29
632.75	9438.9
633.104	9364.78
633.459	9345.12
633.813	9387.83
634.167	9353.93
634.521	9323.65
634.875	9295.86
635.229	9369.98
635.583	9279.81
635.937	9299.92
636.291	9315.97
636.645	9300.15
636.999	9200.27
637.352	9270.32
637.706	9219.25
638.06	9219.7
638.413	9223.99
638.767	9165.92
639.121	9192.36
639.474	9119.59
639.828	9165.69
640.181	9164.79
640.534	9148.06
640.888	9153.04
641.241	9101.06
641.594	9116.2
641.947	9135.18
642.301	9069.87
642.654	9128.18
643.007	9132.25
643.36	8982.87
643.713	9052.47
644.066	9111.46
644.419	9007.28
644.771	8981.29
645.124	8905.13
645.477	8926.83
645.83	8894.29
646.182	8875.53
646.535	8799.83
646.888	8866.94
647.24	8786.72
647.593	8843.44
647.945	8743.78
648.298	8741.07
648.65	8686.83
649.002	8678.25
649.355	8752.59
649.707	8800.5
650.059	8836.43
650.411	8953.27
650.763	8942.87
651.115	9020.61
651.467	8935.64
651.819	8954.4
652.171	8936.32
652.523	8980.84
652.875	8944.68
653.227	8928.18
653.578	8941.52
653.93	8969.54
654.282	8884.79
654.633	8916.66
654.985	8900.39
655.337	8952.36
655.688	8981.29
656.039	9015.41
656.391	8940.16
656.742	9050.21
657.094	8953.72
657.445	9026.49
657.796	8990.55
658.147	8957.11
658.498	9018.58
658.849	9002.98
659.2	9033.04
659.551	9005.7
659.902	9045.47
660.253	9025.81
660.604	8977.67
660.955	8977.45
661.306	9031.23
661.656	9035.3
662.007	9032.59
662.358	9044.79
662.708	9066.94
663.059	8993.04
663.409	8970.22
663.76	9041.4
664.11	9057.45
664.461	9099.25
664.811	9021.51
665.161	9071.91
665.511	9015.86
665.862	9033.72
666.212	9072.59
666.562	9066.71
666.912	9004.57
667.262	9095.18
667.612	9088.18
667.962	9074.17
668.312	9076.88
668.662	9072.13
669.011	9066.03
669.361	9068.52
669.711	9077.33
670.06	9011.8
670.41	9002.76
670.76	9035.07
671.109	9014.06
671.459	9044.11
671.808	8992.59
672.157	8969.99
672.507	8913.27
672.856	8934.06
673.205	9006.6
673.554	8974.28
673.904	8973.15
674.253	8966.83
674.602	8968.18
674.951	8792.59
675.3	8772.03
675.649	8946.26
675.998	8838.47
676.346	8903.1
676.695	8915.98
677.044	8857.45
677.393	8917.11
677.741	8880.27
678.09	8853.38
678.438	8791.92
678.787	8875.76
679.135	8791.46
679.484	8825.14
679.832	8813.16
680.181	8817.23
680.529	8800.5
680.877	8718.47
681.225	8718.47
681.573	8764.35
681.922	8669.66
682.27	8701.07
682.618	8699.71
682.966	8629.89
683.314	8693.84
683.661	8601.64
684.009	8635.76
684.357	8594.18
684.705	8619.49
685.053	8657.91
685.4	8572.94
685.748	8524.58
686.095	8483
686.443	8465.82
686.79	8499.72
687.138	8458.37
687.485	8474.64
687.832	8428.31
688.18	8378.37
688.527	8367.52
688.874	8306.05
689.221	8334.3
689.568	8287.3
689.915	8253.62
690.262	8266.96
690.609	8142.67
690.956	8194.64
691.303	8225.83
691.65	8136.79
691.997	8167.75
692.344	8080.07
692.69	8012.05
693.037	8081.65
693.383	8012.95
693.73	8009.34
694.077	7939.73
694.423	7974.54
694.769	7972.5
695.116	7884.82
695.462	7903.13
695.808	7792.85
696.155	7853.86
696.501	7740.19
696.847	7765.05
697.193	7727.08
697.539	7827.2
697.885	7700.64
698.231	7688.44
698.577	7622.68
698.923	7594.43
699.269	7534.77
699.614	7563.47
699.96	7545.39
700.306	7481.44
700.651	7468.56
700.997	7435.57
701.342	7373.87
701.688	7344.95
702.033	7386.98
702.379	7325.74
702.724	7316.7
703.069	7329.58
703.415	7235.35
703.76	7249.81
704.105	7232.18
704.45	7149.47
704.795	7130.04
705.14	7135.46
705.485	7083.94
705.83	7054.56
706.175	7073.09
706.52	7055.69
706.865	7054.79
707.209	6959.42
707.554	6970.95
707.899	6929.59
708.243	6952.19
708.588	6935.47
708.932	6866.32
709.277	6848.01
709.621	6838.07
709.966	6815.02
710.31	6826.32
710.654	6716.72
710.998	6768.24
711.342	6712.65
711.687	6782.03
712.031	6679.2
712.375	6709.48
712.719	6675.14
713.063	6635.81
713.407	6701.8
713.75	6658.41
714.094	6664.51
714.438	6664.51
714.782	6615.25
715.125	6565.53
715.469	6618.19
715.812	6555.36
716.156	6532.99
716.499	6543.16
716.843	6539.77
717.186	6457.06
717.53	6539.32
717.873	6496.16
718.216	6522.14
718.559	6451.19
718.902	6489.15
719.246	6462.94
719.589	6439.66
719.932	6410.74
720.275	6478.3
720.617	6425.65
720.96	6427.01
721.303	6403.05
721.646	6448.02
721.989	6364.86
722.331	6382.49
722.674	6411.64
723.016	6424.52
723.359	6388.82
723.701	6400.34
724.044	6395.82
724.386	6343.62
724.729	6304.07
725.071	6324.18
725.413	6346.33
725.755	6317.18
726.097	6300.91
726.439	6282.6
726.782	6276.05
727.124	6371.64
727.465	6313.79
727.807	6321.25
728.149	6350.62
728.491	6281.47
728.833	6322.38
729.175	6230.18
729.516	6282.6
729.858	6226.56
730.199	6251.87
730.541	6299.1
730.882	6272.89
731.224	6268.37
731.565	6246.9
731.906	6313.11
732.248	6266.56
732.589	6218.88
732.93	6235.82
733.271	6232.66
733.612	6255.03
733.953	6277.86
734.294	6284.19
734.635	6281.7
734.976	6323.96
735.317	6305.43
735.658	6233.34
735.999	6266.78
736.339	6260
736.68	6305.65
737.021	6288.48
737.361	6328.03
737.702	6327.57
738.042	6288.03
738.383	6293.45
738.723	6374.8
739.063	6316.05
739.404	6389.49
739.744	6371.41
740.084	6300
740.424	6370.06
740.764	6364.18
741.104	6372.32
741.444	6377.29
741.784	6420.68
742.124	6438.76
742.464	6412.54
742.804	6426.55
743.143	6486.67
743.483	6482.37
743.823	6428.14
744.162	6516.04
744.502	6573.44
744.841	6542.03
745.181	6658.64
745.52	6651.18
745.86	6664.97
746.199	6662.71
746.538	6781.35
746.877	6810.05
747.216	6773.44
747.556	6821.35
747.895	6920.1
748.234	6873.55
748.573	6938.18
748.911	7057.95
749.25	7125.29
749.589	7168.68
749.928	7167.78
750.267	7264.05
750.605	7324.61
750.944	7372.74
751.283	7414.78
751.621	7530.25
751.96	7618.16
752.298	7711.49
752.636	7827.87
752.975	7888.66
753.313	7946.06
753.651	8070.8
753.989	8140.41
754.327	8256.56
754.666	8354.19
755.004	8457.46
755.342	8638.7
755.679	8673.95
756.017	8791.92
756.355	8936.77
756.693	9070.55
757.031	9169.53
757.368	9364.33
757.706	9490.43
758.044	9582.18
758.381	9688.62
758.719	9874.37
759.056	10047.7
759.394	10141.71
759.731	10246.34
760.068	10414.02
760.405	10561.81
760.743	10691.75
761.08	10862.37
761.417	10973.78
761.754	11183.49
762.091	11327.22
762.428	11491.05
762.765	11617.6
763.102	11799.29
763.438	11893.98
763.775	12105.27
764.112	12355.21
764.449	12480.41
764.785	12584.58
765.122	12679.05
765.458	12873.84
765.795	13033.61
766.131	13136.21
766.467	13300.95
