Data from hue_160_FLMS001491_00063.txt Node
Date: Tue Feb 07 16:51:31 GMT 2017
User: dcchb
Spectrometer: FLMS00149
Trigger mode: 0
Integration Time (sec): 2.000000E-2
Scans to average: 10
Electric dark correction enabled: true
Nonlinearity correction enabled: false
Boxcar width: 0
XAxis mode: Wavelengths
Number of Pixels in Spectrum: 2048
>>>>>Begin Spectral Data<<<<<
341.393	-19.51
341.776	-19.51
342.16	-19.51
342.543	-62.67
342.927	-66.74
343.31	-74.42
343.693	-48.43
344.077	-71.93
344.46	-59.73
344.843	-64.93
345.226	-20.86
345.61	-31.93
345.993	-17.25
346.376	-12.95
346.759	26.6
347.142	26.14
347.525	12.58
347.908	52.36
348.291	84.22
348.674	99.59
349.057	100.94
349.44	122.64
349.823	132.13
350.206	159.47
350.588	209.87
350.971	211
351.354	226.59
351.737	233.6
352.119	239.92
352.502	265.69
352.884	267.04
353.267	260.71
353.65	298
354.032	330.77
354.414	305.01
354.797	322.63
355.179	313.59
355.562	330.09
355.944	335.74
356.326	335.97
356.709	339.36
357.091	323.99
357.473	333.93
357.855	340.49
358.238	345.46
358.62	359.24
359.002	343.65
359.384	330.32
359.766	344.78
360.148	360.15
360.53	330.09
360.912	318.11
361.294	328.28
361.676	333.25
362.057	313.59
362.439	335.06
362.821	339.58
363.203	341.16
363.584	343.65
363.966	340.71
364.348	325.57
364.729	321.73
365.111	318.57
365.493	315.18
365.874	301.39
366.256	316.31
366.637	299.58
367.019	332.8
367.4	326.93
367.781	325.8
368.163	313.82
368.544	306.81
368.925	324.89
369.306	320.6
369.688	303.65
370.069	309.75
370.45	306.59
370.831	316.53
371.212	325.57
371.593	307.49
371.974	312.92
372.355	303.2
372.736	324.89
373.117	323.08
373.498	313.37
373.879	321.95
374.26	296.64
374.641	298.9
375.021	325.8
375.402	282.41
375.783	322.63
376.163	332.35
376.544	312.01
376.925	321.73
377.305	300.71
377.686	316.98
378.066	331.9
378.447	315.85
378.827	336.42
379.208	311.33
379.588	339.58
379.968	320.15
380.349	335.51
380.729	345.68
381.109	340.71
381.489	323.08
381.87	337.55
382.25	345.23
382.63	344.33
383.01	318.34
383.39	321.28
383.77	363.31
384.15	345.68
384.53	342.07
384.91	328.51
385.29	345.91
385.67	333.25
386.049	353.14
386.429	347.94
386.809	366.93
387.189	348.17
387.568	361.95
387.948	358.34
388.328	359.92
388.707	333.93
389.087	340.26
389.466	375.51
389.846	368.73
390.225	360.37
390.605	359.92
390.984	346.36
391.363	358.79
391.743	361.28
392.122	372.12
392.501	366.47
392.881	392.91
393.26	402.86
393.639	381.39
394.018	374.61
394.397	368.28
394.776	379.13
395.155	374.16
395.534	384.78
395.913	382.07
396.292	380.71
396.671	386.13
397.05	393.37
397.429	403.76
397.808	379.13
398.186	377.55
398.565	390.43
398.944	402.63
399.323	385.46
399.701	390.88
400.08	408.73
400.458	406.92
400.837	411.9
401.215	435.4
401.594	387.94
401.972	382.07
402.351	406.7
402.729	411.22
403.107	401.5
403.486	407.83
403.864	421.16
404.242	419.35
404.62	413.48
404.999	428.62
405.377	407.83
405.755	414.61
406.133	422.52
406.511	415.06
406.889	428.84
407.267	419.58
407.645	414.83
408.023	436.75
408.401	442.86
408.779	454.61
409.156	454.61
409.534	462.06
409.912	458.9
410.29	473.36
410.667	443.76
411.045	465.45
411.422	467.49
411.8	462.74
412.178	466.58
412.555	478.11
412.933	477.66
413.31	517.88
413.687	500.26
414.065	489.41
414.442	511.1
414.819	492.8
415.197	498.45
415.574	520.59
415.951	491.67
416.328	515.17
416.705	512.46
417.082	519.01
417.46	540.03
417.837	508.84
418.214	513.81
418.591	530.08
418.967	545.9
419.344	531.89
419.721	549.29
420.098	527.6
420.475	543.64
420.852	554.94
421.228	568.28
421.605	559.46
421.982	564.21
422.358	577.32
422.735	585
423.111	582.51
423.488	573.25
423.864	582.74
424.241	608.73
424.617	573.25
424.994	598.56
425.37	593.36
425.746	603.08
426.123	590.42
426.499	615.51
426.875	626.58
427.251	636.07
427.627	635.17
428.003	650.31
428.379	643.53
428.756	654.6
429.132	644.88
429.507	654.15
429.883	667.26
430.259	674.26
430.635	663.19
431.011	660.25
431.387	674.26
431.763	678.1
432.138	687.14
432.514	708.84
432.89	692.57
433.265	743.19
433.641	727.82
434.016	726.46
434.392	749.97
434.767	760.81
435.143	746.8
435.518	769.85
435.894	768.72
436.269	752.45
436.644	781.83
437.02	780.7
437.395	806.91
437.77	794.94
438.145	812.79
438.52	796.97
438.895	791.55
439.271	817.54
439.646	834.94
440.021	831.32
440.395	844.2
440.77	849.62
441.145	846.69
441.52	873.8
441.895	876.97
442.27	865.67
442.645	881.49
443.019	884.65
443.394	897.76
443.769	915.39
444.143	894.37
444.518	928.27
444.892	930.53
445.267	926.46
445.641	945.89
446.016	945.67
446.39	940.7
446.764	931.2
447.139	931.88
447.513	956.74
447.887	979.11
448.262	959.23
448.636	993.12
449.01	981.15
449.384	1007.13
449.758	1001.48
450.132	986.12
450.506	1027.47
450.88	1013.01
451.254	1021.15
451.628	1049.17
452.002	1043.29
452.376	1085.55
452.75	1081.03
453.123	1079.68
453.497	1083.52
453.871	1114.25
454.244	1102.73
454.618	1127.13
454.992	1122.16
455.365	1130.75
455.739	1139.33
456.112	1180.24
456.486	1167.36
456.859	1199.9
457.232	1210.75
457.606	1210.07
457.979	1252.78
458.352	1243.06
458.725	1257.98
459.099	1290.74
459.472	1329.61
459.845	1313.12
460.218	1367.35
460.591	1378.42
460.964	1331.42
461.337	1389.27
461.71	1397.86
462.083	1440.34
462.456	1463.17
462.829	1455.26
463.201	1458.87
463.574	1496.16
463.947	1535.93
464.32	1535.26
464.692	1562.15
465.065	1571.19
465.438	1584.97
465.81	1639.21
466.183	1596.5
466.555	1650.51
466.928	1700.45
467.3	1708.13
467.672	1744.52
468.045	1757.4
468.417	1770.28
468.789	1794.01
469.161	1813.67
469.534	1895.02
469.906	1907
470.278	1949.93
470.65	1960.1
471.022	2002.81
471.394	2073.32
471.766	2099.08
472.138	2130.04
472.51	2170.04
472.882	2180.89
473.253	2265.41
473.625	2310.6
473.997	2368.23
474.369	2386.53
474.74	2408.68
475.112	2455.91
475.484	2519.86
475.855	2612.97
476.227	2675.79
476.598	2734.32
476.97	2789.01
477.341	2870.36
477.713	2923.47
478.084	2931.6
478.455	3075.55
478.827	3134.54
479.198	3254.76
479.569	3271.93
479.94	3369.78
480.311	3430.35
480.682	3541.76
481.053	3699.04
481.424	3756.67
481.795	3880.73
482.166	3919.83
482.537	3995.08
482.908	4132.48
483.279	4231.91
483.65	4329.08
484.021	4428.97
484.391	4590.54
484.762	4603.65
485.133	4720.71
485.503	4836.41
485.874	4970.65
486.244	5099.91
486.615	5200.47
486.985	5375.83
487.356	5477.53
487.726	5572.66
488.097	5706.9
488.467	5793.22
488.837	5996.83
489.207	6105.08
489.578	6260.78
489.948	6308.69
490.318	6546.2
490.688	6596.82
491.058	6771.95
491.428	6898.28
491.798	6993.42
492.168	7117.71
492.538	7283.81
492.908	7419.85
493.278	7542.33
493.648	7586.85
494.017	7829.1
494.387	7924.47
494.757	8051.7
495.126	8196.32
495.496	8213.5
495.866	8314.74
496.235	8482.87
496.605	8608.06
496.974	8667.27
497.344	8840.6
497.713	8881.05
498.082	9018.22
498.452	9156.52
498.821	9208.27
499.19	9304.32
499.559	9391.55
499.928	9511.54
500.298	9627.92
500.667	9761.25
501.036	9745.21
501.405	9906.56
501.774	9877.18
502.143	10039.44
502.512	10129.83
502.88	10147.46
503.249	10281.69
503.618	10363.5
503.987	10409.37
504.356	10467.22
504.724	10568.92
505.093	10622.7
505.462	10688.01
505.83	10720.33
506.199	10844.39
506.567	10903.37
506.936	10946.76
507.304	11087.77
507.672	11110.37
508.041	11127.09
508.409	11290.71
508.777	11342.68
509.145	11438.95
509.514	11411.15
509.882	11509.68
510.25	11504.49
510.618	11639.17
510.986	11615.67
511.354	11682.56
511.722	11726.85
512.09	11852.27
512.458	11836
512.826	11938.15
513.193	11998.94
513.561	11930.92
513.929	12074.87
514.297	12088.2
514.664	12169.1
515.032	12157.12
515.4	12269.44
515.767	12298.59
516.135	12337.01
516.502	12209.55
516.869	12470.34
517.237	12426.95
517.604	12366.61
517.972	12494.06
518.339	12504.23
518.706	12513.05
519.073	12579.49
519.44	12524.12
519.808	12619.94
520.175	12615.19
520.542	12718.69
520.909	12715.98
521.276	12750.33
521.643	12751.91
522.009	12943.77
522.376	12905.35
522.743	12935.41
523.11	12925.92
523.477	12935.41
523.843	13038.23
524.21	13108.96
524.577	13185.57
524.943	13145.12
525.31	13231.45
525.676	13211.33
526.043	13222.18
526.409	13247.72
526.776	13288.85
527.142	13289.3
527.508	13301.95
527.874	13409.75
528.241	13394.61
528.607	13327.94
528.973	13470.31
529.339	13326.36
529.705	13409.75
530.071	13505.34
530.437	13456.07
530.803	13444.32
531.169	13443.64
531.535	13352.8
531.901	13459.46
532.267	13404.55
532.632	13332.46
532.998	13411.55
533.364	13319.58
533.73	13342.18
534.095	13501.04
534.461	13335.4
534.826	13425.11
535.192	13382.63
535.557	13405.45
535.923	13351.44
536.288	13297.43
536.653	13420.59
537.019	13186.7
537.384	13196.64
537.749	13193.93
538.114	13230.77
538.479	13213.82
538.845	13156.19
539.21	13151.22
539.575	13049.53
539.94	13058.12
540.305	13089.3
540.67	13060.6
541.034	13041.62
541.399	12967.05
541.764	13007.05
542.129	12942.64
542.494	12909.65
542.858	12825.81
543.223	12868.97
543.587	12845.47
543.952	12749.2
544.316	12755.75
544.681	12706.04
545.045	12657.68
545.41	12676.88
545.774	12690.67
546.138	12656.77
546.503	12599.6
546.867	12562.31
547.231	12562.08
547.595	12518.92
547.959	12453.16
548.324	12460.39
548.688	12429.43
549.052	12416.78
549.416	12339.94
549.779	12312.83
550.143	12296.78
550.507	12368.64
550.871	12290
551.235	12275.54
551.599	12225.82
551.962	12156.45
552.326	12232.83
552.689	12245.48
553.053	12135.66
553.417	12080.52
553.78	12250.68
554.143	12065.83
554.507	12054.53
554.87	12033.74
555.234	12111.25
555.597	12002.78
555.96	12051.59
556.323	12091.59
556.686	11928.43
557.05	12036.22
557.413	11974.3
557.776	11919.39
558.139	11976.11
558.502	11984.25
558.865	11898.37
559.228	11932.5
559.59	11949.67
559.953	11955.32
560.316	12031.25
560.679	11937.69
561.041	11951.03
561.404	11972.72
561.767	12001.42
562.129	11922.33
562.492	12084.58
562.854	12009.33
563.217	11948.99
563.579	12029.9
563.941	12054.3
564.304	12083.23
564.666	12139.27
565.028	12070.35
565.39	12082.78
565.753	12136.33
566.115	12096.56
566.477	12185.15
566.839	12221.08
567.201	12180.85
567.563	12212.49
567.925	12241.64
568.287	12163.23
568.648	12174.07
569.01	12265.37
569.372	12301.07
569.734	12244.81
570.095	12319.61
570.457	12277.57
570.819	12278.02
571.18	12315.31
571.542	12372.71
571.903	12334.52
572.265	12367.74
572.626	12354.63
572.987	12386.04
573.349	12407.06
573.71	12462.88
574.071	12400.28
574.432	12442.99
574.794	12530.22
575.155	12469.21
575.516	12442.09
575.877	12448.42
576.238	12385.37
576.599	12536.77
576.96	12493.16
577.32	12391.24
577.681	12515.31
578.042	12504.69
578.403	12472.6
578.763	12436.21
579.124	12473.73
579.485	12512.59
579.845	12596.89
580.206	12587.4
580.566	12471.69
580.927	12469.88
581.287	12550.79
581.648	12494.06
582.008	12515.76
582.368	12520.73
582.728	12547.17
583.089	12490
583.449	12447.74
583.809	12551.69
584.169	12469.66
584.529	12473.27
584.889	12441.86
585.249	12474.4
585.609	12411.35
585.969	12470.56
586.329	12335.2
586.688	12460.84
587.048	12400.06
587.408	12488.19
587.768	12350.79
588.127	12333.16
588.487	12266.73
588.846	12401.19
589.206	12288.19
589.565	12359.83
589.925	12414.52
590.284	12328.19
590.643	12322.32
591.003	12348.76
591.362	12319.15
591.721	12440.51
592.08	12403.9
592.44	12391.47
592.799	12389.43
593.158	12282.54
593.517	12362.77
593.876	12326.84
594.235	12302.2
594.593	12291.13
594.952	12285.03
595.311	12310.57
595.67	12223.79
596.029	12272.83
596.387	12291.81
596.746	12381.98
597.104	12236.44
597.463	12219.04
597.822	12271.25
598.18	12221.08
598.538	12217.69
598.897	12327.29
599.255	12166.16
599.613	12339.94
599.972	12220.4
600.33	12291.81
600.688	12174.75
601.046	12264.01
601.404	12347.18
601.762	12286.61
602.12	12298.82
602.478	12264.92
602.836	12311.92
603.194	12227.86
603.552	12250.68
603.91	12199.61
604.268	12246.84
604.625	12238.93
604.983	12339.04
605.341	12261.53
605.698	12257.91
606.056	12411.13
606.413	12332.49
606.771	12332.49
607.128	12372.49
607.485	12239.61
607.843	12291.13
608.2	12393.95
608.557	12402.32
608.914	12353.5
609.272	12419.94
609.629	12397.34
609.986	12444.12
610.343	12521.86
610.7	12429.66
611.057	12417.46
611.414	12403.67
611.771	12472.82
612.127	12511.46
612.484	12435.08
612.841	12444.8
613.198	12498.58
613.554	12406.16
613.911	12463.78
614.267	12423.33
614.624	12462.2
614.98	12498.13
615.337	12615.19
615.693	12598.92
616.05	12622.42
616.406	12627.17
616.762	12529.09
617.118	12576.77
617.475	12587.4
617.831	12592.59
618.187	12594.4
618.543	12588.07
618.899	12626.72
619.255	12616.55
619.611	12671.69
619.967	12604.12
620.323	12698.8
620.678	12671.91
621.034	12564.57
621.39	12599.15
621.746	12571.12
622.101	12784.23
622.457	12593.27
622.812	12657
623.168	12666.71
623.523	12670.78
623.879	12749.65
624.234	12601.63
624.589	12640.5
624.945	12646.6
625.3	12686.83
625.655	12700.61
626.01	12692.7
626.365	12711.46
626.72	12657.68
627.075	12686.38
627.43	12677.79
627.785	12621.29
628.14	12676.88
628.495	12700.16
628.85	12748.52
629.205	12636.89
629.559	12641.18
629.914	12639.37
630.269	12636.66
630.623	12601.41
630.978	12475.76
631.332	12548.3
631.687	12657.45
632.041	12511.46
632.396	12554.85
632.75	12504.23
633.104	12494.52
633.459	12458.58
633.813	12535.87
634.167	12437.12
634.521	12435.99
634.875	12448.19
635.229	12391.92
635.583	12363.9
635.937	12345.14
636.291	12356.21
636.645	12324.58
636.999	12368.42
637.352	12467.85
637.706	12275.31
638.06	12312.37
638.413	12256.1
638.767	12215.43
639.121	12249.55
639.474	12227.18
639.828	12236.67
640.181	12193.51
640.534	12191.47
640.888	12202.55
641.241	12131.81
641.594	12168.42
641.947	12168.87
642.301	12153.06
642.654	12181.98
643.007	12182.43
643.36	12110.8
643.713	12153.96
644.066	12177.01
644.419	12061.76
644.771	11950.35
645.124	11937.92
645.477	11810.47
645.83	11787.42
646.182	11781.77
646.535	11744.25
646.888	11808.66
647.24	11672.16
647.593	11719.17
647.945	11754.87
648.298	11606.18
648.65	11603.24
649.002	11589.68
649.355	11638.72
649.707	11641.21
650.059	11732.73
650.411	11805.95
650.763	11854.76
651.115	11985.15
651.467	11962.78
651.819	11919.39
652.171	11908.32
652.523	11974.76
652.875	11915.77
653.227	11862.44
653.578	11896.57
653.93	11887.07
654.282	11789.45
654.633	11864.25
654.985	11945.38
655.337	11985.6
655.688	11902.67
656.039	11942.89
656.391	11884.81
656.742	11898.83
657.094	11952.84
657.445	11932.05
657.796	11913.29
658.147	11880.52
658.498	11906.96
658.849	12015.88
659.2	11862.44
659.551	11818.6
659.902	11998.94
660.253	11958.49
660.604	11940.18
660.955	11840.97
661.306	11979.05
661.656	11926.85
662.007	11961.65
662.358	11995.55
662.708	11890.92
663.059	11969.56
663.409	11860.63
663.76	11916.45
664.11	11974.08
664.461	11972.5
664.811	11994.87
665.161	11921.42
665.511	11939.73
665.862	11928.88
666.212	12022.66
666.562	12028.31
666.912	11884.59
667.262	12007.75
667.612	11950.35
667.962	12036.22
668.312	11897.7
668.662	12028.99
669.011	11883.91
669.361	11925.94
669.711	11948.77
670.06	11903.35
670.41	11849.56
670.76	11893.4
671.109	11911.03
671.459	11873.52
671.808	11894.08
672.157	11869.45
672.507	11835.1
672.856	11837.81
673.205	11807.53
673.554	11823.12
673.904	11837.58
674.253	11896.79
674.602	11836.68
674.951	11606.63
675.3	11639.4
675.649	11801.2
675.998	11729.79
676.346	11847.53
676.695	11801.43
677.044	11736.57
677.393	11745.16
677.741	11651.37
678.09	11717.36
678.438	11744.71
678.787	11720.07
679.135	11669.91
679.484	11661.09
679.832	11689.79
680.181	11569.57
680.529	11613.64
680.877	11610.7
681.225	11572.05
681.573	11601.43
681.922	11468.1
682.27	11470.59
682.618	11541.09
682.966	11474.88
683.314	11444.15
683.661	11420.19
684.009	11362.34
684.357	11400.31
684.705	11352.17
685.053	11338.84
685.4	11348.56
685.748	11265.62
686.095	11288.45
686.443	11213.87
686.79	11158.73
687.138	11177.26
687.485	11238.28
687.832	11194.44
688.18	11130.71
688.527	11100.43
688.874	11143.59
689.221	11125.74
689.568	11034.67
689.915	11057.72
690.262	10958.29
690.609	10957.61
690.956	10923.94
691.303	10910.38
691.65	10850.49
691.997	10770.95
692.344	10696.15
692.69	10735.69
693.037	10655.92
693.383	10702.92
693.73	10627.9
694.077	10540.44
694.423	10555.13
694.769	10546.32
695.116	10467.22
695.462	10454.57
695.808	10437.4
696.155	10490.73
696.501	10429.03
696.847	10349.26
697.193	10286.21
697.539	10340.22
697.885	10219.77
698.231	10248.7
698.577	10229.49
698.923	10141.36
699.269	10050.96
699.614	10036.73
699.96	10027.46
700.306	10023.85
700.651	9916.96
700.997	9992.21
701.342	9889.84
701.688	9854.13
702.033	9833.57
702.379	9825.21
702.724	9800.12
703.069	9846
703.415	9725.1
703.76	9711.09
704.105	9645.33
704.45	9589.06
704.795	9628.15
705.14	9501.6
705.485	9547.7
705.83	9511.32
706.175	9517.19
706.52	9449.17
706.865	9398.1
707.209	9371.43
707.554	9347.25
707.899	9410.08
708.243	9269.06
708.588	9276.75
708.932	9250.76
709.277	9240.59
709.621	9237.43
709.966	9148.39
710.31	9160.37
710.654	9097.54
710.998	9093.93
711.342	9051.22
711.687	9058
712.031	8980.71
712.375	8944.78
712.719	9047.15
713.063	9010.31
713.407	8969.19
713.75	9000.82
714.094	8950.88
714.438	8972.35
714.782	8887.83
715.125	8863.88
715.469	8922.63
715.812	8861.17
716.156	8793.14
716.499	8849.41
716.843	8783.65
717.186	8752.92
717.53	8742.3
717.873	8853.03
718.216	8751.79
718.559	8766.7
718.902	8746.82
719.246	8662.3
719.589	8690.77
719.932	8654.17
720.275	8616.88
720.617	8707.5
720.96	8648.52
721.303	8625.24
721.646	8624.34
721.989	8552.25
722.331	8619.59
722.674	8599.48
723.016	8577.1
723.359	8585.24
723.701	8559.7
724.044	8549.54
724.386	8509.54
724.729	8543.21
725.071	8514.28
725.413	8500.95
725.755	8556.54
726.097	8462.31
726.439	8427.96
726.782	8523.32
727.124	8554.96
727.465	8438.35
727.807	8442.65
728.149	8470.44
728.491	8437.22
728.833	8521.74
729.175	8424.79
729.516	8382.31
729.858	8395.64
730.199	8435.19
730.541	8379.14
730.882	8373.27
731.224	8410.78
731.565	8357
731.906	8377.56
732.248	8427.28
732.589	8429.76
732.93	8334.85
733.271	8368.97
733.612	8396.77
733.953	8362.65
734.294	8376.21
734.635	8328.98
734.976	8376.43
735.317	8345.02
735.658	8344.34
735.999	8350.44
736.339	8358.81
736.68	8418.92
737.021	8321.07
737.361	8287.85
737.702	8391.35
738.042	8333.04
738.383	8371.23
738.723	8394.06
739.063	8339.82
739.404	8399.26
739.744	8426.37
740.084	8333.04
740.424	8483.32
740.764	8479.48
741.104	8510.67
741.444	8403.32
741.784	8417.11
742.124	8480.84
742.464	8462.53
742.804	8549.99
743.143	8547.28
743.483	8538.46
743.823	8472.47
744.162	8527.84
744.502	8616.43
744.841	8582.53
745.181	8625.47
745.52	8658.23
745.86	8694.84
746.199	8747.5
746.538	8707.27
746.877	8783.65
747.216	8826.82
747.556	8857.78
747.895	8870.88
748.234	8910.43
748.573	8963.99
748.911	8996.98
749.25	9098.22
749.589	9154.72
749.928	9205.79
750.267	9234.26
750.605	9305.22
750.944	9375.28
751.283	9488.95
751.621	9500.92
751.96	9555.84
752.298	9686.45
752.636	9743.18
752.975	9857.3
753.313	9941.36
753.651	10071.3
753.989	10084.64
754.327	10208.47
754.666	10332.77
755.004	10426.1
755.342	10548.58
755.679	10624.06
756.017	10717.16
756.355	10929.13
756.693	11074.44
757.031	11148.34
757.368	11176.81
757.706	11358.95
758.044	11611.15
758.381	11776.57
758.719	11841.43
759.056	12047.75
