Data from hue_230_FLMS001491_00085.txt Node
Date: Tue Feb 07 16:37:51 GMT 2017
User: dcchb
Spectrometer: FLMS00149
Trigger mode: 0
Integration Time (sec): 2.000000E-2
Scans to average: 10
Electric dark correction enabled: true
Nonlinearity correction enabled: false
Boxcar width: 0
XAxis mode: Wavelengths
Number of Pixels in Spectrum: 2048
>>>>>Begin Spectral Data<<<<<
341.393	-3.12
341.776	-3.12
342.16	-3.12
342.543	-64.14
342.927	-62.1
343.31	-62.78
343.693	-78.6
344.077	-69.11
344.46	-53.97
344.843	-34.53
345.226	-55.55
345.61	-43.12
345.993	-49.9
346.376	-18.49
346.759	9.31
347.142	14.96
347.525	66.71
347.908	58.12
348.291	76.2
348.674	118.46
349.057	122.3
349.44	138.12
349.823	142.86
350.206	156.42
350.588	172.02
350.971	211.11
351.354	223.77
351.737	247.04
352.119	245.46
352.502	250.21
352.884	271.45
353.267	273.71
353.65	302.86
354.032	289.75
354.414	312.8
354.797	302.41
355.179	301.5
355.562	318.45
355.944	322.52
356.326	330.88
356.709	337.89
357.091	331.56
357.473	329.53
357.855	351.22
358.238	336.76
358.62	330.66
359.002	334.95
359.384	332.24
359.766	330.88
360.148	306.93
360.53	344.44
360.912	328.85
361.294	320.94
361.676	304.89
362.057	320.26
362.439	333.82
362.821	330.2
363.203	325.01
363.584	337.21
363.966	322.52
364.348	313.03
364.729	314.16
365.111	300.15
365.493	325.46
365.874	314.61
366.256	301.28
366.637	304.89
367.019	310.77
367.4	300.15
367.781	315.06
368.163	295.4
368.544	302.86
368.925	308.28
369.306	310.77
369.688	280.71
370.069	316.64
370.45	285.68
370.831	290.43
371.212	302.86
371.593	313.48
371.974	310.77
372.355	307.38
372.736	289.98
373.117	297.89
373.498	317.1
373.879	294.95
374.26	323.65
374.641	323.42
375.021	293.59
375.402	315.29
375.783	300.83
376.163	327.49
376.544	329.98
376.925	335.85
377.305	317.77
377.686	311.45
378.066	324.55
378.447	303.54
378.827	332.01
379.208	305.8
379.588	318.9
379.968	333.37
380.349	323.2
380.729	308.28
381.109	325.46
381.489	305.8
381.87	313.03
382.25	320.94
382.63	308.28
383.01	353.03
383.39	348.06
383.77	341.95
384.15	323.2
384.53	314.61
384.91	343.31
385.29	330.2
385.67	324.78
386.049	332.69
386.429	340.37
386.809	350.54
387.189	360.03
387.568	349.19
387.948	352.58
388.328	340.82
388.707	350.54
389.087	352.35
389.466	346.02
389.846	356.87
390.225	359.58
390.605	368.39
390.984	374.04
391.363	348.28
391.743	383.76
392.122	377.66
392.501	386.47
392.881	369.75
393.26	377.89
393.639	359.13
394.018	359.13
394.397	366.36
394.776	365.91
395.155	386.47
395.534	385.79
395.913	363.65
396.292	375.4
396.671	391.22
397.05	368.85
397.429	404.78
397.808	396.64
398.186	385.57
398.565	383.76
398.944	392.57
399.323	384.67
399.701	390.99
400.08	405.46
400.458	411.33
400.837	419.69
401.215	395.06
401.594	405.68
401.972	404.78
402.351	421.95
402.729	394.38
403.107	427.15
403.486	412.46
403.864	418.56
404.242	426.25
404.62	422.4
404.999	447.94
405.377	415.17
405.755	415.85
406.133	431.22
406.511	442.06
406.889	442.29
407.267	454.27
407.645	448.84
408.023	467.37
408.401	439.58
408.779	463.76
409.156	473.02
409.534	466.92
409.912	469.86
410.29	491.78
410.667	476.19
411.045	496.3
411.422	512.35
411.8	496.3
412.178	520.03
412.555	533.36
412.933	524.32
413.31	542.85
413.687	536.75
414.065	556.64
414.442	551.44
414.819	554.83
415.197	553.93
415.574	584.89
415.951	609.29
416.328	578.78
416.705	599.57
417.082	587.15
417.46	607.26
417.837	600.03
418.214	611.33
418.591	618.11
418.967	642.51
419.344	639.35
419.721	615.85
420.098	663.3
420.475	656.52
420.852	653.81
421.228	646.35
421.605	665.11
421.982	663.75
422.358	703.07
422.735	702.85
423.111	714.15
423.488	744.88
423.864	737.2
424.241	721.61
424.617	733.58
424.994	768.61
425.37	775.16
425.746	773.36
426.123	788.72
426.499	796.63
426.875	781.94
427.251	804.09
427.627	824.43
428.003	834.82
428.379	854.71
428.756	867.36
429.132	854.26
429.507	879.79
429.883	876.86
430.259	909.4
430.635	898.32
431.011	906.46
431.387	914.59
431.763	960.24
432.138	948.72
432.514	969.28
432.89	947.81
433.265	990.07
433.641	1004.54
434.016	1025.1
434.392	1024.42
434.767	1081.37
435.143	1079.79
435.518	1101.48
435.894	1127.92
436.269	1108.26
436.644	1147.13
437.02	1153.01
437.395	1152.55
437.77	1193.91
438.145	1188.26
438.52	1237.07
438.895	1203.63
439.271	1233.23
439.646	1265.32
440.021	1304.41
440.395	1283.4
440.77	1265.55
441.145	1323.17
441.52	1344.41
441.895	1333.34
442.27	1329.27
442.645	1366.33
443.019	1375.37
443.394	1382.15
443.769	1408.14
444.143	1413.34
444.518	1422.38
444.892	1416.5
445.267	1457.86
445.641	1440.46
446.016	1475.48
446.39	1488.36
446.764	1473.45
447.139	1509.83
447.513	1520.68
447.887	1531.53
448.262	1517.74
448.636	1517.74
449.01	1547.8
449.384	1570.4
449.758	1577.85
450.132	1588.7
450.506	1586.67
450.88	1602.94
451.254	1597.74
451.628	1623.5
452.002	1671.18
452.376	1673.67
452.75	1643.84
453.123	1698.3
453.497	1707.34
453.871	1723.84
454.244	1735.82
454.618	1738.08
454.992	1784.4
455.365	1756.83
455.739	1818.53
456.112	1836.6
456.486	1821.69
456.859	1873.67
457.232	1885.19
457.606	1894.46
457.979	1928.13
458.352	1968.13
458.725	1952.99
459.099	1963.15
459.472	2028.92
459.845	2036.82
460.218	2058.29
460.591	2065.98
460.964	2077.73
461.337	2086.32
461.71	2138.52
462.083	2192.53
462.456	2149.59
462.829	2157.73
463.201	2199.76
463.574	2183.26
463.947	2272.98
464.32	2307.55
464.692	2288.57
465.065	2297.84
465.438	2341
465.81	2382.8
466.183	2380.77
466.555	2462.58
466.928	2450.37
467.3	2459.41
467.672	2481.11
468.045	2532.63
468.417	2563.36
468.789	2536.47
469.161	2602.69
469.534	2666.19
469.906	2643.81
470.278	2693.76
470.65	2719.07
471.022	2755
471.394	2789.57
471.766	2803.36
472.138	2863.7
472.51	2872.96
472.882	2956.8
473.253	2963.13
473.625	3015.56
473.997	3042.45
474.369	3099.4
474.74	3085.16
475.112	3192.5
475.484	3219.84
475.855	3269.56
476.227	3274.53
476.598	3354.53
476.97	3380.52
477.341	3449.44
477.713	3479.95
478.084	3512.49
478.455	3536.45
478.827	3597.69
479.198	3668.65
479.569	3696.22
479.94	3772.82
480.311	3804.91
480.682	3922.88
481.053	3943.67
481.424	4014.85
481.795	4022.76
482.166	4132.14
482.537	4094.62
482.908	4166.26
483.279	4210.55
483.65	4314.73
484.021	4347.95
484.391	4392.92
484.762	4442.86
485.133	4507.72
485.503	4560.83
485.874	4580.94
486.244	4610.09
486.615	4695.29
486.985	4760.82
487.356	4837.2
487.726	4831.78
488.097	4976.41
488.467	4931.66
488.837	5025.22
489.207	5105.9
489.578	5114.26
489.948	5187.7
490.318	5232
490.688	5224.54
491.058	5349.28
491.428	5350.18
491.798	5410.52
492.168	5528.94
492.538	5544.08
492.908	5567.58
493.278	5644.87
493.648	5656.62
494.017	5742.49
494.387	5776.84
494.757	5801.25
495.126	5846.22
495.496	5820.23
495.866	5881.47
496.235	5906.78
496.605	5975.48
496.974	5978.19
497.344	6010.05
497.713	6050.5
498.082	6090.05
498.452	6116.94
498.821	6090.28
499.19	6163.72
499.559	6294.34
499.928	6227.9
500.298	6281.23
500.667	6331.63
501.036	6327.79
501.405	6316.03
501.774	6353.77
502.143	6380.44
502.512	6399.87
502.88	6440.55
503.249	6452.53
503.618	6418.4
503.987	6463.38
504.356	6510.15
504.724	6538.4
505.093	6548.12
505.462	6563.71
505.83	6567.55
506.199	6645.52
506.567	6673.09
506.936	6643.94
507.304	6746.98
507.672	6703.82
508.041	6773.88
508.409	6734.78
508.777	6866.08
509.145	6852.29
509.514	6803.48
509.882	6854.1
510.25	6848
510.618	6857.49
510.986	6864.49
511.354	6951.5
511.722	6892.52
512.09	6962.35
512.458	6958.73
512.826	6991.27
513.193	7000.76
513.561	7030.14
513.929	7087.99
514.297	7058.16
514.664	7139.29
515.032	7079.18
515.4	7151.72
515.767	7195.33
516.135	7194.66
516.502	7125.73
516.869	7231.94
517.237	7149.91
517.604	7166.41
517.972	7232.62
518.339	7210.47
518.706	7194.66
519.073	7222.45
519.44	7176.35
519.808	7258.38
520.175	7300.42
520.542	7335.44
520.909	7314.88
521.276	7285.73
521.643	7351.71
522.009	7300.19
522.376	7388.77
522.743	7434.65
523.11	7477.59
523.477	7446.17
523.843	7499.96
524.21	7488.43
524.577	7513.29
524.943	7499.05
525.31	7483.24
525.676	7535.66
526.043	7536.79
526.409	7503.57
526.776	7563.01
527.142	7544.02
527.508	7565.27
527.874	7565.04
528.241	7597.81
528.607	7565.49
528.973	7613.4
529.339	7601.88
529.705	7659.95
530.071	7709.44
530.437	7668.09
530.803	7712.16
531.169	7668.32
531.535	7612.95
531.901	7622.67
532.267	7659.05
532.632	7614.08
532.998	7671.71
533.364	7555.78
533.73	7677.35
534.095	7685.94
534.461	7690.24
534.826	7680.97
535.192	7669.45
535.557	7669.67
535.923	7671.03
536.288	7588.09
536.653	7626.73
537.019	7590.35
537.384	7602.1
537.749	7575.89
538.114	7576.57
538.479	7570.69
538.845	7609.56
539.21	7539.73
539.575	7499.51
539.94	7571.82
540.305	7528.66
540.67	7549
541.034	7490.24
541.399	7484.82
541.764	7512.16
542.129	7443.69
542.494	7465.38
542.858	7446.63
543.223	7389.45
543.587	7421.09
543.952	7413.18
544.316	7442.56
544.681	7400.53
545.045	7386.29
545.41	7387.42
545.774	7366.4
546.138	7290.47
546.503	7327.53
546.867	7313.07
547.231	7281.43
547.595	7258.38
547.959	7301.77
548.324	7280.98
548.688	7334.31
549.052	7202.34
549.416	7222
549.779	7265.16
550.143	7247.76
550.507	7203.47
550.871	7222
551.235	7210.25
551.599	7182.23
551.962	7180.87
552.326	7180.64
552.689	7214.09
553.053	7177.93
553.417	7111.72
553.78	7158.5
554.143	7150.14
554.507	7168.89
554.87	7108.56
555.234	7176.35
555.597	7137.93
555.96	7130.7
556.323	7110.36
556.686	7099.52
557.05	7168.22
557.413	7132.28
557.776	7131.61
558.139	7182
558.502	7133.87
558.865	7111.95
559.228	7157.82
559.59	7080.53
559.953	7147.88
560.316	7232.62
560.679	7179.74
561.041	7164.37
561.404	7140.42
561.767	7178.16
562.129	7176.58
562.492	7196.01
562.854	7204.15
563.217	7192.17
563.579	7162.57
563.941	7202.11
564.304	7188.1
564.666	7200.31
565.028	7296.57
565.39	7285.95
565.753	7334.99
566.115	7351.49
566.477	7262
566.839	7270.59
567.201	7289.57
567.563	7320.53
567.925	7366.85
568.287	7348.78
568.648	7308.55
569.01	7349.23
569.372	7399.62
569.734	7345.16
570.095	7466.96
570.457	7474.65
570.819	7483.46
571.18	7430.58
571.542	7513.07
571.903	7547.64
572.265	7474.2
572.626	7545.38
572.987	7542.44
573.349	7566.62
573.71	7530.69
574.071	7641.65
574.432	7587.64
574.794	7593.29
575.155	7625.6
575.516	7693.17
575.877	7648.65
576.238	7699.73
576.599	7792.61
576.96	7744.92
577.32	7813.85
577.681	7745.83
578.042	7817.01
578.403	7781.98
578.763	7771.14
579.124	7817.01
579.485	7875.54
579.845	7825.37
580.206	7840.06
580.566	7835.09
580.927	7873.96
581.287	7904.24
581.648	7864.02
582.008	7883.45
582.368	7939.95
582.728	7945.82
583.089	7926.84
583.449	7958.03
583.809	7949.44
584.169	7956.9
584.529	7886.84
584.889	8025.14
585.249	7993.28
585.609	7984.24
585.969	8037.12
586.329	8018.59
586.688	8050.9
587.048	7995.76
587.408	8008.42
587.768	8026.05
588.127	8080.28
588.487	8026.72
588.846	8089.55
589.206	8048.19
589.565	8067.17
589.925	8142.65
590.284	8097.46
590.643	8143.56
591.003	8152.14
591.362	8160.28
591.721	8176.1
592.08	8135.65
592.44	8203.44
592.799	8188.98
593.158	8192.6
593.517	8200.73
593.876	8183.1
594.235	8163.9
594.593	8167.74
594.952	8217.91
595.311	8113.5
595.67	8253.84
596.029	8289.09
596.387	8307.39
596.746	8279.82
597.104	8252.93
597.463	8272.14
597.822	8246.83
598.18	8227.62
598.538	8244.8
598.897	8333.83
599.255	8206.38
599.613	8351.01
599.972	8317.79
600.33	8295.64
600.688	8298.36
601.046	8380.84
601.404	8374.51
601.762	8370.44
602.12	8383.32
602.478	8358.69
602.836	8374.06
603.194	8320.05
603.552	8375.64
603.91	8329.54
604.268	8344.68
604.625	8343.1
604.983	8404.34
605.341	8308.98
605.698	8390.78
606.056	8417.9
606.413	8383.32
606.771	8396.88
607.128	8428.75
607.485	8380.39
607.843	8367.96
608.2	8440.27
608.557	8485.47
608.914	8432.14
609.272	8504
609.629	8451.12
609.986	8532.02
610.343	8450.44
610.7	8527.28
611.057	8534.06
611.414	8465.58
611.771	8433.49
612.127	8520.72
612.484	8602.3
612.841	8578.57
613.198	8559.82
613.554	8583.55
613.911	8618.12
614.267	8582.19
614.624	8557.33
614.98	8527.28
615.337	8659.93
615.693	8627.16
616.05	8593.49
616.406	8632.36
616.762	8549.87
617.118	8689.08
617.475	8605.92
617.831	8638.91
618.187	8669.87
618.543	8631
618.899	8700.6
619.255	8727.27
619.611	8668.06
619.967	8774.73
620.323	8659.02
620.678	8662.41
621.034	8598.01
621.39	8738.57
621.746	8664.9
622.101	8760.72
622.457	8683.66
622.812	8710.77
623.168	8723.43
623.523	8696.54
623.879	8742.64
624.234	8688.18
624.589	8701.28
624.945	8700.6
625.3	8762.52
625.655	8655.18
626.01	8715.52
626.365	8768.4
626.72	8653.6
627.075	8726.59
627.43	8643.88
627.785	8634.84
628.14	8728.4
628.495	8663.09
628.85	8660.15
629.205	8611.34
629.559	8746.25
629.914	8641.17
630.269	8678.91
630.623	8589.42
630.978	8582.19
631.332	8691.57
631.687	8616.99
632.041	8550.78
632.396	8645.92
632.75	8598.23
633.104	8639.59
633.459	8559.37
633.813	8542.19
634.167	8565.24
634.521	8498.58
634.875	8561.85
635.229	8487.73
635.583	8489.54
635.937	8470.33
636.291	8452.02
636.645	8456.32
636.999	8429.2
637.352	8479.82
637.706	8397.56
638.06	8492.7
638.413	8426.94
638.767	8366.15
639.121	8476.66
639.474	8409.31
639.828	8393.72
640.181	8435.98
640.534	8443.89
640.888	8399.6
641.241	8308.75
641.594	8388.52
641.947	8350.33
642.301	8325.02
642.654	8375.64
643.007	8375.64
643.36	8348.75
643.713	8314.17
644.066	8376.32
644.419	8378.35
644.771	8307.17
645.124	8155.53
645.477	8223.55
645.83	8088.19
646.182	8037.8
646.535	8043.9
646.888	8092.26
647.24	8024.69
647.593	8082.09
647.945	8061.75
648.298	8004.13
648.65	7996.22
649.002	8001.41
649.355	8010
649.707	8029.66
650.059	8012.94
650.411	8073.73
650.763	8119.6
651.115	8202.09
651.467	8189.21
651.819	8190.34
652.171	8150.56
652.523	8157.34
652.875	8165.48
653.227	8094.07
653.578	8184.91
653.93	8198.92
654.282	8162.77
654.633	8114.63
654.985	8162.54
655.337	8171.8
655.688	8138.36
656.039	8191.69
656.391	8095.2
656.742	8189.43
657.094	8130.9
657.445	8167.06
657.796	8133.84
658.147	8136.78
658.498	8112.82
658.849	8216.1
659.2	8158.25
659.551	8165.48
659.902	8173.84
660.253	8226.04
660.604	8181.07
660.955	8128.19
661.306	8121.41
661.656	8134.52
662.007	8132.71
662.358	8195.31
662.708	8182.65
663.059	8190.11
663.409	8098.13
663.76	8171.8
664.11	8130.68
664.461	8196.44
664.811	8219.71
665.161	8190.11
665.511	8150.79
665.862	8210.9
666.212	8200.96
666.562	8198.7
666.912	8188.98
667.262	8110.34
667.612	8171.8
667.962	8175.19
668.312	8219.71
668.662	8190.11
669.011	8163.22
669.361	8192.37
669.711	8163.9
670.06	8151.01
670.41	8099.04
670.76	8082.09
671.109	8163.44
671.459	8168.87
671.808	8142.43
672.157	8131.58
672.507	8063.11
672.856	8075.08
673.205	8112.37
673.554	8103.11
673.904	8055.42
674.253	8149.88
674.602	8099.49
674.951	7951.7
675.3	7929.55
675.649	8026.72
675.998	8059.94
676.346	8036.22
676.695	8148.3
677.044	8055.65
677.393	8095.65
677.741	8074.41
678.09	8017.68
678.438	8027.4
678.787	7987.4
679.135	8029.44
679.484	7920.96
679.832	7942.66
680.181	7938.82
680.529	7961.87
680.877	7938.59
681.225	7852.72
681.573	7928.65
681.922	7887.74
682.27	7850.23
682.618	7884.81
682.966	7881.19
683.314	7843.45
683.661	7803.45
684.009	7755.77
684.357	7737.69
684.705	7763.23
685.053	7767.3
685.4	7768.2
685.748	7705.15
686.095	7712.83
686.443	7668.77
686.79	7642.33
687.138	7635.32
687.485	7673.06
687.832	7596.45
688.18	7618.15
688.527	7589.45
688.874	7590.13
689.221	7527.75
689.568	7522.78
689.915	7483.01
690.262	7445.27
690.609	7485.27
690.956	7412.73
691.303	7388.32
691.65	7398.94
691.997	7395.55
692.344	7289.34
692.69	7301.32
693.037	7362.79
693.383	7301.32
693.73	7294.09
694.077	7192.17
694.423	7230.13
694.769	7181.1
695.116	7227.65
695.462	7142.68
695.808	7122.11
696.155	7105.39
696.501	7113.08
696.847	7011.84
697.193	7065.39
697.539	6972.06
697.885	6975
698.231	6945.85
698.577	6979.52
698.923	6960.76
699.269	6855
699.614	6855
699.96	6866.3
700.306	6858.17
700.651	6811.39
700.997	6785.17
701.342	6779.53
701.688	6765.74
702.033	6791.95
702.379	6713.54
702.724	6702.01
703.069	6729.13
703.415	6677.15
703.76	6631.51
704.105	6593.09
704.45	6626.76
704.795	6557.38
705.14	6550.38
705.485	6556.93
705.83	6499.53
706.175	6487.33
706.52	6502.24
706.865	6417.95
707.209	6444.39
707.554	6433.32
707.899	6417.95
708.243	6382.47
708.588	6353.55
708.932	6308.58
709.277	6358.29
709.621	6304.51
709.966	6298.18
710.31	6352.87
710.654	6241.23
710.998	6224.74
711.342	6213.66
711.687	6224.51
712.031	6219.31
712.375	6132.31
712.719	6158.75
713.063	6162.82
713.407	6141.35
713.75	6137.96
714.094	6113.78
714.438	6090.5
714.782	6112.42
715.125	6093.22
715.469	6094.8
715.812	6090.28
716.156	6001.92
716.499	6089.83
716.843	6018.19
717.186	6001.01
717.53	6026.1
717.873	6042.82
718.216	6012.54
718.559	6015.03
718.902	5947.91
719.246	5956.5
719.589	5980.45
719.932	5915.82
720.275	5918.3
720.617	5981.35
720.96	5929.38
721.303	5971.41
721.646	5950.85
721.989	5908.36
722.331	5882.6
722.674	5915.59
723.016	5902.49
723.359	5873.79
723.701	5931.19
724.044	5861.58
724.386	5817.52
724.729	5885.99
725.071	5854.8
725.413	5903.84
725.755	5851.41
726.097	5809.38
726.439	5827.23
726.782	5827.69
727.124	5855.03
727.465	5808.7
727.807	5809.83
728.149	5754.92
728.491	5830.4
728.833	5856.39
729.175	5813.45
729.516	5754.24
729.858	5804.41
730.199	5771.19
730.541	5745.43
730.882	5833.34
731.224	5796.27
731.565	5742.94
731.906	5753.79
732.248	5774.35
732.589	5750.4
732.93	5749.04
733.271	5763.73
733.612	5803.96
733.953	5799.89
734.294	5751.98
734.635	5819.55
734.976	5823.62
735.317	5741.59
735.658	5742.94
735.999	5751.3
736.339	5766.67
736.68	5800.34
737.021	5771.42
737.361	5786.56
737.702	5787.69
738.042	5842.83
738.383	5774.81
738.723	5763.28
739.063	5780
739.404	5828.14
739.744	5813
740.084	5880.79
740.424	5783.62
740.764	5816.16
741.104	5840.11
741.444	5828.36
741.784	5829.04
742.124	5829.72
742.464	5935.93
742.804	5899.1
743.143	5883.05
743.483	5909.94
743.823	5935.93
744.162	5878.76
744.502	6013.67
744.841	5956.95
745.181	6011.18
745.52	5994.01
745.86	6032.43
746.199	6080.33
746.538	6107
746.877	6108.81
747.216	6149.03
747.556	6169.37
747.895	6266.32
748.234	6183.83
748.573	6243.95
748.911	6271.52
749.25	6310.16
749.589	6348.35
749.928	6426.99
750.267	6484.84
750.605	6557.61
750.944	6561.45
751.283	6573.2
751.621	6655.46
751.96	6704.27
752.298	6747.66
752.636	6818.85
752.975	6897.26
753.313	6917.37
753.651	7067.43
753.989	7100.87
754.327	7112.17
754.666	7270.81
755.004	7334.99
755.342	7437.81
755.679	7505.38
756.017	7573.63
756.355	7687.75
756.693	7751.03
757.031	7926.16
757.368	7923.9
757.706	8063.33
758.044	8136.78
758.381	8297
758.719	8341.74
759.056	8523.89
759.394	8592.81
759.731	8664.22
760.068	8800.04
760.405	8830.54
760.743	8937.89
761.08	9165.45
761.417	9225.34
761.754	9328.16
762.091	9532.9
762.428	9525.22
762.765	9704.87
763.102	9804.08
763.438	9915.71
763.775	10015.15
764.112	10199.77
764.449	10295.36
764.785	10303.27
765.122	10434.57
765.458	10529.48
765.795	10700.1
766.131	10773.09
766.467	10856.93
766.804	10921.11
767.14	11011.96
767.476	11149.58
767.812	11249.01
768.148	11369.01
768.485	11411.49
768.821	11444.49
769.157	11502.34
769.492	11614.65
769.828	11725.16
