Data from hue_80_FLMS001491_62.txt Node
Date: Mon Feb 06 15:23:22 GMT 2017
User: dcchb
Spectrometer: FLMS00149
Trigger mode: 0
Integration Time (sec): 2.000000E-2
Scans to average: 10
Electric dark correction enabled: true
Nonlinearity correction enabled: false
Boxcar width: 0
XAxis mode: Wavelengths
Number of Pixels in Spectrum: 2048
>>>>>Begin Spectral Data<<<<<
341.393	-21.07
341.776	-21.07
342.16	-21.07
342.543	-50
342.927	-54.29
343.31	-93.16
343.693	-66.04
344.077	-74.18
344.46	-47.06
344.843	-51.58
345.226	-57
345.61	-16.55
345.993	-12.26
346.376	-5.48
346.759	15.08
347.142	20.96
347.525	43.56
347.908	62.54
348.291	72.48
348.674	106.16
349.057	102.54
349.44	120.17
349.823	138.92
350.206	184.35
350.588	212.37
350.971	216.66
351.354	222.76
351.737	254.4
352.119	271.57
352.502	240.16
352.884	269.09
353.267	273.16
353.65	284
354.032	286.04
354.414	306.15
354.797	321.97
355.179	333.72
355.562	328.52
355.944	325.81
356.326	360.39
356.709	329.2
357.091	324
357.473	357
357.855	365.13
358.238	331.69
358.62	335.98
359.002	344.57
359.384	337.34
359.766	340.05
360.148	337.34
360.53	336.66
360.912	349.76
361.294	331.69
361.676	335.75
362.057	326.49
362.439	354.28
362.821	339.14
363.203	359.48
363.584	336.66
363.966	353.83
364.348	324.45
364.729	330.56
365.111	351.57
365.493	329.2
365.874	334.85
366.256	308.64
366.637	320.61
367.019	314.06
367.4	309.54
367.781	317.22
368.163	322.87
368.544	304.34
368.925	317.68
369.306	315.87
369.688	326.71
370.069	310.67
370.45	305.02
370.831	334.62
371.212	300.05
371.593	322.42
371.974	328.75
372.355	309.54
372.736	311.8
373.117	333.95
373.498	318.35
373.879	326.26
374.26	300.05
374.641	314.29
375.021	312.48
375.402	340.95
375.783	335.98
376.163	312.7
376.544	339.37
376.925	314.51
377.305	317.9
377.686	328.52
378.066	299.6
378.447	336.66
378.827	320.16
379.208	314.06
379.588	321.74
379.968	322.19
380.349	350.89
380.729	315.64
381.109	321.29
381.489	341.18
381.87	345.7
382.25	336.88
382.63	357.22
383.01	349.99
383.39	345.25
383.77	330.78
384.15	345.47
384.53	349.31
384.91	343.44
385.29	333.49
385.67	334.4
386.049	329.65
386.429	357.67
386.809	358.8
387.189	343.89
387.568	352.25
387.948	345.02
388.328	352.48
388.707	364.68
389.087	356.54
389.466	365.81
389.846	338.47
390.225	339.82
390.605	353.38
390.984	347.05
391.363	359.71
391.743	350.22
392.122	356.09
392.501	366.26
392.881	376.66
393.26	374.4
393.639	370.56
394.018	363.1
394.397	367.39
394.776	333.49
395.155	367.62
395.534	384.11
395.913	379.37
396.292	367.39
396.671	371.69
397.05	353.38
397.429	369.65
397.808	394.96
398.186	395.19
398.565	394.74
398.944	377.79
399.323	381.63
399.701	383.44
400.08	372.59
400.458	384.79
400.837	374.62
401.215	404.45
401.594	407.16
401.972	392.7
402.351	378.46
402.729	394.51
403.107	410.55
403.486	413.27
403.864	387.5
404.242	408.97
404.62	394.06
404.999	419.37
405.377	398.58
405.755	420.5
406.133	394.06
406.511	413.04
406.889	426.6
407.267	434.06
407.645	410.55
408.023	410.1
408.401	417.11
408.779	434.06
409.156	435.19
409.534	408.07
409.912	428.41
410.29	449.88
410.667	451.46
411.045	425.47
411.422	450.1
411.8	453.94
412.178	441.51
412.555	468.18
412.933	442.42
413.31	453.72
413.687	440.38
414.065	444.68
414.442	447.16
414.819	462.98
415.197	474.96
415.574	465.02
415.951	467.73
416.328	469.99
416.705	471.8
417.082	499.14
417.46	488.97
417.837	475.19
418.214	495.75
418.591	484.45
418.967	484.68
419.344	493.49
419.721	490.33
420.098	493.94
420.475	481.74
420.852	496.43
421.228	482.19
421.605	515.41
421.982	516.54
422.358	507.27
422.735	500.72
423.111	529.42
423.488	529.42
423.864	509.31
424.241	550.44
424.617	547.5
424.994	529.87
425.37	520.16
425.746	530.78
426.123	540.04
426.499	524.68
426.875	540.27
427.251	557.44
427.627	558.8
428.003	574.17
428.379	547.73
428.756	589.08
429.132	600.15
429.507	586.37
429.883	598.35
430.259	608.74
430.635	593.37
431.011	584.79
431.387	615.52
431.763	589.08
432.138	601.28
432.514	607.39
432.89	622.53
433.265	616.88
433.641	648.74
434.016	660.94
434.392	640.38
434.767	656.42
435.143	639.7
435.518	664.78
435.894	644.9
436.269	671.79
436.644	673.37
437.02	676.31
437.395	669.76
437.77	681.51
438.145	673.82
438.52	685.8
438.895	702.75
439.271	682.19
439.646	699.81
440.021	734.39
440.395	716.76
440.77	727.83
441.145	716.08
441.52	735.74
441.895	741.62
442.27	747.27
442.645	728.29
443.019	746.36
443.394	747.72
443.769	748.17
444.143	745.23
444.518	754.5
444.892	762.18
445.267	746.59
445.641	766.03
446.016	784.78
446.39	796.76
446.764	778.68
447.139	783.43
447.513	789.98
447.887	772.58
448.262	811.45
448.636	799.92
449.01	798.34
449.384	842.86
449.758	801.5
450.132	811.22
450.506	858.9
450.88	825.23
451.254	827.94
451.628	877.89
452.002	870.66
452.376	869.53
452.75	868.85
453.123	861.16
453.497	880.6
453.871	895.29
454.244	901.39
454.618	941.61
454.992	904.55
455.365	915.85
455.739	956.53
456.112	926.02
456.486	931.22
456.859	973.7
457.232	999.92
457.606	996.98
457.979	988.84
458.352	997.88
458.725	1019.13
459.099	1016.87
459.472	1039.69
459.845	1051.89
460.218	1057.54
460.591	1042.4
460.964	1052.35
461.337	1083.53
461.71	1109.97
462.083	1129.41
462.456	1128.28
462.829	1152.68
463.201	1138.44
463.574	1154.94
463.947	1193.81
464.32	1212.12
464.692	1219.57
465.065	1239.01
465.438	1232.91
465.81	1263.64
466.183	1279.01
466.555	1291.66
466.928	1325.78
467.3	1337.54
467.672	1350.87
468.045	1344.54
468.417	1394.94
468.789	1413.92
469.161	1431.54
469.534	1422.28
469.906	1490.98
470.278	1481.49
470.65	1530.98
471.022	1571.88
471.394	1585.66
471.766	1595.16
472.138	1603.29
472.51	1667.47
472.882	1730.75
473.253	1765.09
473.625	1784.98
473.997	1835.83
474.369	1866.11
474.74	1874.92
475.112	1914.92
475.484	2003.05
475.855	2005.09
476.227	2045.09
476.598	2099.1
476.97	2159.89
477.341	2263.84
477.713	2307.23
478.084	2323.05
478.455	2445.98
478.827	2497.05
479.198	2553.32
479.569	2601.91
479.94	2712.87
480.311	2727.1
480.682	2820.89
481.053	2861.56
481.424	3003.48
481.795	3054.1
482.166	3151.95
482.537	3222.91
482.908	3326.18
483.279	3424.26
483.65	3552.17
484.021	3661.99
484.391	3690.92
484.762	3877.81
485.133	3920.74
485.503	4024.02
485.874	4163.9
486.244	4245.48
486.615	4391.01
486.985	4487.74
487.356	4616.77
487.726	4712.81
488.097	4876.65
488.467	4996.87
488.837	5106.25
489.207	5261.05
489.578	5364.32
489.948	5532.68
490.318	5677.08
490.688	5800.02
491.058	5921.82
491.428	6043.17
491.798	6201.36
492.168	6342.15
492.538	6463.73
492.908	6549.38
493.278	6809.71
493.648	6897.16
494.017	7003.83
494.387	7148.23
494.757	7292.18
495.126	7473.65
495.496	7568.56
495.866	7680.42
496.235	7820.3
496.605	7966.06
496.974	8093.29
497.344	8308.43
497.713	8393.62
498.082	8478.36
498.452	8673.16
498.821	8746.61
499.19	8874.96
499.559	8978.92
499.928	9080.16
500.298	9270.43
500.667	9390.88
501.036	9505.91
501.405	9635.4
501.774	9673.14
502.143	9801.72
502.512	9908.16
502.88	9995.84
503.249	10183.18
503.618	10233.12
503.987	10405.77
504.356	10493.9
504.724	10577.74
505.093	10666.33
505.462	10732.99
505.83	10814.8
506.199	11020.9
506.567	11125.75
506.936	11194.45
507.304	11331.62
507.672	11474.9
508.041	11513.09
508.409	11576.36
508.777	11718.05
509.145	11835.79
509.514	11844.6
509.882	12005.96
510.25	11975.67
510.618	12091.38
510.986	12203.69
511.354	12352.39
511.722	12438.71
512.09	12493.4
512.458	12543.79
512.826	12579.95
513.193	12734.07
513.561	12787.63
513.929	12872.83
514.297	12955.54
514.664	13148.3
515.032	13163.21
515.4	13207.73
515.767	13246.6
516.135	13342.19
516.502	13332.93
516.869	13607.04
517.237	13604.78
517.604	13505.58
517.972	13622.41
518.339	13845
518.706	13776.53
519.073	13882.97
519.44	13994.6
519.808	14072.34
520.175	14054.04
520.542	14159.12
520.909	14303.3
521.276	14150.08
521.643	14400.92
522.009	14526.34
522.376	14501.48
522.743	14581.93
523.11	14626.9
523.477	14849.5
523.843	14826.67
524.21	15019.44
524.577	15018.08
524.943	15126.78
525.31	15088.13
525.676	15241.8
526.043	15285.19
526.409	15402.93
526.776	15456.71
527.142	15438.63
527.508	15495.36
527.874	15581.91
528.241	15658.74
528.607	15620.1
528.973	15821.22
529.339	15720.66
529.705	15793.2
530.071	15975.57
530.437	15929.92
530.803	15955.23
531.169	16082.68
531.535	15987.09
531.901	16056.47
532.267	16070.48
532.632	16113.19
532.998	16157.94
533.364	16154.77
533.73	16172.85
534.095	16286.07
534.461	16243.13
534.826	16294.2
535.192	16277.48
535.557	16402.68
535.923	16359.06
536.288	16281.78
536.653	16373.07
537.019	16239.52
537.384	16390.25
537.749	16407.87
538.114	16482.67
538.479	16371.26
538.845	16451.04
539.21	16303.02
539.575	16414.88
539.94	16374.43
540.305	16405.61
540.67	16371.26
541.034	16456.46
541.399	16462.34
541.764	16474.31
542.129	16494.43
542.494	16459.62
542.858	16491.71
543.223	16373.98
543.587	16411.94
543.952	16330.36
544.316	16398.16
544.681	16314.09
545.045	16447.42
545.41	16406.52
545.774	16417.36
546.138	16316.58
546.503	16437.7
546.867	16325.39
547.231	16465.05
547.595	16431.6
547.959	16399.51
548.324	16407.42
548.688	16368.33
549.052	16438.38
549.416	16271.61
549.779	16361.77
550.143	16249.23
550.507	16427.76
550.871	16439.74
551.235	16375.11
551.599	16388.21
551.962	16448.1
552.326	16439.29
552.689	16421.66
553.053	16339.63
553.417	16392.28
553.78	16578.94
554.143	16426.18
554.507	16361.32
554.87	16410.81
555.234	16496.68
555.597	16403.13
555.96	16402.45
556.323	16380.98
556.686	16404.71
557.05	16531.71
557.413	16413.52
557.776	16432.51
558.139	16507.98
558.502	16566.29
558.865	16509.34
559.228	16639.96
559.59	16653.97
559.953	16642.22
560.316	16778.49
560.679	16739.16
561.041	16733.29
561.404	16779.84
561.767	16843.12
562.129	16850.12
562.492	16970.34
562.854	16830.91
563.217	16894.64
563.579	16908.43
563.941	16863.23
564.304	17033.39
564.666	17051.7
565.028	17001.3
565.39	17056.9
565.753	17189.1
566.115	17117.69
566.477	17201.53
566.839	17213.28
567.201	17218.25
567.563	17133.28
567.925	17320.39
568.287	17266.38
568.648	17258.25
569.01	17451.24
569.372	17436.1
569.734	17373.72
570.095	17507.73
570.457	17424.12
570.819	17536.43
571.18	17474.74
571.542	17609.2
571.903	17649.65
572.265	17627.28
572.626	17652.59
572.987	17776.2
573.349	17723.55
573.71	17828.4
574.071	17815.07
574.432	17850.55
574.794	17941.17
575.155	17871.56
575.516	17864.56
575.877	17935.52
576.238	17860.72
576.599	17905.91
576.96	17996.76
577.32	17926.7
577.681	18034.72
578.042	17976.19
578.403	18076.3
578.763	18062.97
579.124	18028.17
579.485	18112.46
579.845	18063.2
580.206	18037.44
580.566	18106.81
580.927	17949.08
581.287	18227.49
581.648	17936.42
582.008	18181.84
582.368	17980.71
582.728	18074.04
583.089	17957.66
583.449	17883.09
583.809	18044.67
584.169	18080.15
584.529	18001.73
584.889	18060.03
585.249	18075.17
585.609	17987.49
585.969	18152.23
586.329	17963.09
586.688	18038.34
587.048	17970.32
587.408	18035.85
587.768	17985.91
588.127	17976.87
588.487	17994.95
588.846	18143.2
589.206	18010.32
589.565	17893.94
589.925	18053.48
590.284	17945.01
590.643	18009.87
591.003	17982.97
591.362	18040.37
591.721	17918.34
592.08	17957.66
592.44	17963.31
592.799	18072.46
593.158	18017.77
593.517	18035.18
593.876	17993.37
594.235	17932.81
594.593	17898.23
594.952	18001.28
595.311	17973.03
595.67	17973.48
596.029	17956.53
596.387	17936.65
596.746	17932.81
597.104	17927.38
597.463	17867.5
597.822	17898.68
598.18	17860.72
598.538	17853.94
598.897	18044.44
599.255	17869.98
599.613	18031.56
599.972	17959.02
600.33	17990.88
600.688	17893.03
601.046	17963.54
601.404	18059.81
601.762	17935.97
602.12	17992.01
602.478	18042.18
602.836	18030.66
603.194	17978.91
603.552	17988.17
603.91	17851.45
604.268	18002.18
604.625	17944.56
604.983	18131.44
605.341	17895.74
605.698	18025.23
606.056	18009.41
606.413	17993.37
606.771	18104.33
607.128	18152.23
607.485	17959.92
607.843	18075.63
608.2	18102.07
608.557	18156.3
608.914	18109.52
609.272	18177.54
609.629	18222.06
609.986	18242.4
610.343	18072.46
610.7	18322.63
611.057	18252.34
611.414	18320.82
611.771	18249.86
612.127	18387.26
612.484	18314.94
612.841	18364.66
613.198	18366.47
613.554	18408.95
613.911	18414.15
614.267	18384.77
614.624	18368.5
614.98	18500.47
615.337	18578.66
615.693	18542.73
616.05	18474.26
616.406	18596.97
616.762	18392
617.118	18475.16
617.475	18544.54
617.831	18467.93
618.187	18555.39
618.543	18652.56
618.899	18715.61
619.255	18620.02
619.611	18667.25
619.967	18616.4
620.323	18859.33
620.678	18667.7
621.034	18716.97
621.39	18560.13
621.746	18642.17
622.101	18803.52
622.457	18753.35
622.812	18703.41
623.168	18797.87
623.523	18766.91
623.879	18785.21
624.234	18685.55
624.589	18762.39
624.945	18805.1
625.3	18853.91
625.655	18800.13
626.01	18775.95
626.365	18779.34
626.72	18755.83
627.075	18738.66
627.43	18868.15
627.785	18705.89
628.14	18756.51
628.495	18843.52
628.85	18755.16
629.205	18728.26
629.559	18853.23
629.914	18703.18
630.269	18661.15
630.623	18625.44
630.978	18615.05
631.332	18741.82
631.687	18716.97
632.041	18637.19
632.396	18684.88
632.75	18593.13
633.104	18618.66
633.459	18541.38
633.813	18518.33
634.167	18498.21
634.521	18489.63
634.875	18535.05
635.229	18523.75
635.583	18314.04
635.937	18387.71
636.291	18275.62
636.645	18431.32
636.999	18348.39
637.352	18236.3
637.706	18201.27
638.06	18302.29
638.413	18241.05
638.767	18314.72
639.121	18327.15
639.474	18284.21
639.828	18161.5
640.181	18364.88
640.534	18222.06
640.888	18276.3
641.241	18080.37
641.594	18163.53
641.947	18281.5
642.301	18120.6
642.654	18142.07
643.007	18123.31
643.36	18153.14
643.713	18144.78
644.066	18139.35
644.419	17978.23
644.771	17807.61
645.124	17772.81
645.477	17744.79
645.83	17606.49
646.182	17510.44
646.535	17524.68
646.888	17514.74
647.24	17398.81
647.593	17503.89
647.945	17509.54
648.298	17373.05
648.65	17424.8
649.002	17370.79
649.355	17378.47
649.707	17456.21
650.059	17501.63
650.411	17679.93
650.763	17678.35
651.115	17908.85
651.467	17855.97
651.819	17823.66
652.171	17852.36
652.523	17761.96
652.875	17785.92
653.227	17853.49
653.578	17810.77
653.93	17794.73
654.282	17798.57
654.633	17750.66
654.985	17827.5
655.337	17763.32
655.688	17715.64
656.039	17779.59
656.391	17592.93
656.742	17814.84
657.094	17742.53
657.445	17894.16
657.796	17823.2
658.147	17705.01
658.498	17721.51
658.849	17845.12
659.2	17863.88
659.551	17790.66
659.902	17897.55
660.253	17769.65
660.604	17829.98
660.955	17768.52
661.306	17856.88
661.656	17781.17
662.007	17979.58
662.358	17991.56
662.708	17825.01
663.059	17835.18
663.409	17735.97
663.76	17877.21
664.11	17834.73
664.461	17985.91
664.811	17796.76
665.161	17899.59
665.511	17807.38
665.862	17811.68
666.212	17895.29
666.562	17779.36
666.912	17804.67
667.262	17857.78
667.612	17874.5
667.962	17809.19
668.312	17763.32
668.662	17825.92
669.011	17817.1
669.361	17799.93
669.711	17757.89
670.06	17811.23
670.41	17760.61
670.76	17821.85
671.109	17798.35
671.459	17790.66
671.808	17716.31
672.157	17861.85
672.507	17721.74
672.856	17777.56
673.205	17761.06
673.554	17804
673.904	17646.03
674.253	17777.33
674.602	17723.77
674.951	17508.86
675.3	17388.86
675.649	17734.39
675.998	17691.91
676.346	17638.8
676.695	17645.13
677.044	17485.36
677.393	17543.89
677.741	17608.29
678.09	17554.51
678.438	17478.35
678.787	17501.4
679.135	17458.92
679.484	17488.3
679.832	17449.88
680.181	17341.86
680.529	17379.37
680.877	17314.97
681.225	17288.3
681.573	17385.93
681.922	17171.24
682.27	17185.48
682.618	17165.14
682.966	17175.99
683.314	17198.14
683.661	17141.41
684.009	17065.48
684.357	17036.33
684.705	17029.78
685.053	16992.72
685.4	16991.14
685.748	16916.33
686.095	16922.21
686.443	16907.97
686.79	16874.98
687.138	16965.6
687.485	16907.3
687.832	16770.35
688.18	16776.68
688.527	16607.87
688.874	16551.82
689.221	16606.06
689.568	16566.06
689.915	16471.37
690.262	16539.17
690.609	16397.25
690.956	16381.21
691.303	16327.65
691.65	16247.65
691.997	16215.79
692.344	16149.8
692.69	16094.66
693.037	16082.01
693.383	15964.95
693.73	16075.23
694.077	15842.46
694.423	15833.2
694.769	15898.51
695.116	15802.92
695.462	15790.26
695.808	15770.15
696.155	15745.52
696.501	15559.76
696.847	15603.6
697.193	15327.9
697.539	15483.6
697.885	15352.53
698.231	15291.74
698.577	15311.63
698.923	15322.7
699.269	15193.89
699.614	15136.49
699.96	15011.53
700.306	15006.55
700.651	14941.7
700.997	14913.22
701.342	14790.29
701.688	14858.08
702.033	14773.34
702.379	14746.9
702.724	14721.82
703.069	14659.22
703.415	14501.94
703.76	14567.92
704.105	14495.16
704.45	14483.18
704.795	14429.62
705.14	14327.7
705.485	14351.2
705.83	14236.63
706.175	14261.26
706.52	14212.68
706.865	14164.99
707.209	14140.14
707.554	14099.91
707.899	14115.28
708.243	13998.45
708.588	13914.61
708.932	13894.72
709.277	13760.71
709.621	13834.16
709.966	13717.77
710.31	13803.42
710.654	13652.92
710.998	13666.7
711.342	13645.69
711.687	13598
712.031	13522.3
712.375	13551.45
712.719	13482.98
713.063	13426.71
713.407	13502.64
713.75	13466.93
714.094	13469.42
714.438	13375.86
714.782	13449.76
715.125	13322.53
715.469	13337.22
715.812	13244.79
716.156	13229.2
716.499	13121.18
716.843	13194.85
717.186	13174.51
717.53	13148.98
717.873	13143.55
718.216	13069.66
718.559	13139.71
718.902	13033.95
719.246	13061.75
719.589	13037.34
719.932	12937
720.275	12948.76
720.617	12897.68
720.96	12905.59
721.303	12895.42
721.646	12985.36
721.989	12833.05
722.331	12864.01
722.674	12849.55
723.016	12899.04
723.359	12727.29
723.701	12836.67
724.044	12726.61
724.386	12668.99
724.729	12773.17
725.071	12719.16
725.413	12773.39
725.755	12730.68
726.097	12701.98
726.439	12565.94
726.782	12589.44
727.124	12618.37
727.465	12580.86
727.807	12664.7
728.149	12598.26
728.491	12574.08
728.833	12565.26
729.175	12557.13
729.516	12592.15
729.858	12578.14
730.199	12574.08
730.541	12575.66
730.882	12589.44
731.224	12568.2
731.565	12520.74
731.906	12431.93
732.248	12555.09
732.589	12440.75
732.93	12460.86
733.271	12464.47
733.612	12506.51
733.953	12547.64
734.294	12451.59
734.635	12537.69
734.976	12511.93
735.317	12404.59
735.658	12380.63
735.999	12554.87
736.339	12491.14
736.68	12434.19
737.021	12454.08
737.361	12415.44
737.702	12472.84
738.042	12516.22
738.383	12482.1
738.723	12456.34
739.063	12455.21
739.404	12460.63
739.744	12528.65
740.084	12464.93
740.424	12586.51
740.764	12449.79
741.104	12544.7
741.444	12507.86
741.784	12502.67
742.124	12578.82
742.464	12551.7
742.804	12501.08
743.143	12519.39
743.483	12587.41
743.823	12601.19
744.162	12644.13
744.502	12646.62
744.841	12614.75
745.181	12789.21
745.52	12752.6
745.86	12685.71
746.199	12814.97
746.538	12824.24
746.877	12794.18
747.216	12931.81
747.556	12906.72
747.895	12979.94
748.234	12981.3
748.573	13052.26
748.911	13069.2
749.25	13163.21
749.589	13265.13
749.928	13284.34
750.267	13394.85
750.605	13453.15
750.944	13386.94
751.283	13463.09
751.621	13567.27
751.96	13606.59
752.298	13699.7
752.636	13900.82
752.975	13874.38
753.313	13872.35
753.651	14082.51
753.989	14128.84
754.327	14234.82
754.666	14250.87
755.004	14476.85
755.342	14576.51
755.679	14715.49
756.017	14802.94
756.355	14856.95
756.693	14924.3
757.031	15030.28
