Data from hue_340_FLMS001491_76.txt Node
Date: Mon Feb 06 15:43:35 GMT 2017
User: dcchb
Spectrometer: FLMS00149
Trigger mode: 0
Integration Time (sec): 2.000000E-2
Scans to average: 10
Electric dark correction enabled: true
Nonlinearity correction enabled: false
Boxcar width: 0
XAxis mode: Wavelengths
Number of Pixels in Spectrum: 2048
>>>>>Begin Spectral Data<<<<<
341.393	-18.77
341.776	-18.77
342.16	-18.77
342.543	-63.74
342.927	-46.11
343.31	-57.64
343.693	-49.05
344.077	-67.36
344.46	-61.71
344.843	-58.54
345.226	-44.98
345.61	-43.63
345.993	-19.9
346.376	-14.93
346.759	6.54
347.142	20.55
347.525	27.56
347.908	61.45
348.291	99.64
348.674	112.3
349.057	89.7
349.44	115.46
349.823	133.77
350.206	176.03
350.588	189.13
350.971	192.98
351.354	216.03
351.737	225.97
352.119	237.27
352.502	256.48
352.884	261
353.267	246.53
353.65	289.24
354.032	289.02
354.414	283.37
354.797	311.39
355.179	332.86
355.562	323.14
355.944	308.45
356.326	313.65
356.709	340.54
357.091	334.89
357.473	357.04
357.855	343.25
358.238	342.12
358.62	326.53
359.002	351.39
359.384	335.57
359.766	326.76
360.148	323.59
360.53	336.93
360.912	344.38
361.294	344.38
361.676	312.29
362.057	337.15
362.439	334.67
362.821	315.01
363.203	303.03
363.584	321.11
363.966	318.4
364.348	309.58
364.729	307.77
365.111	313.2
365.493	329.02
365.874	331.05
366.256	319.3
366.637	315.68
367.019	311.84
367.4	312.97
367.781	302.35
368.163	315.01
368.544	312.29
368.925	316.14
369.306	332.86
369.688	311.62
370.069	316.36
370.45	322.92
370.831	293.76
371.212	311.16
371.593	307.32
371.974	308.45
372.355	308.68
372.736	303.25
373.117	323.59
373.498	307.77
373.879	328.34
374.26	322.69
374.641	300.09
375.021	319.07
375.402	321.79
375.783	316.59
376.163	331.28
376.544	313.42
376.925	320.43
377.305	312.29
377.686	322.69
378.066	321.33
378.447	317.72
378.827	332.41
379.208	322.24
379.588	330.82
379.968	311.39
380.349	339.86
380.729	321.79
381.109	336.02
381.489	326.76
381.87	323.37
382.25	330.82
382.63	327.89
383.01	333.76
383.39	319.07
383.77	326.08
384.15	312.75
384.53	317.49
384.91	353.87
385.29	334.44
385.67	339.19
386.049	351.16
386.429	346.42
386.809	351.39
387.189	351.16
387.568	353.2
387.948	330.6
388.328	357.94
388.707	341.9
389.087	351.84
389.466	351.62
389.846	352.29
390.225	363.82
390.605	345.74
390.984	364.27
391.363	363.14
391.743	358.62
392.122	363.59
392.501	371.95
392.881	366.53
393.26	380.09
393.639	369.47
394.018	378.51
394.397	385.74
394.776	384.61
395.155	345.51
395.534	370.37
395.913	375.8
396.292	376.25
396.671	392.97
397.05	369.47
397.429	382.12
397.808	384.38
398.186	364.95
398.565	380.54
398.944	401.11
399.323	381.44
399.701	389.58
400.08	393.65
400.458	401.33
400.837	413.08
401.215	392.29
401.594	396.81
401.972	395
402.351	385.06
402.729	403.59
403.107	411.27
403.486	407.43
403.864	411.95
404.242	409.92
404.62	424.16
404.999	412.86
405.377	424.61
405.755	428.68
406.133	443.14
406.511	437.71
406.889	421.22
407.267	430.48
407.645	407.21
408.023	455.34
408.401	426.19
408.779	438.62
409.156	473.87
409.534	440.88
409.912	433.19
410.29	482.46
410.667	461.67
411.045	472.06
411.422	452.63
411.8	490.37
412.178	496.7
412.555	467.09
412.933	473.42
413.31	508.67
413.687	506.64
414.065	507.77
414.442	509.13
414.819	506.41
415.197	528.33
415.574	511.84
415.951	529.24
416.328	525.62
416.705	536.02
417.082	528.33
417.46	543.02
417.837	547.77
418.214	544.38
418.591	549.8
418.967	564.72
419.344	570.14
419.721	564.26
420.098	576.69
420.475	585.73
420.852	575.11
421.228	592.96
421.605	593.42
421.982	571.27
422.358	596.81
422.735	607.65
423.111	610.59
423.488	624.15
423.864	618.05
424.241	617.37
424.617	617.6
424.994	633.19
425.37	628.44
425.746	652.17
426.123	655.56
426.499	668.89
426.875	636.13
427.251	653.53
427.627	664.15
428.003	680.42
428.379	691.04
428.756	682.45
429.132	708.44
429.507	704.37
429.883	715.67
430.259	702.79
430.635	728.55
431.011	734.88
431.387	744.6
431.763	755.67
432.138	752.28
432.514	757.71
432.89	758.84
433.265	765.16
433.641	785.5
434.016	779.17
434.392	777.82
434.767	798.16
435.143	811.72
435.518	822.56
435.894	841.55
436.269	852.17
436.644	863.92
437.02	854.65
437.395	839.96
437.77	856.01
438.145	860.53
438.52	862.79
438.895	870.92
439.271	888.1
439.646	918.38
440.021	908.21
440.395	893.97
440.77	909.11
441.145	896.46
441.52	930.58
441.895	931.94
442.27	904.59
442.645	925.84
443.019	918.15
443.394	919.51
443.769	957.02
444.143	951.6
444.518	957.7
444.892	966.29
445.267	952.5
445.641	981.43
446.016	947.76
446.39	977.81
446.764	974.42
447.139	978.27
447.513	990.02
447.887	978.27
448.262	1013.74
448.636	992.73
449.01	978.04
449.384	1020.75
449.758	1027.08
450.132	1024.59
450.506	1023.01
450.88	1057.13
451.254	1036.79
451.628	1037.92
452.002	1054.65
452.376	1080.86
452.75	1072.95
453.123	1057.13
453.497	1091.71
453.871	1116.34
454.244	1088.54
454.618	1130.58
454.992	1140.29
455.365	1127.19
455.739	1130.13
456.112	1148.43
456.486	1160.63
456.859	1183.46
457.232	1158.37
457.606	1190.01
457.979	1168.54
458.352	1183.91
458.725	1215.55
459.099	1200.41
459.472	1229.56
459.845	1260.74
460.218	1253.74
460.591	1267.75
460.964	1263.23
461.337	1301.65
461.71	1338.93
462.083	1318.6
462.456	1330.12
462.829	1347.97
463.201	1342.1
463.574	1341.42
463.947	1365.15
464.32	1381.42
464.692	1401.3
465.065	1428.87
465.438	1430.23
465.81	1421.64
466.183	1451.93
466.555	1497.35
466.928	1484.69
467.3	1500.51
467.672	1517.46
468.045	1510.23
468.417	1523.34
468.789	1571.02
469.161	1566.05
469.534	1570.79
469.906	1627.06
470.278	1634.29
470.65	1630
471.022	1688.3
471.394	1694.18
471.766	1695.53
472.138	1719.94
472.51	1772.82
472.882	1769.88
473.253	1809.43
473.625	1807.17
473.997	1843.78
474.369	1837.9
474.74	1887.39
475.112	1891.91
475.484	1928.07
475.855	1952.93
476.227	1990.89
476.598	2050.1
476.97	2040.16
477.341	2055.98
477.713	2103.66
478.084	2093.72
478.455	2168.74
478.827	2174.17
479.198	2236.76
479.569	2237.22
479.94	2301.17
480.311	2304.78
480.682	2339.59
481.053	2418
481.424	2418.23
481.795	2460.71
482.166	2492.58
482.537	2496.87
482.908	2578
483.279	2609.63
483.65	2592.91
484.021	2695.73
484.391	2708.84
484.762	2756.3
485.133	2777.99
485.503	2781.16
485.874	2880.81
486.244	2897.08
486.615	2911.55
486.985	2943.86
487.356	3032.67
487.726	3044.43
488.097	3055.5
488.467	3111.77
488.837	3204.42
489.207	3182.73
489.578	3246.68
489.948	3267.47
490.318	3269.73
490.688	3327.13
491.058	3370.74
491.428	3378.2
491.798	3408.26
492.168	3482.38
492.538	3473.34
492.908	3515.37
493.278	3563.96
493.648	3596.95
494.017	3677.63
494.387	3673.11
494.757	3706.1
495.126	3711.98
495.496	3717.63
495.866	3789.49
496.235	3778.19
496.605	3849.6
496.974	3839.21
497.344	3895.02
497.713	3950.62
498.082	3896.83
498.452	3954.68
498.821	3989.71
499.19	3989.03
499.559	4067.9
499.928	4046.43
500.298	4120.33
500.667	4126.43
501.036	4123.49
501.405	4153.1
501.774	4153.1
502.143	4182.7
502.512	4194.23
502.88	4247.11
503.249	4244.62
503.618	4256.15
503.987	4293.21
504.356	4310.38
504.724	4346.76
505.093	4318.29
505.462	4314
505.83	4395.35
506.199	4373.2
506.567	4469.7
506.936	4449.13
507.304	4562.35
507.672	4532.75
508.041	4495.23
508.409	4554.89
508.777	4555.35
509.145	4598.28
509.514	4574.78
509.882	4577.72
510.25	4599.41
510.618	4684.38
510.986	4663.14
511.354	4688
511.722	4698.85
512.09	4776.13
512.458	4768.67
512.826	4793.08
513.193	4804.38
513.561	4824.94
513.929	4795.79
514.297	4864.94
514.664	4908.78
515.032	4863.81
515.4	4981.55
515.767	4929.57
516.135	4948.33
516.502	4933.64
516.869	4966.41
517.237	5010.25
517.604	5005.28
517.972	5009.57
518.339	5065.16
518.706	5052.51
519.073	5010.7
519.44	5123.69
519.808	5128.21
520.175	5088.89
520.542	5180.87
520.909	5168.21
521.276	5181.77
521.643	5158.72
522.009	5247.08
522.376	5274.65
522.743	5305.16
523.11	5289.34
523.477	5373.18
523.843	5350.58
524.21	5442.78
524.577	5426.96
524.943	5508.54
525.31	5543.12
525.676	5522.1
526.043	5543.79
526.409	5618.37
526.776	5627.41
527.142	5627.41
527.508	5611.14
527.874	5725.03
528.241	5740.63
528.607	5755.31
528.973	5805.93
529.339	5784.24
529.705	5804.8
530.071	5828.08
530.437	5898.59
530.803	5938.59
531.169	5908.53
531.535	5908.76
531.901	6031.47
532.267	6013.84
532.632	6030.34
532.998	6110.11
533.364	6142.42
533.73	6147.62
534.095	6194.4
534.461	6195.53
534.826	6218.35
535.192	6261.74
535.557	6259.48
535.923	6225.13
536.288	6310.33
536.653	6320.05
537.019	6301.97
537.384	6324.34
537.749	6337.9
538.114	6427.16
538.479	6442.08
538.845	6499.48
539.21	6484.11
539.575	6533.15
539.94	6583.77
540.305	6605.69
540.67	6556.42
541.034	6585.35
541.399	6708.06
541.764	6662.86
542.129	6675.52
542.494	6748.73
542.858	6793.48
543.223	6782.86
543.587	6882.52
543.952	6852.91
544.316	6863.08
544.681	6827.15
545.045	6924.32
545.41	6924.32
545.774	6973.36
546.138	7023.3
546.503	7078.22
546.867	7005.9
547.231	7045.9
547.595	7073.25
547.959	7096.3
548.324	7083.87
548.688	7137.88
549.052	7172.68
549.416	7208.84
549.779	7265.78
550.143	7211.55
550.507	7265.56
550.871	7333.8
551.235	7297.87
551.599	7369.96
551.962	7408.6
552.326	7404.08
552.689	7411.32
553.053	7427.81
553.417	7436.17
553.78	7475.95
554.143	7510.52
554.507	7475.5
554.87	7547.58
555.234	7602.72
555.597	7585.1
555.96	7645.21
556.323	7659.67
556.686	7730.18
557.05	7697.18
557.413	7732.66
557.776	7691.76
558.139	7805.66
558.502	7756.62
558.865	7806.33
559.228	7863.96
559.59	7856.28
559.953	7950.51
560.316	7968.36
560.679	7949.16
561.041	8025.99
561.404	8072.77
561.767	8087.23
562.129	8080
562.492	8163.16
562.854	8209.49
563.217	8134.24
563.579	8191.86
563.941	8275.25
564.304	8295.59
564.666	8313.67
565.028	8291.97
565.39	8281.35
565.753	8404.51
566.115	8386.43
566.477	8476.37
566.839	8489.25
567.201	8502.14
567.563	8558.86
567.925	8632.3
568.287	8625.07
568.648	8639.76
569.01	8675.24
569.372	8725.86
569.734	8677.27
570.095	8794.78
570.457	8750.72
570.819	8839.53
571.18	8840.21
571.542	8949.81
571.903	8910.49
572.265	9017.38
572.626	9061.89
572.987	9053.08
573.349	9090.82
573.71	9207.65
574.071	9204.04
574.432	9305.5
574.794	9398.16
575.155	9407.42
575.516	9377.82
575.877	9454.2
576.238	9620.75
576.599	9641.54
576.96	9665.04
577.32	9781.65
577.681	9907.3
578.042	9914.3
578.403	10008.54
578.763	10039.27
579.124	10213.05
579.485	10282.2
579.845	10424.34
580.206	10460.05
580.566	10582.08
580.927	10757.67
581.287	10881.51
581.648	10914.5
582.008	11084.67
582.368	11249.18
582.728	11378.22
583.089	11587.7
583.449	11626.12
583.809	11806
584.169	12062.27
584.529	12143.85
584.889	12348.14
585.249	12527.34
585.609	12605.53
585.969	12924.39
586.329	13040.77
586.688	13256.36
587.048	13539.29
587.408	13647.54
587.768	13906.29
588.127	14063.34
588.487	14283.45
588.846	14654.52
589.206	14811.8
589.565	14946.49
589.925	15292.24
590.284	15510.99
590.643	15856.07
591.003	16076.17
591.362	16272.78
591.721	16549.61
592.08	16916.38
592.44	17142.59
592.799	17402.92
593.158	17725.85
593.517	18059.62
593.876	18309.33
594.235	18552.04
594.593	18797.91
594.952	19097.79
595.311	19307.95
595.67	19756.53
596.029	20008.05
596.387	20214.37
596.746	20580.24
597.104	20866.56
597.463	21015.7
597.822	21432.42
598.18	21730.71
598.538	21918.51
598.897	22408.89
599.255	22347.87
599.613	23004.58
599.972	23095.2
600.33	23362.99
600.688	23685.92
601.046	23978.34
601.404	24399.12
601.762	24580.13
602.12	24889.05
602.478	25077.74
602.836	25382.37
603.194	25518.41
603.552	25858.97
603.91	25997.72
604.268	26364.94
604.625	26594.09
604.983	26890.13
605.341	27031.37
605.698	27470
606.056	27737.79
606.413	27922.87
606.771	28131.68
607.128	28371.67
607.485	28537.31
607.843	28800.13
608.2	29065.21
608.557	29391.3
608.914	29556.95
609.272	29717.17
609.629	30015.92
609.986	30430.6
610.343	30360.32
610.7	30714.43
611.057	30780.19
611.414	30986.29
611.771	31204.59
612.127	31645.48
612.484	31627.63
612.841	31904.68
613.198	32102.64
613.554	32123.66
613.911	32535.18
614.267	32611.11
614.624	32728.84
614.98	32913.47
615.337	33211.32
615.693	33285.66
616.05	33223.97
616.406	33711.64
616.762	33654.69
617.118	33870.28
617.475	33931.07
617.831	34161.57
618.187	34419.19
618.543	34477.72
618.899	34781.9
619.255	34842.69
619.611	34841.1
619.967	35063.47
620.323	35172.17
620.678	35060.53
621.034	35282.22
621.39	35324.71
621.746	35453.29
622.101	35802.66
622.457	35644.47
622.812	35821.19
623.168	36059.38
623.523	36146.15
623.879	36262.31
624.234	36070.68
624.589	36428.41
624.945	36545.69
625.3	36501.62
625.655	36546.37
626.01	36631.34
626.365	36841.5
626.72	36819.81
627.075	36925.79
627.43	36893.25
627.785	36968.28
628.14	36911.78
628.495	37144.77
628.85	37228.61
629.205	37082.85
629.559	37347.48
629.914	37225.22
630.269	37308.38
630.623	37305.9
630.978	37337.08
631.332	37341.15
631.687	37544.08
632.041	37311.77
632.396	37561.48
632.75	37261.15
633.104	37495.95
633.459	37434.71
633.813	37519.45
634.167	37487.59
634.521	37377.76
634.875	37560.58
635.229	37525.78
635.583	37434.03
635.937	37335.28
636.291	37433.58
636.645	37511.09
636.999	37511.77
637.352	37537.98
637.706	37364.88
638.06	37513.8
638.413	37466.8
638.767	37497.31
639.121	37542.95
639.474	37346.57
639.828	37536.4
640.181	37596.29
640.534	37429.28
640.888	37349.96
641.241	37171.44
641.594	37318.78
641.947	37558.32
642.301	37466.8
642.654	37437.87
643.007	37501.82
643.36	37453.01
643.713	37338.67
644.066	37455.05
644.419	37350.87
644.771	37084.21
645.124	36749.08
645.477	36672.02
645.83	36607.38
646.182	36387.73
646.535	36409.2
646.888	36318.13
647.24	36131.69
647.593	36432.93
647.945	36395.19
648.298	36205.36
648.65	36124.69
649.002	36110.45
649.355	36089.43
649.707	36149.77
650.059	36428.86
650.411	36756.53
650.763	36766.7
651.115	37162.4
651.467	37060.71
651.819	37073.81
652.171	36966.47
652.523	37093.47
652.875	36965.12
653.227	36846.7
653.578	36984.55
653.93	36855.97
654.282	36675.63
654.633	36641.06
654.985	36814.39
655.337	36939.13
655.688	36789.98
656.039	36931.67
656.391	36575.52
656.742	36532.58
657.094	36748.85
657.445	36953.14
657.796	36698.23
658.147	36618.01
658.498	36705.69
658.849	36773.03
659.2	36703.43
659.551	36649.87
659.902	36690.55
660.253	36550.89
660.604	36907.49
660.955	36576.88
661.306	36756.76
661.656	36766.02
662.007	36680.6
662.358	36573.26
662.708	36638.34
663.059	36595.86
663.409	36453.72
663.76	36722.64
664.11	36481.74
664.461	36627.72
664.811	36564.45
665.161	36630.89
665.511	36464.56
665.862	36556.31
666.212	36686.93
666.562	36590.21
666.912	36509.53
667.262	36453.26
667.612	36497.56
667.962	36609.64
668.312	36465.24
668.662	36695.07
669.011	36475.41
669.361	36537.56
669.711	36526.03
670.06	36364.91
670.41	36254.4
670.76	36319.48
671.109	36561.74
671.459	36386.37
671.808	36277.45
672.157	36415.53
672.507	36215.3
672.856	36307.51
673.205	36211.69
673.554	36297.11
673.904	36076.1
674.253	36307.96
674.602	36173.5
674.951	35742.1
675.3	35580.29
675.649	36086.27
675.998	36061.41
676.346	36038.59
676.695	36176.44
677.044	35931.47
677.393	36088.75
677.741	36164.91
678.09	36024.35
678.438	35803.11
678.787	36146.83
679.135	36080.17
679.484	35860.51
679.832	35975.54
680.181	35682.66
680.529	35825.03
680.877	35739.39
681.225	35756.56
681.573	35846.5
681.922	35704.13
682.27	35542.55
682.618	35536
682.966	35451.94
683.314	35518.83
683.661	35585.94
684.009	35226.4
684.357	35331.94
684.705	35196.35
685.053	35225.95
685.4	35133.98
685.748	34898.05
686.095	34919.07
686.443	34933.08
686.79	34844.72
687.138	34962
687.485	34935.79
687.832	34717.72
688.18	34849.24
688.527	34574.44
688.874	34599.3
689.221	34492.19
689.568	34258.29
689.915	34418.97
690.262	34323.38
690.609	34238.41
690.956	34198.41
691.303	34054.68
691.65	33931.07
691.997	33973.78
692.344	33731.3
692.69	33755.26
693.037	33663.51
693.383	33435.72
693.73	33468.26
694.077	33381.71
694.423	33400.01
694.769	33364.76
695.116	33263.97
695.462	33055.61
695.808	33077.53
696.155	33094.71
696.501	32874.83
696.847	32905.56
697.193	32616.08
697.539	32828.73
697.885	32650.88
698.231	32531.79
698.577	32501.96
698.923	32407.27
699.269	32299.93
699.614	32224
699.96	32178.57
700.306	32210.44
700.651	32004.57
700.997	31955.53
701.342	31846.15
701.688	31704.01
702.033	31662.66
702.379	31584.92
702.724	31534.07
703.069	31663.56
703.415	31214.98
703.76	31304.02
704.105	31170.01
704.45	31092.5
704.795	31075.1
705.14	30902.45
705.485	30942.9
705.83	30869.23
706.175	30797.14
706.52	30836.46
706.865	30592.4
707.209	30718.5
707.554	30449.58
707.899	30488.9
708.243	30322.8
708.588	30414.55
708.932	30205.52
709.277	30111.51
709.621	30228.57
709.966	30136.37
710.31	30052.75
710.654	29683.5
710.998	29840.56
711.342	29739.09
711.687	29739.09
712.031	29655.48
712.375	29486.67
712.719	29547.01
713.063	29576.84
713.407	29453.22
713.75	29328.71
714.094	29356.5
714.438	29234.47
714.782	29312.89
715.125	29084.19
715.469	29135.72
715.812	29100.69
716.156	28887.81
716.499	28913.8
716.843	28912.67
717.186	28629.74
717.53	28802.17
717.873	28769.17
718.216	28813.47
718.559	28635.62
718.902	28424.32
719.246	28485.34
719.589	28328.73
719.932	28315.63
720.275	28286.02
720.617	28321.28
720.96	28269.3
721.303	28273.82
721.646	28254.61
721.989	28007.61
722.331	28171.22
722.674	28230.66
723.016	27979.82
723.359	27996.99
723.701	27957.67
724.044	27780.27
724.386	27635.64
724.729	27810.55
725.071	27739.14
725.413	27694.17
725.755	27591.58
726.097	27501.64
726.439	27380.28
726.782	27465.25
727.124	27585.48
727.465	27271.59
727.807	27270.91
728.149	27314.07
728.491	27212.83
728.833	27200.4
729.175	27126.05
729.516	27143.45
729.858	27089.22
730.199	27185.03
730.541	27107.97
730.882	27114.3
731.224	27108.2
731.565	26905.04
731.906	26913.63
732.248	26879.28
732.589	26728.55
732.93	26743.24
733.271	26699.85
733.612	26732.39
733.953	26744.59
734.294	26517.25
734.635	26583.24
734.976	26587.31
735.317	26454.66
735.658	26427.77
735.999	26460.99
736.339	26497.59
736.68	26620.08
737.021	26328.79
737.361	26272.06
737.702	26418.73
738.042	26147.55
738.383	26127.66
738.723	26313.19
739.063	26153.2
739.404	26223.7
739.744	26013.31
740.084	26023.71
740.424	26057.38
740.764	25945.29
741.104	26097.38
741.444	25829.59
741.784	25862.13
742.124	25876.59
742.464	25766.31
742.804	25783.71
743.143	25643.83
743.483	25711.85
743.823	25549.82
744.162	25593.44
744.502	25577.17
744.841	25457.62
745.181	25475.47
745.52	25360.45
745.86	25414.01
746.199	25461.01
746.538	25371.07
746.877	25348.92
747.216	25323.61
747.556	25256.27
747.895	25233.45
748.234	25211.98
748.573	25163.84
748.911	25163.39
749.25	25096.95
749.589	24935.83
749.928	25014.7
750.267	25025.77
750.605	24903.06
750.944	24852.67
751.283	24793.01
751.621	24969.27
751.96	24673.01
752.298	24744.42
752.636	24734.02
752.975	24623.07
753.313	24545.33
753.651	24493.58
753.989	24372.23
754.327	24371.1
754.666	24304.21
755.004	24308.27
755.342	24389.85
755.679	24203.42
756.017	24144.44
756.355	24195.28
756.693	24034.61
757.031	24122.74
757.368	23887.04
757.706	23922.07
758.044	23849.75
758.381	23858.79
758.719	23844.1
759.056	23816.76
759.394	23614.73
759.731	23496.32
760.068	23460.16
760.405	23399.6
