Data from hue_210_FLMS001491_00045.txt Node
Date: Tue Feb 07 16:41:15 GMT 2017
User: dcchb
Spectrometer: FLMS00149
Trigger mode: 0
Integration Time (sec): 2.000000E-2
Scans to average: 10
Electric dark correction enabled: true
Nonlinearity correction enabled: false
Boxcar width: 0
XAxis mode: Wavelengths
Number of Pixels in Spectrum: 2048
>>>>>Begin Spectral Data<<<<<
341.393	-4.11
341.776	-4.11
342.16	-4.11
342.543	-38.23
342.927	-66.48
343.31	-57.89
343.693	-64.9
344.077	-76.42
344.46	-57.44
344.843	-46.14
345.226	-41.62
345.61	-21.51
345.993	-5.24
346.376	-3.43
346.759	3.8
347.142	28.43
347.525	50.13
347.908	42.89
348.291	60.3
348.674	97.81
349.057	91.25
349.44	122.67
349.823	153.85
350.206	170.35
350.588	164.93
350.971	204.92
351.354	211.03
351.737	229.78
352.119	251.25
352.502	268.43
352.884	261.19
353.267	281.76
353.65	306.39
354.032	315.66
354.414	295.32
354.797	286.28
355.179	306.84
355.562	319.27
355.944	337.8
356.326	318.82
356.709	318.37
357.091	340.51
357.473	343.9
357.855	310.46
358.238	346.62
358.62	344.36
359.002	355.88
359.384	323.56
359.766	349.33
360.148	335.54
360.53	337.8
360.912	332.6
361.294	324.69
361.676	337.8
362.057	335.32
362.439	333.73
362.821	322.21
363.203	323.34
363.584	305.71
363.966	314.07
364.348	318.59
364.729	307.97
365.111	322.66
365.493	334.41
365.874	309.33
366.256	311.14
366.637	298.03
367.019	314.07
367.4	323.34
367.781	319.95
368.163	295.54
368.544	284.24
368.925	303
369.306	339.38
369.688	311.36
370.069	316.33
370.45	314.98
370.831	310.46
371.212	304.36
371.593	311.59
371.974	321.76
372.355	303.68
372.736	328.31
373.117	293.28
373.498	286.96
373.879	313.17
374.26	343.9
374.641	302.55
375.021	290.8
375.402	305.26
375.783	319.5
376.163	310.23
376.544	319.05
376.925	322.89
377.305	312.94
377.686	319.5
378.066	331.25
378.447	331.93
378.827	326.28
379.208	314.53
379.588	315.2
379.968	325.6
380.349	332.15
380.729	333.73
381.109	341.64
381.489	347.52
381.87	336.22
382.25	333.73
382.63	321.76
383.01	365.37
383.39	332.83
383.77	347.29
384.15	347.75
384.53	344.81
384.91	348.2
385.29	354.98
385.67	349.33
386.049	361.08
386.429	337.35
386.809	337.58
387.189	333.51
387.568	341.64
387.948	328.08
388.328	341.42
388.707	348.88
389.087	344.81
389.466	364.02
389.846	382.32
390.225	365.82
390.605	374.86
390.984	362.89
391.363	348.65
391.743	375.09
392.122	375.77
392.501	360.17
392.881	376.22
393.26	386.84
393.639	388.2
394.018	376.9
394.397	378.03
394.776	360.63
395.155	391.81
395.534	390.91
395.913	363.56
396.292	381.87
396.671	407.86
397.05	414.86
397.429	429.32
397.808	370.12
398.186	396.33
398.565	392.49
398.944	412.15
399.323	392.26
399.701	396.78
400.08	413.28
400.458	400.17
400.837	421.87
401.215	409.21
401.594	402.88
401.972	463.22
402.351	400.17
402.729	441.75
403.107	431.13
403.486	420.29
403.864	429.1
404.242	461.19
404.62	430.23
404.999	430.91
405.377	439.95
405.755	431.13
406.133	468.87
406.511	460.06
406.889	465.71
407.267	455.99
407.645	488.53
408.023	491.47
408.401	479.72
408.779	481.53
409.156	519.04
409.534	524.24
409.912	501.19
410.29	516.78
410.667	515.65
411.045	538.7
411.422	537.34
411.8	544.35
412.178	535.99
412.555	576.89
412.933	562.65
413.31	577.57
413.687	590.22
414.065	608.76
414.442	632.26
414.819	581.86
415.197	632.48
415.574	637
415.951	634.97
416.328	650.79
416.705	663.67
417.082	677.68
417.46	646.27
417.837	676.78
418.214	693.05
418.591	675.65
418.967	681.97
419.344	709.54
419.721	716.1
420.098	712.03
420.475	752.93
420.852	735.98
421.228	761.29
421.605	759.71
421.982	804.23
422.358	810.33
422.735	816.21
423.111	820.5
423.488	831.35
423.864	855.75
424.241	870.67
424.617	873.38
424.994	916.09
425.37	905.92
425.746	935.98
426.123	910.22
426.499	930.1
426.875	980.72
427.251	970.55
427.627	999.03
428.003	1004
428.379	1024.79
428.756	1020.04
429.132	1038.57
429.507	1066.14
429.883	1050.78
430.259	1085.58
430.635	1098.91
431.011	1086.03
431.387	1109.98
431.763	1136.42
432.138	1130.55
432.514	1149.31
432.89	1171.9
433.265	1196.99
433.641	1234.28
434.016	1247.61
434.392	1271.79
434.767	1298.23
435.143	1308.85
435.518	1341.62
435.894	1330.77
436.269	1368.28
436.644	1386.59
437.02	1418.45
437.395	1427.04
437.77	1416.64
438.145	1495.06
438.52	1520.82
438.895	1545.91
439.271	1557.88
439.646	1601.72
440.021	1609.86
440.395	1639.01
440.77	1619.35
441.145	1650.31
441.52	1682.17
441.895	1690.31
442.27	1746.13
442.645	1732.12
443.019	1742.06
443.394	1756.52
443.769	1775.5
444.143	1803.75
444.518	1822.96
444.892	1836.52
445.267	1845.78
445.641	1853.02
446.016	1888.04
446.39	1892.11
446.764	1907.93
447.139	1915.84
447.513	1923.52
447.887	1962.39
448.262	1946.35
448.636	2000.13
449.01	2013.92
449.384	1979.34
449.758	2046.68
450.132	2048.72
450.506	2098.43
450.88	2046.23
451.254	2060.69
451.628	2096.63
452.002	2149.05
452.376	2171.43
452.75	2172.1
453.123	2186.57
453.497	2208.26
453.871	2228.37
454.244	2281.03
454.618	2302.5
454.992	2310.18
455.365	2325.55
455.739	2422.72
456.112	2418.2
456.486	2405.09
456.859	2441.25
457.232	2446.45
457.606	2475.37
457.979	2514.24
458.352	2549.5
458.725	2611.64
459.099	2603.28
459.472	2674.46
459.845	2655.71
460.218	2689.38
460.591	2700
460.964	2733.9
461.337	2798.08
461.71	2795.14
462.083	2839.88
462.456	2836.49
462.829	2825.87
463.201	2934.57
463.574	2964.63
463.947	2988.81
464.32	3060.67
464.692	3059.31
465.065	3069.26
465.438	3109.71
465.81	3201.91
466.183	3178.41
466.555	3252.3
466.928	3252.08
467.3	3273.09
467.672	3315.35
468.045	3398.96
468.417	3398.06
468.789	3443.71
469.161	3454.78
469.534	3494.78
469.906	3599.19
470.278	3600.99
470.65	3669.01
471.022	3719.63
471.394	3754.21
471.766	3783.13
472.138	3846.41
472.51	3920.76
472.882	3938.61
473.253	3980.87
473.625	4065.61
473.997	4116.23
474.369	4125.72
474.74	4214.31
475.112	4262.9
475.484	4325.04
475.855	4370.69
476.227	4365.94
476.598	4486.85
476.97	4549.44
477.341	4637.8
477.713	4699.5
478.084	4748.76
478.455	4829.44
478.827	4853.84
479.198	4980.39
479.569	5014.06
479.94	5121.4
480.311	5167.05
480.682	5224.45
481.053	5349.87
481.424	5374.51
481.795	5481.62
482.166	5511.23
482.537	5624.89
482.908	5707.38
483.279	5750.54
483.65	5822.18
484.021	5930.65
484.391	5948.73
484.762	6024.21
485.133	6068.72
485.503	6125.67
485.874	6229.62
486.244	6307.59
486.615	6405.66
486.985	6465.1
487.356	6597.52
487.726	6641.36
488.097	6753.68
488.467	6722.04
488.837	6859.21
489.207	6955.03
489.578	6996.38
489.948	7063.73
490.318	7140.11
490.688	7186.66
491.058	7252.42
491.428	7322.93
491.798	7405.19
492.168	7507.1
492.538	7562.47
492.908	7559.08
493.278	7679.53
493.648	7689.02
494.017	7820.09
494.387	7853.08
494.757	7834.55
495.126	7921.11
495.496	7944.83
495.866	7990.93
496.235	7987.32
496.605	8109.8
496.974	8147.54
497.344	8243.58
497.713	8257.82
498.082	8252.62
498.452	8329.91
498.821	8331.49
499.19	8377.36
499.559	8433.86
499.928	8510.24
500.298	8461.43
500.667	8547.08
501.036	8491.26
501.405	8690.58
501.774	8579.62
502.143	8588.88
502.512	8649.22
502.88	8749.56
503.249	8748.88
503.618	8797.92
503.987	8750.01
504.356	8813.06
504.724	8840.86
505.093	8873.17
505.462	8876.56
505.83	8916.11
506.199	9026.84
506.567	9042.43
506.936	9065.03
507.304	9083.11
507.672	9098.02
508.041	9092.37
508.409	9154.52
508.777	9197.23
509.145	9172.15
509.514	9234.97
509.882	9259.38
510.25	9263.89
510.618	9296.21
510.986	9321.75
511.354	9323.55
511.722	9374.17
512.09	9380.05
512.458	9381.86
512.826	9468.18
513.193	9425.92
513.561	9433.61
513.929	9407.85
514.297	9526.94
514.664	9513.38
515.032	9590.44
515.4	9581.4
515.767	9519.71
516.135	9575.53
516.502	9527.39
516.869	9651.91
517.237	9574.17
517.604	9606.48
517.972	9635.18
518.339	9615.07
518.706	9612.59
519.073	9674.28
519.44	9693.26
519.808	9642.42
520.175	9641.74
520.542	9746.59
520.909	9764.67
521.276	9690.78
521.643	9752.24
522.009	9772.58
522.376	9808.29
522.743	9830.43
523.11	9854.16
523.477	9925.35
523.843	9834.73
524.21	9873.6
524.577	9925.35
524.943	9933.93
525.31	9871.79
525.676	9975.29
526.043	10010.99
526.409	9932.58
526.776	10013.93
527.142	9950.66
527.508	9982.52
527.874	9962.18
528.241	10010.54
528.607	10029.98
528.973	10058.68
529.339	10036.08
529.705	10019.36
530.071	10004.44
530.437	10030.88
530.803	10082.4
531.169	10118.79
531.535	10048.06
531.901	10006.7
532.267	10003.76
532.632	9972.12
532.998	9962.41
533.364	9952.69
533.73	9960.6
534.095	9951.56
534.461	9959.24
534.826	9937.1
535.192	9910.88
535.557	9885.12
535.923	9846.7
536.288	9901.84
536.653	9845.12
537.019	9803.32
537.384	9797.44
537.749	9787.95
538.114	9758.35
538.479	9710.21
538.845	9735.07
539.21	9627.28
539.575	9642.64
539.94	9655.07
540.305	9640.61
540.67	9638.12
541.034	9605.13
541.399	9606.94
541.764	9525.36
542.129	9586.6
542.494	9494.17
542.858	9554.96
543.223	9471.8
543.587	9490.78
543.952	9371.91
544.316	9350.22
544.681	9326.49
545.045	9375.08
545.41	9357.9
545.774	9307.51
546.138	9287.62
546.503	9185.7
546.867	9236.32
547.231	9245.36
547.595	9132.15
547.959	9164.46
548.324	9121.75
548.688	9069.55
549.052	9012.83
549.416	9084.24
549.779	9092.37
550.143	8993.62
550.507	9006.95
550.871	9009.21
551.235	8957.91
551.599	8880.4
551.962	8910.01
552.326	8869.78
552.689	8889.44
553.053	8847.63
553.417	8861.65
553.78	8900.51
554.143	8825.71
554.507	8761.31
554.87	8752.5
555.234	8809.9
555.597	8680.18
555.96	8652.39
556.323	8697.81
556.686	8703.68
557.05	8718.15
557.413	8680.41
557.776	8613.29
558.139	8679.73
558.502	8689.45
558.865	8582.78
559.228	8618.94
559.59	8639.73
559.953	8611.48
560.316	8677.7
560.679	8652.84
561.041	8621.2
561.404	8626.17
561.767	8649.9
562.129	8615.55
562.492	8704.36
562.854	8642.22
563.217	8626.17
563.579	8669.33
563.941	8640.41
564.304	8667.75
564.666	8685.38
565.028	8693.74
565.39	8639.96
565.753	8659.16
566.115	8673.63
566.477	8696.23
566.839	8717.24
567.201	8762.44
567.563	8791.59
567.925	8731.71
568.287	8658.26
568.648	8745.94
569.01	8689.22
569.372	8814.19
569.734	8761.99
570.095	8780.07
570.457	8870.68
570.819	8805.6
571.18	8813.96
571.542	8855.54
571.903	8855.77
572.265	8832.27
572.626	8874.53
572.987	8821.42
573.349	8860.06
573.71	8903.68
574.071	8913.85
574.432	8924.24
574.794	8933.28
575.155	8957.69
575.516	8893.74
575.877	8957.91
576.238	9001.53
576.599	8991.81
576.96	8991.81
577.32	8994.07
577.681	9031.81
578.042	9006.27
578.403	9016.22
578.763	9034.97
579.124	9016.67
579.485	9100.06
579.845	9065.93
580.206	9031.36
580.566	9081.75
580.927	9077.23
581.287	9088.31
581.648	9063.9
582.008	9114.97
582.368	9162.65
582.728	9133.5
583.089	9163.56
583.449	9151.13
583.809	9133.05
584.169	9142.32
584.529	9124.24
584.889	9135.08
585.249	9102.77
585.609	9104.13
585.969	9219.15
586.329	9187.06
586.688	9235.87
587.048	9208.76
587.408	9153.39
587.768	9225.25
588.127	9186.38
588.487	9165.14
588.846	9204.24
589.206	9168.08
589.565	9142.09
589.925	9264.12
590.284	9194.97
590.643	9247.17
591.003	9201.75
591.362	9240.62
591.721	9239.49
592.08	9197.46
592.44	9269.54
592.799	9296.21
593.158	9271.8
593.517	9309.32
593.876	9251.69
594.235	9242.43
594.593	9227.51
594.952	9258.92
595.311	9277.23
595.67	9202.2
596.029	9234.29
596.387	9319.94
596.746	9245.14
597.104	9233.39
597.463	9188.87
597.822	9297.11
598.18	9345.02
598.538	9184.57
598.897	9333.05
599.255	9211.01
599.613	9321.29
599.972	9316.1
600.33	9312.26
600.688	9302.54
601.046	9282.65
601.404	9342.54
601.762	9291.24
602.12	9310.9
602.478	9406.72
602.836	9368.3
603.194	9373.27
603.552	9318.58
603.91	9276.32
604.268	9266.83
604.625	9215.53
604.983	9361.52
605.341	9267.51
605.698	9301.86
606.056	9369.2
606.413	9336.44
606.771	9329.66
607.128	9355.42
607.485	9284.01
607.843	9302.54
608.2	9404
608.557	9373.04
608.914	9357.9
609.272	9394.06
609.629	9358.81
609.986	9430.9
610.343	9400.39
610.7	9445.36
611.057	9425.25
611.414	9441.97
611.771	9426.38
612.127	9442.65
612.484	9460.95
612.841	9496.43
613.198	9467.96
613.554	9361.07
613.911	9487.17
614.267	9503.21
614.624	9439.48
614.98	9556.99
615.337	9560.84
615.693	9519.71
616.05	9495.53
616.406	9514.74
616.762	9518.58
617.118	9541.85
617.475	9531.23
617.831	9561.97
618.187	9572.59
618.543	9624.79
618.899	9626.6
619.255	9615.07
619.611	9588.86
619.967	9608.97
620.323	9662.98
620.678	9549.99
621.034	9481.74
621.39	9566.26
621.746	9482.87
622.101	9624.11
622.457	9552.47
622.812	9614.39
623.168	9637.9
623.523	9600.84
623.879	9617.78
624.234	9556.77
624.589	9572.81
624.945	9581.85
625.3	9543.89
625.655	9571.23
626.01	9621.4
626.365	9550.89
626.72	9522.42
627.075	9545.47
627.43	9529.42
627.785	9550.89
628.14	9619.59
628.495	9522.87
628.85	9552.47
629.205	9523.78
629.559	9584.56
629.914	9539.59
630.269	9516.32
630.623	9474.96
630.978	9491.01
631.332	9521.06
631.687	9527.62
632.041	9467.51
632.396	9477.67
632.75	9442.65
633.104	9465.25
633.459	9357.68
633.813	9436.32
634.167	9427.73
634.521	9389.09
634.875	9429.31
635.229	9393.83
635.583	9319.49
635.937	9319.49
636.291	9318.81
636.645	9321.97
636.999	9273.84
637.352	9350.45
637.706	9339.6
638.06	9285.36
638.413	9272.26
638.767	9281.3
639.121	9215.76
639.474	9192.26
639.828	9197.46
640.181	9253.5
640.534	9227.74
640.888	9278.36
641.241	9141.64
641.594	9170.34
641.947	9150
642.301	9119.04
642.654	9170.11
643.007	9182.09
643.36	9205.14
643.713	9192.94
644.066	9228.64
644.419	9093.73
644.771	9068.19
645.124	8999.5
645.477	8920.85
645.83	8873.17
646.182	8920.4
646.535	8800.18
646.888	8841.31
647.24	8838.14
647.593	8880.85
647.945	8783.68
648.298	8837.01
648.65	8767.64
649.002	8790.01
649.355	8785.26
649.707	8835.43
650.059	8873.85
650.411	8977.57
650.763	9023.9
651.115	9033.17
651.467	9048.08
651.819	9066.39
652.171	9083.79
652.523	9019.38
652.875	9023.9
653.227	8997.01
653.578	8971.7
653.93	8995.88
654.282	8961.53
654.633	8966.73
654.985	9029.32
655.337	9059.38
655.688	8969.44
656.039	9029.1
656.391	8959.95
656.742	9008.08
657.094	9061.64
657.445	9018.03
657.796	9021.42
658.147	8973.51
658.498	9016.22
658.849	9080.62
659.2	8991.81
659.551	8995.43
659.902	9052.37
660.253	9069.78
660.604	9057.8
660.955	9068.65
661.306	9029.1
661.656	8986.39
662.007	9075.65
662.358	9027.06
662.708	9066.39
663.059	9072.49
663.409	8985.48
663.76	9064.35
664.11	9031.58
664.461	9021.42
664.811	9049.21
665.161	9072.04
665.511	8997.91
665.862	9023
666.212	9089.44
666.562	8993.62
666.912	9063.45
667.262	9026.61
667.612	9023.22
667.962	9085.59
668.312	9125.14
668.662	9081.3
669.011	9064.58
669.361	9112.49
669.711	9088.31
670.06	9049.44
670.41	8924.47
670.76	9022.55
671.109	9022.55
671.459	9056.67
671.808	8977.57
672.157	9008.76
672.507	8995.65
672.856	8968.54
673.205	8993.17
673.554	8999.5
673.904	9033.17
674.253	8959.04
674.602	8964.92
674.951	8883.79
675.3	8795.43
675.649	8933.51
675.998	8924.92
676.346	8855.54
676.695	8906.62
677.044	8805.15
677.393	8886.73
677.741	8867.75
678.09	8912.72
678.438	8871.81
678.787	8814.42
679.135	8870.91
679.484	8807.18
679.832	8790.46
680.181	8759.05
680.529	8766.73
680.877	8765.6
681.225	8785.04
681.573	8797.01
681.922	8704.59
682.27	8651.71
682.618	8700.52
682.966	8624.82
683.314	8640.41
683.661	8643.35
684.009	8623.01
684.357	8559.51
684.705	8570.13
685.053	8609.45
685.4	8543.01
685.748	8484.71
686.095	8485.61
686.443	8433.18
686.79	8505.27
687.138	8524.93
687.485	8494.65
687.832	8463.24
688.18	8388.21
688.527	8367.65
688.874	8333.98
689.221	8307.54
689.568	8279.06
689.915	8332.85
690.262	8274.77
690.609	8231.38
690.956	8204.49
691.303	8206.07
691.65	8177.82
691.997	8184.6
692.344	8080.65
692.69	8071.61
693.037	8109.35
693.383	7978.05
693.73	8015.57
694.077	7984.38
694.423	7970.14
694.769	7946.87
695.116	7898.06
695.462	7938.73
695.808	7904.61
696.155	7836.59
696.501	7836.59
696.847	7863.48
697.193	7752.52
697.539	7767.66
697.885	7675.91
698.231	7654.22
698.577	7693.31
698.923	7592.53
699.269	7595.92
699.614	7522.02
699.96	7487.44
700.306	7509.82
700.651	7428.69
700.997	7431.63
701.342	7507.56
701.688	7386.66
702.033	7348.69
702.379	7379.65
702.724	7312.31
703.069	7319.31
703.415	7251.07
703.76	7229.15
704.105	7220.11
704.45	7245.42
704.795	7104.86
705.14	7142.14
705.485	7130.62
705.83	7137.17
706.175	7112.31
706.52	7073.9
706.865	7022.15
707.209	6966.55
707.554	7014.24
707.899	6958.64
708.243	6942.37
708.588	6944.18
708.932	6879.32
709.277	6880.23
709.621	6894.47
709.966	6877.97
710.31	6854.24
710.654	6775.37
710.998	6833.45
711.342	6822.83
711.687	6790.97
712.031	6737.63
712.375	6669.16
712.719	6724.98
713.063	6676.84
713.407	6684.75
713.75	6717.52
714.094	6713.68
714.438	6633.68
714.782	6654.92
715.125	6663.74
715.469	6632.78
715.812	6583.06
716.156	6565.66
716.499	6635.49
716.843	6552.33
717.186	6533.57
717.53	6570.63
717.873	6642.27
718.216	6526.11
718.559	6504.42
718.902	6493.12
719.246	6522.5
719.589	6475.72
719.932	6452.67
720.275	6484.76
720.617	6400.02
720.96	6424.87
721.303	6458.77
721.646	6468.26
721.989	6377.64
722.331	6417.64
722.674	6407.7
723.016	6427.81
723.359	6428.26
723.701	6463.06
724.044	6378.1
724.386	6346.46
724.729	6398.89
725.071	6369.73
725.413	6413.8
725.755	6392.33
726.097	6358.89
726.439	6386.23
726.782	6322.05
727.124	6377.42
727.465	6353.91
727.807	6312.33
728.149	6373.35
728.491	6316.85
728.833	6261.71
729.175	6346.91
729.516	6322.73
729.858	6381.26
730.199	6317.53
730.541	6321.15
730.882	6331.77
731.224	6298.32
731.565	6298.1
731.906	6289.96
732.248	6327.02
732.589	6333.58
732.93	6299.45
733.271	6287.93
733.612	6296.74
733.953	6323.41
734.294	6339
734.635	6308.94
734.976	6322.28
735.317	6260.36
735.658	6309.85
735.999	6330.64
736.339	6284.99
736.68	6332.67
737.021	6308.94
737.361	6324.99
737.702	6359.11
738.042	6308.27
738.383	6346.23
738.723	6342.62
739.063	6342.39
739.404	6357.53
739.744	6342.62
740.084	6373.35
740.424	6385.33
740.764	6368.38
741.104	6447.02
741.444	6419.22
741.784	6441.37
742.124	6421.03
742.464	6454.7
742.804	6497.87
743.143	6493.35
743.483	6511.65
743.823	6436.62
744.162	6544.64
744.502	6614.92
744.841	6587.13
745.181	6645.43
745.52	6640.46
745.86	6680.01
746.199	6699.67
746.538	6770.18
746.877	6790.74
747.216	6792.55
747.556	6900.34
747.895	6864.64
748.234	6939.89
748.573	7007.23
748.911	7007.68
749.25	7115.93
749.589	7037.29
749.928	7152.99
750.267	7273.44
750.605	7319.09
750.944	7350.72
751.283	7396.6
751.621	7513.21
751.96	7566.99
752.298	7719.08
752.636	7738.06
752.975	7809.7
753.313	7874.33
753.651	8027.32
753.989	8082.46
754.327	8187.31
754.666	8242.23
755.004	8390.7
755.342	8585.72
755.679	8696.23
756.017	8714.08
756.355	8885.83
756.693	8963.11
757.031	9164.24
757.368	9215.31
757.706	9411.91
758.044	9581.4
758.381	9723.32
758.719	9839.47
759.056	9970.54
759.394	10177.09
759.731	10217.32
760.068	10422.06
760.405	10525.78
760.743	10642.62
761.08	10867.92
761.417	11092.32
761.754	11182.26
762.091	11443.95
762.428	11555.36
762.765	11652.31
763.102	11825.41
763.438	11988.57
763.775	12171.39
764.112	12257.94
764.449	12526.18
764.785	12638.72
765.122	12711.94
765.458	12852.95
765.795	13026.06
766.131	13297.24
766.467	13398.93
766.804	13473.95
767.14	13675.08
767.476	13884.79
767.812	13948.74
768.148	14152.81
