Data from hue_190_FLMS001491_00054.txt Node
Date: Tue Feb 07 16:45:28 GMT 2017
User: dcchb
Spectrometer: FLMS00149
Trigger mode: 0
Integration Time (sec): 2.000000E-2
Scans to average: 10
Electric dark correction enabled: true
Nonlinearity correction enabled: false
Boxcar width: 0
XAxis mode: Wavelengths
Number of Pixels in Spectrum: 2048
>>>>>Begin Spectral Data<<<<<
341.393	-14.83
341.776	-14.83
342.16	-14.83
342.543	-91.89
342.927	-57.54
343.31	-78.56
343.693	-59.12
344.077	-62.29
344.46	-41.04
344.843	-56.64
345.226	-60.03
345.61	-14.6
345.993	-14.15
346.376	-1.05
346.759	12.51
347.142	4.83
347.525	45.96
347.908	51.16
348.291	80.31
348.674	90.48
349.057	102.23
349.44	130.48
349.823	143.58
350.206	157.82
350.588	191.72
350.971	196.46
351.354	222.23
351.737	230.81
352.119	243.92
352.502	263.81
352.884	272.62
353.267	258.84
353.65	287.08
354.032	308.1
354.414	298.38
354.797	321.21
355.179	307.87
355.562	321.43
355.944	302.9
356.326	327.53
356.709	334.54
357.091	323.92
357.473	349.91
357.855	324.6
358.238	332.51
358.62	353.07
359.002	348.32
359.384	328.21
359.766	327.08
360.148	323.92
360.53	320.53
360.912	328.66
361.294	324.37
361.676	315.56
362.057	320.3
362.439	332.96
362.821	318.04
363.203	314.88
363.584	286.86
363.966	309.68
364.348	324.37
364.729	320.75
365.111	297.03
365.493	323.92
365.874	303.58
366.256	321.88
366.637	306.52
367.019	318.72
367.4	322.56
367.781	283.24
368.163	298.61
368.544	320.08
368.925	294.77
369.306	320.3
369.688	303.81
370.069	306.97
370.45	291.38
370.831	315.56
371.212	303.58
371.593	300.19
371.974	314.65
372.355	314.43
372.736	328.21
373.117	294.31
373.498	298.38
373.879	313.75
374.26	294.77
374.641	295.22
375.021	292.73
375.402	332.05
375.783	325.73
376.163	304.94
376.544	320.3
376.925	325.73
377.305	327.53
377.686	306.97
378.066	330.02
378.447	308.33
378.827	320.98
379.208	316.46
379.588	307.65
379.968	304.48
380.349	330.02
380.729	317.82
381.109	323.69
381.489	328.66
381.87	330.7
382.25	335.9
382.63	323.24
383.01	363.47
383.39	332.05
383.77	310.36
384.15	313.97
384.53	330.02
384.91	339.06
385.29	332.73
385.67	354.88
386.049	342.45
386.429	355.1
386.809	360.98
387.189	348.55
387.568	352.62
387.948	351.04
388.328	353.3
388.707	343.13
389.087	361.43
389.466	344.71
389.846	378.83
390.225	333.86
390.605	351.26
390.984	367.53
391.363	368.66
391.743	371.83
392.122	344.71
392.501	369.11
392.881	359.62
393.26	361.88
393.639	364.59
394.018	376.57
394.397	366.85
394.776	372.28
395.155	367.31
395.534	380.87
395.913	379.51
396.292	390.13
396.671	366.4
397.05	375.22
397.429	400.53
397.808	369.34
398.186	384.26
398.565	410.92
398.944	377.25
399.323	372.5
399.701	409.57
400.08	392.62
400.458	405.72
400.837	402.79
401.215	415.44
401.594	403.69
401.972	404.14
402.351	424.71
402.729	407.76
403.107	424.48
403.486	416.57
403.864	411.83
404.242	410.47
404.62	410.24
404.999	437.59
405.377	424.71
405.755	461.99
406.133	452.73
406.511	445.27
406.889	452.95
407.267	463.12
407.645	458.83
408.023	474.65
408.401	471.94
408.779	492.05
409.156	486.85
409.534	508.32
409.912	480.75
410.29	526.62
410.667	510.58
411.045	519.39
411.422	530.24
411.8	520.75
412.178	532.95
412.555	536.57
412.933	565.95
413.31	547.41
413.687	573.85
414.065	589.67
414.442	580.63
414.819	597.36
415.197	619.73
415.574	585.38
415.951	631.93
416.328	627.86
416.705	658.37
417.082	668.77
417.46	629.22
417.837	673.29
418.214	659.05
418.591	650.01
418.967	684.81
419.344	682.78
419.721	698.82
420.098	714.87
420.475	705.6
420.852	733.62
421.228	732.72
421.605	747.18
421.982	775.43
422.358	761.42
422.735	806.17
423.111	813.17
423.488	813.4
423.864	814.75
424.241	837.8
424.617	863.79
424.994	832.83
425.37	878.93
425.746	877.35
426.123	934.75
426.499	906.5
426.875	926.16
427.251	951.25
427.627	927.74
428.003	942.88
428.379	953.05
428.756	991.92
429.132	990.79
429.507	999.61
429.883	1016.56
430.259	1044.8
430.635	1021.3
431.011	1009.1
431.387	1088.19
431.763	1080.28
432.138	1087.06
432.514	1123.9
432.89	1128.87
433.265	1174.29
433.641	1161.64
434.016	1189.21
434.392	1202.99
434.767	1245.25
435.143	1257.9
435.518	1282.54
435.894	1341.52
436.269	1313.5
436.644	1363.21
437.02	1371.35
437.395	1379.94
437.77	1394.85
438.145	1424
438.52	1453.38
438.895	1449.99
439.271	1496.32
439.646	1530.89
440.021	1520.72
440.395	1562.76
440.77	1579.25
441.145	1575.86
441.52	1615.86
441.895	1644.11
442.27	1614.28
442.645	1631
443.019	1691.34
443.394	1700.38
443.769	1737.44
444.143	1718.46
444.518	1758.68
444.892	1759.36
445.267	1795.74
445.641	1801.17
446.016	1803.43
446.39	1845.69
446.764	1858.79
447.139	1861.73
447.513	1871.67
447.887	1881.39
448.262	1864.67
448.636	1915.51
449.01	1936.31
449.384	1972.91
449.758	1965.91
450.132	2002.52
450.506	2017.66
450.88	2021.5
451.254	2049.52
451.628	2067.15
452.002	2076.19
452.376	2120.71
452.75	2113.02
453.123	2132.23
453.497	2173.13
453.871	2166.81
454.244	2253.81
454.618	2249.29
454.992	2285.9
455.365	2321.83
455.739	2343.75
456.112	2357.08
456.486	2388.04
456.859	2404.99
457.232	2472.11
457.606	2448.61
457.979	2476.63
458.352	2531.32
458.725	2557.76
459.099	2576.74
459.472	2612.9
459.845	2664.2
460.218	2700.58
460.591	2689.05
460.964	2731.99
461.337	2762.95
461.71	2801.37
462.083	2843.4
462.456	2880.01
462.829	2896.51
463.201	2938.99
463.574	2972.44
463.947	2985.77
464.32	3046.11
464.692	3102.15
465.065	3162.26
465.438	3235.03
465.81	3242.49
466.183	3222.37
466.555	3277.29
466.928	3332.2
467.3	3333.56
467.672	3439.32
468.045	3496.26
468.417	3541.69
468.789	3516.15
469.161	3603.15
469.534	3682.25
469.906	3712.3
470.278	3760.66
470.65	3809.25
471.022	3880.43
471.394	3968.12
471.766	3976.25
472.138	4045.4
472.51	4118.85
472.882	4196.58
473.253	4313.42
473.625	4286.53
473.997	4423.7
474.369	4411.72
474.74	4496.46
475.112	4591.38
475.484	4681.54
475.855	4728.77
476.227	4751.6
476.598	4912.72
476.97	4993.85
477.341	5017.58
477.713	5161.53
478.084	5213.96
478.455	5373.28
478.827	5378.47
479.198	5487.4
479.569	5547.96
479.94	5724.45
480.311	5765.36
480.682	5890.78
481.053	5977.1
481.424	6085.35
481.795	6199.7
482.166	6271.78
482.537	6346.81
482.908	6495.06
483.279	6568.95
483.65	6708.16
484.021	6782.28
484.391	6911.32
484.762	6935.72
485.133	7044.19
485.503	7156.28
485.874	7300.01
486.244	7349.95
486.615	7551.98
486.985	7550.17
487.356	7752.65
487.726	7845.98
488.097	7989.25
488.467	7942.47
488.837	8144.28
489.207	8252.07
489.578	8300.88
489.948	8478.73
490.318	8553.53
490.688	8534.32
491.058	8687.54
491.428	8809.12
491.798	8896.35
492.168	9063.12
492.538	9100.18
492.908	9175.21
493.278	9327.98
493.648	9341.76
494.017	9389.22
494.387	9524.13
494.757	9530.91
495.126	9694.52
495.496	9664.92
495.866	9725.7
496.235	9804.35
496.605	9937
496.974	9955.98
497.344	10042.08
497.713	10070.33
498.082	10135.41
498.452	10232.58
498.821	10282.07
499.19	10269.65
499.559	10332.69
499.928	10393.03
500.298	10475.29
500.667	10474.84
501.036	10461.73
501.405	10577.43
501.774	10595.29
502.143	10718.67
502.512	10642.06
502.88	10749.86
503.249	10739.92
503.618	10835.28
503.987	10828.73
504.356	10919.12
504.724	10874.38
505.093	10858.78
505.462	10963.41
505.83	10994.15
506.199	11083.18
506.567	11167.93
506.936	11109.17
507.304	11258.55
507.672	11247.92
508.041	11219
508.409	11291.99
508.777	11372.22
509.145	11380.12
509.514	11353.01
509.882	11471.2
510.25	11370.86
510.618	11416.28
510.986	11384.19
511.354	11528.37
511.722	11557.52
512.09	11589.61
512.458	11508.71
512.826	11641.59
513.193	11656.95
513.561	11591.19
513.929	11673.9
514.297	11739.66
514.664	11688.59
515.032	11722.94
515.4	11818.08
515.767	11818.08
516.135	11810.85
516.502	11740.34
516.869	11861.92
517.237	11899.21
517.604	11822.6
517.972	11914.8
518.339	11968.36
518.706	11870.96
519.073	11920.45
519.44	11960.67
519.808	11948.92
520.175	11923.16
520.542	12014.91
520.909	11988.02
521.276	11924.29
521.643	11999.09
522.009	12024.85
522.376	12054.01
522.743	12086.77
523.11	12131.52
523.477	12106.66
523.843	12144.62
524.21	12172.19
524.577	12238.41
524.943	12112.76
525.31	12173.1
525.676	12266.88
526.043	12198.18
526.409	12225.75
526.776	12277.28
527.142	12165.41
527.508	12134.91
527.874	12286.99
528.241	12254.68
528.607	12188.24
528.973	12183.95
529.339	12160.44
529.705	12214.9
530.071	12214.23
530.437	12219.88
530.803	12203.15
531.169	12198.18
531.535	12052.88
531.901	11983.05
532.267	11999.77
532.632	11985.08
532.998	12129.71
533.364	11963.61
533.73	11984.4
534.095	11994.35
534.461	11961.13
534.826	11845.65
535.192	11824.18
535.557	11858.76
535.923	11774.92
536.288	11702.6
536.653	11695.14
537.019	11650.85
537.384	11643.39
537.749	11602.94
538.114	11577.63
538.479	11548.93
538.845	11487.69
539.21	11350.97
539.575	11408.82
539.94	11317.75
540.305	11347.58
540.67	11264.42
541.034	11222.61
541.399	11197.53
541.764	11151.2
542.129	11089.74
542.494	11043.18
542.858	11037.53
543.223	11012
543.587	10866.01
543.952	10882.74
544.316	10798.44
544.681	10722.06
545.045	10738.56
545.41	10740.14
545.774	10678.22
546.138	10563.87
546.503	10522.29
546.867	10459.92
547.231	10533.82
547.595	10450.43
547.959	10414.27
548.324	10352.13
548.688	10292.02
549.052	10292.47
549.416	10179.25
549.779	10087.73
550.143	10082.08
550.507	10111.68
550.871	10041.63
551.235	9933.38
551.599	9964.57
551.962	9847.74
552.326	9874.4
552.689	9875.31
553.053	9738.59
553.417	9839.83
553.78	9742.2
554.143	9743.78
554.507	9660.4
554.87	9621.53
555.234	9602.32
555.597	9588.53
555.96	9555.99
556.323	9489.55
556.686	9417.92
557.05	9443.68
557.413	9431.93
557.776	9414.53
558.139	9427.86
558.502	9384.92
558.865	9318.71
559.228	9303.34
559.59	9301.31
559.953	9268.09
560.316	9367.3
560.679	9270.58
561.041	9270.12
561.404	9246.62
561.767	9198.26
562.129	9171.14
562.492	9237.81
562.854	9178.6
563.217	9158.26
563.579	9138.83
563.941	9214.31
564.304	9170.24
564.666	9179.73
565.028	9189.22
565.39	9092.5
565.753	9150.35
566.115	9169.11
566.477	9169.11
566.839	9114.42
567.201	9149.45
567.563	9068.77
567.925	9125.72
568.287	9062.67
568.648	9094.53
569.01	9131.82
569.372	9109.45
569.734	9075.1
570.095	9094.99
570.457	9068.09
570.819	9163.01
571.18	9076.23
571.542	9133.86
571.903	9133.4
572.265	9095.66
572.626	9173.4
572.987	9102.9
573.349	9123.46
573.71	9108.55
574.071	9088.89
574.432	9049.56
574.794	9134.08
575.155	9079.85
575.516	9019.96
575.877	9115.78
576.238	9098.6
576.599	9068.32
576.96	9157.13
577.32	9106.96
577.681	9067.42
578.042	9102.44
578.403	9109.22
578.763	9074.87
579.124	9114.2
579.485	9068.55
579.845	9139.05
580.206	9051.6
580.566	9056.34
580.927	9053.63
581.287	9104.25
581.648	8992.16
582.008	9071.03
582.368	9035.55
582.728	9058.6
583.089	9021.77
583.449	8968.66
583.809	9037.36
584.169	9000.3
584.529	8923.69
584.889	9069
585.249	9000.3
585.609	8968.44
585.969	8964.37
586.329	8977.48
586.688	8952.39
587.048	8965.27
587.408	8879.4
587.768	8917.36
588.127	8936.12
588.487	8814.32
588.846	8916.46
589.206	8807.31
589.565	8873.52
589.925	8909
590.284	8811.6
590.643	8892.05
591.003	8930.02
591.362	8873.07
591.721	8821.1
592.08	8851.15
592.44	8860.64
592.799	8801.66
593.158	8770.02
593.517	8783.58
593.876	8760.76
594.235	8783.36
594.593	8769.8
594.952	8723.92
595.311	8679.63
595.67	8746.3
596.029	8728.67
596.387	8703.58
596.746	8721.21
597.104	8602.34
597.463	8692.74
597.822	8734.54
598.18	8686.64
598.538	8690.93
598.897	8698.84
599.255	8618.16
599.613	8699.52
599.972	8687.09
600.33	8702
600.688	8654.32
601.046	8704.26
601.404	8703.81
601.762	8737.71
602.12	8705.17
602.478	8704.71
602.836	8769.8
603.194	8676.24
603.552	8616.36
603.91	8580.42
604.268	8720.76
604.625	8659.52
604.983	8744.04
605.341	8619.52
605.698	8690.25
606.056	8666.3
606.413	8648.44
606.771	8638.5
607.128	8666.75
607.485	8643.02
607.843	8626.3
608.2	8695.68
608.557	8683.7
608.914	8696.81
609.272	8693.64
609.629	8720.99
609.986	8692.74
610.343	8699.52
610.7	8759.18
611.057	8706.3
611.414	8657.26
611.771	8727.54
612.127	8692.06
612.484	8678.5
612.841	8812.51
613.198	8684.6
613.554	8698.16
613.911	8756.92
614.267	8691.38
614.624	8771.15
614.98	8753.75
615.337	8814.77
615.693	8763.7
616.05	8750.14
616.406	8790.36
616.762	8788.55
617.118	8759.85
617.475	8793.75
617.831	8856.35
618.187	8822.9
618.543	8835.78
618.899	8802.57
619.255	8824.94
619.611	8791.27
619.967	8835.33
620.323	8821.55
620.678	8763.7
621.034	8821.32
621.39	8837.14
621.746	8752.4
622.101	8915.56
622.457	8765.73
622.812	8788.1
623.168	8810.25
623.523	8803.7
623.879	8820.19
624.234	8764.6
624.589	8792.17
624.945	8849.8
625.3	8770.7
625.655	8822.45
626.01	8775.22
626.365	8843.24
626.72	8823.36
627.075	8813.19
627.43	8757.14
627.785	8711.04
628.14	8787.88
628.495	8788.1
628.85	8824.26
629.205	8637.82
629.559	8796.24
629.914	8731.83
630.269	8724.83
630.623	8714.43
630.978	8677.37
631.332	8738.39
631.687	8717.6
632.041	8758.27
632.396	8676.69
632.75	8673.08
633.104	8675.34
633.459	8598.73
633.813	8561.67
634.167	8676.24
634.521	8613.64
634.875	8611.84
635.229	8581.78
635.583	8547.88
635.937	8633.53
636.291	8599.41
636.645	8543.81
636.999	8545.4
637.352	8543.14
637.706	8485.06
638.06	8525.74
638.413	8559.41
638.767	8486.42
639.121	8506.53
639.474	8423.82
639.828	8518.73
640.181	8484.16
640.534	8482.35
640.888	8396.02
641.241	8402.8
641.594	8412.29
641.947	8407.1
642.301	8377.27
642.654	8398.96
643.007	8436.47
643.36	8458.39
643.713	8370.49
644.066	8499.3
644.419	8431.95
644.771	8385.85
645.124	8309.24
645.477	8333.88
645.83	8217.5
646.182	8172.53
646.535	8143.15
646.888	8183.15
647.24	8054.56
647.593	8128.01
647.945	8169.59
648.298	8161.9
648.65	8103.15
649.002	8097.95
649.355	8147.22
649.707	8169.59
650.059	8151.96
650.411	8236.93
650.763	8240.77
651.115	8320.54
651.467	8265.18
651.819	8334.33
652.171	8236.48
652.523	8302.69
652.875	8264.5
653.227	8253.43
653.578	8323.71
653.93	8322.35
654.282	8259.75
654.633	8250.26
654.985	8313.09
655.337	8273.99
655.688	8266.53
656.039	8368.9
656.391	8313.54
656.742	8256.82
657.094	8273.09
657.445	8281.45
657.796	8268.57
658.147	8291.62
658.498	8301.56
658.849	8359.19
659.2	8301.11
659.551	8269.25
659.902	8311.28
660.253	8274.67
660.604	8321
660.955	8348.11
661.306	8344.95
661.656	8325.29
662.007	8305.86
662.358	8346.76
662.708	8333.65
663.059	8297.49
663.409	8260.66
663.76	8313.31
664.11	8286.65
664.461	8370.71
664.811	8367.32
665.161	8310.37
665.511	8334.78
665.862	8405.74
666.212	8307.89
666.562	8363.93
666.912	8374.55
667.262	8359.41
667.612	8380.43
667.962	8359.41
668.312	8384.27
668.662	8413.65
669.011	8351.73
669.361	8395.12
669.711	8362.12
670.06	8337.49
670.41	8301.56
670.76	8378.85
671.109	8340.43
671.459	8346.53
671.808	8354.67
672.157	8342.69
672.507	8339.98
672.856	8325.06
673.205	8292.52
673.554	8275.57
673.904	8297.49
674.253	8306.53
674.602	8217.27
674.951	8170.72
675.3	8128.46
675.649	8256.82
675.998	8270.15
676.346	8251.85
676.695	8243.48
677.044	8178.4
677.393	8197.38
677.741	8188.57
678.09	8168.91
678.438	8197.84
678.787	8138.4
679.135	8182.24
679.484	8072.41
679.832	8124.16
680.181	8058.86
680.529	8099.53
680.877	8022.47
681.225	8051.62
681.573	8111.06
681.922	8072.19
682.27	8005.3
682.618	8048.01
682.966	8020.21
683.314	7973.89
683.661	7984.96
684.009	7888.24
684.357	7917.39
684.705	7876.49
685.053	7923.72
685.4	7917.39
685.748	7844.4
686.095	7831.74
686.443	7870.61
686.79	7817.05
687.138	7834.23
687.485	7796.26
687.832	7772.99
688.18	7741.35
688.527	7748.58
688.874	7724.18
689.221	7619.09
689.568	7617.51
689.915	7658.87
690.262	7614.57
690.609	7564.63
690.956	7539.1
691.303	7577.06
691.65	7532.54
691.997	7476.05
692.344	7464.75
692.69	7441.02
693.037	7402.38
693.383	7413.22
693.73	7375.94
694.077	7328.48
694.423	7305.88
694.769	7210.52
695.116	7280.12
695.462	7238.09
695.808	7199.67
696.155	7217.3
696.501	7130.29
696.847	7148.6
697.193	7044.87
697.539	7062.72
697.885	7017.3
698.231	7045.78
698.577	7025.44
698.923	6983.4
699.269	6964.87
699.614	6909.96
699.96	6888.27
700.306	6904.08
700.651	6869.06
700.997	6855.05
701.342	6846.46
701.688	6827.7
702.033	6782.05
702.379	6799
702.724	6711.77
703.069	6714.94
703.415	6630.87
703.76	6695.5
704.105	6631.55
704.45	6605.11
704.795	6573.25
705.14	6572.34
705.485	6533.02
705.83	6530.53
706.175	6498.22
706.52	6478.56
706.865	6437.43
707.209	6446.69
707.554	6436.3
707.899	6439.01
708.243	6379.35
708.588	6373.48
708.932	6341.84
709.277	6314.72
709.621	6327.38
709.966	6295.06
710.31	6300.26
710.654	6254.16
710.998	6315.85
711.342	6261.16
711.687	6239.24
712.031	6149.98
712.375	6135.29
712.719	6206.48
713.063	6158.34
713.407	6152.01
713.75	6118.34
714.094	6144.33
714.438	6107.95
714.782	6134.16
715.125	6074.73
715.469	6128.06
715.812	6084.44
716.156	6031.56
716.499	6041.06
716.843	6043.77
717.186	5961.51
717.53	6042.64
717.873	6005.35
718.216	6007.16
718.559	5962.41
718.902	5958.57
719.246	5998.12
719.589	5981.85
719.932	5945.01
720.275	5988.85
720.617	5927.39
720.96	5918.12
721.303	5964.22
721.646	5980.94
721.989	5942.75
722.331	5908.63
722.674	5892.81
723.016	5936.43
723.359	5887.84
723.701	5878.12
724.044	5868.63
724.386	5866.6
724.729	5888.29
725.071	5866.82
725.413	5826.82
725.755	5907.27
726.097	5844.68
726.439	5780.05
726.782	5834.96
727.124	5868.86
727.465	5850.78
727.807	5777.79
728.149	5837.9
728.491	5845.13
728.833	5811.23
729.175	5829.31
729.516	5837.45
729.858	5814.62
730.199	5817.78
730.541	5759.03
730.882	5811.01
731.224	5881.29
731.565	5849.87
731.906	5857.56
732.248	5817.11
732.589	5830.44
732.93	5753.61
733.271	5823.21
733.612	5856.2
733.953	5863.66
734.294	5847.16
734.635	5833.38
734.976	5844.22
735.317	5776.43
735.658	5815.3
735.999	5818.46
736.339	5799.25
736.68	5916.77
737.021	5835.86
737.361	5855.07
737.702	5861.4
738.042	5840.61
738.383	5876.99
738.723	5862.76
739.063	5838.58
739.404	5904.56
739.744	5911.34
740.084	5911.79
740.424	5938.91
740.764	5980.27
741.104	5995.86
741.444	5992.47
741.784	5968.74
742.124	6000.6
742.464	6070.89
742.804	6038.57
743.143	6044.67
743.483	6041.06
743.823	6011.9
744.162	6064.33
744.502	6120.83
744.841	6154.73
745.181	6223.42
745.52	6211.22
745.86	6231.56
746.199	6232.69
746.538	6321.5
746.877	6342.97
747.216	6399.24
747.556	6469.07
747.895	6449.63
748.234	6491.89
748.573	6553.13
748.911	6606.69
749.25	6642.4
749.589	6687.14
749.928	6797.87
750.267	6905.89
750.605	6920.81
750.944	6987.47
751.283	7059.33
751.621	7147.69
751.96	7170.29
752.298	7301.59
752.636	7393.34
752.975	7422.71
753.313	7519.89
753.651	7713.1
753.989	7747.68
754.327	7857.28
754.666	7962.59
755.004	8112.19
755.342	8316.25
755.679	8408
756.017	8503.82
756.355	8706.07
756.693	8808.44
757.031	8900.87
757.368	9031.26
757.706	9153.29
758.044	9339.95
758.381	9515.99
758.719	9634.86
759.056	9795.53
759.394	9986.94
759.731	10137.67
760.068	10309.64
760.405	10376.08
760.743	10603.2
761.08	10771.55
761.417	10885.22
761.754	11124.09
762.091	11309.17
762.428	11466.22
762.765	11602.72
763.102	11837.29
763.438	12028.92
763.775	12090.84
764.112	12299.42
764.449	12436.59
764.785	12655.35
765.122	12843.14
765.458	12936.47
765.795	13112.28
766.131	13293.52
766.467	13435.66
