Data from hue_220_FLMS001491_00073.txt Node
Date: Tue Feb 07 16:39:55 GMT 2017
User: dcchb
Spectrometer: FLMS00149
Trigger mode: 0
Integration Time (sec): 2.000000E-2
Scans to average: 10
Electric dark correction enabled: true
Nonlinearity correction enabled: false
Boxcar width: 0
XAxis mode: Wavelengths
Number of Pixels in Spectrum: 2048
>>>>>Begin Spectral Data<<<<<
341.393	-32.26
341.776	-32.26
342.16	-32.26
342.543	-53.28
342.927	-73.61
343.31	-59.83
343.693	-65.25
344.077	-72.03
344.46	-48.76
344.843	-57.8
345.226	-50.34
345.61	-11.24
345.993	-13.73
346.376	-4.24
346.759	14.97
347.142	34.41
347.525	30.79
347.908	56.1
348.291	69.43
348.674	84.8
349.057	92.71
349.44	135.87
349.823	157.34
350.206	175.87
350.588	199.6
350.971	204.8
351.354	229.88
351.737	241.18
352.119	224.68
352.502	237.34
352.884	261.74
353.267	305.59
353.65	297.68
354.032	266.04
354.414	315.53
354.797	295.87
355.179	308.52
355.562	325.02
355.944	334.51
356.326	318.01
356.709	313.27
357.091	334.06
357.473	347.39
357.855	356.43
358.238	344.91
358.62	329.77
359.002	347.39
359.384	331.57
359.766	329.99
360.148	340.16
360.53	337
360.912	348.07
361.294	325.47
361.676	300.84
362.057	333.16
362.439	334.06
362.821	317.56
363.203	313.95
363.584	323.89
363.966	322.08
364.348	334.96
364.729	321.63
365.111	319.82
365.493	299.94
365.874	319.37
366.256	316.43
366.637	321.18
367.019	290.9
367.4	337
367.781	295.64
368.163	298.35
368.544	309.88
368.925	296.32
369.306	321.18
369.688	303.78
370.069	316.21
370.45	318.92
370.831	303.1
371.212	314.4
371.593	315.08
371.974	314.62
372.355	310.33
372.736	292.93
373.117	327.51
373.498	338.8
373.879	307.39
374.26	317.11
374.641	311.46
375.021	318.01
375.402	298.13
375.783	330.9
376.163	319.6
376.544	331.8
376.925	313.04
377.305	318.24
377.686	312.36
378.066	330.44
378.447	321.63
378.827	324.34
379.208	337.67
379.588	328.86
379.968	343.55
380.349	310.56
380.729	327.05
381.109	337.9
381.489	329.09
381.87	332.48
382.25	319.37
382.63	338.8
383.01	317.34
383.39	331.8
383.77	349.65
384.15	349.2
384.53	341.29
384.91	347.17
385.29	339.93
385.67	349.2
386.049	332.03
386.429	343.55
386.809	356.21
387.189	350.33
387.568	351.91
387.948	353.27
388.328	369.76
388.707	363.66
389.087	351.46
389.466	346.26
389.846	360.05
390.225	343.32
390.605	373.61
390.984	365.7
391.363	350.33
391.743	362.98
392.122	380.39
392.501	358.47
392.881	383.1
393.26	348.07
393.639	386.94
394.018	380.61
394.397	383.78
394.776	385.81
395.155	381.97
395.534	369.31
395.913	386.94
396.292	392.36
396.671	360.05
397.05	406.6
397.429	391.68
397.808	393.49
398.186	398.01
398.565	394.85
398.944	405.92
399.323	400.5
399.701	391.01
400.08	416.32
400.458	403.66
400.837	396.66
401.215	405.92
401.594	394.62
401.972	418.35
402.351	421.29
402.729	425.58
403.107	422.19
403.486	428.75
403.864	457.22
404.242	437.56
404.62	436.43
404.999	463.77
405.377	432.59
405.755	455.19
406.133	446.82
406.511	468.07
406.889	474.85
407.267	474.62
407.645	474.17
408.023	466.48
408.401	484.34
408.779	496.54
409.156	490.44
409.534	493.83
409.912	520.49
410.29	541.29
410.667	508.74
411.045	528.4
411.422	557.78
411.8	547.39
412.178	552.13
412.555	540.38
412.933	568.4
413.31	584
413.687	587.39
414.065	583.09
414.442	620.61
414.819	610.66
415.197	630.1
415.574	615.63
415.951	636.88
416.328	647.72
416.705	639.14
417.082	672.58
417.46	662.41
417.837	663.32
418.214	666.48
418.591	698.34
418.967	688.17
419.344	712.35
419.721	734.05
420.098	706.48
420.475	737.21
420.852	749.42
421.228	738.57
421.605	787.83
421.982	755.52
422.358	793.26
422.735	825.12
423.111	802.75
423.488	815.18
423.864	808.85
424.241	860.37
424.617	862.18
424.994	852.24
425.37	882.07
425.746	893.14
426.123	929.75
426.499	930.2
426.875	928.85
427.251	965.68
427.627	959.58
428.003	960.26
428.379	1002.52
428.756	967.94
429.132	1033.48
429.507	1001.39
429.883	994.15
430.259	1036.41
430.635	1034.38
431.011	1065.34
431.387	1083.42
431.763	1099.24
432.138	1127.48
432.514	1139.91
432.89	1140.59
433.265	1161.38
433.641	1196.64
434.016	1179.69
434.392	1218.1
434.767	1276.86
435.143	1255.84
435.518	1313.92
435.894	1309.63
436.269	1340.13
436.644	1341.94
437.02	1380.81
437.395	1386.91
437.77	1399.79
438.145	1436.18
438.52	1466.68
438.895	1467.36
439.271	1481.15
439.646	1522.95
440.021	1571.54
440.395	1564.76
440.77	1566.34
441.145	1573.35
441.52	1616.06
441.895	1595.49
442.27	1655.61
442.645	1650.63
443.019	1670.52
443.394	1689.5
443.769	1697.41
444.143	1716.62
444.518	1756.85
444.892	1732.67
445.267	1745.1
445.641	1760.46
446.016	1752.1
446.39	1795.72
446.764	1790.29
447.139	1805.66
447.513	1853.57
447.887	1822.38
448.262	1840.91
448.636	1871.42
449.01	1880.01
449.384	1870.97
449.758	1913.23
450.132	1948.93
450.506	1951.42
450.88	1954.36
451.254	1984.41
451.628	1988.93
452.002	2000.91
452.376	2005.65
452.75	2045.88
453.123	2047.69
453.497	2082.04
453.871	2102.37
454.244	2115.93
454.618	2121.36
454.992	2150.28
455.365	2180.34
455.739	2243.39
456.112	2240.22
456.486	2273.22
456.859	2275.7
457.232	2340.79
457.606	2302.82
457.979	2358.41
458.352	2413.1
458.725	2425.08
459.099	2419.2
459.472	2442.03
459.845	2466.21
460.218	2506.43
460.591	2529.48
460.964	2550.72
461.337	2600.67
461.71	2618.52
462.083	2646.09
462.456	2685.86
462.829	2639.31
463.201	2714.34
463.574	2728.12
463.947	2773.54
464.32	2810.15
464.692	2847.89
465.065	2838.4
465.438	2877.27
465.81	2926.53
466.183	2941.67
466.555	3005.85
466.928	3025.97
467.3	3023.71
467.672	3047.43
468.045	3110.71
468.417	3143.7
468.789	3135.34
469.161	3167.66
469.534	3241.55
469.906	3304.15
470.278	3330.82
470.65	3380.76
471.022	3403.58
471.394	3451.04
471.766	3496.91
472.138	3522
472.51	3573.52
472.882	3630.92
473.253	3678.15
473.625	3724.25
473.997	3783.69
474.369	3784.82
474.74	3845.38
475.112	3928.31
475.484	3914.98
475.855	4012.83
476.227	4008.09
476.598	4106.16
476.97	4161.75
477.341	4207.63
477.713	4246.27
478.084	4306.38
478.455	4407.4
478.827	4431.35
479.198	4522.2
479.569	4503.67
479.94	4635.64
480.311	4679.03
480.682	4804.68
481.053	4849.19
481.424	4901.17
481.795	4954.5
482.166	5037.89
482.537	5069.53
482.908	5154.5
483.279	5213.25
483.65	5286.92
484.021	5367.6
484.391	5449.86
484.762	5448.27
485.133	5523.53
485.503	5552.45
485.874	5666.57
486.244	5657.99
486.615	5769.62
486.985	5834.93
487.356	5983.18
487.726	5964.87
488.097	6081.93
488.467	6041.25
488.837	6165.09
489.207	6242.15
489.578	6247.12
489.948	6345.2
490.318	6393.56
490.688	6425.2
491.058	6479.43
491.428	6611.63
491.798	6655.02
492.168	6814.34
492.538	6793.1
492.908	6824.06
493.278	6877.84
493.648	6931.17
494.017	6992.64
494.387	7015.01
494.757	7121.23
495.126	7093.2
495.496	7124.39
495.866	7181.11
496.235	7248.23
496.605	7290.26
496.974	7313.99
497.344	7354.44
497.713	7380.2
498.082	7488.22
498.452	7518.28
498.821	7490.71
499.19	7482.12
499.559	7559.18
499.928	7554.21
500.298	7634.43
500.667	7669.46
501.036	7652.06
501.405	7709.23
501.774	7746.29
502.143	7777.71
502.512	7805.95
502.88	7851.15
503.249	7851.6
503.618	7874.43
503.987	7928.44
504.356	7895.22
504.724	7911.94
505.093	7992.39
505.462	7969.79
505.83	7976.12
506.199	8030.58
506.567	8162.1
506.936	8080.3
507.304	8212.27
507.672	8181.54
508.041	8243.91
508.409	8192.16
508.777	8253.62
509.145	8284.13
509.514	8283.23
509.882	8247.75
510.25	8324.13
510.618	8418.59
510.986	8319.16
511.354	8381.76
511.722	8375.43
512.09	8427.18
512.458	8412.94
512.826	8451.13
513.193	8460.85
513.561	8414.52
513.929	8530.68
514.297	8470.34
514.664	8563.45
515.032	8566.16
515.4	8654.07
515.767	8646.38
516.135	8630.56
516.502	8507.86
516.869	8646.61
517.237	8615.65
517.604	8613.16
517.972	8649.09
518.339	8619.49
518.706	8622.65
519.073	8680.28
519.44	8652.48
519.808	8736.1
520.175	8708.3
520.542	8740.39
520.909	8717.12
521.276	8722.09
521.643	8778.58
522.009	8758.92
522.376	8758.47
522.743	8757.34
523.11	8922.31
523.477	8866.26
523.843	8870.33
524.21	8870.33
524.577	8915.98
524.943	8925.47
525.31	8904.46
525.676	8955.53
526.043	9014.06
526.409	9008.63
526.776	9022.87
527.142	9016.09
527.508	9034.62
527.874	9001.18
528.241	9030.55
528.607	8991.91
528.973	9068.97
529.339	9044.79
529.705	9068.29
530.071	9105.81
530.437	9055.64
530.803	9113.72
531.169	9059.71
531.535	9038.91
531.901	9037.78
532.267	9040.95
532.632	9040.95
532.998	9058.58
533.364	9062.42
533.73	9041.63
534.095	9074.85
534.461	9066.94
534.826	9093.38
535.192	9153.26
535.557	9059.71
535.923	9018.8
536.288	9001.63
536.653	9021.29
537.019	8902.65
537.384	8930.44
537.749	8950.1
538.114	8929.54
538.479	8927.96
538.845	8927.73
539.21	8838.92
539.575	8841.63
539.94	8847.06
540.305	8861.74
540.67	8802.08
541.034	8849.77
541.399	8807.06
541.764	8785.36
542.129	8779.71
542.494	8773.39
542.858	8785.36
543.223	8726.61
543.587	8650
543.952	8698.81
544.316	8660.62
544.681	8665.82
545.045	8651.35
545.41	8685.93
545.774	8638.02
546.138	8614.52
546.503	8585.59
546.867	8534.52
547.231	8651.58
547.595	8626.04
547.959	8556.22
548.324	8558.93
548.688	8535.88
549.052	8499.95
549.416	8437.57
549.779	8404.58
550.143	8458.37
550.507	8412.94
550.871	8386.05
551.235	8393.51
551.599	8430.8
551.962	8382.21
552.326	8399.16
552.689	8405.94
553.053	8325.94
553.417	8297.47
553.78	8383.56
554.143	8260.63
554.507	8320.52
554.87	8300.63
555.234	8376.56
555.597	8287.3
555.96	8279.84
556.323	8287.97
556.686	8214.98
557.05	8263.34
557.413	8183.8
557.776	8273.74
558.139	8251.36
558.502	8229.9
558.865	8186.28
559.228	8300.86
559.59	8256.56
559.953	8245.72
560.316	8312.15
560.679	8227.41
561.041	8357.8
561.404	8301.53
561.767	8285.04
562.129	8215.43
562.492	8293.85
562.854	8311.7
563.217	8293.17
563.579	8261.08
563.941	8341.31
564.304	8351.25
564.666	8326.84
565.028	8371.36
565.39	8347.41
565.753	8445.71
566.115	8380.85
566.477	8391.47
566.839	8387.18
567.201	8464.47
567.563	8444.35
567.925	8522.32
568.287	8531.58
568.648	8444.13
569.01	8472.38
569.372	8543.56
569.734	8460.4
570.095	8520.74
570.457	8568.19
570.819	8567.29
571.18	8560.51
571.542	8585.14
571.903	8564.8
572.265	8661.98
572.626	8648.87
572.987	8619.94
573.349	8680.05
573.71	8733.16
574.071	8747.62
574.432	8683.67
574.794	8775.42
575.155	8768.87
575.516	8749.88
575.877	8765.7
576.238	8775.42
576.599	8782.2
576.96	8790.33
577.32	8859.94
577.681	8855.19
578.042	8937.9
578.403	8867.62
578.763	8934.51
579.124	8961.4
579.485	8952.59
579.845	8981.06
580.206	9031.23
580.566	8990.78
580.927	8981.29
581.287	8995.3
581.648	9022.64
582.008	9131.12
582.368	9114.62
582.728	9087.73
583.089	9114.17
583.449	9155.07
583.809	9069.65
584.169	9162.75
584.529	9219.25
584.889	9206.59
585.249	9133.6
585.609	9249.08
585.969	9291.11
586.329	9263.32
586.688	9234.62
587.048	9313.94
587.408	9257.89
587.768	9254.28
588.127	9324.56
588.487	9329.08
588.846	9385.57
589.206	9301.51
589.565	9321.39
589.925	9443.88
590.284	9357.32
590.643	9391.67
591.003	9391.9
591.362	9381.5
591.721	9453.59
592.08	9441.62
592.44	9480.71
592.799	9487.94
593.158	9449.3
593.517	9482.07
593.876	9497.43
594.235	9510.99
594.593	9513.7
594.952	9531.56
595.311	9508.73
595.67	9529.3
596.029	9577.21
596.387	9603.42
596.746	9613.82
597.104	9585.57
597.463	9573.82
597.822	9636.19
598.18	9637.77
598.538	9549.64
598.897	9592.35
599.255	9509.41
599.613	9742.4
599.972	9661.95
600.33	9709.63
600.688	9670.08
601.046	9673.7
601.404	9650.65
601.762	9685.45
602.12	9689.75
602.478	9709.86
602.836	9723.64
603.194	9656.98
603.552	9667.15
603.91	9614.94
604.268	9717.32
604.625	9695.85
604.983	9728.16
605.341	9680.71
605.698	9680.71
606.056	9688.84
606.413	9731.33
606.771	9765
607.128	9705.79
607.485	9767.94
607.843	9785.34
608.2	9807.93
608.557	9811.1
608.914	9740.14
609.272	9854.71
609.629	9812.91
609.986	9860.14
610.343	9859.01
610.7	9935.61
611.057	9872.79
611.414	9870.53
611.771	9853.81
612.127	9888.61
612.484	9913.47
612.841	9975.84
613.198	9945.33
613.554	9934.71
613.911	9978.78
614.267	9974.71
614.624	9984.88
614.98	9943.75
615.337	10024.88
615.693	10039.34
616.05	10025.33
616.406	10095.16
616.762	9990.53
617.118	10063.52
617.475	9992.79
617.831	9977.65
618.187	10041.37
618.543	10062.16
618.899	10093.12
619.255	10100.13
619.611	10014.03
619.967	10118.89
620.323	10143.29
620.678	10063.75
621.034	10098.77
621.39	10104.42
621.746	10072.56
622.101	10183.52
622.457	10090.86
622.812	10091.54
623.168	10085.89
623.523	10119.56
623.879	10182.39
624.234	10106.46
624.589	10125.21
624.945	10172.9
625.3	10077.08
625.655	10177.42
626.01	10127.47
626.365	10138.55
626.72	10128.6
627.075	10113.91
627.43	10082.05
627.785	10097.19
628.14	10132.22
628.495	10055.61
628.85	10091.09
629.205	10046.57
629.559	10065.78
629.914	9998.44
630.269	10108.04
630.623	10002.73
630.978	9989.17
631.332	10028.27
631.687	10045.22
632.041	10049.96
632.396	9991.21
632.75	9987.36
633.104	9988.27
633.459	9893.58
633.813	9909.4
634.167	9920.02
634.521	9891.1
634.875	9924.09
635.229	9908.72
635.583	9896.29
635.937	9842.06
636.291	9879.12
636.645	9915.28
636.999	9837.54
637.352	9849.29
637.706	9824.66
638.06	9872.11
638.413	9802.74
638.767	9828.5
639.121	9788.73
639.474	9780.36
639.828	9777.88
640.181	9747.82
640.534	9723.87
640.888	9660.37
641.241	9675.51
641.594	9686.13
641.947	9711.21
642.301	9714.15
642.654	9686.13
643.007	9675.51
643.36	9620.59
643.713	9632.8
644.066	9693.36
644.419	9618.56
644.771	9596.41
645.124	9484.33
645.477	9522.07
645.83	9466.47
646.182	9403.43
646.535	9380.15
646.888	9405.01
647.24	9318.23
647.593	9346.93
647.945	9365.23
648.298	9306.25
648.65	9260.6
649.002	9305.8
649.355	9387.38
649.707	9279.36
650.059	9380.15
650.411	9513.7
650.763	9506.02
651.115	9558.9
651.467	9589.18
651.819	9648.16
652.171	9629.63
652.523	9547.83
652.875	9529.75
653.227	9491.78
653.578	9578.11
653.93	9563.87
654.282	9512.8
654.633	9490.65
654.985	9527.94
655.337	9504.44
655.688	9525.46
656.039	9583.08
656.391	9550.31
656.742	9516.19
657.094	9549.64
657.445	9555.51
657.796	9486.81
658.147	9560.03
658.498	9546.47
658.849	9480.03
659.2	9552.12
659.551	9536.53
659.902	9540.6
660.253	9547.38
660.604	9545.34
660.955	9509.18
661.306	9565.68
661.656	9532.91
662.007	9633.7
662.358	9569.52
662.708	9598
663.059	9595.28
663.409	9551.22
663.76	9594.15
664.11	9577.21
664.461	9586.25
664.811	9597.32
665.161	9573.14
665.511	9584.66
665.862	9609.52
666.212	9573.36
666.562	9636.64
666.912	9582.18
667.262	9553.48
667.612	9548.51
667.962	9576.3
668.312	9560.03
668.662	9574.04
669.011	9621.5
669.361	9612.91
669.711	9546.02
670.06	9550.54
670.41	9563.87
670.76	9521.39
671.109	9553.25
671.459	9512.12
671.808	9530.43
672.157	9513.03
672.507	9531.33
672.856	9468.96
673.205	9497.21
673.554	9476.19
673.904	9498.56
674.253	9544.89
674.602	9506.7
674.951	9389.87
675.3	9355.06
675.649	9444.55
675.998	9473.25
676.346	9455.18
676.695	9444.1
677.044	9366.36
677.393	9434.61
677.741	9395.74
678.09	9441.16
678.438	9426.25
678.787	9420.6
679.135	9362.07
679.484	9300.83
679.832	9400.26
680.181	9214.28
680.529	9251.11
680.877	9328.85
681.225	9260.6
681.573	9296.54
681.922	9177.22
682.27	9233.26
682.618	9200.27
682.966	9189.19
683.314	9180.38
683.661	9173.6
684.009	9129.31
684.357	9098.8
684.705	9050.67
685.053	9086.82
685.4	9051.8
685.748	9020.84
686.095	8983.78
686.443	8980.39
686.79	9030.55
687.138	9000.05
687.485	9031.01
687.832	8909.88
688.18	8936.54
688.527	8854.29
688.874	8872.14
689.221	8804.8
689.568	8784.46
689.915	8806.15
690.262	8786.04
690.609	8724.8
690.956	8675.76
691.303	8678.92
691.65	8650.22
691.997	8671.47
692.344	8612.03
692.69	8542.88
693.037	8539.72
693.383	8514.41
693.73	8481.87
694.077	8517.12
694.423	8407.52
694.769	8389.21
695.116	8386.95
695.462	8381.98
695.808	8327.07
696.155	8349.44
696.501	8210.46
696.847	8225.38
697.193	8158.49
697.539	8224.25
697.885	8109.22
698.231	8141.99
698.577	8127.3
698.923	8029.9
699.269	8055.21
699.614	7974.99
699.96	8012.73
700.306	7968.66
700.651	7880.08
700.997	7879.4
701.342	7897.93
701.688	7859.06
702.033	7801.89
702.379	7836.46
702.724	7802.56
703.069	7757.59
703.415	7688.89
703.76	7646.64
704.105	7666.75
704.45	7630.36
704.795	7589.01
705.14	7542.91
705.485	7564.83
705.83	7456.58
706.175	7547.43
706.52	7434.89
706.865	7447.32
707.209	7426.08
707.554	7460.43
707.899	7421.33
708.243	7380.88
708.588	7342.46
708.932	7283.03
709.277	7269.47
709.621	7278.51
709.966	7248
710.31	7257.94
710.654	7254.78
710.998	7190.83
711.342	7214.56
711.687	7121.9
712.031	7163.26
712.375	7094.56
712.719	7155.35
713.063	7145.86
713.407	7088.91
713.75	7072.19
714.094	7051.62
714.438	7039.87
714.782	7093.2
715.125	7038.06
715.469	7052.53
715.812	7024.28
716.156	6937.5
716.499	6962.36
716.843	6942.7
717.186	6946.77
717.53	7050.72
717.873	6953.55
718.216	7023.15
718.559	6916.48
718.902	6886.88
719.246	6879.2
719.589	6920.33
719.932	6844.17
720.275	6849.37
720.617	6870.84
720.96	6831.06
721.303	6814.57
721.646	6836.03
721.989	6798.97
722.331	6875.36
722.674	6741.35
723.016	6812.76
723.359	6818.41
723.701	6824.74
724.044	6745.64
724.386	6750.61
724.729	6784.06
725.071	6766.88
725.413	6797.39
725.755	6712.87
726.097	6693.44
726.439	6727.11
726.782	6684.17
727.124	6758.3
727.465	6706.77
727.807	6678.98
728.149	6635.36
728.491	6640.11
728.833	6693.89
729.175	6664.06
729.516	6703.38
729.858	6727.11
730.199	6736.6
730.541	6701.8
730.882	6708.35
731.224	6722.14
731.565	6628.58
731.906	6673.55
732.248	6655.93
732.589	6656.83
732.93	6645.76
733.271	6629.49
733.612	6680.56
733.953	6711.29
734.294	6685.98
734.635	6661.12
734.976	6679.88
735.317	6644.85
735.658	6688.02
735.999	6699.99
736.339	6681.24
736.68	6709.03
737.021	6709.71
737.361	6694.57
737.702	6732.99
738.042	6697.73
738.383	6736.15
738.723	6704.29
739.063	6725.98
739.404	6738.64
739.744	6759.65
740.084	6768.24
740.424	6725.3
740.764	6752.42
741.104	6788.58
741.444	6805.98
741.784	6836.26
742.124	6811.4
742.464	6865.41
742.804	6822.25
743.143	6850.05
743.483	6903.83
743.823	6906.99
744.162	6979.76
744.502	6950.38
744.841	7018.63
745.181	7045.97
745.52	7042.13
745.86	7053.66
746.199	7079.64
746.538	7143.82
746.877	7206.19
747.216	7211.17
747.556	7273.54
747.895	7327.32
748.234	7319.41
748.573	7376.81
748.911	7387.43
749.25	7500.42
749.589	7476.92
749.928	7603.02
750.267	7683.24
750.605	7747.2
750.944	7833.75
751.283	7853.86
751.621	7995.55
751.96	8044.36
752.298	8121.65
752.636	8195.1
752.975	8312.83
753.313	8391.7
753.651	8562.09
753.989	8569.1
754.327	8685.03
754.666	8781.52
755.004	8895.87
755.342	9083.43
755.679	9134.73
756.017	9216.09
756.355	9383.99
756.693	9438
757.031	9635.06
757.368	9684.55
757.706	9908.5
758.044	10064.2
758.381	10195.49
758.719	10298.54
759.056	10544.86
759.394	10708.25
759.731	10750.96
760.068	11017.62
760.405	11079.77
760.743	11272.98
761.08	11419.19
761.417	11623.48
761.754	11849.01
762.091	11937.37
762.428	12068.21
762.765	12300.75
763.102	12496
763.438	12549.78
763.775	12801.75
764.112	12945.03
764.449	13173.27
764.785	13268.63
765.122	13375.75
765.458	13597.44
765.795	13784.1
766.131	13862.06
766.467	14109.06
766.804	14137.54
767.14	14323.52
767.476	14525.1
767.812	14620.91
768.148	14838.76
