Data from hue_250_FLMS001491_00090.txt Node
Date: Tue Feb 07 16:01:36 GMT 2017
User: dcchb
Spectrometer: FLMS00149
Trigger mode: 0
Integration Time (sec): 2.000000E-2
Scans to average: 10
Electric dark correction enabled: true
Nonlinearity correction enabled: false
Boxcar width: 0
XAxis mode: Wavelengths
Number of Pixels in Spectrum: 2048
>>>>>Begin Spectral Data<<<<<
341.393	1.84
341.776	1.84
342.16	1.84
342.543	-63.92
342.927	-86.98
343.31	-64.83
343.693	-45.17
344.077	-57.82
344.46	-46.98
344.843	-69.35
345.226	-36.58
345.61	-35
345.993	-17.15
346.376	0.03
346.759	-9.91
347.142	31.67
347.525	46.81
347.908	64.21
348.291	75.73
348.674	63.76
349.057	100.59
349.44	113.92
349.823	123.19
350.206	160.25
350.588	202.73
350.971	201.38
351.354	209.97
351.737	234.15
352.119	264.65
352.502	252.45
352.884	266.01
353.267	261.94
353.65	262.17
354.032	274.6
354.414	293.58
354.797	287.93
355.179	330.19
355.562	310.98
355.944	319.79
356.326	309.17
356.709	318.44
357.091	320.25
357.473	312.11
357.855	328.83
358.238	334.71
358.62	339.45
359.002	328.83
359.384	320.02
359.766	337.19
360.148	330.19
360.53	339
360.912	310.98
361.294	325.22
361.676	339
362.057	322.05
362.439	323.64
362.821	294.71
363.203	335.84
363.584	307.82
363.966	309.85
364.348	332.45
364.729	302.62
365.111	299.46
365.493	297.42
365.874	332.9
366.256	304.2
366.637	304.2
367.019	297.2
367.4	297.42
367.781	297.2
368.163	318.66
368.544	320.92
368.925	307.36
369.306	295.61
369.688	313.69
370.069	307.82
370.45	307.59
370.831	317.53
371.212	296.07
371.593	303.52
371.974	311.88
372.355	300.81
372.736	304.43
373.117	341.94
373.498	315.95
373.879	317.99
374.26	282.51
374.641	319.79
375.021	307.82
375.402	302.39
375.783	299.23
376.163	360.02
376.544	328.83
376.925	306.01
377.305	314.82
377.686	324.99
378.066	308.27
378.447	308.72
378.827	329.74
379.208	327.03
379.588	323.18
379.968	335.39
380.349	339.68
380.729	324.31
381.109	334.93
381.489	331.54
381.87	335.61
382.25	339
382.63	347.82
383.01	340.58
383.39	352.79
383.77	323.18
384.15	325.22
384.53	342.39
384.91	357.31
385.29	337.19
385.67	347.59
386.049	340.13
386.429	342.62
386.809	355.05
387.189	338.32
387.568	347.82
387.948	346.23
388.328	342.39
388.707	349.4
389.087	354.14
389.466	359.34
389.846	360.24
390.225	376.06
390.605	371.09
390.984	356.63
391.363	357.53
391.743	366.8
392.122	372.67
392.501	374.71
392.881	366.12
393.26	379
393.639	343.75
394.018	389.4
394.397	376.52
394.776	390.98
395.155	361.83
395.534	404.09
395.913	392.11
396.292	376.29
396.671	388.72
397.05	373.58
397.429	419.68
397.808	388.94
398.186	385.1
398.565	416.97
398.944	400.02
399.323	391.43
399.701	402.28
400.08	398.89
400.458	393.92
400.837	404.54
401.215	420.13
401.594	416.29
401.972	416.97
402.351	411.09
402.729	418.77
403.107	416.51
403.486	424.42
403.864	433.46
404.242	417.42
404.62	433.01
404.999	423.97
405.377	430.3
405.755	453.35
406.133	454.93
406.511	447.7
406.889	460.13
407.267	462.61
407.645	462.39
408.023	483.41
408.401	490.64
408.779	466.23
409.156	484.08
409.534	495.38
409.912	510.07
410.29	482.5
410.667	482.28
411.045	493.8
411.422	508.04
411.8	525.44
412.178	533.12
412.555	544.19
412.933	534.25
413.31	543.29
413.687	566.12
414.065	567.24
414.442	575.15
414.819	568.37
415.197	580.35
415.574	577.64
415.951	581.48
416.328	623.06
416.705	601.59
417.082	573.35
417.46	615.38
417.837	641.14
418.214	628.26
418.591	616.28
418.967	633.68
419.344	658.09
419.721	629.39
420.098	640.24
420.475	677.52
420.852	646.79
421.228	676.39
421.605	689.05
421.982	693.12
422.358	701.93
422.735	697.19
423.111	723.17
423.488	719.11
423.864	747.35
424.241	753.45
424.617	790.29
424.994	748.48
425.37	797.75
425.746	778.31
426.123	783.96
426.499	785.77
426.875	806.33
427.251	803.4
427.627	841.59
428.003	818.54
428.379	861.7
428.756	870.97
429.132	839.55
429.507	888.59
429.883	887.01
430.259	893.79
430.635	906.45
431.011	917.52
431.387	947.12
431.763	952.32
432.138	953.22
432.514	974.92
432.89	1009.49
433.265	1018.98
433.641	1015.59
434.016	1067.34
434.392	1034.8
434.767	1065.99
435.143	1054.92
435.518	1098.76
435.894	1108.93
436.269	1079.77
436.644	1142.6
437.02	1134.91
437.395	1155.03
437.77	1191.64
438.145	1184.4
438.52	1207.68
438.895	1206.1
439.271	1232.31
439.646	1238.87
440.021	1262.59
440.395	1258.75
440.77	1267.11
441.145	1297.4
441.52	1320.45
441.895	1326.1
442.27	1341.46
442.645	1336.94
443.019	1347.56
443.394	1369.71
443.769	1381.46
444.143	1375.36
444.518	1423.72
444.892	1396.6
445.267	1443.83
445.641	1459.2
446.016	1450.16
446.39	1471.4
446.764	1435.24
447.139	1468.01
447.513	1508.24
447.887	1494.23
448.262	1516.37
448.636	1497.62
449.01	1537.39
449.384	1551.17
449.758	1529.71
450.132	1548.69
450.506	1573.55
450.88	1598.86
451.254	1611.06
451.628	1607.44
452.002	1656.26
452.376	1630.49
452.75	1638.63
453.123	1662.58
453.497	1672.07
453.871	1683.83
454.244	1701
454.618	1750.49
454.992	1750.94
455.365	1742.13
455.739	1827.55
456.112	1809.47
456.486	1803.82
456.859	1856.48
457.232	1837.95
457.606	1877.94
457.979	1870.26
458.352	1922.69
458.725	1947.77
459.099	1968.34
459.472	1993.2
459.845	1982.8
460.218	2012.18
460.591	2041.56
460.964	2050.6
461.337	2091.27
461.71	2095.79
462.083	2146.41
462.456	2117.03
462.829	2165.62
463.201	2165.62
463.574	2181.67
463.947	2241.55
464.32	2245.17
464.692	2240.65
465.065	2288.78
465.438	2287.43
465.81	2352.51
466.183	2381.21
466.555	2420.53
466.928	2430.92
467.3	2405.39
467.672	2466.86
468.045	2497.36
468.417	2548.66
468.789	2533.75
469.161	2526.52
469.534	2583.01
469.906	2637.7
470.278	2691.93
470.65	2701.43
471.022	2765.83
471.394	2779.84
471.766	2823
472.138	2863.23
472.51	2906.17
472.882	2914.98
473.253	2953.4
473.625	3003.57
473.997	3064.13
474.369	3055.09
474.74	3068.2
475.112	3131.92
475.484	3159.95
475.855	3248.98
476.227	3262.77
476.598	3311.13
476.97	3383.89
477.341	3420.28
477.713	3466.15
478.084	3458.92
478.455	3566.94
478.827	3558.8
479.198	3654.85
479.569	3668.41
479.94	3749.08
480.311	3799.48
480.682	3889.42
481.053	3952.69
481.424	3953.6
481.795	4030.43
482.166	4079.47
482.537	4072.69
482.908	4180.26
483.279	4179.81
483.65	4288.28
484.021	4328.5
484.391	4376.64
484.762	4400.59
485.133	4443.08
485.503	4563.3
485.874	4597.42
486.244	4634.93
486.615	4759.45
486.985	4764.65
487.356	4788.83
487.726	4868.37
488.097	4925.55
488.467	4920.12
488.837	5065.66
489.207	5074.92
489.578	5185.88
489.948	5158.31
490.318	5235.82
490.688	5256.61
491.058	5345.2
491.428	5413.22
491.798	5430.85
492.168	5493.67
492.538	5524.18
492.908	5569.83
493.278	5643.5
493.648	5627
494.017	5781.8
494.387	5766.88
494.757	5776.6
495.126	5865.64
495.496	5820.67
495.866	5879.65
496.235	5960.1
496.605	5963.49
496.974	6038.51
497.344	6056.59
497.713	6098.85
498.082	6106.08
498.452	6174.78
498.821	6209.36
499.19	6158.74
499.559	6224.27
499.928	6240.99
500.298	6301.11
500.667	6278.51
501.036	6342.23
501.405	6377.94
501.774	6383.36
502.143	6440.54
502.512	6463.59
502.88	6492.96
503.249	6526.64
503.618	6518.73
503.987	6574.32
504.356	6574.77
504.724	6605.05
505.093	6622
505.462	6663.58
505.83	6680.3
506.199	6748.1
506.567	6776.57
506.936	6818.61
507.304	6831.71
507.672	6861.54
508.041	6869.9
508.409	6939.51
508.777	6869.45
509.145	6876.68
509.514	6939.51
509.882	6968.43
510.25	6975.89
510.618	7050.46
510.986	7014.31
511.354	7065.38
511.722	7122.1
512.09	7174.08
512.458	7119.62
512.826	7161.87
513.193	7212.27
513.561	7169.78
513.929	7254.3
514.297	7226.5
514.664	7232.83
515.032	7271.7
515.4	7341.3
515.767	7341.3
516.135	7318.93
516.502	7322.55
516.869	7387.63
517.237	7410.91
517.604	7325.49
517.972	7472.83
518.339	7498.36
518.706	7396.67
519.073	7478.93
519.44	7449.32
519.808	7594.18
520.175	7534.97
520.542	7587.17
520.909	7574.52
521.276	7535.88
521.643	7588.53
522.009	7578.36
522.376	7686.83
522.743	7669.66
523.11	7711.69
523.477	7737.68
523.843	7770.67
524.21	7846.38
524.577	7891.12
524.943	7872.14
525.31	7876.21
525.676	7948.52
526.043	7942.19
526.409	7986.94
526.776	7925.92
527.142	7928.18
527.508	7949.42
527.874	8036.88
528.241	8032.81
528.607	8002.98
528.973	8049.31
529.339	8042.75
529.705	8093.37
530.071	8113.49
530.437	8057.22
530.803	8123.43
531.169	8129.98
531.535	8104.45
531.901	8071.91
532.267	8220.83
532.632	8181.28
532.998	8219.7
533.364	8246.14
533.73	8211.79
534.095	8205.91
534.461	8173.37
534.826	8259.7
535.192	8271
535.557	8287.72
535.923	8238.23
536.288	8178.57
536.653	8311
537.019	8207.95
537.384	8249.3
537.749	8193.71
538.114	8219.02
538.479	8146.71
538.845	8276.19
539.21	8160.04
539.575	8215.63
539.94	8173.37
540.305	8181.06
540.67	8168.85
541.034	8209.98
541.399	8249.3
541.764	8195.29
542.129	8239.13
542.494	8234.84
542.858	8243.88
543.223	8192.81
543.587	8215.86
543.952	8202.98
544.316	8140.15
544.681	8090.89
545.045	8201.39
545.41	8132.47
545.774	8202.07
546.138	8199.36
546.503	8186.48
546.867	8156.88
547.231	8257.21
547.595	8214.73
547.959	8196.65
548.324	8180.38
548.688	8192.13
549.052	8157.1
549.416	8120.94
549.779	8144.67
550.143	8124.79
550.507	8128.63
550.871	8137.44
551.235	8100.83
551.599	8191.9
551.962	8139.7
552.326	8155.52
552.689	8119.81
553.053	8113.49
553.417	8101.51
553.78	8222.64
554.143	8095.41
554.507	8191.23
554.87	8172.92
555.234	8194.16
555.597	8216.99
555.96	8175.18
556.323	8214.95
556.686	8130.89
557.05	8235.97
557.413	8182.19
557.776	8194.62
558.139	8250.43
558.502	8247.04
558.865	8255.18
559.228	8287.27
559.59	8226.7
559.953	8253.82
560.316	8336.53
560.679	8327.72
561.041	8365.46
561.404	8400.03
561.767	8431.22
562.129	8402.97
562.492	8496.3
562.854	8373.59
563.217	8440.26
563.579	8501.5
563.941	8471.22
564.304	8546.24
564.666	8607.49
565.028	8571.33
565.39	8594.38
565.753	8555.28
566.115	8595.06
566.477	8637.32
566.839	8679.57
567.201	8692
567.563	8684.55
567.925	8689.07
568.287	8682.74
568.648	8725
569.01	8760.93
569.372	8808.16
569.734	8780.81
570.095	8763.19
570.457	8813.81
570.819	8861.04
571.18	8860.13
571.542	8924.31
571.903	8972
572.265	8948.27
572.626	8951.88
572.987	8973.13
573.349	8970.41
573.71	9052.22
574.071	8985.33
574.432	9051.09
574.794	9114.82
575.155	9114.59
575.516	9138.09
575.877	9060.13
576.238	9184.19
576.599	9259.22
576.96	9203.85
577.32	9192.33
577.681	9305.32
578.042	9222.84
578.403	9294.93
578.763	9294.47
579.124	9266.45
579.485	9346.45
579.845	9339.67
580.206	9343.51
580.566	9382.38
580.927	9378.99
581.287	9403.62
581.648	9406.33
582.008	9448.82
582.368	9435.49
582.728	9512.32
583.089	9461.93
583.449	9505.54
583.809	9482.26
584.169	9544.18
584.529	9581.7
584.889	9591.19
585.249	9520.68
585.609	9517.07
585.969	9581.25
586.329	9579.89
586.688	9593.9
587.048	9668.7
587.408	9617.85
587.768	9629.61
588.127	9611.75
588.487	9637.51
588.846	9724.07
589.206	9624.63
589.565	9633.22
589.925	9712.09
590.284	9707.57
590.643	9722.48
591.003	9796.83
591.362	9795.02
591.721	9753.67
592.08	9735.82
592.44	9816.95
592.799	9747.57
593.158	9766.55
593.517	9828.47
593.876	9803.16
594.235	9788.7
594.593	9789.15
594.952	9840
595.311	9776.95
595.67	9834.35
596.029	9885.42
596.387	9868.47
596.746	9886.32
597.104	9858.53
597.463	9886.1
597.822	9890.62
598.18	9854.46
598.538	9852.2
598.897	9866.66
599.255	9816.04
599.613	9938.75
599.972	9860.11
600.33	9912.76
600.688	9918.64
601.046	9985.3
601.404	10010.84
601.762	9967.22
602.12	10028.69
602.478	9994.79
602.836	9973.78
603.194	9986.21
603.552	9971.74
603.91	9956.15
604.268	10011.74
604.625	9901.24
604.983	10010.84
605.341	9913.44
605.698	10025.3
606.056	9973.55
606.413	10006.09
606.771	10000.67
607.128	10058.52
607.485	10048.35
607.843	10029.82
608.2	10119.08
608.557	10072.31
608.914	10019.65
609.272	10134.9
609.629	10166.77
609.986	10156.15
610.343	10075.02
610.7	10185.3
611.057	10170.61
611.414	10112.3
611.771	10182.81
612.127	10229.59
612.484	10252.41
612.841	10240.66
613.198	10194.79
613.554	10208.8
613.911	10261.23
614.267	10348.23
614.624	10247.67
614.98	10300.32
615.337	10295.58
615.693	10310.04
616.05	10321.11
616.406	10338.29
616.762	10334.45
617.118	10325.18
617.475	10298.97
617.831	10291.74
618.187	10315.92
618.543	10275.92
618.899	10358.17
619.255	10334.45
619.611	10340.32
619.967	10350.72
620.323	10399.3
620.678	10297.61
621.034	10362.24
621.39	10343.03
621.746	10390.49
622.101	10468.68
622.457	10439.08
622.812	10386.87
623.168	10346.2
623.523	10439.98
623.879	10396.14
624.234	10372.41
624.589	10403.37
624.945	10351.85
625.3	10444.95
625.655	10421.68
626.01	10392.75
626.365	10338.74
626.72	10411.05
627.075	10383.94
627.43	10412.64
627.785	10332.19
628.14	10315.46
628.495	10323.6
628.85	10413.54
629.205	10354.33
629.559	10299.64
629.914	10366.99
630.269	10293.32
630.623	10347.78
630.978	10256.48
631.332	10295.35
631.687	10375.57
632.041	10271.85
632.396	10320.66
632.75	10192.3
633.104	10273.88
633.459	10175.35
633.813	10088.58
634.167	10166.54
634.521	10176.26
634.875	10212.42
635.229	10175.35
635.583	10077.28
635.937	10181.68
636.291	10113.66
636.645	10138.52
636.999	10035.47
637.352	10087.9
637.706	10028.69
638.06	10082.02
638.413	10073.66
638.767	10023.04
639.121	10026.21
639.474	9965.19
639.828	9946.43
640.181	9990.27
640.534	9963.83
640.888	9928.13
641.241	10001.8
641.594	9931.29
641.947	9965.64
642.301	9924.74
642.654	9952.31
643.007	9936.26
643.36	9898.07
643.713	9859.66
644.066	9883.38
644.419	9859.43
644.771	9849.49
645.124	9764.29
645.477	9696.04
645.83	9685.2
646.182	9661.47
646.535	9656.95
646.888	9613.56
647.24	9479.1
647.593	9543.96
647.945	9591.87
648.298	9489.04
648.65	9568.36
649.002	9494.69
649.355	9509.83
649.707	9516.16
650.059	9557.52
650.411	9691.3
650.763	9682.03
651.115	9723.61
651.467	9745.31
651.819	9727.23
652.171	9690.85
652.523	9708.02
652.875	9656.05
653.227	9686.33
653.578	9734.69
653.93	9678.19
654.282	9673.22
654.633	9649.72
654.985	9711.19
655.337	9701.92
655.688	9765.2
656.039	9753.9
656.391	9716.38
656.742	9667.12
657.094	9634.58
657.445	9713.45
657.796	9663.95
658.147	9616.72
658.498	9664.41
658.849	9636.16
659.2	9746.89
659.551	9678.87
659.902	9740.56
660.253	9595.93
660.604	9644.29
660.955	9569.49
661.306	9664.41
661.656	9725.87
662.007	9642.26
662.358	9654.01
662.708	9632.77
663.059	9631.64
663.409	9589.61
663.76	9654.69
664.11	9585.76
664.461	9645.88
664.811	9640.9
665.161	9703.5
665.511	9657.18
665.862	9642.94
666.212	9674.58
666.562	9649.27
666.912	9713.22
667.262	9650.85
667.612	9574.01
667.962	9682.94
668.312	9594.13
668.662	9652.43
669.011	9680.45
669.361	9591.87
669.711	9625.54
670.06	9628.25
670.41	9593.9
670.76	9581.02
671.109	9623.96
671.459	9637.51
671.808	9718.87
672.157	9616.72
672.507	9483.85
672.856	9568.36
673.205	9545.99
673.554	9580.12
673.904	9568.59
674.253	9567.01
674.602	9517.74
674.951	9429.16
675.3	9379.44
675.649	9536.5
675.998	9491.08
676.346	9454.02
676.695	9511.42
677.044	9467.8
677.393	9480.23
677.741	9487.46
678.09	9351.42
678.438	9415.15
678.787	9496.5
679.135	9421.48
679.484	9348.93
679.832	9418.09
680.181	9308.26
680.529	9393.68
680.877	9335.15
681.225	9318.2
681.573	9387.13
681.922	9298.54
682.27	9281.59
682.618	9210.86
682.966	9267.13
683.314	9222.16
683.661	9249.05
684.009	9222.84
684.357	9186
684.705	9115.04
685.053	9150.97
685.4	9165.44
685.748	9109.17
686.095	9080.02
686.443	9112.11
686.79	9051.09
687.138	9086.57
687.485	9068.04
687.832	9034.59
688.18	8949.4
688.527	8969.06
688.874	9041.15
689.221	8978.55
689.568	8916.4
689.915	8871.21
690.262	8907.82
690.609	8863.3
690.956	8813.13
691.303	8746.69
691.65	8741.95
691.997	8689.07
692.344	8613.36
692.69	8622.17
693.037	8608.84
693.383	8586.02
693.73	8620.37
694.077	8530.88
694.423	8468.73
694.769	8481.39
695.116	8472.8
695.462	8472.35
695.808	8406.81
696.155	8453.59
696.501	8339.47
696.847	8311
697.193	8329.53
697.539	8326.14
697.885	8300.15
698.231	8218.34
698.577	8209.3
698.923	8175.86
699.269	8175.41
699.614	8118.91
699.96	8167.05
700.306	8104.22
700.651	8079.59
700.997	8041.17
701.342	8025.58
701.688	8069.19
702.033	7978.35
702.379	7950.78
702.724	8001.4
703.069	7959.59
703.415	7847.51
703.76	7869.88
704.105	7877.79
704.45	7810.44
704.795	7788.98
705.14	7753.72
705.485	7700.16
705.83	7659.94
706.175	7678.24
706.52	7717.34
706.865	7674.85
707.209	7657.68
707.554	7619.49
707.899	7617.23
708.243	7561.41
708.588	7518.7
708.932	7563.22
709.277	7531.13
709.621	7492.26
709.966	7422.43
710.31	7468.31
710.654	7375.43
710.998	7411.58
711.342	7414.52
711.687	7348.08
712.031	7377.01
712.375	7286.62
712.719	7335.2
713.063	7325.49
713.407	7298.59
713.75	7279.38
714.094	7242.78
714.438	7218.82
714.782	7247.52
715.125	7177.01
715.469	7260.63
715.812	7192.16
716.156	7143.34
716.499	7147.18
716.843	7174.53
717.186	7123.68
717.53	7143.12
717.873	7125.72
718.216	7092.5
718.559	7062.44
718.902	7037.13
719.246	7073.06
719.589	7072.16
719.932	6988.32
720.275	6997.58
720.617	6975.66
720.96	6994.42
721.303	6965.95
721.646	7029.45
721.989	6968.66
722.331	6964.59
722.674	7001.65
723.016	6958.26
723.359	6973.63
723.701	6953.29
724.044	6907.42
724.386	6906.51
724.729	6937.02
725.071	6847.76
725.413	6956.68
725.755	6832.39
726.097	6895.89
726.439	6787.65
726.782	6814.76
727.124	6858.83
727.465	6805.27
727.807	6816.12
728.149	6815.44
728.491	6790.58
728.833	6859.06
729.175	6822.45
729.516	6802.11
729.858	6907.87
730.199	6825.39
730.541	6840.98
730.882	6784.48
731.224	6831.04
731.565	6775.22
731.906	6843.92
732.248	6847.76
732.589	6795.33
732.93	6753.3
733.271	6781.54
733.612	6777.93
733.953	6857.7
734.294	6764.14
734.635	6738.83
734.976	6760.53
735.317	6743.35
735.658	6707.65
735.999	6724.6
736.339	6762.79
736.68	6740.42
737.021	6736.35
737.361	6705.39
737.702	6770.25
738.042	6773.64
738.383	6732.51
738.723	6766.63
739.063	6747.65
739.404	6739.51
739.744	6742.9
740.084	6757.59
740.424	6776.57
740.764	6741.77
741.104	6796.91
741.444	6719.85
741.784	6781.54
742.124	6812.73
742.464	6785.39
742.804	6785.84
743.143	6784.48
743.483	6782.45
743.823	6825.16
744.162	6763.47
744.502	6890.69
744.841	6797.14
745.181	6844.14
745.52	6855.67
745.86	6984.25
746.199	6950.81
746.538	6932.95
746.877	7030.58
747.216	6987.19
747.556	7014.08
747.895	7091.82
748.234	7108.32
748.573	7100.41
748.911	7132.72
749.25	7217.01
749.589	7167.3
749.928	7279.38
750.267	7335.2
750.605	7369.1
750.944	7362.77
751.283	7403.68
751.621	7439.15
751.96	7451.36
752.298	7573.61
752.636	7667.4
752.975	7708.07
753.313	7717.34
753.651	7782.87
753.989	7839.37
754.327	7916.43
754.666	7988.29
755.004	8037.56
755.342	8195.29
755.679	8262.41
756.017	8235.74
756.355	8423.08
756.693	8474.61
757.031	8583.76
757.368	8643.64
757.706	8725.9
758.044	8787.37
758.381	8972.22
758.719	9053.12
759.056	9173.57
759.394	9212.89
759.731	9230.97
760.068	9338.99
760.405	9513.9
760.743	9537.86
761.08	9698.08
761.417	9771.75
761.754	9947.56
762.091	9998.64
762.428	10037.05
762.765	10111.4
763.102	10291.96
763.438	10357.95
763.775	10455.35
764.112	10602.46
764.449	10679.07
764.785	10765.85
765.122	10783.47
765.458	10932.4
765.795	11034.77
766.131	11134.2
766.467	11195.89
766.804	11281.31
767.14	11351.37
767.476	11500.29
767.812	11516.56
