Data from hue_130_FLMS001491_00093.txt Node
Date: Tue Feb 07 16:58:20 GMT 2017
User: dcchb
Spectrometer: FLMS00149
Trigger mode: 0
Integration Time (sec): 2.000000E-2
Scans to average: 10
Electric dark correction enabled: true
Nonlinearity correction enabled: false
Boxcar width: 0
XAxis mode: Wavelengths
Number of Pixels in Spectrum: 2048
>>>>>Begin Spectral Data<<<<<
341.393	-11.82
341.776	-11.82
342.16	-11.82
342.543	-70.58
342.927	-75.77
343.31	-93.85
343.693	-63.8
344.077	-57.02
344.46	-68.32
344.843	-55.44
345.226	-39.62
345.61	-46.62
345.993	-8.43
346.376	-10.24
346.759	23.88
347.142	31.34
347.525	46.71
347.908	71.79
348.291	77.89
348.674	78.35
349.057	113.37
349.44	112.24
349.823	109.53
350.206	141.39
350.588	203.31
350.971	201.28
351.354	210.77
351.737	229.3
352.119	253.71
352.502	259.81
352.884	283.76
353.267	296.87
353.65	266.14
354.032	294.38
354.414	290.32
354.797	322.41
355.179	363.99
355.562	310.2
355.944	328.28
356.326	310.66
356.709	321.95
357.091	308.4
357.473	339.58
357.855	321.95
358.238	338.23
358.62	355.4
359.002	320.82
359.384	340.03
359.766	343.42
360.148	326.25
360.53	334.61
360.912	329.86
361.294	335.74
361.676	339.81
362.057	348.17
362.439	328.96
362.821	328.51
363.203	313.14
363.584	312.46
363.966	357.66
364.348	331.9
364.729	318.79
365.111	294.38
365.493	325.57
365.874	312.92
366.256	302.07
366.637	296.64
367.019	313.82
367.4	303.65
367.781	308.4
368.163	309.07
368.544	288.96
368.925	317.44
369.306	313.82
369.688	307.49
370.069	303.65
370.45	311.33
370.831	307.04
371.212	295.29
371.593	294.16
371.974	310.43
372.355	331.67
372.736	319.02
373.117	321.05
373.498	328.73
373.879	304.33
374.26	316.08
374.641	318.34
375.021	312.01
375.402	306.59
375.783	314.5
376.163	307.49
376.544	309.07
376.925	319.92
377.305	329.64
377.686	333.03
378.066	326.02
378.447	305.91
378.827	333.48
379.208	334.16
379.588	318.57
379.968	316.08
380.349	323.99
380.729	311.79
381.109	343.65
381.489	347.49
381.87	358.79
382.25	323.99
382.63	362.18
383.01	342.75
383.39	351.33
383.77	327.83
384.15	319.92
384.53	330.99
384.91	319.92
385.29	344.1
385.67	365.8
386.049	343.2
386.429	309.53
386.809	336.64
387.189	340.49
387.568	349.52
387.948	333.71
388.328	348.39
388.707	340.26
389.087	359.02
389.466	351.78
389.846	355.4
390.225	359.47
390.605	354.27
390.984	364.67
391.363	343.42
391.743	356.98
392.122	362.18
392.501	367.83
392.881	369.86
393.26	368.73
393.639	369.19
394.018	362.18
394.397	375.51
394.776	362.86
395.155	356.53
395.534	376.64
395.913	380.94
396.292	359.69
396.671	377.32
397.05	369.64
397.429	352.24
397.808	361.5
398.186	380.48
398.565	386.13
398.944	409.86
399.323	378.22
399.701	387.72
400.08	378
400.458	379.58
400.837	396.08
401.215	370.99
401.594	385.91
401.972	395.63
402.351	391.11
402.729	392.91
403.107	414.61
403.486	409.41
403.864	413.03
404.242	387.49
404.62	404.21
404.999	414.83
405.377	405.57
405.755	407.6
406.133	420.03
406.511	406.02
406.889	425.91
407.267	419.58
407.645	423.2
408.023	431.1
408.401	431.1
408.779	410.54
409.156	439.69
409.534	422.07
409.912	436.75
410.29	443.53
410.667	437.43
411.045	446.92
411.422	431.33
411.8	452.35
412.178	457.77
412.555	454.83
412.933	450.99
413.31	437.66
413.687	439.01
414.065	471.33
414.442	476.75
414.819	467.49
415.197	466.36
415.574	460.26
415.951	477.88
416.328	483.98
416.705	482.18
417.082	495.06
417.46	489.18
417.837	485.11
418.214	478.33
418.591	512.01
418.967	484.21
419.344	486.24
419.721	491.44
420.098	500.93
420.475	526.7
420.852	518.56
421.228	501.84
421.605	519.24
421.982	523.98
422.358	535.28
422.735	527.83
423.111	523.53
423.488	538.45
423.864	523.31
424.241	541.61
424.617	546.13
424.994	542.29
425.37	541.16
425.746	524.21
426.123	559.01
426.499	560.59
426.875	577.09
427.251	546.13
427.627	582.51
428.003	568.5
428.379	549.75
428.756	560.37
429.132	564.66
429.507	570.08
429.883	611.89
430.259	602.17
430.635	582.74
431.011	617.99
431.387	617.99
431.763	611.21
432.138	627.03
432.514	599.46
432.89	633.36
433.265	629.74
433.641	636.07
434.016	641.27
434.392	649.18
434.767	652.34
435.143	636.97
435.518	653.02
435.894	683.75
436.269	700.7
436.644	672.68
437.02	664.54
437.395	697.76
437.77	696.63
438.145	709.29
438.52	706.13
438.895	718.78
439.271	720.36
439.646	714.26
440.021	739.12
440.395	721.04
440.77	727.82
441.145	718.78
441.52	751.77
441.895	727.37
442.27	746.58
442.645	750.42
443.019	767.14
443.394	744.77
443.769	774.15
444.143	765.56
444.518	783.86
444.892	781.83
445.267	794.03
445.641	831.09
446.016	781.6
446.39	786.58
446.764	811.66
447.139	797.42
447.513	828.83
447.887	811.43
448.262	815.95
448.636	812.56
449.01	824.99
449.384	834.94
449.758	829.06
450.132	839.46
450.506	864.54
450.88	878.32
451.254	857.53
451.628	859.34
452.002	882.62
452.376	891.21
452.75	906.57
453.123	914.48
453.497	921.26
453.871	932.79
454.244	935.05
454.618	934.14
454.992	943.86
455.365	944.31
455.739	967.14
456.112	984.76
456.486	988.15
456.859	984.99
457.232	1003.52
457.606	1021.15
457.979	1025.89
458.352	1039.68
458.725	1040.81
459.099	1047.36
459.472	1037.87
459.845	1083.29
460.218	1104.99
460.591	1106.79
460.964	1093.23
461.337	1138.88
461.71	1133.01
462.083	1157.19
462.456	1179.56
462.829	1185.89
463.201	1188.6
463.574	1221.14
463.947	1217.75
464.32	1268.6
464.692	1274.7
465.065	1255.94
465.438	1274.47
465.81	1300.46
466.183	1339.1
466.555	1361.48
466.928	1335.49
467.3	1367.13
467.672	1399.89
468.045	1443.73
468.417	1436.28
468.789	1455.71
469.161	1480.34
469.534	1513.79
469.906	1561.24
470.278	1569.61
470.65	1559.89
471.022	1633.11
471.394	1663.61
471.766	1680.11
472.138	1694.35
472.51	1783.61
472.882	1782.93
473.253	1851.63
473.625	1838.3
473.997	1921.01
474.369	1897.51
474.74	1984.06
475.112	2030.16
475.484	2100.44
475.855	2085.98
476.227	2092.98
476.598	2250.04
476.97	2227.67
477.341	2345.4
477.713	2351.05
478.084	2395.35
478.455	2520.99
478.827	2546.53
479.198	2637.83
479.569	2682.57
479.94	2755.34
480.311	2803.92
480.682	2878.05
481.053	2988.78
481.424	3071.26
481.795	3158.04
482.166	3220.18
482.537	3324.59
482.908	3458.82
483.279	3511.25
483.65	3634.86
484.021	3715.09
484.391	3822.43
484.762	3854.97
485.133	3949.2
485.503	4085.7
485.874	4210.89
486.244	4347.61
486.615	4452.24
486.985	4563.43
487.356	4719.81
487.726	4803.42
488.097	4906.24
488.467	5053.81
488.837	5254.03
489.207	5297.42
489.578	5436.62
489.948	5525.66
490.318	5698.08
490.688	5754.35
491.058	5933.78
491.428	6063.72
491.798	6209.03
492.168	6360.21
492.538	6464.39
492.908	6590.26
493.278	6769.24
493.648	6805.63
494.017	6905.51
494.387	7111.15
494.757	7223.02
495.126	7333.75
495.496	7405.38
495.866	7580.52
496.235	7650.8
496.605	7867.07
496.974	7942.55
497.344	8140.28
497.713	8197
498.082	8289.2
498.452	8410.1
498.821	8510.21
499.19	8621.85
499.559	8721.28
499.928	8823.43
500.298	8904.55
500.667	9041.5
501.036	9087.15
501.405	9274.49
501.774	9291.66
502.143	9425.22
502.512	9536.4
502.88	9573.46
503.249	9643.97
503.618	9766.68
503.987	9841.7
504.356	9890.29
504.724	9935.94
505.093	9971.42
505.462	10120.57
505.83	10216.84
506.199	10296.83
506.567	10460.9
506.936	10394.01
507.304	10537.28
507.672	10581.8
508.041	10698.63
508.409	10807.33
508.777	10842.13
509.145	10877.38
509.514	10918.96
509.882	10947.44
510.25	11032.18
510.618	11077.15
510.986	11113.76
511.354	11257.71
511.722	11313.08
512.09	11383.13
512.458	11404.15
512.826	11457.71
513.193	11546.07
513.561	11543.13
513.929	11575.22
514.297	11708.77
514.664	11728.21
515.032	11739.51
515.4	11815.44
515.767	11844.14
516.135	11928.43
516.502	11761.43
516.869	11960.52
517.237	11900.63
517.604	11847.53
517.972	12054.53
518.339	12109.89
518.706	12040.06
519.073	12087.52
519.44	12120.51
519.808	12191.02
520.175	12166.16
520.542	12325.26
520.909	12386.27
521.276	12317.35
521.643	12393.28
522.009	12399.83
522.376	12497.91
522.743	12521.63
523.11	12593.95
523.477	12644.79
523.843	12668.07
524.21	12701.29
524.577	12739.48
524.943	12735.41
525.31	12732.25
525.676	12906.26
526.043	12871.23
526.409	12849.08
526.776	12996.42
527.142	12897.9
527.508	12855.18
527.874	12977.89
528.241	12891.57
528.607	12901.96
528.973	12998.68
529.339	12871.91
529.705	13048.63
530.071	13029.42
530.437	13031.9
530.803	13066.93
531.169	13038.68
531.535	12948.52
531.901	12985.12
532.267	12999.36
532.632	13042.75
532.998	12933.6
533.364	12967.27
533.73	13058.34
534.095	13056.76
534.461	12979.93
534.826	13035.97
535.192	12938.57
535.557	12990.77
535.923	12841.4
536.288	12932.7
536.653	12983.54
537.019	12793.94
537.384	12901.29
537.749	12878.69
538.114	12779.48
538.479	12775.86
538.845	12773.83
539.21	12666.71
539.575	12684.34
539.94	12659.26
540.305	12666.04
540.67	12599.82
541.034	12599.15
541.399	12619.48
541.764	12551.46
542.129	12558.24
542.494	12535.87
542.858	12444.8
543.223	12513.05
543.587	12418.81
543.952	12361.64
544.316	12346.5
544.681	12291.36
545.045	12281.41
545.41	12296.56
545.774	12242.55
546.138	12227.18
546.503	12155.99
546.867	12202.32
547.231	12220.63
547.595	12199.38
547.959	12210.68
548.324	12034.42
548.688	12049.1
549.052	12112.83
549.416	11984.02
549.779	11904.48
550.143	11911.48
550.507	11937.02
550.871	11935.66
551.235	11792.39
551.599	11865.15
551.962	11860.63
552.326	11791.71
552.689	11774.31
553.053	11735.21
553.417	11661.09
553.78	11828.09
554.143	11689.34
554.507	11612.05
554.87	11679.4
555.234	11738.83
555.597	11574.09
555.96	11552.17
556.323	11573.18
556.686	11532.28
557.05	11546.29
557.413	11571.6
557.776	11618.38
558.139	11558.04
558.502	11518.04
558.865	11494.54
559.228	11558.95
559.59	11517.14
559.953	11462.9
560.316	11611.38
560.679	11558.27
561.041	11469.01
561.404	11565.05
561.767	11550.13
562.129	11481.66
562.492	11597.82
562.854	11589.46
563.217	11526.86
563.579	11542
563.941	11527.31
564.304	11572.96
564.666	11613.64
565.028	11559.17
565.39	11547.2
565.753	11608.66
566.115	11622.9
566.477	11737.47
566.839	11637.36
567.201	11671.26
567.563	11685.72
567.925	11653.63
568.287	11641.43
568.648	11654.09
569.01	11685.5
569.372	11759.62
569.734	11723.24
570.095	11738.15
570.457	11723.91
570.819	11781.09
571.18	11710.58
571.542	11803.46
571.903	11781.31
572.265	11724.59
572.626	11785.38
572.987	11747.87
573.349	11741.32
573.71	11865.15
574.071	11879.62
574.432	11852.95
574.794	11934.98
575.155	11918.03
575.516	11855.89
575.877	11822.67
576.238	11903.12
576.599	11904.93
576.96	11836.45
577.32	11870.8
577.681	11870.58
578.042	11947.64
578.403	11841.2
578.763	11859.73
579.124	11956
579.485	11893.18
579.845	11914.19
580.206	11952.84
580.566	11902.22
580.927	11993.51
581.287	11936.11
581.648	11885.72
582.008	11986.51
582.368	11913.06
582.728	11910.12
583.089	11844.82
583.449	11855.44
583.809	11898.37
584.169	11844.36
584.529	11801.65
584.889	11960.74
585.249	11808.88
585.609	11769.79
585.969	11872.39
586.329	11847.75
586.688	11870.13
587.048	11844.59
587.408	11825.83
587.768	11782.22
588.127	11724.14
588.487	11736.8
588.846	11818.83
589.206	11787.87
589.565	11708.55
589.925	11855.89
590.284	11738.6
590.643	11694.76
591.003	11752.39
591.362	11740.19
591.721	11737.7
592.08	11735.44
592.44	11728.66
592.799	11712.39
593.158	11760.07
593.517	11716.68
593.876	11766.4
594.235	11666.29
594.593	11674.42
594.952	11714.42
595.311	11709
595.67	11663.35
596.029	11651.15
596.387	11723.24
596.746	11688.89
597.104	11610.7
597.463	11586.07
597.822	11700.64
598.18	11598.04
598.538	11608.66
598.897	11722.33
599.255	11578.83
599.613	11708.77
599.972	11600.98
600.33	11690.02
600.688	11618.38
601.046	11658.83
601.404	11643.47
601.762	11591.04
602.12	11702.67
602.478	11632.62
602.836	11629.23
603.194	11523.69
603.552	11747.42
603.91	11556.91
604.268	11680.07
604.625	11575.67
604.983	11657.48
605.341	11607.76
605.698	11600.75
606.056	11666.29
606.413	11619.28
606.771	11726.4
607.128	11629.45
607.485	11715.78
607.843	11624.03
608.2	11627.42
608.557	11696.57
608.914	11641.43
609.272	11782.9
609.629	11714.88
609.986	11773.41
610.343	11687.98
610.7	11765.95
611.057	11764.37
611.414	11759.39
611.771	11772.95
612.127	11826.29
612.484	11724.59
612.841	11811.6
613.198	11768.89
613.554	11810.69
613.911	11876.68
614.267	11817.47
614.624	11729.11
614.98	11862.22
615.337	11912.38
615.693	11866.74
616.05	11843.23
616.406	11922.78
616.762	11803.46
617.118	11871.03
617.475	11916.45
617.831	11900.41
618.187	11993.51
618.543	11861.54
618.899	11956.9
619.255	11964.59
619.611	12029.9
619.967	11964.13
620.323	12050.46
620.678	11888.43
621.034	11929.79
621.39	11923.68
621.746	11991.25
622.101	12114.87
622.457	11951.25
622.812	11953.74
623.168	12040.97
623.523	12030.8
623.879	11991.7
624.234	11991.25
624.589	11960.07
624.945	11996.45
625.3	12016.11
625.655	12049.78
626.01	11959.61
626.365	12000.07
626.72	11932.5
627.075	11978.6
627.43	11881.2
627.785	11923.91
628.14	11899.96
628.495	11997.13
628.85	11856.11
629.205	11876.23
629.559	11950.8
629.914	11863.57
630.269	11890.92
630.623	11823.57
630.978	11833.29
631.332	11912.16
631.687	11918.03
632.041	11881.88
632.396	11825.16
632.75	11755.55
633.104	11827.19
633.459	11758.72
633.813	11676.91
634.167	11796.68
634.521	11777.7
634.875	11724.14
635.229	11742.22
635.583	11744.93
635.937	11714.2
636.291	11686.4
636.645	11685.72
636.999	11647.08
637.352	11641.66
637.706	11569.34
638.06	11636.69
638.413	11599.17
638.767	11584.94
639.121	11545.16
639.474	11577.25
639.828	11533.19
640.181	11533.64
640.534	11608.66
640.888	11447.99
641.241	11461.55
641.594	11570.47
641.947	11520.08
642.301	11439.85
642.654	11516.46
643.007	11581.55
643.36	11454.09
643.713	11476.92
644.066	11455
644.419	11376.58
644.771	11465.84
645.124	11277.15
645.477	11248.9
645.83	11148.79
646.182	11167.32
646.535	11160.31
646.888	11156.7
647.24	11082.12
647.593	11160.31
647.945	11072.18
648.298	11053.65
648.65	11066.76
649.002	11026.98
649.355	11090.26
649.707	11079.86
650.059	11186.75
650.411	11205.96
650.763	11239.63
651.115	11386.3
651.467	11349.24
651.819	11264.04
652.171	11314.43
652.523	11342.46
652.875	11299.97
653.227	11307.2
653.578	11313.98
653.93	11330.03
654.282	11296.13
654.633	11318.05
654.985	11338.84
655.337	11253.19
655.688	11297.03
656.039	11269.92
656.391	11288.9
656.742	11275.34
657.094	11279.41
657.445	11387.43
657.796	11329.35
658.147	11280.76
658.498	11308.11
658.849	11356.92
659.2	11376.58
659.551	11294.77
659.902	11336.81
660.253	11268.11
660.604	11421.55
660.955	11302.91
661.306	11348.56
661.656	11372.29
662.007	11352.4
662.358	11342.23
662.708	11387.65
663.059	11310.59
663.409	11288.67
663.76	11392.17
664.11	11311.04
664.461	11404.15
664.811	11331.83
665.161	11374.32
665.511	11336.13
665.862	11354.43
666.212	11340.65
666.562	11451.15
666.912	11315.11
667.262	11450.48
667.612	11383.58
667.962	11438.95
668.312	11362.79
668.662	11406.86
669.011	11357.14
669.361	11377.03
669.711	11349.24
670.06	11324.6
670.41	11326.86
670.76	11306.75
671.109	11364.15
671.459	11347.2
671.808	11286.64
672.157	11325.73
672.507	11270.59
672.856	11299.75
673.205	11305.85
673.554	11271.72
673.904	11304.94
674.253	11308.11
674.602	11378.39
674.951	11109.02
675.3	11099.3
675.649	11239.18
675.998	11237.37
676.346	11153.99
676.695	11191.27
677.044	11098.39
677.393	11232.63
677.741	11208.9
678.09	11088.68
678.438	11129.81
678.787	11162.57
679.135	11125.74
679.484	11108.79
679.832	11137.49
680.181	11026.53
680.529	11056.14
680.877	10976.59
681.225	11008
681.573	11094.33
681.922	10985.63
682.27	10953.54
682.618	10966.87
682.966	10879.42
683.314	10947.66
683.661	10866.76
684.009	10851.85
684.357	10846.42
684.705	10839.87
685.053	10777.27
685.4	10792.64
685.748	10750.38
686.095	10731.4
686.443	10705.18
686.79	10576.15
687.138	10707.9
687.485	10649.14
687.832	10618.41
688.18	10604.4
688.527	10597.39
688.874	10544.96
689.221	10553.78
689.568	10444.63
689.915	10486.43
690.262	10371.41
690.609	10425.64
690.956	10438.75
691.303	10381.58
691.65	10257.51
691.997	10325.76
692.344	10124.41
692.69	10271.52
693.037	10262.48
693.383	10096.16
693.73	10143.84
694.077	10144.3
694.423	10072.43
694.769	10029.27
695.116	9952.89
695.462	9911.08
695.808	9960.57
696.155	9883.51
696.501	9870.86
696.847	9843.51
697.193	9747.24
697.539	9842.83
697.885	9718.54
698.231	9742.27
698.577	9716.74
698.923	9685.55
699.269	9633.35
699.614	9563.75
699.96	9534.37
700.306	9601.71
700.651	9471.54
700.997	9501.15
701.342	9430.64
701.688	9376.86
702.033	9333.02
702.379	9375.5
702.724	9323.07
703.069	9310.65
703.415	9228.39
703.76	9253.47
704.105	9192.68
704.45	9149.29
704.795	9086.24
705.14	9032.23
705.485	9067.71
705.83	9005.12
706.175	9093.7
706.52	9002.86
706.865	8931.45
707.209	8961.05
707.554	8930.32
707.899	8882.63
708.243	8875.85
708.588	8876.98
708.932	8773.48
709.277	8765.8
709.621	8826.59
709.966	8678.35
710.31	8661.62
710.654	8634.73
710.998	8635.63
711.342	8624.11
711.687	8629.98
712.031	8579.82
712.375	8556.31
712.719	8610.1
713.063	8560.16
713.407	8603.54
713.75	8504.79
714.094	8498.24
714.438	8434.28
714.782	8519.48
715.125	8410.1
715.469	8415.3
715.812	8399.71
716.156	8322.2
716.499	8373.04
716.843	8409.2
717.186	8251.01
717.53	8328.75
717.873	8311.12
718.216	8321.97
718.559	8320.61
718.902	8201.52
719.246	8251.92
719.589	8253.27
719.932	8224.12
720.275	8248.07
720.617	8265.02
720.96	8199.49
721.303	8169.43
721.646	8234.52
721.989	8141.18
722.331	8181.86
722.674	8112.48
723.016	8155.87
723.359	8208.3
723.701	8133.05
724.044	8127.17
724.386	8074.52
724.729	8122.2
725.071	8100.28
725.413	8081.75
725.755	8101.19
726.097	8097.57
726.439	8044.46
726.782	7977.8
727.124	8051.92
727.465	7980.06
727.807	8005.59
728.149	8022.09
728.491	7999.27
728.833	7994.97
729.175	8011.02
729.516	8008.98
729.858	7978.02
730.199	8041.53
730.541	7947.29
730.882	8027.29
731.224	8001.98
731.565	7919.27
731.906	7933.51
732.248	8005.82
732.589	8004.69
732.93	7979.15
733.271	7924.24
733.612	7952.04
733.953	7976.67
734.294	7980.06
734.635	7981.41
734.976	7961.3
735.317	7968.53
735.658	8046.05
735.999	7968.08
736.339	8011.47
736.68	7988.42
737.021	7997.46
737.361	7945.94
737.702	8069.32
738.042	8011.02
738.383	7999.95
738.723	8002.43
739.063	7995.88
739.404	8039.49
739.744	8048.98
740.084	8015.31
740.424	8072.71
740.764	8103.67
741.104	8081.98
741.444	8066.16
741.784	8123.56
742.124	8058.7
742.464	8165.82
742.804	8091.92
743.143	8116.1
743.483	8174.86
743.823	8143.67
744.162	8253.27
744.502	8265.25
744.841	8251.24
745.181	8391.8
745.52	8324.46
745.86	8364.46
746.199	8399.48
746.538	8415.98
746.877	8481.06
747.216	8508.86
747.556	8495.75
747.895	8610.78
748.234	8652.58
748.573	8660.94
748.911	8742.75
749.25	8745.24
749.589	8865.68
749.928	8920.37
750.267	8946.36
750.605	9062.52
750.944	9076.07
751.283	9167.6
751.621	9261.15
751.96	9335.96
752.298	9417.76
752.636	9506.12
752.975	9580.47
753.313	9670.64
753.651	9782.05
753.989	9852.78
754.327	9950.18
754.666	10050.06
755.004	10237.85
755.342	10293.67
755.679	10447.34
756.017	10472.42
756.355	10716.26
756.693	10748.8
757.031	10999.19
757.368	11053.88
757.706	11179.07
758.044	11290.48
758.381	11481.66
758.719	11587.42
759.056	11820.18
759.394	11937.47
759.731	12044.81
