Data from hue_40_FLMS001491_30.txt Node
Date: Mon Feb 06 15:07:41 GMT 2017
User: dcchb
Spectrometer: FLMS00149
Trigger mode: 0
Integration Time (sec): 2.000000E-2
Scans to average: 10
Electric dark correction enabled: true
Nonlinearity correction enabled: false
Boxcar width: 0
XAxis mode: Wavelengths
Number of Pixels in Spectrum: 2048
>>>>>Begin Spectral Data<<<<<
341.393	1.98
341.776	1.98
342.16	1.98
342.543	-80.05
342.927	-57.23
343.31	-64.01
343.693	-64.46
344.077	-66.95
344.46	-64.01
344.843	-61.52
345.226	-36.44
345.61	-26.5
345.993	-8.19
346.376	-12.03
346.759	7.85
347.142	31.81
347.525	18.93
347.908	42.65
348.291	78.36
348.674	93.27
349.057	131.24
349.44	152.48
349.823	146.83
350.206	163.33
350.588	196.55
350.971	201.29
351.354	230.9
351.737	228.64
352.119	247.39
352.502	276.32
352.884	266.6
353.267	279.94
353.65	311.12
354.032	305.47
354.414	300.95
354.797	293.27
355.179	329.88
355.562	329.65
355.944	328.75
356.326	336.66
356.709	333.49
357.091	329.2
357.473	347.05
357.855	359.26
358.238	324.23
358.62	336.21
359.002	332.82
359.384	344.57
359.766	349.99
360.148	338.47
360.53	357.45
360.912	331.46
361.294	358.35
361.676	332.14
362.057	340.73
362.439	331.23
362.821	309.77
363.203	344.57
363.584	333.49
363.966	319.26
364.348	322.42
364.729	338.47
365.111	340.05
365.493	331.69
365.874	335.3
366.256	332.14
366.637	306.83
367.019	321.74
367.4	334.62
367.781	344.34
368.163	308.86
368.544	312.48
368.925	310.67
369.306	321.74
369.688	341.18
370.069	314.06
370.45	332.82
370.831	324
371.212	304.79
371.593	310.22
371.974	307.28
372.355	314.51
372.736	333.49
373.117	321.74
373.498	322.65
373.879	328.75
374.26	305.92
374.641	317
375.021	321.29
375.402	344.34
375.783	324.68
376.163	332.59
376.544	339.6
376.925	307.28
377.305	345.02
377.686	347.28
378.066	338.69
378.447	349.54
378.827	352.7
379.208	340.27
379.588	345.92
379.968	314.51
380.349	352.48
380.729	353.15
381.109	342.31
381.489	351.12
381.87	359.71
382.25	337.79
382.63	353.38
383.01	341.4
383.39	341.86
383.77	332.59
384.15	318.13
384.53	359.71
384.91	341.4
385.29	332.82
385.67	357.67
386.049	362.87
386.429	345.47
386.809	367.39
387.189	353.83
387.568	361.74
387.948	353.83
388.328	364.91
388.707	368.75
389.087	352.93
389.466	366.71
389.846	395.41
390.225	366.71
390.605	357
390.984	375.07
391.363	381.18
391.743	377.33
392.122	374.17
392.501	378.01
392.881	369.88
393.26	389.76
393.639	382.98
394.018	359.03
394.397	380.27
394.776	397.22
395.155	376.2
395.534	390.89
395.913	394.96
396.292	389.09
396.671	383.44
397.05	398.35
397.429	414.4
397.808	397.22
398.186	409.88
398.565	405.13
398.944	388.41
399.323	408.97
399.701	395.87
400.08	399.93
400.458	400.38
400.837	418.01
401.215	409.65
401.594	408.29
401.972	390.44
402.351	418.01
402.729	398.58
403.107	427.73
403.486	406.71
403.864	415.98
404.242	417.56
404.62	426.37
404.999	433.15
405.377	414.17
405.755	436.99
406.133	453.04
406.511	450.33
406.889	443.55
407.267	439.93
407.645	456.43
408.023	435.86
408.401	471.57
408.779	446.03
409.156	478.57
409.534	459.37
409.912	439.93
410.29	467.28
410.667	455.3
411.045	462.08
411.422	475.19
411.8	452.36
412.178	469.31
412.555	475.19
412.933	468.41
413.31	480.83
413.687	500.5
414.065	495.98
414.442	508.4
414.819	507.05
415.197	499.59
415.574	508.4
415.951	510.44
416.328	511.12
416.705	511.12
417.082	513.83
417.46	514.05
417.837	533.71
418.214	512.25
418.591	531
418.967	517.44
419.344	513.38
419.721	548.86
420.098	529.42
420.475	541.4
420.852	543.21
421.228	555.18
421.605	555.64
421.982	564.9
422.358	594.28
422.735	585.24
423.111	554.28
423.488	569.87
423.864	575.75
424.241	581.85
424.617	595.41
424.994	563.09
425.37	573.71
425.746	579.14
426.123	595.18
426.499	583.21
426.875	625.24
427.251	592.02
427.627	625.69
428.003	614.39
428.379	630.66
428.756	630.44
429.132	635.18
429.507	641.73
429.883	659.14
430.259	644.9
430.635	630.21
431.011	640.6
431.387	659.59
431.763	663.43
432.138	676.99
432.514	671.11
432.89	679.02
433.265	682.41
433.641	694.61
434.016	685.58
434.392	723.09
434.767	718.12
435.143	740.26
435.518	728.51
435.894	722.64
436.269	711.34
436.644	754.95
437.02	750.88
437.395	745.69
437.77	757.66
438.145	745.91
438.52	788.85
438.895	759.92
439.271	802.63
439.646	778.91
440.021	777.55
440.395	807.83
440.77	779.81
441.145	793.37
441.52	834.27
441.895	830.66
442.27	821.84
442.645	812.58
443.019	838.34
443.394	822.97
443.769	822.97
444.143	818.45
444.518	855.51
444.892	830.43
445.267	869.3
445.641	859.58
446.016	855.97
446.39	842.86
446.764	854.84
447.139	851.9
447.513	881.95
447.887	871.33
448.262	888.06
448.636	865.68
449.01	907.94
449.384	898.9
449.758	922.63
450.132	919.02
450.506	923.76
450.88	911.11
451.254	933.25
451.628	939.35
452.002	949.98
452.376	953.14
452.75	948.17
453.123	987.71
453.497	966.02
453.871	975.74
454.244	1005.79
454.618	1018.45
454.992	999.47
455.365	1029.07
455.739	1013.93
456.112	1056.86
456.486	1065.23
456.859	1077.88
457.232	1070.2
457.606	1075.62
457.979	1087.37
458.352	1105.68
458.725	1113.59
459.099	1125.56
459.472	1138.22
459.845	1175.28
460.218	1154.72
460.591	1199.91
460.964	1191.55
461.337	1225.45
461.71	1214.6
462.083	1264.09
462.456	1245.56
462.829	1257.76
463.201	1279.23
463.574	1317.2
463.947	1300.25
464.32	1305.67
464.692	1324.65
465.065	1328.5
465.438	1338.89
465.81	1363.52
466.183	1392.45
466.555	1430.19
466.928	1442.62
467.3	1427.93
467.672	1483.75
468.045	1509.28
468.417	1522.39
468.789	1525.55
469.161	1564.2
469.534	1601.48
469.906	1610.07
470.278	1634.93
470.65	1656.62
471.022	1677.87
471.394	1717.19
471.766	1745.21
472.138	1732.33
472.51	1796.73
472.882	1837.41
473.253	1861.82
473.625	1911.53
473.997	1965.99
474.369	1968.03
474.74	1987.24
475.112	2058.19
475.484	2081.92
475.855	2138.42
476.227	2180.9
476.598	2255.7
476.97	2315.14
477.341	2353.1
477.713	2412.99
478.084	2431.52
478.455	2470.61
478.827	2527.79
479.198	2637.16
479.569	2653.89
479.94	2753.32
480.311	2843.03
480.682	2888.91
481.053	2974.78
481.424	3014.78
481.795	3115.34
482.166	3208.22
482.537	3269.91
482.908	3367.31
483.279	3404.15
483.65	3516.24
484.021	3593.75
484.391	3704.03
484.762	3789.45
485.133	3836.23
485.503	3941.99
485.874	4039.61
486.244	4118.48
486.615	4239.83
486.985	4309.43
487.356	4452.71
487.726	4509.88
488.097	4676.43
488.467	4715.07
488.837	4877.1
489.207	4996.87
489.578	5075.06
489.948	5184.89
490.318	5278.22
490.688	5389.41
491.058	5489.74
491.428	5624.88
491.798	5692.45
492.168	5880.01
492.538	5961.14
492.908	6048.37
493.278	6189.84
493.648	6262.15
494.017	6370.17
494.387	6500.34
494.757	6576.95
495.126	6738.75
495.496	6751.63
495.866	6884.06
496.235	6997.27
496.605	7086.99
496.974	7202.69
497.344	7343.03
497.713	7468.9
498.082	7467.32
498.452	7637.48
498.821	7699.4
499.19	7823.69
499.559	7939.62
499.928	8046.96
500.298	8159.05
500.667	8210.8
501.036	8290.57
501.405	8404.92
501.774	8420.06
502.143	8522.66
502.512	8654.63
502.88	8720.84
503.249	8812.14
503.618	8842.65
503.987	8992.48
504.356	9022.53
504.724	9119.7
505.093	9214.62
505.462	9278.34
505.83	9417.1
506.199	9557.43
506.567	9607.6
506.936	9643.53
507.304	9778.44
507.672	9896.41
508.041	9906.12
508.409	9937.76
508.777	10140.69
509.145	10167.36
509.514	10210.75
509.882	10270.41
510.25	10386.34
510.618	10427.47
510.986	10435.15
511.354	10610.51
511.722	10718.31
512.09	10829.94
512.458	10842.37
512.826	10945.19
513.193	11047.11
513.561	11029.26
513.929	11070.84
514.297	11321.45
514.664	11265.86
515.032	11469.47
515.4	11493.43
515.767	11521.9
516.135	11666.53
516.502	11528.91
516.869	11772.06
517.237	11857.26
517.604	11903.36
517.972	11946.3
518.339	12160.75
518.706	12117.37
519.073	12267.42
519.44	12194.88
519.808	12356.91
520.175	12424.25
520.542	12513.06
520.909	12636.9
521.276	12656.11
521.643	12678.71
522.009	12838.02
522.376	12946.5
522.743	13008.19
523.11	13037.34
523.477	13266.26
523.843	13241.4
524.21	13301.74
524.577	13469.65
524.943	13486.82
525.31	13610.43
525.676	13705.57
526.043	13813.59
526.409	13841.61
526.776	14086.58
527.142	13994.38
527.508	14131.78
527.874	14219.68
528.241	14327.7
528.607	14403.63
528.973	14580.58
529.339	14548.26
529.705	14680.01
530.071	14800.01
530.437	14748.26
530.803	14994.35
531.169	15023.73
531.535	14984.18
531.901	15123.61
532.267	15129.04
532.632	15185.53
532.998	15326.55
533.364	15416.04
533.73	15408.8
534.095	15543.04
534.461	15581.23
534.826	15753.65
535.192	15739.64
535.557	15868.9
535.923	15866.42
536.288	15896.7
536.653	16045.85
537.019	16034.55
537.384	16183.47
537.749	16189.12
538.114	16134.43
538.479	16319.74
538.845	16285.39
539.21	16360.64
539.575	16428.44
539.94	16541.88
540.305	16644.93
540.67	16547.08
541.034	16715.44
541.399	16703.23
541.764	16829.33
542.129	16921.98
542.494	16894.19
542.858	17016.9
543.223	17038.59
543.587	17242.2
543.952	17183.9
544.316	17258.02
544.681	17291.92
545.045	17354.97
545.41	17415.3
545.774	17447.17
546.138	17551.12
546.503	17566.26
546.867	17701.62
547.231	17883.09
547.595	17887.61
547.959	17830.21
548.324	17900.49
548.688	18036.31
549.052	18090.77
549.416	18026.59
549.779	18129.86
550.143	18221.84
550.507	18300.71
550.871	18365.11
551.235	18330.76
551.599	18469.97
551.962	18489.63
552.326	18559.23
552.689	18674.25
553.053	18702.5
553.417	18703.18
553.78	18869.28
554.143	18907.47
554.507	18918.77
554.87	19074.24
555.234	19188.37
555.597	19092.32
555.96	19300
556.323	19318.98
556.686	19310.62
557.05	19577.06
557.413	19529.83
557.776	19533.89
558.139	19704.28
558.502	19726.2
558.865	19691.4
559.228	19927.56
559.59	19916.93
559.953	20062.01
560.316	20135.69
560.679	20173.42
561.041	20304.95
561.404	20236.47
561.767	20435.79
562.129	20434.43
562.492	20647.08
562.854	20548.33
563.217	20665.39
563.579	20732.51
563.941	20876.91
564.304	20938.6
564.666	21016.34
565.028	21147.41
565.39	21127.3
565.753	21253.62
566.115	21289.1
566.477	21387.18
566.839	21492.03
567.201	21574.07
567.563	21625.59
567.925	21806.83
568.287	21831.46
568.648	21926.82
569.01	22021.29
569.372	21983.55
569.734	21993.72
570.095	22260.83
570.457	22259.47
570.819	22336.08
571.18	22456.3
571.542	22561.16
571.903	22616.75
572.265	22697.43
572.626	22887.03
572.987	22885.44
573.349	22989.85
573.71	23150.07
574.071	23145.32
574.432	23254.93
574.794	23454.02
575.155	23523.17
575.516	23556.61
575.877	23632.99
576.238	23774.01
576.599	23942.14
576.96	24096.71
577.32	24077.73
577.681	24270.49
578.042	24415.57
578.403	24453.76
578.763	24609.69
579.124	24760.2
579.485	24905.28
579.845	25093.97
580.206	25021.43
580.566	25216
580.927	25332.38
581.287	25546.39
581.648	25600.63
582.008	25873.61
582.368	25925.82
582.728	26200.16
583.089	26251.91
583.449	26320.38
583.809	26623.42
584.169	26766.7
584.529	26934.38
584.889	27239
585.249	27230.41
585.609	27457.98
585.969	27660.91
586.329	27828.82
586.688	28048.25
587.048	28221.35
587.408	28294.34
587.768	28460.44
588.127	28681.22
588.487	28804.38
588.846	29178.16
589.206	29118.95
589.565	29277.82
589.925	29762.55
590.284	29779.27
590.643	29977.23
591.003	30368.86
591.362	30510.33
591.721	30708.97
592.08	30859.25
592.44	31050.65
592.799	31313.47
593.158	31334.71
593.517	31575.84
593.876	31718.66
594.235	31881.14
594.593	32000.91
594.952	32273.9
595.311	32433.44
595.67	32613.78
596.029	33023.48
596.387	33107.55
596.746	33288.11
597.104	33302.8
597.463	33523.36
597.822	33791.6
598.18	33851.26
598.538	34006.06
598.897	34400.62
599.255	34223
599.613	34762.87
599.972	34717.67
600.33	34962.41
600.688	34985.01
601.046	35258.23
601.404	35451.67
601.762	35563.53
602.12	35934.37
602.478	35951.77
602.836	36090.97
603.194	36027.02
603.552	36271.98
603.91	36170.52
604.268	36592.2
604.625	36654.8
604.983	36850.95
605.341	36597.4
605.698	37046.2
606.056	37270.6
606.413	37277.16
606.771	37674.21
607.128	37693.64
607.485	37640.31
607.843	37764.15
608.2	37998.04
608.557	38222.44
608.914	38190.13
609.272	38419.05
609.629	38588.76
609.986	38795.76
610.343	38661.75
610.7	39125.69
611.057	39016.32
611.414	39124.56
611.771	39125.69
612.127	39420.6
612.484	39401.39
612.841	39453.14
613.198	39650.65
613.554	39654.95
613.911	40049.74
614.267	39985.33
614.624	40213.35
614.98	40200.02
615.337	40381.03
615.693	40422.84
616.05	40453.8
616.406	40740.57
616.762	40527.47
617.118	40607.46
617.475	40818.98
617.831	41014.46
618.187	41126.09
618.543	41134.68
618.899	41422.58
619.255	41285.64
619.611	41390.95
619.967	41651.5
620.323	41675.46
620.678	41486.99
621.034	41560.43
621.39	41581.68
621.746	41560.88
622.101	41989.57
622.457	41723.37
622.812	41904.6
623.168	42101.66
623.523	41828.67
623.879	42138.27
624.234	41803.36
624.589	41904.15
624.945	42150.25
625.3	42263.47
625.655	42134.65
626.01	42383.69
626.365	42294.65
626.72	42367.64
627.075	42294.88
627.43	42342.33
627.785	42479.05
628.14	42449.22
628.495	42472.27
628.85	42518.83
629.205	42446.51
629.559	42685.15
629.914	42490.8
630.269	42405.83
630.623	42447.87
630.978	42437.7
631.332	42521.76
631.687	42673.62
632.041	42449.9
632.396	42526.73
632.75	42471.82
633.104	42494.19
633.459	42265.95
633.813	42484.02
634.167	42318.83
634.521	42428.43
634.875	42510.69
635.229	42379.17
635.583	42230.47
635.937	42289.68
636.291	42367.42
636.645	42132.17
636.999	42119.06
637.352	42293.07
637.706	42087.88
638.06	42378.49
638.413	42097.37
638.767	42218.72
639.121	42214.2
639.474	41862.57
639.828	42033.19
640.181	42204.03
640.534	41904.15
640.888	42058.95
641.241	41848.33
641.594	41997.03
641.947	42050.82
642.301	41979.18
642.654	41963.59
643.007	42025.28
643.36	41909.35
643.713	41799.97
644.066	41969.46
644.419	41736.02
644.771	41487.89
645.124	41119.54
645.477	41109.82
645.83	40693.56
646.182	40722.04
646.535	40434.81
646.888	40664.41
647.24	40360.24
647.593	40687.91
647.945	40604.75
648.298	40391.2
648.65	40427.36
649.002	40315.72
649.355	40442.5
649.707	40336.96
650.059	40633.23
650.411	40930.39
650.763	41023.72
651.115	41468.91
651.467	41235.02
651.819	41392.08
652.171	41173.32
652.523	41137.62
652.875	41227.11
653.227	41089.71
653.578	41316.6
653.93	41202.7
654.282	40970.39
654.633	40801.81
654.985	41059.88
655.337	41130.61
655.688	40945.31
656.039	41087.9
656.391	40813.11
656.742	40842.49
657.094	40829.83
657.445	41023.95
657.796	40798.64
658.147	40737.63
658.498	40884.07
658.849	40826.89
659.2	40868.47
659.551	40771.3
659.902	40898.76
660.253	40826.67
660.604	40860.79
660.955	40584.64
661.306	40837.29
661.656	40915.93
662.007	40725.65
662.358	40797.06
662.708	40713
663.059	40742.6
663.409	40397.75
663.76	40807.46
664.11	40668.93
664.461	40682.04
664.811	40608.59
665.161	40678.87
665.511	40469.84
665.862	40669.16
666.212	40784.63
666.562	40619.67
666.912	40722.26
667.262	40571.31
667.612	40593.68
667.962	40650.4
668.312	40567.46
668.662	40717.97
669.011	40501.25
669.361	40466.68
669.711	40521.36
670.06	40517.3
670.41	40482.04
670.76	40302.84
671.109	40580.8
671.459	40426.9
671.808	40357.75
672.157	40360.46
672.507	40158.44
672.856	40207.25
673.205	40318.66
673.554	40249.73
673.904	40344.19
674.253	40356.62
674.602	40239.11
674.951	39675.74
675.3	39412.92
675.649	40027.82
675.998	40212.45
676.346	40053.58
676.695	40251.54
677.044	39875.96
677.393	40088.83
677.741	39984.65
678.09	40029.63
678.438	39962.96
678.787	39996.41
679.135	39971.32
679.484	39581.95
679.832	39866.69
680.181	39725.45
680.529	39749.86
680.877	39673.7
681.225	39565.46
681.573	39875.96
681.922	39500.37
682.27	39437.32
682.618	39486.81
682.966	39447.04
683.314	39447.72
683.661	39466.7
684.009	39166.15
684.357	39090.89
684.705	39071.68
685.053	39057
685.4	39163.43
685.748	38843.67
686.095	38791.01
686.443	38672.37
686.79	38636.22
687.138	38765.48
687.485	38644.35
687.832	38410.68
688.18	38621.07
688.527	38299.05
688.874	38355.55
689.221	38218.6
689.568	38167.3
689.915	37907.42
690.262	38048.66
690.609	38016.57
690.956	37910.81
691.303	37802.57
691.65	37676.92
691.997	37825.62
692.344	37415.46
692.69	37482.12
693.037	37306.76
693.383	37221.34
693.73	37378.62
694.077	37065.41
694.423	37043.49
694.769	36933.89
695.116	36755.14
695.462	36906.09
695.808	36641.47
696.155	36680.56
696.501	36413
696.847	36407.35
697.193	36247.35
697.539	36365.77
697.885	36099.79
698.231	36041.71
698.577	36021.37
698.923	35943.63
699.269	35770.98
699.614	35580.7
699.96	35508.84
700.306	35677.2
700.651	35395.62
700.997	35267.94
701.342	35295.29
701.688	35255.97
702.033	35021.62
702.379	35014.16
702.724	34925.35
703.069	35026.37
703.415	34709.99
703.76	34631.35
704.105	34814.4
704.45	34606.49
704.795	34353.62
705.14	34389.77
705.485	34232.94
705.83	34159.05
706.175	34244.92
706.52	34077.01
706.865	33873.4
707.209	33899.17
707.554	33875.66
707.899	33908.88
708.243	33702.33
708.588	33751.82
708.932	33379.4
709.277	33288.56
709.621	33455.79
709.966	33166.53
710.31	33347.99
710.654	32990.94
710.998	33056.25
711.342	33089.92
711.687	33020.09
712.031	33000.21
712.375	32706.65
712.719	32658.75
713.063	32620.78
713.407	32867.1
713.75	32581.91
714.094	32637.28
714.438	32463.72
714.782	32498.07
715.125	32294.46
715.469	32430.96
715.812	32089.72
716.156	32008.14
716.499	32033.23
716.843	31961.81
717.186	31769.96
717.53	32001.81
717.873	32150.74
718.216	31959.56
718.559	31950.74
718.902	31534.03
719.246	31644.99
719.589	31520.02
719.932	31383.07
720.275	31429.85
720.617	31402.28
720.96	31414.26
721.303	31380.81
721.646	31376.07
721.989	31081.39
722.331	31227.37
722.674	31107.15
723.016	31116.64
723.359	31052.46
723.701	30996.87
724.044	30803.65
724.386	30751.68
724.729	30901.28
725.071	30638.46
725.413	30744.9
725.755	30649.76
726.097	30655.86
726.439	30400.73
726.782	30442.08
727.124	30511.68
727.465	30395.98
727.807	30289.32
728.149	30332.03
728.491	30179.49
728.833	30180.62
729.175	30116.21
729.516	29995.76
729.858	29918.03
730.199	29997.35
730.541	29972.04
730.882	29897.46
731.224	29954.41
731.565	29698.82
731.906	29771.14
732.248	29761.19
732.589	29542.44
732.93	29599.17
733.271	29554.19
733.612	29504.03
733.953	29607.53
734.294	29453.86
734.635	29448.21
734.976	29448.89
735.317	29196.46
735.658	29239.17
735.999	29381.77
736.339	29203.02
736.68	29243.24
737.021	29108.1
737.361	29031.95
737.702	29234.43
738.042	29013.64
738.383	28891.61
738.723	29130.93
739.063	28864.04
739.404	28831.05
739.744	28768.68
740.084	28667.21
740.424	28787.66
740.764	28627.89
741.104	28793.31
741.444	28538.18
741.784	28452.98
742.124	28530.04
742.464	28489.14
742.804	28456.37
743.143	28366.43
743.483	28379.08
743.823	28088.92
744.162	28282.14
744.502	28285.08
744.841	28183.38
745.181	28202.82
745.52	28048.92
745.86	28107.91
746.199	27930.51
746.538	28027.23
746.877	28054.8
747.216	28030.17
747.556	27785.65
747.895	27990.17
748.234	27888.25
748.573	27771.42
748.911	27743.85
749.25	27775.03
749.589	27514.47
749.928	27516.73
750.267	27584.08
750.605	27441.93
750.944	27567.35
751.283	27412.56
751.621	27465.21
751.96	27219.11
752.298	27376.4
752.636	27228.83
752.975	27163.75
753.313	26967.37
753.651	27157.42
753.989	27022.96
754.327	26925.56
754.666	26767.83
755.004	26849.63
755.342	26844.89
755.679	26787.94
756.017	26663.88
756.355	26633.82
756.693	26566.25
757.031	26588.85
