Data from hue_36_FLMS001491_00079.txt Node
Date: Tue Feb 07 17:30:17 GMT 2017
User: dcchb
Spectrometer: FLMS00149
Trigger mode: 0
Integration Time (sec): 2.000000E-2
Scans to average: 10
Electric dark correction enabled: true
Nonlinearity correction enabled: false
Boxcar width: 0
XAxis mode: Wavelengths
Number of Pixels in Spectrum: 2048
>>>>>Begin Spectral Data<<<<<
341.393	-18.73
341.776	-18.73
342.16	-18.73
342.543	-72.74
342.927	-89.01
343.31	-61.44
343.693	-79.97
344.077	-70.7
344.46	-65.28
344.843	-57.6
345.226	-55.56
345.61	-13.3
345.993	-28.67
346.376	1.16
346.759	36.19
347.142	23.98
347.525	58.56
347.908	57.88
348.291	52.91
348.674	94.26
349.057	107.6
349.44	111.66
349.823	154.6
350.206	167.03
350.588	188.27
350.971	215.84
351.354	240.47
351.737	225.56
352.119	254.48
352.502	256.52
352.884	281.83
353.267	292.68
353.65	297.65
354.032	311.43
354.414	316.4
354.797	305.78
355.179	338.32
355.562	323.86
355.944	332.67
356.326	345.78
356.709	336.74
357.091	353.92
357.473	334.03
357.855	356.63
358.238	346.91
358.62	330.64
359.002	328.38
359.384	328.83
359.766	339.23
360.148	346.91
360.53	335.61
360.912	340.58
361.294	361.37
361.676	334.71
362.057	353.01
362.439	332.9
362.821	323.86
363.203	335.39
363.584	308.95
363.966	321.6
364.348	322.51
364.729	325.67
365.111	314.37
365.493	305.56
365.874	302.85
366.256	310.53
366.637	319.79
367.019	326.12
367.4	324.77
367.781	317.76
368.163	306.91
368.544	317.31
368.925	310.08
369.306	315.5
369.688	317.31
370.069	304.65
370.45	305.33
370.831	310.98
371.212	321.83
371.593	330.42
371.974	307.82
372.355	299.23
372.736	327.03
373.117	314.6
373.498	337.19
373.879	313.92
374.26	320.25
374.641	316.63
375.021	311.66
375.402	331.09
375.783	320.7
376.163	299.91
376.544	308.49
376.925	303.07
377.305	334.03
377.686	338.55
378.066	331.32
378.447	348.95
378.827	336.06
379.208	334.93
379.588	335.39
379.968	322.51
380.349	357.98
380.729	339
381.109	317.08
381.489	334.03
381.87	354.82
382.25	330.87
382.63	350.98
383.01	341.49
383.39	343.97
383.77	356.18
384.15	333.13
384.53	342.62
384.91	352.11
385.29	369.74
385.67	337.87
386.049	364.99
386.429	352.79
386.809	374.26
387.189	351.43
387.568	344.88
387.948	337.19
388.328	355.73
388.707	352.11
389.087	362.5
389.466	369.74
389.846	353.01
390.225	357.08
390.605	358.21
390.984	364.54
391.363	356.4
391.743	362.05
392.122	370.41
392.501	370.87
392.881	371.54
393.26	361.15
393.639	366.57
394.018	362.28
394.397	371.77
394.776	372.22
395.155	401.15
395.534	381.94
395.913	395.27
396.292	372.9
396.671	400.24
397.05	398.21
397.429	391.43
397.808	394.14
398.186	379.23
398.565	396.85
398.944	386.23
399.323	406.57
399.701	397.08
400.08	401.15
400.458	404.09
400.837	393.24
401.215	379.23
401.594	408.38
401.972	379.91
402.351	422.84
402.729	394.37
403.107	417.42
403.486	407.7
403.864	407.48
404.242	427.14
404.62	421.49
404.999	439.56
405.377	423.29
405.755	423.97
406.133	427.36
406.511	410.41
406.889	421.71
407.267	435.95
407.645	441.82
408.023	416.06
408.401	423.07
408.779	435.95
409.156	445.44
409.534	427.36
409.912	454.03
410.29	447.7
410.667	464.87
411.045	442.5
411.422	458.32
411.8	473.91
412.178	428.49
412.555	459
412.933	450.86
413.31	464.2
413.687	482.95
414.065	453.12
414.442	489.51
414.819	489.73
415.197	462.39
415.574	483.18
415.951	496.96
416.328	498.32
416.705	475.27
417.082	506.23
417.46	498.55
417.837	480.69
418.214	499
418.591	500.81
418.967	511.65
419.344	500.58
419.721	495.16
420.098	518.43
420.475	521.14
420.852	522.27
421.228	504.42
421.605	543.29
421.982	535.16
422.358	529.28
422.735	539.68
423.111	544.19
423.488	540.8
423.864	549.62
424.241	542.84
424.617	539
424.994	539.9
425.37	558.43
425.746	550.3
426.123	557.3
426.499	574.02
426.875	594.81
427.251	565.66
427.627	582.84
428.003	581.93
428.379	579.45
428.756	592.78
429.132	596.17
429.507	579.45
429.883	621.03
430.259	637.98
430.635	612.89
431.011	615.61
431.387	629.16
431.763	637.98
432.138	604.31
432.514	659.45
432.89	655.38
433.265	655.15
433.641	643.4
434.016	641.82
434.392	684.08
434.767	646.56
435.143	682.72
435.518	669.16
435.894	677.3
436.269	678.65
436.644	685.43
437.02	694.7
437.395	705.77
437.77	709.16
438.145	735.15
438.52	710.29
438.895	696.51
439.271	709.16
439.646	722.95
440.021	753.68
440.395	734.02
440.77	735.38
441.145	745.55
441.52	764.98
441.895	763.62
442.27	757.52
442.645	771.99
443.019	757.07
443.394	775.83
443.769	794.58
444.143	773.34
444.518	768.82
444.892	790.06
445.267	761.36
445.641	798.65
446.016	803.4
446.39	807.01
446.764	797.3
447.139	786.45
447.513	826
447.887	830.29
448.262	824.64
448.636	848.82
449.01	827.8
449.384	841.14
449.758	847.24
450.132	869.38
450.506	840.46
450.88	854.92
451.254	857.18
451.628	872.1
452.002	856.05
452.376	913.45
452.75	905.09
453.123	886.78
453.497	902.38
453.871	925.65
454.244	939.44
454.618	930.17
454.992	958.2
455.365	979.21
455.739	964.07
456.112	954.13
456.486	971.53
456.859	988.7
457.232	996.39
457.606	998.19
457.979	994.58
458.352	1014.69
458.725	1034.8
459.099	1024.18
459.472	1049.94
459.845	1065.76
460.218	1070.96
460.591	1070.51
460.964	1049.49
461.337	1110.96
461.71	1117.51
462.083	1155.93
462.456	1107.57
462.829	1133.78
463.201	1111.41
463.574	1150.28
463.947	1165.2
464.32	1187.79
464.692	1224.4
465.065	1225.98
465.438	1232.31
465.81	1251.07
466.183	1269.15
466.555	1295.59
466.928	1279.09
467.3	1306.89
467.672	1331.07
468.045	1346.21
468.417	1333.55
468.789	1412.19
469.161	1392.53
469.534	1430.73
469.906	1447.22
470.278	1474.57
470.65	1494
471.022	1507.79
471.394	1557.73
471.766	1574.45
472.138	1565.41
472.51	1642.47
472.882	1625.75
473.253	1671.62
473.625	1679.31
473.997	1728.8
474.369	1769.25
474.74	1772.64
475.112	1820.55
475.484	1861
475.855	1907.55
476.227	1935.57
476.598	1955.23
476.97	2000.2
477.341	2082.01
477.713	2118.39
478.084	2169.69
478.455	2220.31
478.827	2264.38
479.198	2337.14
479.569	2365.16
479.94	2435.67
480.311	2469.79
480.682	2570.13
481.053	2625.72
481.424	2715.89
481.795	2726.06
482.166	2812.16
482.537	2879.05
482.908	2950.23
483.279	3006.05
483.65	3084.24
484.021	3167.18
484.391	3238.59
484.762	3307.29
485.133	3357.23
485.503	3500.5
485.874	3574.17
486.244	3607.17
486.615	3702.98
486.985	3793.37
487.356	3895.75
487.726	3967.16
488.097	4115.17
488.467	4170.09
488.837	4278.11
489.207	4363.53
489.578	4495.5
489.948	4570.76
490.318	4683.07
490.688	4699.57
491.058	4861.37
491.428	4945.89
491.798	5081.02
492.168	5189.95
492.538	5241.25
492.908	5342.03
493.278	5479.88
493.648	5542.26
494.017	5661.57
494.387	5727.79
494.757	5816.37
495.126	5892.3
495.496	6000.1
495.866	6056.14
496.235	6217.72
496.605	6236.7
496.974	6351.5
497.344	6450.71
497.713	6513.3
498.082	6635.56
498.452	6731.15
498.821	6762.56
499.19	6862.22
499.559	6979.05
499.928	7083.68
500.298	7159.61
500.667	7257.01
501.036	7264.24
501.405	7373.62
501.774	7377.01
502.143	7564.12
502.512	7576.55
502.88	7704.01
503.249	7733.84
503.618	7850.44
503.987	7897.45
504.356	8012.47
504.724	8014.51
505.093	8099.93
505.462	8176.76
505.83	8247.95
506.199	8334.5
506.567	8464.66
506.936	8524.78
507.304	8570.42
507.672	8637.32
508.041	8742.17
508.409	8764.54
508.777	8886.57
509.145	8914.37
509.514	8947.36
509.882	9039.56
510.25	9132.67
510.618	9218.32
510.986	9258.77
511.354	9340.57
511.722	9402.27
512.09	9467.8
512.458	9480.68
512.826	9563.17
513.193	9615.14
513.561	9698.53
513.929	9778.98
514.297	9845.65
514.664	9931.07
515.032	10015.81
515.4	10082.02
515.767	10119.54
516.135	10229.36
516.502	10097.62
516.869	10301.9
517.237	10367.67
517.604	10315.92
517.972	10519.3
518.339	10561.56
518.706	10548.23
519.073	10549.81
519.44	10741.44
519.808	10842.68
520.175	10857.82
520.542	10906.41
520.909	10984.15
521.276	10995.45
521.643	11086.29
522.009	11201.77
522.376	11287.42
522.743	11284.93
523.11	11413.06
523.477	11435.21
523.843	11514.75
524.21	11704.35
524.577	11712.04
524.943	11834.52
525.31	11836.55
525.676	12017.79
526.043	12041.29
526.409	12098.24
526.776	12257.33
527.142	12233.15
527.508	12334.17
527.874	12460.04
528.241	12478.12
528.607	12534.39
528.973	12587.27
529.339	12611
529.705	12785.68
530.071	12895.28
530.437	12901.38
530.803	12959.01
531.169	13054.37
531.535	13070.87
531.901	13045.33
532.267	13158.78
532.632	13267.7
532.998	13293.01
533.364	13384.76
533.73	13404.65
534.095	13514.93
534.461	13562.16
534.826	13652.55
535.192	13749.5
535.557	13824.75
535.923	13727.8
536.288	13830.63
536.653	13906.56
537.019	13952.88
537.384	13980.23
537.749	14091.41
538.114	14096.61
538.479	14110.62
538.845	14228.13
539.21	14245.53
539.575	14342.25
539.94	14368.92
540.305	14509.48
540.67	14472.19
541.034	14524.84
541.399	14628.34
541.764	14639.64
542.129	14708.79
542.494	14800.77
542.858	14822.92
543.223	14847.1
543.587	14869.24
543.952	14981.56
544.316	15036.7
544.681	14995.79
545.045	15105.62
545.41	15244.83
545.774	15204.15
546.138	15292.28
546.503	15349
546.867	15307.42
547.231	15446.18
547.595	15480.07
547.959	15575.89
548.324	15586.96
548.688	15666.73
549.052	15679.62
549.416	15764.13
549.779	15851.59
550.143	15754.64
550.507	16002.55
550.871	16011.13
551.235	15959.83
551.599	16162.54
551.962	16164.12
552.326	16240.28
552.689	16264.46
553.053	16233.05
553.417	16259.26
553.78	16546.03
554.143	16450.67
554.507	16511.46
554.87	16505.13
555.234	16666.93
555.597	16762.98
555.96	16655.41
556.323	16797.55
556.686	16882.75
557.05	16911.45
557.413	16976.76
557.776	17065.79
558.139	17147.6
558.502	17197.54
558.865	17228.05
559.228	17334.71
559.59	17385.33
559.953	17386.92
560.316	17515.73
560.679	17577.19
561.041	17664.42
561.404	17794.36
561.767	17884.76
562.129	17777.41
562.492	17952.55
562.854	18035.03
563.217	18101.02
563.579	18069.84
563.941	18153
564.304	18282.94
564.666	18420.79
565.028	18398.41
565.39	18430.96
565.753	18529.26
566.115	18582.82
566.477	18727.9
566.839	18767.9
567.201	18772.42
567.563	18886.99
567.925	19066.87
568.287	18968.34
568.648	19037.49
569.01	19241.56
569.372	19250.82
569.734	19260.31
570.095	19400.65
570.457	19550.7
570.819	19543.7
571.18	19606.29
571.542	19722.22
571.903	19714.31
572.265	19856
572.626	19942.78
572.987	19955.21
573.349	20147.07
573.71	20122.89
574.071	20245.37
574.432	20385.93
574.794	20552.26
575.155	20528.53
575.516	20624.12
575.877	20826.83
576.238	20808.29
576.599	20970.78
576.96	20983.21
577.32	21189.08
577.681	21294.84
578.042	21488.28
578.403	21502.51
578.763	21586.81
579.124	21835.84
579.485	21974.82
579.845	22080.58
580.206	22100.92
580.566	22346.11
580.927	22420.23
581.287	22643.5
581.648	22616.61
582.008	22898.86
582.368	23032.87
582.728	23239.64
583.089	23382.69
583.449	23598.05
583.809	23740.19
584.169	23956.91
584.529	24055.89
584.889	24431.48
585.249	24461.53
585.609	24594.18
585.969	24872.37
586.329	25029.2
586.688	25251.34
587.048	25476.42
587.408	25656.75
587.768	25825.56
588.127	26099
588.487	26178.55
588.846	26602.94
589.206	26603.85
589.565	26970.84
589.925	27261.23
590.284	27339.2
590.643	27565.18
591.003	27916.36
591.362	28211.94
591.721	28377.81
592.08	28549.11
592.44	28800.63
592.799	29037.23
593.158	29214.4
593.517	29497.11
593.876	29619.36
594.235	29894.84
594.593	30098.67
594.952	30424.76
595.311	30665.66
595.67	30806.68
596.029	31188.13
596.387	31337.74
596.746	31531.85
597.104	31652.08
597.463	31796.25
597.822	32166.19
598.18	32301.55
598.538	32520.3
598.897	32869.9
599.255	32658.15
599.613	33441.41
599.972	33262.88
600.33	33682.08
600.688	33610.44
601.046	33901.51
601.404	34261.27
601.762	34386.47
602.12	34660.59
602.478	34883.18
602.836	34998.43
603.194	34986.45
603.552	35352.09
603.91	35343.28
604.268	35653.33
604.625	35658.98
604.983	35880.89
605.341	35945.07
605.698	36226.19
606.056	36355.68
606.413	36494.44
606.771	36698.72
607.128	37010.13
607.485	36954.54
607.843	37150.01
608.2	37465.94
608.557	37577.8
608.914	37621.64
609.272	37916.09
609.629	38152.25
609.986	38284.45
610.343	38286.48
610.7	38652.12
611.057	38630.42
611.414	38783.42
611.771	38904.32
612.127	39110.64
612.484	39176.4
612.841	39362.38
613.198	39312.21
613.554	39429.95
613.911	39848.25
614.267	39840.11
614.624	39825.2
614.98	40091.18
615.337	40254.34
615.693	40249.59
616.05	40295.69
616.406	40534.1
616.762	40394.22
617.118	40715.34
617.475	40751.05
617.831	40838.5
618.187	40961.44
618.543	41014.09
618.899	41241.66
619.255	41244.37
619.611	41348.09
619.967	41539.95
620.323	41620.4
620.678	41618.59
621.034	41504.47
621.39	41674.86
621.746	41594.41
622.101	42223.55
622.457	41730.23
622.812	42031.24
623.168	42225.13
623.523	42194.17
623.879	42369.76
624.234	42070.33
624.589	42231.69
624.945	42260.39
625.3	42478.91
625.655	42520.04
626.01	42447.95
626.365	42532.7
626.72	42539.02
627.075	42491.57
627.43	42661.05
627.785	42440.04
628.14	42576.08
628.495	42720.49
628.85	42741.28
629.205	42644.1
629.559	42860.6
629.914	42703.99
630.269	42771.11
630.623	42709.64
630.978	42472.81
631.332	42799.58
631.687	42871.22
632.041	42828.51
632.396	42844.1
632.75	42759.58
633.104	42791.22
633.459	42559.36
633.813	42715.29
634.167	42702.18
634.521	42772.24
634.875	42732.69
635.229	42903.31
635.583	42610.89
635.937	42702.63
636.291	42623.77
636.645	42673.93
636.999	42553.71
637.352	42747.83
637.706	42502.64
638.06	42577.44
638.413	42540.38
638.767	42462.87
639.121	42565.69
639.474	42247.73
639.828	42269.2
640.181	42515.29
640.534	42413.83
640.888	42383.77
641.241	42372.7
641.594	42422.87
641.947	42509.64
642.301	42326.6
642.654	42321.4
643.007	42378.57
643.36	42251.57
643.713	42261.74
644.066	42408.18
644.419	42087.28
644.771	41890.68
645.124	41478.03
645.477	41587.18
645.83	41293.18
646.182	41243.24
646.535	41113.52
646.888	41114.43
647.24	41062.23
647.593	41240.75
647.945	41067.65
648.298	40899.97
648.65	40836.69
649.002	40877.37
649.355	41031.72
649.707	40993.98
650.059	41114.88
650.411	41539.5
650.763	41716.9
651.115	41786.5
651.467	41751.25
651.819	41893.39
652.171	41727.07
652.523	41645.49
652.875	41716.45
653.227	41588.77
653.578	41752.15
653.93	41608.65
654.282	41531.14
654.633	41372.73
654.985	41463.12
655.337	41492.5
655.688	41593.74
656.039	41716.9
656.391	41371.14
656.742	41396
657.094	41565.26
657.445	41492.27
657.796	41554.42
658.147	41482.55
658.498	41462.67
658.849	41556
659.2	41435.55
659.551	41420.18
659.902	41473.51
660.253	41333.18
660.604	41511.93
660.955	41168.21
661.306	41447.98
661.656	41284.14
662.007	41275.1
662.358	41260.64
662.708	41347.64
663.059	41205.95
663.409	41057.93
663.76	41296.34
664.11	41377.7
664.461	41341.99
664.811	41177.02
665.161	41142.45
665.511	41007.09
665.862	41108.1
666.212	41268.32
666.562	41296.8
666.912	41107.65
667.262	41022.68
667.612	40998.5
667.962	41116.01
668.312	41056.58
668.662	41269.68
669.011	41189
669.361	41091.38
669.711	40964.15
670.06	40981.78
670.41	40989.01
670.76	40956.69
671.109	41127.76
671.459	41064.49
671.808	40986.97
672.157	41125.05
672.507	40800.76
672.856	40912.62
673.205	40926.41
673.554	41032.85
673.904	40820.42
674.253	41020.42
674.602	40888.9
674.951	40418.63
675.3	40162.14
675.649	40866.52
675.998	40793.98
676.346	40844.15
676.695	40993.98
677.044	40576.59
677.393	40683.7
677.741	40822.68
678.09	40643.71
678.438	40579.07
678.787	40532.75
679.135	40700.88
679.484	40374.56
679.832	40560.32
680.181	40387.89
680.529	40410.04
680.877	40398.29
681.225	40263.15
681.573	40543.59
681.922	40231.29
682.27	40258.18
682.618	40074
682.966	40036.04
683.314	40170.95
683.661	39979.77
684.009	39822.71
684.357	39924.85
684.705	39718.31
685.053	39919.43
685.4	39790.62
685.748	39572.1
686.095	39646.67
686.443	39634.92
686.79	39270.18
687.138	39435.15
687.485	39430.86
687.832	39151.32
688.18	39310.86
688.527	39093.01
688.874	39093.24
689.221	38937.08
689.568	38880.59
689.915	38877.65
690.262	38819.8
690.609	38788.16
690.956	38575.29
691.303	38504.55
691.65	38507.04
691.997	38274.5
692.344	38213.03
692.69	38199.7
693.037	38182.08
693.383	37879.94
693.73	38067.05
694.077	37625.48
694.423	37821.41
694.769	37675.87
695.116	37553.17
695.462	37587.29
695.808	37412.83
696.155	37471.36
696.501	37331.7
696.847	37242.44
697.193	37012.39
697.539	37199.5
697.885	36867.53
698.231	36820.08
698.577	36724.49
698.923	36707.09
699.269	36501.22
699.614	36365.4
699.96	36348
700.306	36405.4
700.651	36160.21
700.997	35984.17
701.342	35975.35
701.688	35997.5
702.033	35857.39
702.379	35755.25
702.724	35750.05
703.069	35798.86
703.415	35354.13
703.76	35315.26
704.105	35405.42
704.45	35434.58
704.795	35110.29
705.14	35023.06
705.485	35065.09
705.83	34918.21
706.175	34975.83
706.52	34762.05
706.865	34586.46
707.209	34633.02
707.554	34571.55
707.899	34709.17
708.243	34393.7
708.588	34337.66
708.932	34207.26
709.277	34204.78
709.621	34177.43
709.966	33959.81
710.31	33941.96
710.654	33716.88
710.998	33814.96
711.342	33826.03
711.687	33800.95
712.031	33501.52
712.375	33423.56
712.719	33446.83
713.063	33447.96
713.407	33565.25
713.75	33283.45
714.094	33327.29
714.438	33145.37
714.782	33235.54
715.125	33033.06
715.469	33140.63
715.812	32892.95
716.156	32793.52
716.499	32685.04
716.843	32854.31
717.186	32593.3
717.53	32755.1
717.873	32724.82
718.216	32646.4
718.559	32500.19
718.902	32343.36
719.246	32396.92
719.589	32298.61
719.932	32228.11
720.275	32187.88
720.617	32050.94
720.96	32008.9
721.303	32135.45
721.646	32111.27
721.989	31927.78
722.331	31933.2
722.674	31866.76
723.016	31863.82
723.359	31728.46
723.701	31859.08
724.044	31583.83
724.386	31460.22
724.729	31493.44
725.071	31521.46
725.413	31579.54
725.755	31379.32
726.097	31281.92
726.439	31285.08
726.782	31189.72
727.124	31358.3
727.465	31158.98
727.807	31165.99
728.149	30948.82
728.491	30929.84
728.833	31020.68
729.175	30809.84
729.516	30766.9
729.858	30694.14
730.199	30790.63
730.541	30624.08
730.882	30542.95
731.224	30713.34
731.565	30530.07
731.906	30413.92
732.248	30463.41
732.589	30427.25
732.93	30300.7
733.271	30323.52
733.612	30388.83
733.953	30332.11
734.294	30196.97
734.635	30128.05
734.976	30297.99
735.317	30019.35
735.658	30042.63
735.999	30086.02
736.339	29915.4
736.68	29961.05
737.021	29901.39
737.361	29836.31
737.702	29966.47
738.042	29808.51
738.383	29707.5
738.723	29813.93
739.063	29628.63
739.404	29712.02
739.744	29616.42
740.084	29446.26
740.424	29501.85
740.764	29464.79
741.104	29498.01
741.444	29356.77
741.784	29128.75
742.124	29246.72
742.464	29209.43
742.804	29235.87
743.143	29184.8
743.483	29166.72
743.823	28902.32
744.162	28987.51
744.502	29007.85
744.841	28968.31
745.181	28948.87
745.52	28890.34
745.86	28863.9
746.199	28745.71
746.538	28776.67
746.877	28823.23
747.216	28712.04
747.556	28775.99
747.895	28747.29
748.234	28461.88
748.573	28454.2
748.911	28462.56
749.25	28437.02
749.589	28309.79
749.928	28326.06
750.267	28324.71
750.605	28387.98
750.944	28128.78
751.283	28024.15
751.621	28080.42
751.96	28005.39
752.298	28009.69
752.636	28014.88
752.975	27821.67
753.313	27727.66
753.651	27841.78
753.989	27693.99
754.327	27659.87
754.666	27504.16
755.004	27616.7
755.342	27696.93
755.679	27590.49
756.017	27365.18
756.355	27458.74
756.693	27207.9
757.031	27287.67
757.368	27141.01
757.706	27124.96
758.044	27057.4
