Data from hue_130_FLMS001491_00072.txt Node
Date: Tue Feb 07 16:58:04 GMT 2017
User: dcchb
Spectrometer: FLMS00149
Trigger mode: 0
Integration Time (sec): 2.000000E-2
Scans to average: 10
Electric dark correction enabled: true
Nonlinearity correction enabled: false
Boxcar width: 0
XAxis mode: Wavelengths
Number of Pixels in Spectrum: 2048
>>>>>Begin Spectral Data<<<<<
341.393	-15.25
341.776	-15.25
342.16	-15.25
342.543	-50.96
342.927	-67.68
343.31	-54.57
343.693	-62.26
344.077	-74.91
344.46	-78.3
344.843	-54.35
345.226	-34.69
345.61	-29.49
345.993	-10.96
346.376	-15.71
346.759	16.84
347.142	22.94
347.525	36.95
347.908	54.35
348.291	61.58
348.674	99.77
349.057	122.82
349.44	115.59
349.823	141.58
350.206	167.11
350.588	176.15
350.971	199.43
351.354	201.24
351.737	234.01
352.119	269.03
352.502	268.13
352.884	262.93
353.267	282.82
353.65	273.55
354.032	300.67
354.414	296.15
354.797	311.07
355.179	316.71
355.562	323.27
355.944	324.4
356.326	338.64
356.709	346.09
357.091	330.5
357.473	324.4
357.855	342.93
358.238	346.54
358.62	343.61
359.002	342.7
359.384	345.87
359.766	331.18
360.148	346.32
360.53	356.71
360.912	349.48
361.294	327.79
361.676	306.32
362.057	324.62
362.439	349.26
362.821	329.82
363.203	319.65
363.584	342.02
363.966	312.42
364.348	339.77
364.729	327.56
365.111	320.78
365.493	319.43
365.874	330.27
366.256	307.9
366.637	325.75
367.019	304.96
367.4	318.97
367.781	325.75
368.163	308.58
368.544	306.09
368.925	319.2
369.306	316.26
369.688	296.15
370.069	302.25
370.45	291.63
370.831	304.96
371.212	328.24
371.593	337.28
371.974	323.72
372.355	315.81
372.736	317.62
373.117	316.04
373.498	329.37
373.879	314.68
374.26	309.26
374.641	310.39
375.021	309.71
375.402	311.52
375.783	314
376.163	330.05
376.544	328.24
376.925	338.41
377.305	309.03
377.686	330.5
378.066	329.6
378.447	338.86
378.827	333.44
379.208	317.62
379.588	332.99
379.968	335.47
380.349	341.12
380.729	336.15
381.109	318.97
381.489	341.35
381.87	339.99
382.25	328.47
382.63	337.28
383.01	307.45
383.39	354
383.77	317.39
384.15	350.84
384.53	364.85
384.91	334.57
385.29	326.88
385.67	344.28
386.049	363.04
386.429	351.97
386.809	348.58
387.189	345.64
387.568	357.84
387.948	358.07
388.328	360.1
388.707	354.91
389.087	376.6
389.466	373.21
389.846	359.65
390.225	365.98
390.605	365.75
390.984	379.31
391.363	354.91
391.743	373.66
392.122	344.06
392.501	357.17
392.881	371.18
393.26	380.22
393.639	357.62
394.018	380.44
394.397	390.61
394.776	368.24
395.155	371.85
395.534	390.39
395.913	378.41
396.292	392.42
396.671	379.31
397.05	398.07
397.429	372.08
397.808	375.24
398.186	388.13
398.565	393.55
398.944	358.75
399.323	379.54
399.701	390.84
400.08	407.56
400.458	376.15
400.837	392.87
401.215	390.84
401.594	407.79
401.972	401.46
402.351	394
402.729	396.94
403.107	413.89
403.486	420.44
403.864	407.11
404.242	416.15
404.62	395.36
404.999	418.86
405.377	427.45
405.755	425.86
406.133	431.29
406.511	414.11
406.889	429.71
407.267	423.83
407.645	426.77
408.023	445.3
408.401	438.52
408.779	450.04
409.156	429.25
409.534	431.74
409.912	453.43
410.29	434.9
410.667	452.08
411.045	437.62
411.422	453.66
411.8	469.93
412.178	464.06
412.555	458.41
412.933	455.02
413.31	453.89
413.687	483.72
414.065	516.94
414.442	494.34
414.819	483.94
415.197	474
415.574	489.37
415.951	486.88
416.328	493.89
416.705	492.08
417.082	497.05
417.46	503.38
417.837	501.34
418.214	521.91
418.591	497.5
418.967	507.22
419.344	520.33
419.721	497.05
420.098	514.22
420.475	510.16
420.852	510.61
421.228	535.24
421.605	521.91
421.982	507.22
422.358	542.92
422.735	518.74
423.111	531.4
423.488	546.99
423.864	539.31
424.241	545.86
424.617	544.28
424.994	539.31
425.37	550.83
425.746	556.93
426.123	538.63
426.499	565.52
426.875	569.14
427.251	587.22
427.627	594.22
428.003	596.26
428.379	585.63
428.756	599.65
429.132	583.6
429.507	610.49
429.883	622.47
430.259	642.58
430.635	636.48
431.011	626.09
431.387	629.02
431.763	620.21
432.138	649.36
432.514	649.14
432.89	630.15
433.265	651.4
433.641	666.31
434.016	665.41
434.392	679.19
434.767	685.52
435.143	659.98
435.518	678.74
435.894	697.27
436.269	700.21
436.644	719.87
437.02	712.41
437.395	692.07
437.77	725.52
438.145	722.13
438.52	710.83
438.895	756.93
439.271	724.61
439.646	746.31
440.021	747.21
440.395	739.75
440.77	758.74
441.145	756.25
441.52	767.78
441.895	789.7
442.27	768.45
442.645	792.63
443.019	774.56
443.394	789.24
443.769	803.26
444.143	793.31
444.518	797.83
444.892	818.62
445.267	828.79
445.641	836.25
446.016	837.83
446.39	813.88
446.764	854.55
447.139	812.97
447.513	860.88
447.887	836.93
448.262	862.24
448.636	860.88
449.01	865.4
449.384	858.85
449.758	867.43
450.132	893.42
450.506	892.74
450.88	878.28
451.254	885.29
451.628	910.37
452.002	921.44
452.376	928.22
452.75	941.11
453.123	935.23
453.497	911.5
453.871	966.42
454.244	958.51
454.618	976.81
454.992	990.14
455.365	991.27
455.739	993.99
456.112	1036.47
456.486	1030.14
456.859	1061.78
457.232	1036.92
457.606	1019.52
457.979	1060.65
458.352	1050.48
458.725	1106.07
459.099	1119.18
459.472	1111.95
459.845	1116.92
460.218	1120.76
460.591	1150.37
460.964	1169.35
461.337	1192.62
461.71	1190.59
462.083	1205.05
462.456	1201.66
462.829	1224.26
463.201	1233.3
463.574	1250.93
463.947	1261.55
464.32	1302
464.692	1321.66
465.065	1308.1
465.438	1347.87
465.81	1379.74
466.183	1400.53
466.555	1395.78
466.928	1404.14
467.3	1437.14
467.672	1428.78
468.045	1484.82
468.417	1485.5
468.789	1536.34
469.161	1566.17
469.534	1591.03
469.906	1620.86
470.278	1619.05
470.65	1655.21
471.022	1700.63
471.394	1751.71
471.766	1703.57
472.138	1780.63
472.51	1849.56
472.882	1878.26
473.253	1891.14
473.625	1941.98
473.997	1983.11
474.369	2013.39
474.74	2061.98
475.112	2090
475.484	2162.77
475.855	2193.5
476.227	2249.77
476.598	2314.18
476.97	2366.15
477.341	2415.42
477.713	2502.42
478.084	2553.27
478.455	2615.64
478.827	2699.7
479.198	2739.25
479.569	2819.25
479.94	2889.53
480.311	2960.94
480.682	3062.86
481.053	3113.93
481.424	3197.54
481.795	3287.48
482.166	3412.45
482.537	3475.95
482.908	3575.39
483.279	3653.12
483.65	3772.9
484.021	3891.08
484.391	3961.82
484.762	4074.13
485.133	4181.25
485.503	4246.56
485.874	4378.53
486.244	4494.46
486.615	4662.14
486.985	4714.34
487.356	4877.95
487.726	4926.76
488.097	5129.02
488.467	5201.56
488.837	5380.76
489.207	5490.36
489.578	5649
489.948	5747.31
490.318	5889
490.688	5979.62
491.058	6095.32
491.428	6256.9
491.798	6367.4
492.168	6551.58
492.538	6671.12
492.908	6853.49
493.278	6895.75
493.648	7070.21
494.017	7187.49
494.387	7291.22
494.757	7370.54
495.126	7553.81
495.496	7608.73
495.866	7735.28
496.235	7898.44
496.605	8008.49
496.974	8063.86
497.344	8234.25
497.713	8307.69
498.082	8389.04
498.452	8588.81
498.821	8662.71
499.19	8667.91
499.559	8850.95
499.928	8930.95
500.298	9048.24
500.667	9158.97
501.036	9203.26
501.405	9333.88
501.774	9417.27
502.143	9510.82
502.512	9561.9
502.88	9662.91
503.249	9712.17
503.618	9851.38
503.987	9981.77
504.356	10005.5
504.724	10115.78
505.093	10128.66
505.462	10103.35
505.83	10256.11
506.199	10403.68
506.567	10466.05
506.936	10484.58
507.304	10622.21
507.672	10700.85
508.041	10764.35
508.409	10789.66
508.777	10833.5
509.145	10942.88
509.514	10954.85
509.882	11138.58
510.25	11148.07
510.618	11215.41
510.986	11217.67
511.354	11266.03
511.722	11360.04
512.09	11445.91
512.458	11476.42
512.826	11580.37
513.193	11542.86
513.561	11605.46
513.929	11676.87
514.297	11714.38
514.664	11709.41
515.032	11920.93
515.4	11886.58
515.767	11922.29
516.135	11936.52
516.502	11862.17
516.869	12037.08
517.237	12091.55
517.604	12042.51
517.972	12155.27
518.339	12223.07
518.706	12154.14
519.073	12246.12
519.44	12211.32
519.808	12417.87
520.175	12273.24
520.542	12323.63
520.909	12407.24
521.276	12345.78
521.643	12493.57
522.009	12489.95
522.376	12531.53
522.743	12595.94
523.11	12655.15
523.477	12700.8
523.843	12741.92
524.21	12812.66
524.577	12834.58
524.943	12780.34
525.31	12851.3
525.676	12864.41
526.043	12939.21
526.409	12923.16
526.776	13021.69
527.142	13023.95
527.508	13061.92
527.874	13054.01
528.241	13093.55
528.607	13053.1
528.973	13103.27
529.339	12988.92
529.705	13070.5
530.071	13187.56
530.437	13126.1
530.803	13154.34
531.169	13188.69
531.535	13096.04
531.901	13164.51
532.267	13096.49
532.632	13174.46
532.998	13196.15
533.364	13132.2
533.73	13121.58
534.095	13193.66
534.461	13103.95
534.826	13162.7
535.192	13082.48
535.557	13145.08
535.923	13120.45
536.288	13099.88
536.653	13089.71
537.019	13000.9
537.384	13011.97
537.749	12951.41
538.114	12905.76
538.479	12967.68
538.845	12910.73
539.21	12862.83
539.575	12871.41
539.94	12804.07
540.305	12846.78
540.67	12782.83
541.034	12785.31
541.399	12707.58
541.764	12765.88
542.129	12731.76
542.494	12640.91
542.858	12553
543.223	12637.52
543.587	12583.28
543.952	12485.89
544.316	12536.96
544.681	12514.36
545.045	12513.46
545.41	12477.3
545.774	12492.44
546.138	12467.81
546.503	12360.92
546.867	12329.28
547.231	12367.7
547.595	12269.62
547.959	12287.25
548.324	12298.77
548.688	12236.18
549.052	12190.3
549.416	12112.79
549.779	12099
550.143	12005.9
550.507	12112.11
550.871	12032.34
551.235	12028.95
551.599	11971.1
551.962	11991.44
552.326	11902.85
552.689	11991.44
553.053	11885.45
553.417	11843.42
553.78	11960.25
554.143	11871.89
554.507	11839.58
554.87	11801.84
555.234	11845
555.597	11762.06
555.96	11758.45
556.323	11766.81
556.686	11732.69
557.05	11778.11
557.413	11679.13
557.776	11701.73
558.139	11729.52
558.502	11741.5
558.865	11694.95
559.228	11695.17
559.59	11688.85
559.953	11697.21
560.316	11712.8
560.679	11757.54
561.041	11667.38
561.404	11754.61
561.767	11776.98
562.129	11701.5
562.492	11734.27
562.854	11707.6
563.217	11688.17
563.579	11672.8
563.941	11822.63
564.304	11768.39
564.666	11774.27
565.028	11795.28
565.39	11742.63
565.753	11839.12
566.115	11750.54
566.477	11829.41
566.839	11779.69
567.201	11899.46
567.563	11844.1
567.925	11845.23
568.287	11865.56
568.648	11877.77
569.01	11890.42
569.372	11895.17
569.734	11894.94
570.095	11959.8
570.457	11972.68
570.819	11996.86
571.18	11985.56
571.542	11996.18
571.903	11923.64
572.265	12030.76
572.626	11959.8
572.987	12074.6
573.349	12081.15
573.71	12039.8
574.071	12047.25
574.432	12060.81
574.794	12092.22
575.155	12117.08
575.516	12041.6
575.877	12007.48
576.238	12069.85
576.599	12100.81
576.96	12056.75
577.32	12115.27
577.681	12156.63
578.042	12083.19
578.403	12097.65
578.763	12140.58
579.124	12141.26
579.485	12147.59
579.845	12157.08
580.206	12144.43
580.566	12121.15
580.927	12077.54
581.287	12094.94
581.648	12127.7
582.008	12222.84
582.368	12103.3
582.728	12071.66
583.089	12121.15
583.449	12122.96
583.809	12097.2
584.169	12099.91
584.529	12057.65
584.889	12098.33
585.249	12064.65
585.609	11927.71
585.969	12084.09
586.329	12060.36
586.688	12031.21
587.048	11959.35
587.408	11979.69
587.768	11946.24
588.127	11966.8
588.487	11948.95
588.846	11983.53
589.206	11953.02
589.565	11878.44
589.925	11955.28
590.284	11928.16
590.643	11926.13
591.003	11902.17
591.362	11997.76
591.721	11986.92
592.08	11909.86
592.44	11952.57
592.799	11860.82
593.158	11917.99
593.517	11840.03
593.876	11909.18
594.235	11834.6
594.593	11908.95
594.952	11908.05
595.311	11827.82
595.67	11810.42
596.029	11890.65
596.387	11865.11
596.746	11876.18
597.104	11849.52
597.463	11796.41
597.822	11925.45
598.18	11822.18
598.538	11876.18
598.897	11815.17
599.255	11737.21
599.613	11860.82
599.972	11822.63
600.33	11802.29
600.688	11747.15
601.046	11817.2
601.404	11805.45
601.762	11839.35
602.12	11895.17
602.478	11928.16
602.836	11839.58
603.194	11782.4
603.552	11779.69
603.91	11775.4
604.268	11839.58
604.625	11786.24
604.983	11803.64
605.341	11804.55
605.698	11786.92
606.056	11794.38
606.413	11774.49
606.771	11802.29
607.128	11804.55
607.485	11806.36
607.843	11779.01
608.2	11835.28
608.557	11955.73
608.914	11820.82
609.272	11866.92
609.629	11915.73
609.986	11975.62
610.343	11931.32
610.7	11999.12
611.057	11973.81
611.414	11923.19
611.771	11905.34
612.127	11953.47
612.484	11951.66
612.841	11971.1
613.198	11904.21
613.554	11956.18
613.911	12007.71
614.267	12016.29
614.624	11950.08
614.98	11948.95
615.337	12080.93
615.693	11967.03
616.05	11970.42
616.406	12093.13
616.762	11989.63
617.118	12067.14
617.475	12005.45
617.831	12140.58
618.187	12072.79
618.543	12081.38
618.899	12186.91
619.255	12142.62
619.611	12172.22
619.967	12246.12
620.323	12229.4
620.678	12123.86
621.034	12206.35
621.39	12081.6
621.746	12138.55
622.101	12253.35
622.457	12215.61
622.812	12222.62
623.168	12179.23
623.523	12186.23
623.879	12186.69
624.234	12105.56
624.589	12219.45
624.945	12186.46
625.3	12178.32
625.655	12163.86
626.01	12105.78
626.365	12106.91
626.72	12083.64
627.075	12153.69
627.43	12136.74
627.785	12148.49
628.14	12087.93
628.495	12123.18
628.85	12087.48
629.205	11990.76
629.559	12128.38
629.914	12077.99
630.269	12054.26
630.623	12005.22
630.978	12026.46
631.332	12014.71
631.687	12031.21
632.041	12002.51
632.396	11977.43
632.75	12066.01
633.104	11920.25
633.459	11899.46
633.813	11987.37
634.167	11953.25
634.521	12024.43
634.875	12044.99
635.229	11972.23
635.583	11827.37
635.937	11886.13
636.291	11886.81
636.645	11840.71
636.999	11822.63
637.352	11842.74
637.706	11754.83
638.06	11877.09
638.413	11835.06
638.767	11772.01
639.121	11792.12
639.474	11703.08
639.828	11762.97
640.181	11759.58
640.534	11771.1
640.888	11703.76
641.241	11590.09
641.594	11708.73
641.947	11693.82
642.301	11678.22
642.654	11604.55
643.007	11696.98
643.36	11694.27
643.713	11685.46
644.066	11701.95
644.419	11510.09
644.771	11492.47
645.124	11459.47
645.477	11362.07
645.83	11285.92
646.182	11347.61
646.535	11300.61
646.888	11299.25
647.24	11179.03
647.593	11248.18
647.945	11290.21
648.298	11198.24
648.65	11235.07
649.002	11136.09
649.355	11302.87
649.707	11174.06
650.059	11205.69
650.411	11445.01
650.763	11417.21
651.115	11547.15
651.467	11420.38
651.819	11548.28
652.171	11472.58
652.523	11420.83
652.875	11436.87
653.227	11415.63
653.578	11507.61
653.93	11556.65
654.282	11447.5
654.633	11433.26
654.985	11544.67
655.337	11462.41
655.688	11436.2
656.039	11470.32
656.391	11430.32
656.742	11376.99
657.094	11429.64
657.445	11537.89
657.796	11459.25
658.147	11492.92
658.498	11467.38
658.849	11451.34
659.2	11473.94
659.551	11483.65
659.902	11523.43
660.253	11453.37
660.604	11516.42
660.955	11546.02
661.306	11476.42
661.656	11468.29
662.007	11554.84
662.358	11520.04
662.708	11567.94
663.059	11511.67
663.409	11454.05
663.76	11556.19
664.11	11537.89
664.461	11501.73
664.811	11532.47
665.161	11524.33
665.511	11499.02
665.862	11557.32
666.212	11523.43
666.562	11503.31
666.912	11586.25
667.262	11485.01
667.612	11518.23
667.962	11571.11
668.312	11463.09
668.662	11549.19
669.011	11520.71
669.361	11565.68
669.711	11596.42
670.06	11518.68
670.41	11466.25
670.76	11544.44
671.109	11527.04
671.459	11579.92
671.808	11546.02
672.157	11534.5
672.507	11444.56
672.856	11516.19
673.205	11496.31
673.554	11467.38
673.904	11542.86
674.253	11510.09
674.602	11447.5
674.951	11308.29
675.3	11195.75
675.649	11424.67
675.998	11418.34
676.346	11405.24
676.695	11380.83
677.044	11331.34
677.393	11352.36
677.741	11302.19
678.09	11330.89
678.438	11192.59
678.787	11259.7
679.135	11340.15
679.484	11238.46
679.832	11262.42
680.181	11158.92
680.529	11224.68
680.877	11134.96
681.225	11207.28
681.573	11284.34
681.922	11154.4
682.27	11082.76
682.618	11105.36
682.966	11143.55
683.314	11079.37
683.661	11045.92
684.009	10984
684.357	10933.16
684.705	10892.26
685.053	11006.83
685.4	10958.47
685.748	10942.2
686.095	10831.24
686.443	10836.89
686.79	10810.9
687.138	10837.57
687.485	10804.35
687.832	10793.5
688.18	10838.02
688.527	10719.83
688.874	10698.14
689.221	10759.15
689.568	10600.96
689.915	10597.57
690.262	10615.88
690.609	10542.66
690.956	10550.12
691.303	10508.54
691.65	10465.83
691.997	10503.11
692.344	10354.19
692.69	10336.79
693.037	10407.97
693.383	10296.11
693.73	10257.24
694.077	10250.69
694.423	10160.52
694.769	10132.73
695.116	10058.15
695.462	10085.05
695.808	10035.56
696.155	10066.29
696.501	9988.55
696.847	9964.82
697.193	9848.89
697.539	9930.93
697.885	9838.95
698.231	9789.69
698.577	9732.74
698.923	9772.29
699.269	9741.78
699.614	9671.27
699.96	9684.6
700.306	9584.72
700.651	9553.53
700.997	9531.39
701.342	9492.74
701.688	9491.84
702.033	9458.85
702.379	9433.76
702.724	9330.94
703.069	9410.04
703.415	9293.43
703.76	9360.32
704.105	9306.31
704.45	9256.14
704.795	9210.27
705.14	9195.58
705.485	9174.34
705.83	9138.86
706.175	9127.78
706.52	9122.36
706.865	8983.83
707.209	9041.68
707.554	8996.03
707.899	8992.64
708.243	8948.8
708.588	8937.28
708.932	8852.99
709.277	8893.21
709.621	8856.6
709.966	8871.52
710.31	8849.15
710.654	8684.18
710.998	8812.76
711.342	8806.21
711.687	8739.09
712.031	8676.72
712.375	8596.95
712.719	8707.23
713.063	8599.21
713.407	8634.01
713.75	8615.03
714.094	8590.62
714.438	8574.8
714.782	8514.92
715.125	8553.79
715.469	8534.8
715.812	8452.55
716.156	8376.84
716.499	8494.8
716.843	8464.07
717.186	8321.02
717.53	8445.99
717.873	8448.03
718.216	8366.67
718.559	8352.44
718.902	8347.46
719.246	8396.5
719.589	8347.01
719.932	8284.64
720.275	8275.83
720.617	8298.43
720.96	8306.34
721.303	8245.77
721.646	8279.22
721.989	8244.87
722.331	8262.27
722.674	8244.64
723.016	8243.29
723.359	8172.1
723.701	8160.58
724.044	8203.06
724.386	8124.87
724.729	8127.13
725.071	8151.31
725.413	8279.44
725.755	8202.84
726.097	8138.2
726.439	8119.45
726.782	8153.57
727.124	8156.73
727.465	8109.73
727.807	8119.67
728.149	8191.76
728.491	8112.89
728.833	8172.33
729.175	8088.26
729.516	8085.78
729.858	8097.75
730.199	8065.66
730.541	8088.26
730.882	8077.41
731.224	8045.1
731.565	8061.37
731.906	8049.84
732.248	8100.69
732.589	8048.94
732.93	7982.28
733.271	8059.79
733.612	8007.13
733.953	8014.37
734.294	8003.97
734.635	8050.97
734.976	8069.73
735.317	8043.74
735.658	7971.2
735.999	8057.75
736.339	8022.73
736.68	8044.65
737.021	8016.17
737.361	7988.6
737.702	8065.89
738.042	8086.91
738.383	8025.66
738.723	8084.19
739.063	8098.21
739.404	8093.01
739.744	8082.61
740.084	8089.17
740.424	8074.7
740.764	8088.26
741.104	8169.16
741.444	8124.19
741.784	8136.62
742.124	8215.49
742.464	8175.94
742.804	8233.12
743.143	8224.3
743.483	8284.41
743.823	8274.02
744.162	8221.14
744.502	8323.51
744.841	8346.33
745.181	8364.64
745.52	8398.31
745.86	8439.21
746.199	8467.01
746.538	8548.59
746.877	8591.53
747.216	8661.35
747.556	8620.45
747.895	8669.94
748.234	8689.83
748.573	8783.61
748.911	8817.28
749.25	8883.04
749.589	8906.77
749.928	9006.2
750.267	9067.67
750.605	9095.69
750.944	9223.37
751.283	9252.98
751.621	9436.7
751.96	9379.08
752.298	9519.41
752.636	9636.24
752.975	9650.71
753.313	9779.97
753.651	9888.89
753.989	9932.28
754.327	10043.69
754.666	10088.89
755.004	10328.43
755.342	10422.66
755.679	10522.32
756.017	10572.94
756.355	10764.58
756.693	10810.45
757.031	11102.42
757.368	11128.86
757.706	11193.72
758.044	11415.86
758.381	11530.88
758.719	11665.34
759.056	11844.55
759.394	11994.15
759.731	12089.06
