Data from hue_28_FLMS001491_00094.txt Node
Date: Tue Feb 07 17:18:04 GMT 2017
User: dcchb
Spectrometer: FLMS00149
Trigger mode: 0
Integration Time (sec): 2.000000E-2
Scans to average: 10
Electric dark correction enabled: true
Nonlinearity correction enabled: false
Boxcar width: 0
XAxis mode: Wavelengths
Number of Pixels in Spectrum: 2048
>>>>>Begin Spectral Data<<<<<
341.393	-6.16
341.776	-6.16
342.16	-6.16
342.543	-44.8
342.927	-62.2
343.31	-72.82
343.693	-85.25
344.077	-61.75
344.46	-57.68
344.843	-49.09
345.226	-57.23
345.61	-17.68
345.993	-12.94
346.376	-7.06
346.759	-6.38
347.142	-0.51
347.525	64.12
347.908	66.61
348.291	81.98
348.674	98.47
349.057	117.23
349.44	135.99
349.823	145.93
350.206	172.59
350.588	194.51
350.971	214.63
351.354	225.7
351.737	229.32
352.119	258.92
352.502	274.06
352.884	274.29
353.267	284.91
353.65	307.96
354.032	288.3
354.414	309.77
354.797	319.26
355.179	305.7
355.562	328.97
355.944	334.4
356.326	339.37
356.709	340.73
357.091	333.27
357.473	375.75
357.855	321.74
358.238	354.06
358.62	351.57
359.002	333.95
359.384	352.7
359.766	328.97
360.148	357.22
360.53	344.12
360.912	328.3
361.294	323.1
361.676	343.44
362.057	337.79
362.439	335.53
362.821	327.84
363.203	325.13
363.584	330.33
363.966	301.86
364.348	294.63
364.729	311.8
365.111	327.84
365.493	313.16
365.874	342.53
366.256	305.7
366.637	321.07
367.019	337.56
367.4	337.34
367.781	305.25
368.163	330.56
368.544	302.76
368.925	331.46
369.306	348.41
369.688	313.16
370.069	318.58
370.45	326.04
370.831	305.02
371.212	319.48
371.593	319.26
371.974	310.9
372.355	322.19
372.736	309.99
373.117	329.2
373.498	313.16
373.879	328.75
374.26	303.89
374.641	317.45
375.021	315.87
375.402	301.18
375.783	339.14
376.163	338.24
376.544	329.88
376.925	320.84
377.305	335.98
377.686	327.17
378.066	343.21
378.447	332.14
378.827	316.77
379.208	315.64
379.588	322.42
379.968	350.44
380.349	332.82
380.729	335.53
381.109	345.25
381.489	335.75
381.87	349.99
382.25	322.65
382.63	349.54
383.01	352.93
383.39	352.93
383.77	321.52
384.15	347.28
384.53	338.92
384.91	357
385.29	328.97
385.67	337.79
386.049	338.69
386.429	361.97
386.809	360.61
387.189	349.09
387.568	369.88
387.948	356.09
388.328	348.86
388.707	346.38
389.087	335.53
389.466	359.26
389.846	380.5
390.225	384.79
390.605	368.07
390.984	366.49
391.363	365.13
391.743	355.87
392.122	346.83
392.501	351.57
392.881	382.53
393.26	396.32
393.639	382.76
394.018	379.59
394.397	375.07
394.776	374.4
395.155	398.13
395.534	380.72
395.913	395.41
396.292	384.34
396.671	363.78
397.05	378.92
397.429	392.25
397.808	375.3
398.186	394.06
398.565	385.24
398.944	388.18
399.323	387.05
399.701	395.87
400.08	411.01
400.458	423.89
400.837	413.27
401.215	406.49
401.594	408.52
401.972	415.53
402.351	397.67
402.729	403.77
403.107	397.67
403.486	404.23
403.864	414.4
404.242	417.11
404.62	422.08
404.999	419.82
405.377	399.48
405.755	429.76
406.133	421.63
406.511	449.65
406.889	422.53
407.267	465.02
407.645	441.97
408.023	438.35
408.401	430.67
408.779	436.54
409.156	435.64
409.534	445.36
409.912	451.68
410.29	442.64
410.667	468.63
411.045	454.62
411.422	457.33
411.8	472.25
412.178	465.92
412.555	462.08
412.933	477.22
413.31	479.7
413.687	473.83
414.065	464.34
414.442	475.19
414.819	495.52
415.197	499.14
415.574	500.5
415.951	494.62
416.328	506.37
416.705	504.11
417.082	509.99
417.46	499.14
417.837	516.54
418.214	521.06
418.591	519.7
418.967	525.13
419.344	524.68
419.721	530.1
420.098	531.23
420.475	536.65
420.852	517.44
421.228	533.49
421.605	506.14
421.982	558.8
422.358	548.18
422.735	527.16
423.111	557.89
423.488	548.86
423.864	532.13
424.241	563.32
424.617	560.15
424.994	554.73
425.37	568.74
425.746	584.56
426.123	554.51
426.499	583.43
426.875	571.23
427.251	609.42
427.627	594.05
428.003	603.54
428.379	611.9
428.756	587.05
429.132	611.68
429.507	618.91
429.883	624.11
430.259	635.86
430.635	637.21
431.011	612.36
431.387	627.05
431.763	649.42
432.138	636.99
432.514	636.08
432.89	652.36
433.265	649.19
433.641	694.39
434.016	673.15
434.392	659.36
434.767	683.32
435.143	668.4
435.518	677.44
435.894	702.75
436.269	710.43
436.644	709.98
437.02	725.35
437.395	702.98
437.77	723.99
438.145	745.46
438.52	747.04
438.895	738
439.271	738.23
439.646	755.63
440.021	747.27
440.395	753.82
440.77	744.56
441.145	743.43
441.52	776.65
441.895	772.13
442.27	759.47
442.645	787.72
443.019	802.18
443.394	803.54
443.769	789.3
444.143	797.44
444.518	788.85
444.892	802.86
445.267	813.26
445.641	824.33
446.016	802.86
446.39	783.2
446.764	818.45
447.139	834.5
447.513	835.85
447.887	813.26
448.262	819.36
448.636	840.6
449.01	867.27
449.384	835.18
449.758	847.83
450.132	882.41
450.506	876.76
450.88	876.76
451.254	867.27
451.628	897.1
452.002	898.9
452.376	886.7
452.75	939.13
453.123	917.21
453.497	939.35
453.871	944.1
454.244	959.24
454.618	979.35
454.992	969.18
455.365	985
455.739	976.64
456.112	991.1
456.486	970.31
456.859	1005.57
457.232	1011.44
457.606	1023.87
457.979	1050.54
458.352	1066.13
458.725	1065.45
459.099	1071.78
459.472	1076.07
459.845	1113.81
460.218	1085.79
460.591	1097.09
460.964	1116.98
461.337	1133.47
461.71	1137.54
462.083	1197.43
462.456	1145.9
462.829	1170.99
463.201	1198.1
463.574	1200.59
463.947	1193.36
464.32	1216.18
464.692	1239.68
465.065	1239.46
465.438	1252.57
465.81	1273.58
466.183	1291.21
466.555	1310.42
466.928	1319.46
467.3	1338.44
467.672	1337.54
468.045	1378.66
468.417	1404.43
468.789	1404.2
469.161	1424.31
469.534	1445.33
469.906	1461.15
470.278	1493.01
470.65	1493.69
471.022	1522.39
471.394	1545.21
471.766	1555.83
472.138	1576.85
472.51	1590.18
472.882	1647.81
473.253	1675.15
473.625	1695.72
473.997	1730.29
474.369	1712.44
474.74	1772.33
475.112	1796.05
475.484	1848.48
475.855	1850.97
476.227	1881.7
476.598	1949.04
476.97	1951.08
477.341	1998.31
477.713	2027.46
478.084	2040.34
478.455	2113.56
478.827	2100
479.198	2201.47
479.569	2193.78
479.94	2289.6
480.311	2300
480.682	2325.31
481.053	2414.8
481.424	2459.99
481.795	2476.71
482.166	2554.9
482.537	2591.06
482.908	2671.96
483.279	2677.39
483.65	2757.61
484.021	2791.96
484.391	2836.48
484.762	2878.51
485.133	2952.18
485.503	3017.49
485.874	3066.53
486.244	3122.12
486.615	3202.8
486.985	3220.2
487.356	3335.9
487.726	3355.34
488.097	3421.77
488.467	3423.36
488.837	3515.56
489.207	3573.86
489.578	3639.4
489.948	3677.81
490.318	3753.74
490.688	3788.09
491.058	3828.77
491.428	3937.24
491.798	4015.21
492.168	4074.41
492.538	4110.8
492.908	4153.51
493.278	4219.04
493.648	4208.19
494.017	4259.49
494.387	4359.83
494.757	4427.17
495.126	4427.17
495.496	4449.77
495.866	4507.4
496.235	4606.6
496.605	4648.86
496.974	4680.05
497.344	4708.07
497.713	4781.06
498.082	4782.42
498.452	4891.34
498.821	4899.48
499.19	4932.02
499.559	5009.3
499.928	5066.48
500.298	5075.06
500.667	5106.48
501.036	5120.49
501.405	5164.33
501.774	5165.01
502.143	5304.21
502.512	5345.34
502.88	5367.94
503.249	5377.2
503.618	5379.92
503.987	5457.88
504.356	5406.13
504.724	5488.61
505.093	5532.23
505.462	5557.31
505.83	5579.01
506.199	5604.77
506.567	5694.71
506.936	5654.26
507.304	5688.61
507.672	5741.49
508.041	5773.35
508.409	5841.15
508.777	5885.66
509.145	5917.53
509.514	5922.95
509.882	5995.27
510.25	5974.02
510.618	6012.44
510.986	5995.49
511.354	6091.53
511.722	6147.13
512.09	6177.63
512.458	6158.65
512.826	6255.6
513.193	6197.29
513.561	6203.62
513.929	6296.05
514.297	6336.5
514.664	6373.79
515.032	6400.23
515.4	6359.55
515.767	6415.59
516.135	6493.33
516.502	6451.3
516.869	6565.42
517.237	6550.51
517.604	6531.07
517.972	6585.08
518.339	6646.32
518.706	6642.71
519.073	6669.6
519.44	6731.29
519.808	6739.88
520.175	6724.96
520.542	6868.46
520.909	6887.67
521.276	6812.42
521.643	6960.66
522.009	6966.09
522.376	6976.71
522.743	7006.31
523.11	7096.71
523.477	7128.12
523.843	7177.61
524.21	7193.65
524.577	7272.29
524.943	7288.34
525.31	7284.27
525.676	7346.19
526.043	7361.11
526.409	7378.51
526.776	7497.37
527.142	7546.64
527.508	7566.07
527.874	7653.75
528.241	7644.49
528.607	7620.53
528.973	7729.23
529.339	7719.97
529.705	7819.17
530.071	7897.59
530.437	7929.68
530.803	7994.99
531.169	7986.4
531.535	7984.59
531.901	8018.49
532.267	8033.18
532.632	8089.9
532.998	8124.25
533.364	8157.47
533.73	8143.91
534.095	8280.18
534.461	8270.91
534.826	8325.6
535.192	8336
535.557	8465.94
535.923	8439.27
536.288	8410.12
536.653	8521.3
537.019	8491.25
537.384	8538.25
537.749	8530.34
538.114	8588.19
538.479	8590.68
538.845	8648.53
539.21	8672.26
539.575	8709.77
539.94	8742.99
540.305	8773.5
540.67	8798.58
541.034	8849.2
541.399	8921.06
541.764	8933.49
542.129	8941.4
542.494	9052.13
542.858	9039.93
543.223	9052.81
543.587	9103.43
543.952	9126.48
544.316	9117.22
544.681	9172.13
545.045	9224.79
545.41	9292.81
545.774	9258.68
546.138	9338.46
546.503	9371.67
546.867	9328.96
547.231	9418.68
547.595	9446.02
547.959	9552.91
548.324	9468.4
548.688	9561.27
549.052	9622.06
549.416	9651.67
549.779	9706.35
550.143	9680.82
550.507	9752.68
550.871	9775.05
551.235	9766.01
551.599	9841.04
551.962	9867.71
552.326	9871.32
552.689	9932.11
553.053	9930.53
553.417	9983.86
553.78	10053.46
554.143	9998.78
554.507	10049.4
554.87	10069.74
555.234	10223.86
555.597	10160.13
555.96	10235.61
556.323	10205.55
556.686	10219.56
557.05	10285.1
557.413	10384.3
557.776	10340.24
558.139	10414.36
558.502	10460.69
558.865	10446.45
559.228	10587.69
559.59	10532.55
559.953	10519.21
560.316	10712.2
560.679	10664.97
561.041	10721.24
561.404	10818.87
561.767	10798.3
562.129	10766.44
562.492	10895.25
562.854	10861.8
563.217	10835.59
563.579	10996.49
563.941	11052.53
564.304	10949.71
564.666	11066.77
565.028	11043.72
565.39	11073.1
565.753	11177.28
566.115	11216.15
566.477	11253.21
566.839	11304.73
567.201	11364.62
567.563	11393.32
567.925	11411.85
568.287	11466.76
568.648	11465.18
569.01	11610.26
569.372	11611.16
569.734	11634.21
570.095	11735.45
570.457	11746.3
570.819	11721.22
571.18	11763.93
571.542	11887.31
571.903	11852.51
572.265	11997.82
572.626	12068.78
572.987	12080.53
573.349	12100.64
573.71	12159.17
574.071	12288.89
574.432	12341.77
574.794	12433.74
575.155	12503.12
575.516	12553.51
575.877	12639.39
576.238	12694.98
576.599	12784.47
576.96	12819.27
577.32	12920.28
577.681	13071.92
578.042	13145.59
578.403	13267.17
578.763	13287.28
579.124	13439.82
579.485	13578.12
579.845	13704.89
580.206	13792.58
580.566	13899.24
580.927	14063.3
581.287	14262.17
581.648	14302.17
582.008	14559.33
582.368	14601.14
582.728	14860.12
583.089	14913.68
583.449	15176.04
583.809	15373.78
584.169	15510.5
584.529	15726.76
584.889	15991.16
585.249	16069.13
585.609	16254.66
585.969	16559.73
586.329	16623.69
586.688	16955.43
587.048	17159.49
587.408	17359.71
587.768	17604.23
588.127	17860.26
588.487	18054.16
588.846	18448.5
589.206	18605.78
589.565	18942.27
589.925	19270.85
590.284	19381.35
590.643	19768.46
591.003	20107.66
591.362	20364.38
591.721	20651.15
592.08	20829.23
592.44	21160.97
592.799	21541.3
593.158	21655.19
593.517	22024.45
593.876	22344.89
594.235	22519.35
594.593	22838.21
594.952	23237.07
595.311	23428.03
595.67	23745.31
596.029	24144.39
596.387	24311.17
596.746	24731.27
597.104	24989.57
597.463	25138.94
597.822	25552.72
598.18	25769.44
598.538	26071.8
598.897	26488.29
599.255	26506.59
599.613	27114.94
599.972	27350.18
600.33	27716.28
600.688	27737.97
601.046	28175.93
601.404	28594.9
601.762	28764.16
602.12	29236.01
602.478	29432.84
602.836	29589.45
603.194	29884.81
603.552	30166.16
603.91	30346.26
604.268	30613.6
604.625	30737.67
604.983	31255.84
605.341	31204.09
605.698	31562.05
606.056	31979.22
606.413	32110.51
606.771	32503.27
607.128	32779.87
607.485	32821.91
607.843	32989.58
608.2	33373.08
608.557	33643.8
608.914	33788.66
609.272	34053.96
609.629	34314.52
609.986	34502.54
610.343	34543.44
610.7	34881.51
611.057	35078.8
611.414	35110.88
611.771	35578.22
612.127	35809.17
612.484	35895.95
612.841	36238.09
613.198	36276.05
613.554	36440.34
613.911	36741.12
614.267	36928.24
614.624	36972.98
614.98	37195.35
615.337	37516.92
615.693	37561.22
616.05	37749.01
616.406	37890.02
616.762	37991.49
617.118	38069
617.475	38143.8
617.831	38424.24
618.187	38568.19
618.543	38760.05
618.899	39007.96
619.255	39085.47
619.611	39194.85
619.967	39287.72
620.323	39397.1
620.678	39400.26
621.034	39600.48
621.39	39594.38
621.746	39568.39
622.101	40199.79
622.457	39928.39
622.812	40087.25
623.168	40284.53
623.523	40276.85
623.879	40495.83
624.234	40263.29
624.589	40514.36
624.945	40574.92
625.3	40889.72
625.655	40881.58
626.01	40938.53
626.365	40958.87
626.72	40960.22
627.075	41024.4
627.43	41049.94
627.785	41097.39
628.14	41184.4
628.495	41311.4
628.85	41258.29
629.205	41202.02
629.559	41437.72
629.914	41338.29
630.269	41489.25
630.623	41459.42
630.978	41305.07
631.332	41571.96
631.687	41762.69
632.041	41638.4
632.396	41672.52
632.75	41546.65
633.104	41726.98
633.459	41541.9
633.813	41669.81
634.167	41599.53
634.521	41565.63
634.875	41645.18
635.229	41554.11
635.583	41562.69
635.937	41660.99
636.291	41593.43
636.645	41711.16
636.999	41681.79
637.352	41680.66
637.706	41484.73
638.06	41686.98
638.413	41574.67
638.767	41508.46
639.121	41738.73
639.474	41529.02
639.828	41501.23
640.181	41654.44
640.534	41644.72
640.888	41623.48
641.241	41542.58
641.594	41473.66
641.947	41505.52
642.301	41505.74
642.654	41475.46
643.007	41466.88
643.36	41496.25
643.713	41447.67
644.066	41565.63
644.419	41298.29
644.771	41055.81
645.124	40791.87
645.477	40808.14
645.83	40419.67
646.182	40259.68
646.535	40228.49
646.888	40396.62
647.24	40096.74
647.593	40376.96
647.945	40218.55
648.298	40134.71
648.65	40076.18
649.002	39862.85
649.355	40221.71
649.707	40068.72
650.059	40336.96
650.411	40768.82
650.763	40712.09
651.115	41289.48
651.467	41072.76
651.819	41137.39
652.171	41024.18
652.523	41054.91
652.875	41063.95
653.227	40599.1
653.578	40970.62
653.93	41004.06
654.282	40709.38
654.633	40705.09
654.985	40888.81
655.337	40921.81
655.688	40767.01
656.039	41078.41
656.391	40581.02
656.742	40665.31
657.094	40785.76
657.445	40947.12
657.796	40906.66
658.147	40793.9
658.498	40645.2
658.849	40849.49
659.2	40638.87
659.551	40624.64
659.902	40739.89
660.253	40789.83
660.604	40832.77
660.955	40583.28
661.306	40670.06
661.656	40712.55
662.007	40640.46
662.358	40710.74
662.708	40660.34
663.059	40649.5
663.409	40514.81
663.76	40896.04
664.11	40732.21
664.461	40715.48
664.811	40802.94
665.161	40670.29
665.511	40576.73
665.862	40629.61
666.212	40800.45
666.562	40769.04
666.912	40569.5
667.262	40587.8
667.612	40620.8
667.962	40624.19
668.312	40550.29
668.662	40899.66
669.011	40691.98
669.361	40533.79
669.711	40643.85
670.06	40609.72
670.41	40604.53
670.76	40482.72
671.109	40512.78
671.459	40468.94
671.808	40394.59
672.157	40468.26
672.507	40333.57
672.856	40419.45
673.205	40466.45
673.554	40448.6
673.904	40374.7
674.253	40410.63
674.602	40362.95
674.951	39765.68
675.3	39657.88
675.649	40256.74
675.998	40111.21
676.346	40259
676.695	40317.75
677.044	39987.59
677.393	40245.89
677.741	40410.41
678.09	40168.83
678.438	40057.2
678.787	40282.27
679.135	40129.28
679.484	39850.87
679.832	39990.3
680.181	39814.94
680.529	39839.12
680.877	39807.48
681.225	39803.64
681.573	39995.95
681.922	39862.85
682.27	39665.79
682.618	39597.09
682.966	39600.26
683.314	39645.68
683.661	39470.09
684.009	39425.12
684.357	39122.76
684.705	39222.87
685.053	39165.24
685.4	39180.61
685.748	39066.71
686.095	39008.64
686.443	38818.81
686.79	38882.08
687.138	39033.95
687.485	38781.52
687.832	38759.6
688.18	38719.6
688.527	38512.83
688.874	38519.83
689.221	38470.12
689.568	38389.89
689.915	38282.1
690.262	38415.66
690.609	38196.68
690.956	38072.61
691.303	38073.74
691.65	37835.78
691.997	37848.67
692.344	37599.18
692.69	37605.51
693.037	37663.81
693.383	37275.8
693.73	37494.1
694.077	37317.83
694.423	37375.23
694.769	37222.24
695.116	37143.83
695.462	37139.08
695.808	36876.71
696.155	36992.87
696.501	36698.19
696.847	36712.88
697.193	36462.49
697.539	36463.84
697.885	36344.75
698.231	36256.62
698.577	36295.03
698.923	36178.88
699.269	36097.53
699.614	35815.95
699.96	35825.22
700.306	35746.8
700.651	35651.21
700.997	35570.53
701.342	35603.08
701.688	35479.24
702.033	35309.52
702.379	35494.15
702.724	35180.26
703.069	35320.14
703.415	34965.8
703.76	34984.11
704.105	34922.42
704.45	34963.54
704.795	34778.69
705.14	34651.69
705.485	34710.9
705.83	34450.56
706.175	34500.28
706.52	34333.28
706.865	34325.14
707.209	34316.1
707.554	34168.54
707.899	34181.87
708.243	34066.84
708.588	33923.57
708.932	33747.98
709.277	33769
709.621	33749.56
709.966	33477.26
710.31	33498.27
710.654	33275.9
710.998	33435.22
711.342	33299.18
711.687	33222.8
712.031	33132.41
712.375	33015.57
712.719	33109.36
713.063	32910.94
713.407	33176.7
713.75	32907.78
714.094	32962.24
714.438	32810.38
714.782	32802.7
715.125	32691.51
715.469	32699.42
715.812	32436.6
716.156	32451.29
716.499	32331.07
716.843	32308.92
717.186	32143.05
717.53	32327.46
717.873	32251.52
718.216	32245.2
718.559	32028.25
718.902	31871.65
719.246	31833.68
719.589	31833.46
719.932	31663.74
720.275	31682.05
720.617	31607.47
720.96	31647.47
721.303	31625.55
721.646	31595.5
721.989	31324.77
722.331	31459
722.674	31430.76
723.016	31425.56
723.359	31357.54
723.701	31340.59
724.044	31120.71
724.386	31088.84
724.729	31305.56
725.071	31198.45
725.413	31116.19
725.755	31074.15
726.097	30950.32
726.439	30779.25
726.782	30764.78
727.124	30973.37
727.465	30712.13
727.807	30703.77
728.149	30541.29
728.491	30473.49
728.833	30607.27
729.175	30496.32
729.516	30344.68
729.858	30435.3
730.199	30360.73
730.541	30346.94
730.882	30263.55
731.224	30381.97
731.565	30115.31
731.906	30149.21
732.248	30048.87
732.589	29927.07
732.93	30002.77
733.271	29940.17
733.612	29920.29
733.953	30050.23
734.294	29911.02
734.635	29861.53
734.976	29859.95
735.317	29728.65
735.658	29704.7
735.999	29735.88
736.339	29605.49
736.68	29732.95
737.021	29534.76
737.361	29383.13
737.702	29587.19
738.042	29354.88
738.383	29460.19
738.723	29478.72
739.063	29412.5
739.404	29355.33
739.744	29300.19
740.084	29092.51
740.424	29136.58
740.764	29086.18
741.104	29165.5
741.444	29046.19
741.784	29039.63
742.124	29053.87
742.464	28873.53
742.804	28791.95
743.143	28852.74
743.483	28922.12
743.823	28604.39
744.162	28691.17
744.502	28714.44
744.841	28641.22
745.181	28689.81
745.52	28608.68
745.86	28497.73
746.199	28591.51
746.538	28473.32
746.877	28411.63
747.216	28439.65
747.556	28453.66
747.895	28321.68
748.234	28288.92
748.573	28304.74
748.911	28284.17
749.25	28164.4
749.589	28090.73
749.928	28090.73
750.267	28219.99
750.605	28071.75
750.944	28012.77
751.283	27972.77
751.621	27978.87
751.96	27695.49
752.298	27802.15
752.636	27761.25
752.975	27596.28
753.313	27544.53
753.651	27721.7
753.989	27471.31
754.327	27370.98
754.666	27365.33
755.004	27478.99
755.342	27374.36
755.679	27400.35
756.017	27115.16
756.355	27184.54
756.693	27083.53
757.031	27137.31
757.368	27031.78
757.706	26967.14
758.044	26877.2
758.381	26896.41
758.719	26708.62
759.056	26769.41
759.394	26704.1
