Data from hue_30_FLMS001491_72.txt Node
Date: Mon Feb 06 15:05:55 GMT 2017
User: dcchb
Spectrometer: FLMS00149
Trigger mode: 0
Integration Time (sec): 2.000000E-2
Scans to average: 10
Electric dark correction enabled: true
Nonlinearity correction enabled: false
Boxcar width: 0
XAxis mode: Wavelengths
Number of Pixels in Spectrum: 2048
>>>>>Begin Spectral Data<<<<<
341.393	-31.09
341.776	-31.09
342.16	-31.09
342.543	-39.67
342.927	-60.46
343.31	-67.24
343.693	-69.28
344.077	-70.86
344.46	-67.47
344.843	-48.04
345.226	-53.01
345.61	-26.57
345.993	-9.84
346.376	-0.58
346.759	22.92
347.142	15.01
347.525	36.26
347.908	49.14
348.291	95.92
348.674	79.19
349.057	114.45
349.44	108.12
349.823	140.21
350.206	133.43
350.588	186.31
350.971	210.94
351.354	229.25
351.737	226.99
352.119	216.59
352.502	246.65
352.884	255.01
353.267	281
353.65	280.32
354.032	283.03
354.414	340.43
354.797	309.47
355.179	310.15
355.562	332.97
355.944	312.86
356.326	329.36
356.709	339.3
357.091	346.08
357.473	349.02
357.855	348.79
358.238	343.37
358.62	346.98
359.002	327.55
359.384	328.23
359.766	344.72
360.148	331.16
360.53	326.42
360.912	326.42
361.294	311.73
361.676	335.01
362.057	335.46
362.439	311.28
362.821	336.36
363.203	331.39
363.584	310.83
363.966	317.83
364.348	320.09
364.729	313.76
365.111	323.48
365.493	305.18
365.874	299.3
366.256	320.32
366.637	314.44
367.019	305.63
367.4	321.67
367.781	304.72
368.163	323.48
368.544	310.83
368.925	330.26
369.306	322.35
369.688	319.41
370.069	304.95
370.45	316.25
370.831	300.88
371.212	310.83
371.593	300.43
371.974	297.72
372.355	321.22
372.736	311.73
373.117	316.93
373.498	306.53
373.879	316.25
374.26	315.8
374.641	313.08
375.021	307.44
375.402	330.71
375.783	322.12
376.163	334.55
376.544	316.47
376.925	328
377.305	321.45
377.686	320.09
378.066	321.67
378.447	331.62
378.827	340.43
379.208	331.62
379.588	320.77
379.968	329.36
380.349	337.04
380.729	348.79
381.109	342.01
381.489	339.07
381.87	339.07
382.25	320.77
382.63	335.91
383.01	323.25
383.39	338.62
383.77	344.27
384.15	338.85
384.53	346.08
384.91	325.97
385.29	342.91
385.67	358.28
386.049	354.67
386.429	346.53
386.809	336.36
387.189	352.41
387.568	353.76
387.948	355.57
388.328	376.13
388.707	346.08
389.087	354.67
389.466	361.45
389.846	360.32
390.225	358.96
390.605	374.55
390.984	344.72
391.363	359.19
391.743	358.96
392.122	368.9
392.501	373.87
392.881	364.84
393.26	356.7
393.639	360.54
394.018	382.69
394.397	359.86
394.776	393.99
395.155	385.17
395.534	390.82
395.913	373.65
396.292	381.56
396.671	382.01
397.05	372.74
397.429	372.29
397.808	384.27
398.186	383.82
398.565	404.61
398.944	400.77
399.323	368.45
399.701	398.73
400.08	392.4
400.458	401.9
400.837	389.24
401.215	401.67
401.594	401.22
401.972	405.96
402.351	406.87
402.729	421.56
403.107	402.12
403.486	404.61
403.864	393.76
404.242	433.76
404.62	428.79
404.999	425.85
405.377	419.3
405.755	419.97
406.133	407.09
406.511	410.03
406.889	418.62
407.267	443.03
407.645	426.08
408.023	431.05
408.401	445.28
408.779	438.73
409.156	416.59
409.534	441.67
409.912	442.12
410.29	457.71
410.667	451.16
411.045	464.49
411.422	469.24
411.8	478.05
412.178	484.61
412.555	469.01
412.933	478.28
413.31	454.1
413.687	477.15
414.065	489.13
414.442	480.54
414.819	492.74
415.197	486.64
415.574	478.73
415.951	483.7
416.328	505.4
416.705	501.55
417.082	493.87
417.46	506.07
417.837	491.16
418.214	504.04
418.591	508.79
418.967	508.79
419.344	517.15
419.721	507.2
420.098	525.73
420.475	538.39
420.852	521.67
421.228	535.23
421.605	526.19
421.982	545.4
422.358	525.06
422.735	528.45
423.111	532.51
423.488	555.11
423.864	560.31
424.241	563.93
424.617	568.67
424.994	565.06
425.37	571.38
425.746	599.86
426.123	563.93
426.499	591.27
426.875	600.08
427.251	580.65
427.627	587.43
428.003	616.13
428.379	600.31
428.756	619.07
429.132	617.26
429.507	613.19
429.883	598.28
430.259	620.65
430.635	629.69
431.011	610.48
431.387	624.72
431.763	662.68
432.138	651.83
432.514	653.64
432.89	647.99
433.265	658.16
433.641	677.6
434.016	683.7
434.392	690.25
434.767	694.09
435.143	684.83
435.518	709.01
435.894	719.63
436.269	722.34
436.644	731.83
437.02	705.39
437.395	709.23
437.77	743.13
438.145	732.06
438.52	737.71
438.895	759.4
439.271	740.64
439.646	748.33
440.021	760.98
440.395	769.8
440.77	766.41
441.145	768.89
441.52	784.49
441.895	791.72
442.27	808.44
442.645	798.95
443.019	805.95
443.394	793.3
443.769	796.91
444.143	793.3
444.518	789.46
444.892	831.26
445.267	842.56
445.641	823.81
446.016	826.52
446.39	848.66
446.764	826.07
447.139	818.83
447.513	833.75
447.887	830.81
448.262	854.31
448.636	863.8
449.01	882.11
449.384	873.3
449.758	863.8
450.132	869.45
450.506	909.91
450.88	888.89
451.254	894.54
451.628	899.96
452.002	918.04
452.376	932.73
452.75	932.5
453.123	920.07
453.497	937.25
453.871	960.3
454.244	990.36
454.618	959.17
454.992	977.02
455.365	986.51
455.739	997.81
456.112	1001.65
456.486	1036.46
456.859	1029.22
457.232	1009.34
457.606	1034.87
457.979	1047.08
458.352	1075.1
458.725	1079.17
459.099	1077.58
459.472	1101.09
459.845	1113.06
460.218	1142.22
460.591	1123.69
460.964	1128.43
461.337	1151.71
461.71	1188.99
462.083	1185.15
462.456	1153.06
462.829	1211.37
463.201	1202.55
463.574	1187.86
463.947	1224.47
464.32	1249.33
464.692	1252.5
465.065	1255.21
465.438	1297.92
465.81	1321.65
466.183	1316.67
466.555	1352.83
466.928	1370.68
467.3	1378.59
467.672	1391.25
468.045	1396.9
468.417	1425.82
468.789	1444.35
469.161	1433.96
469.534	1499.49
469.906	1487.07
470.278	1519.15
470.65	1556.44
471.022	1543.56
471.394	1599.6
471.766	1580.4
472.138	1640.06
472.51	1639.83
472.882	1710.56
473.253	1709.21
473.625	1732.93
473.997	1768.87
474.369	1781.07
474.74	1795.31
475.112	1841.41
475.484	1900.84
475.855	1937.9
476.227	1944.68
476.598	1992.36
476.97	2013.15
477.341	2073.94
477.713	2115.07
478.084	2120.72
478.455	2198.01
478.827	2219.02
479.198	2313.94
479.569	2296.76
479.94	2356.87
480.311	2405.01
480.682	2443.65
481.053	2503.31
481.424	2575.17
481.795	2618.56
482.166	2636.64
482.537	2727.03
482.908	2761.83
483.279	2800.48
483.65	2896.07
484.021	2927.03
484.391	2968.16
484.762	3022.84
485.133	3119.11
485.503	3181.26
485.874	3230.75
486.244	3225.55
486.615	3344.19
486.985	3418.99
487.356	3494.7
487.726	3548.03
488.097	3593.45
488.467	3661.02
488.837	3726.78
489.207	3841.13
489.578	3887.45
489.948	3936.49
490.318	4026.43
490.688	4047.68
491.058	4169.71
491.428	4225.98
491.798	4232.08
492.168	4351.62
492.538	4391.62
492.908	4438.4
493.278	4479.3
493.648	4582.58
494.017	4676.81
494.387	4686.98
494.757	4713.65
495.126	4831.16
495.496	4845.17
495.866	4854.89
496.235	5003.58
496.605	5015.79
496.974	5075.67
497.344	5117.93
497.713	5184.82
498.082	5263.01
498.452	5337.13
498.821	5330.58
499.19	5357.92
499.559	5464.36
499.928	5488.99
500.298	5490.58
500.667	5556.56
501.036	5575.55
501.405	5638.82
501.774	5652.83
502.143	5695.32
502.512	5782.09
502.88	5822.54
503.249	5812.38
503.618	5901.64
503.987	5948.42
504.356	5984.12
504.724	6027.06
505.093	6071.35
505.462	6071.13
505.83	6157.45
506.199	6187.96
506.567	6278.58
506.936	6274.74
507.304	6368.52
507.672	6383.21
508.041	6386.82
508.409	6440.16
508.777	6480.15
509.145	6507.05
509.514	6555.63
509.882	6600.83
510.25	6570.55
510.618	6663.65
510.986	6671.56
511.354	6712.92
511.722	6822.97
512.09	6855.96
512.458	6853.48
512.826	6884.89
513.193	6947.94
513.561	6927.83
513.929	6982.51
514.297	7050.53
514.664	7081.27
515.032	7077.43
515.4	7135.28
515.767	7122.17
516.135	7183.41
516.502	7208.5
516.869	7293.92
517.237	7344.76
517.604	7300.7
517.972	7329.4
518.339	7294.82
518.706	7382.28
519.073	7524.87
519.44	7485.33
519.808	7597.19
520.175	7541.37
520.542	7582.95
520.909	7611.42
521.276	7590.86
521.643	7698.43
522.009	7836.5
522.376	7808.93
522.743	7896.39
523.11	7911.08
523.477	7993.56
523.843	7995.37
524.21	8102.48
524.577	8152.43
524.943	8163.27
525.31	8204.85
525.676	8218.41
526.043	8270.16
526.409	8305.87
526.776	8383.61
527.142	8314.91
527.508	8474.9
527.874	8546.31
528.241	8558.07
528.607	8521.23
528.973	8624.96
529.339	8713.54
529.705	8732.98
530.071	8764.39
530.437	8808.91
530.803	8855.23
531.169	8928.9
531.535	8905.18
531.901	8946.08
532.267	8975.68
532.632	9046.64
532.998	9039.41
533.364	9160.54
533.73	9131.38
534.095	9244.6
534.461	9292.96
534.826	9344.03
535.192	9359.63
535.557	9432.39
535.923	9434.2
536.288	9423.35
536.653	9516.68
537.019	9495.67
537.384	9568.89
537.749	9579.06
538.114	9642.78
538.479	9700.86
538.845	9699.28
539.21	9674.19
539.575	9793.97
539.94	9811.59
540.305	9784.7
540.67	9806.62
541.034	9890.91
541.399	9967.97
541.764	9969.55
542.129	10084.58
542.494	10044.35
542.858	10049.1
543.223	10080.74
543.587	10137.69
543.952	10201.86
544.316	10244.12
544.681	10346.49
545.045	10287.51
545.41	10408.19
545.774	10407.73
546.138	10414.74
546.503	10551.46
546.867	10509.43
547.231	10568.86
547.595	10614.28
547.959	10646.6
548.324	10680.04
548.688	10678.01
549.052	10823.32
549.416	10819.7
549.779	10796.2
550.143	10865.35
550.507	10839.81
550.871	10906.25
551.235	10976.99
551.599	11018.11
551.962	11092.01
552.326	11085.01
552.689	11221.72
553.053	11025.35
553.417	11153.48
553.78	11287.49
554.143	11271.67
554.507	11331.55
554.87	11339.24
555.234	11448.61
555.597	11316.64
555.96	11399.57
556.323	11516.41
556.686	11504.2
557.05	11584.2
557.413	11583.75
557.776	11675.27
558.139	11657.42
558.502	11702.39
558.865	11682.5
559.228	11818.32
559.59	11839.34
559.953	11870.3
560.316	11961.14
560.679	11990.29
561.041	11972.67
561.404	12154.81
561.767	12096.05
562.129	12157.29
562.492	12262.15
562.854	12223.51
563.217	12168.37
563.579	12273.45
563.941	12341.47
564.304	12400.45
564.666	12360.23
565.028	12462.14
565.39	12530.16
565.753	12591.86
566.115	12622.82
566.477	12659.65
566.839	12665.3
567.201	12781.01
567.563	12863.72
567.925	12799.31
568.287	12818.07
568.648	12944.17
569.01	12967.44
569.372	13012.19
569.734	13052.19
570.095	13136.02
570.457	13182.13
570.819	13289.01
571.18	13286.53
571.542	13286.3
571.903	13387.54
572.265	13511.61
572.626	13578.27
572.987	13557.48
573.349	13614.43
573.71	13686.52
574.071	13773.3
574.432	13879.96
574.794	13947.75
575.155	13957.47
575.516	14014.19
575.877	14124.47
576.238	14254.87
576.599	14375.09
576.96	14483.56
577.32	14483.33
577.681	14665.7
578.042	14778.24
578.403	14847.84
578.763	14875.41
579.124	15024.56
579.485	15187.5
579.845	15361.73
580.206	15500.48
580.566	15514.04
580.927	15763.07
581.287	15889.4
581.648	15999.68
582.008	16194.48
582.368	16420.01
582.728	16666.55
583.089	16602.6
583.449	16878.98
583.809	17129.82
584.169	17376.59
584.529	17487.55
584.889	17864.49
585.249	18045.27
585.609	18133.63
585.969	18443.23
586.329	18553.28
586.688	18811.58
587.048	19051.58
587.408	19256.09
587.768	19559.58
588.127	19847.03
588.487	19908.73
588.846	20351.88
589.206	20422.16
589.565	20742.6
589.925	21061.24
590.284	21343.04
590.643	21560.66
591.003	21960.88
591.362	22126.97
591.721	22411.94
592.08	22751.14
592.44	22996.1
592.799	23345.93
593.158	23588.18
593.517	23778.91
593.876	24158.11
594.235	24458.44
594.593	24756.74
594.952	25057.29
595.311	25198.31
595.67	25577.05
596.029	25987.89
596.387	26349.01
596.746	26600.3
597.104	26779.96
597.463	27023.8
597.822	27345.82
598.18	27590.79
598.538	27861.74
598.897	28234.38
599.255	28411.56
599.613	29064.65
599.972	29033.01
600.33	29377.18
600.688	29517.97
601.046	29966.99
601.404	30350.71
601.762	30465.51
602.12	30832.28
602.478	31004.03
602.836	31223.68
603.194	31386.17
603.552	31817.79
603.91	31913.61
604.268	32151.34
604.625	32434.73
604.983	32707.94
605.341	32702.74
605.698	33187.02
606.056	33455.72
606.413	33526.67
606.771	33952.88
607.128	34118.3
607.485	34164.17
607.843	34399.42
608.2	34881.44
608.557	34998.73
608.914	34979.97
609.272	35367.98
609.629	35630.8
609.986	35957.12
610.343	35883.45
610.7	36370.22
611.057	36593.49
611.414	36588.97
611.771	36644.11
612.127	37003.19
612.484	37065.56
612.841	37331.09
613.198	37450.19
613.554	37486.57
613.911	37583.29
614.267	38019.66
614.624	37990.96
614.98	38068.48
615.337	38498.52
615.693	38701.68
616.05	38691.51
616.406	38968.11
616.762	38892.18
617.118	39125.85
617.475	39263.25
617.831	39369.23
618.187	39502.79
618.543	39589.34
618.899	39977.58
619.255	40110.46
619.611	40053.51
619.967	40332.15
620.323	40492.14
620.678	40282.66
621.034	40207.18
621.39	40519.71
621.746	40543.44
622.101	41183.87
622.457	40715.19
622.812	40921.96
623.168	41096.42
623.523	41147.49
623.879	41434.04
624.234	41093.48
624.589	41330.99
624.945	41383.64
625.3	41625.45
625.655	41476.52
626.01	41622.28
626.365	41652.34
626.72	41684.2
627.075	41696.63
627.43	41767.36
627.785	41725.56
628.14	41793.35
628.495	42024.98
628.85	41828.6
629.205	41818.89
629.559	42203.06
629.914	42001.03
630.269	42028.82
630.623	41974.59
630.978	41885.55
631.332	42173.91
631.687	42321.92
632.041	42144.98
632.396	42214.81
632.75	42068.15
633.104	42222.04
633.459	42006.45
633.813	42099.1
634.167	42160.8
634.521	42126.9
634.875	42174.81
635.229	42173
635.583	42054.59
635.937	42094.13
636.291	41986.11
636.645	42171.42
636.999	42020.24
637.352	42102.27
637.706	41989.5
638.06	42114.7
638.413	41862.05
638.767	41844.87
639.121	41886.23
639.474	41874.7
639.828	41866.34
640.181	41977.3
640.534	41877.87
640.888	41937.53
641.241	41696.4
641.594	41716.52
641.947	42010.29
642.301	41844.42
642.654	41882.84
643.007	41786.8
643.36	41744.76
643.713	41628.38
644.066	41842.16
644.419	41571.89
644.771	41270.88
645.124	40925.35
645.477	40954.5
645.83	40763.09
646.182	40647.62
646.535	40638.8
646.888	40752.47
647.24	40345.03
647.593	40698.69
647.945	40461.41
648.298	40356.78
648.65	40353.84
649.002	40362.43
649.355	40411.47
649.707	40400.62
650.059	40518.81
650.411	41014.39
650.763	40926.93
651.115	41456.18
651.467	41311.33
651.819	41170.54
652.171	41119.92
652.523	41088.51
652.875	41216.19
653.227	40900.04
653.578	41266.36
653.93	41102.75
654.282	40981.17
654.633	40865.47
654.985	40959.93
655.337	41091.9
655.688	40875.18
656.039	41006.25
656.391	40765.81
656.742	40799.25
657.094	40811.46
657.445	40908.85
657.796	40914.96
658.147	40777.11
658.498	40732.14
658.849	40889.65
659.2	40713.83
659.551	40769.87
659.902	40719.25
660.253	40705.7
660.604	40971.45
660.955	40619.14
661.306	40830.21
661.656	40667.28
662.007	40750.67
662.358	40745.47
662.708	40712.02
663.059	40693.04
663.409	40449.2
663.76	40773.72
664.11	40785.02
664.461	40704.34
664.811	40787.95
665.161	40669.76
665.511	40547.96
665.862	40597.68
666.212	40736.88
666.562	40695.75
666.912	40610.78
667.262	40629.09
667.612	40643.32
667.962	40684.45
668.312	40623.89
668.662	40759.71
669.011	40634.51
669.361	40495.53
669.711	40416.44
670.06	40361.98
670.41	40289.89
670.76	40418.92
671.109	40363.33
671.459	40514.74
671.808	40457.79
672.157	40445.14
672.507	40187.06
672.856	40153.85
673.205	40326.04
673.554	40412.37
673.904	40147.29
674.253	40395.19
674.602	40298.93
674.951	39699.39
675.3	39581.66
675.649	40217.12
675.998	40159.95
676.346	40174.86
676.695	40410.79
677.044	39898.03
677.393	40181.64
677.741	40188.65
678.09	40057.58
678.438	39914.98
678.787	39959.05
679.135	39886.96
679.484	39964.47
679.832	39964.02
680.181	39813.97
680.529	39842.67
680.877	39561.54
681.225	39645.16
681.573	39914.08
681.922	39456.91
682.27	39500.3
682.618	39487.65
682.966	39316.35
683.314	39398.16
683.661	39224.15
684.009	39176.92
684.357	39133.53
684.705	38968.11
685.053	39226.86
685.4	39056.7
685.748	38801.56
686.095	38946.19
686.443	38796.59
686.79	38740.32
687.138	38646.31
687.485	38790.27
687.832	38624.62
688.18	38655.81
688.527	38439.31
688.874	38350.28
689.221	38339.66
689.568	38144.63
689.915	38016.73
690.262	37967.46
690.609	38008.82
690.956	38044.52
691.303	37846.56
691.65	37545.78
691.997	37565.21
692.344	37477.53
692.69	37472.56
693.037	37416.74
693.383	37146.69
693.73	37419.45
694.077	37096.52
694.423	37161.16
694.769	36932.91
695.116	36856.76
695.462	36806.59
695.808	36733.37
696.155	36778.79
696.501	36470.33
696.847	36574.05
697.193	36191.46
697.539	36348.75
697.885	35975.65
698.231	36046.16
698.577	35956.22
698.923	35896.56
699.269	35820.17
699.614	35512.39
699.96	35523.68
700.306	35631.03
700.651	35379.96
700.997	35395.1
701.342	35299.51
701.688	35218.61
702.033	35133.86
702.379	35074.88
702.724	34978.61
703.069	35034.66
703.415	34617.95
703.76	34655.46
704.105	34683.25
704.45	34542.02
704.795	34388.35
705.14	34368.69
705.485	34285.07
705.83	34088.69
706.175	34256.83
706.52	34137.73
706.865	34119.65
707.209	33890.51
707.554	33819.55
707.899	33927.79
708.243	33781.58
708.588	33655.26
708.932	33410.75
709.277	33400.12
709.621	33367.58
709.966	33109.96
710.31	33281.71
710.654	33012.11
710.998	33100.92
711.342	33082.84
711.687	32992.23
712.031	32832.91
712.375	32765.57
712.719	32766.02
713.063	32640.14
713.407	32780.03
713.75	32512.69
714.094	32454.61
714.438	32445.8
714.782	32462.97
715.125	32192.47
715.469	32308.85
715.812	32117.45
716.156	32005.13
716.499	32068.18
716.843	32024.34
717.186	31787.74
717.53	31892.59
717.873	31942.54
718.216	31855.98
718.559	31739.15
718.902	31495.09
719.246	31461.64
719.589	31359.05
719.932	31345.49
720.275	31449.22
720.617	31399.05
720.96	31245.15
721.303	31285.6
721.646	31321.76
721.989	31098.94
722.331	31274.08
722.674	31166.96
723.016	31087.87
723.359	30939.85
723.701	30974.65
724.044	30855.78
724.386	30681.55
724.729	30854.2
725.071	30779.4
725.413	30575.34
725.755	30679.29
726.097	30440.43
726.439	30316.36
726.782	30388.45
727.124	30469.58
727.465	30366.98
727.807	30275.01
728.149	30303.48
728.491	30287.89
728.833	30154.56
729.175	30073.21
729.516	29962.25
729.858	30019.2
730.199	30118.63
730.541	29953.66
730.882	29935.58
731.224	29879.99
731.565	29805.42
731.906	29858.75
732.248	29683.39
732.589	29657.4
732.93	29588.25
733.271	29516.84
733.612	29524.07
733.953	29561.58
734.294	29400.46
734.635	29261.25
734.976	29401.59
735.317	29261.48
735.658	29338.99
735.999	29256.96
736.339	29195.26
736.68	29236.84
737.021	29256.73
737.361	29031.2
737.702	29165.43
738.042	29092.89
738.383	28989.85
738.723	28986.68
739.063	28931.09
739.404	28906.68
739.744	28800.47
740.084	28637.99
740.424	28647.48
740.764	28678.21
741.104	28795.05
741.444	28603.41
741.784	28566.13
742.124	28621.27
742.464	28583.53
742.804	28334.27
743.143	28370.65
743.483	28340.82
743.823	28249.75
744.162	28327.72
744.502	28280.49
744.841	28179.47
745.181	28210.66
745.52	28148.51
745.86	28068.06
746.199	28115.97
746.538	27959.82
746.877	28151.9
747.216	28164.56
747.556	27988.52
747.895	28001.17
748.234	27904
748.573	27710.1
748.911	27760.27
749.25	27672.82
749.589	27557.79
749.928	27644.8
750.267	27637.11
750.605	27626.49
750.944	27445.03
751.283	27407.51
751.621	27452.26
751.96	27358.02
752.298	27343.11
752.636	27279.61
752.975	27132.72
753.313	27037.13
753.651	27231.47
753.989	27019.95
754.327	27000.52
754.666	26886.62
755.004	26976.11
755.342	26976.56
755.679	26851.37
756.017	26808.66
756.355	26778.38
756.693	26671.49
757.031	26726.85
757.368	26549.01
757.706	26580.87
758.044	26391.5
