Data from hue_120_FLMS001491_00012.txt Node
Date: Tue Feb 07 16:58:59 GMT 2017
User: dcchb
Spectrometer: FLMS00149
Trigger mode: 0
Integration Time (sec): 2.000000E-2
Scans to average: 10
Electric dark correction enabled: true
Nonlinearity correction enabled: false
Boxcar width: 0
XAxis mode: Wavelengths
Number of Pixels in Spectrum: 2048
>>>>>Begin Spectral Data<<<<<
341.393	-13.05
341.776	-13.05
342.16	-13.05
342.543	-37.91
342.927	-64.12
343.31	-70
343.693	-71.58
344.077	-76.55
344.46	-62.77
344.843	-49.21
345.226	-28.42
345.61	-34.52
345.993	-4.92
346.376	-6.72
346.759	0.96
347.142	36.89
347.525	50.68
347.908	69.89
348.291	76.21
348.674	69.21
349.057	100.84
349.44	119.83
349.823	148.75
350.206	146.72
350.588	190.33
350.971	210.9
351.354	236.43
351.737	238.24
352.119	267.62
352.502	271.69
352.884	280.5
353.267	287.51
353.65	294.29
354.032	296.55
354.414	299.94
354.797	318.92
355.179	320.5
355.562	325.92
355.944	318.92
356.326	339.03
356.709	335.19
357.091	341.52
357.473	350.33
357.855	329.09
358.238	334.74
358.62	340.84
359.002	333.38
359.384	329.99
359.766	349.88
360.148	352.36
360.53	330.44
360.912	316.66
361.294	333.16
361.676	348.75
362.057	325.7
362.439	318.69
362.821	330.44
363.203	318.24
363.584	320.73
363.966	308.3
364.348	310.78
364.729	310.78
365.111	306.94
365.493	297.68
365.874	315.3
366.256	310.1
366.637	306.72
367.019	335.19
367.4	299.26
367.781	333.61
368.163	308.52
368.544	334.28
368.925	319.37
369.306	331.35
369.688	327.73
370.069	310.56
370.45	305.36
370.831	328.41
371.212	311.46
371.593	311.01
371.974	326.83
372.355	333.83
372.736	312.82
373.117	302.65
373.498	331.12
373.879	313.95
374.26	322.99
374.641	334.28
375.021	318.47
375.402	317.56
375.783	332.48
376.163	334.06
376.544	346.04
376.925	342.19
377.305	322.76
377.686	329.54
378.066	346.26
378.447	323.21
378.827	320.05
379.208	344.45
379.588	329.31
379.968	338.13
380.349	332.25
380.729	342.19
381.109	339.71
381.489	323.21
381.87	343.32
382.25	346.26
382.63	355.98
383.01	330.22
383.39	337.9
383.77	347.84
384.15	363.21
384.53	350.78
384.91	363.21
385.29	358.92
385.67	351.91
386.049	359.37
386.429	362.76
386.809	364.57
387.189	379.48
387.568	378.58
387.948	385.58
388.328	374.51
388.707	372.25
389.087	380.61
389.466	375.64
389.846	365.47
390.225	375.19
390.605	386.04
390.984	372.93
391.363	369.99
391.743	382.87
392.122	380.84
392.501	384.91
392.881	384.68
393.26	382.19
393.639	413.15
394.018	397.33
394.397	386.49
394.776	403.66
395.155	393.94
395.534	385.58
395.913	387.16
396.292	391.01
396.671	389.42
397.05	394.4
397.429	405.24
397.808	414.06
398.186	416.99
398.565	415.64
398.944	421.97
399.323	433.04
399.701	410.44
400.08	407.96
400.458	399.59
400.837	409.76
401.215	415.19
401.594	412.02
401.972	416.32
402.351	431.01
402.729	420.38
403.107	463.1
403.486	426.26
403.864	420.16
404.242	423.55
404.62	441.17
404.999	444.79
405.377	447.73
405.755	446.6
406.133	441.63
406.511	459.93
406.889	465.35
407.267	454.28
407.645	458.8
408.023	466.94
408.401	487.95
408.779	481.17
409.156	476.43
409.534	479.37
409.912	482.3
410.29	494.51
410.667	502.42
411.045	498.57
411.422	476.43
411.8	496.31
412.178	496.77
412.555	506.26
412.933	506.03
413.31	499.93
413.687	499.48
414.065	521.85
414.442	531.34
414.819	510.1
415.197	507.61
415.574	556.65
415.951	536.99
416.328	518.91
416.705	552.36
417.082	558.23
417.46	563.88
417.837	550.32
418.214	541.51
418.591	555.75
418.967	549.87
419.344	579.25
419.721	560.72
420.098	560.04
420.475	578.35
420.852	590.55
421.228	587.61
421.605	572.92
421.982	594.17
422.358	574.28
422.735	614.73
423.111	589.87
423.488	617.44
423.864	609.53
424.241	627.84
424.617	614.05
424.994	645.46
425.37	649.76
425.746	640.94
426.123	645.46
426.499	656.08
426.875	675.97
427.251	659.7
427.627	666.71
428.003	677.78
428.379	690.21
428.756	682.3
429.132	674.62
429.507	665.12
429.883	718.46
430.259	712.13
430.635	687.5
431.011	721.39
431.387	727.72
431.763	740.38
432.138	731.34
432.514	747.38
432.89	743.09
433.265	768.85
433.641	753.03
434.016	762.07
434.392	769.98
434.767	766.82
435.143	792.35
435.518	795.06
435.894	801.39
436.269	794.39
436.644	814.05
437.02	821.73
437.395	809.75
437.77	840.71
438.145	820.6
438.52	827.83
438.895	868.28
439.271	847.04
439.646	871.9
440.021	888.39
440.395	889.3
440.77	873.25
441.145	903.31
441.52	902.41
441.895	896.3
442.27	903.31
442.645	895.4
443.019	940.14
443.394	906.02
443.769	923.42
444.143	924.78
444.518	938.34
444.892	953.48
445.267	952.12
445.641	960.26
446.016	981.5
446.39	975.4
446.764	976.08
447.139	979.24
447.513	991.67
447.887	995.28
448.262	1005.68
448.636	982.63
449.01	1034.38
449.384	1020.82
449.758	1051.1
450.132	1042.97
450.506	1034.83
450.88	1055.4
451.254	1085.9
451.628	1066.02
452.002	1083.64
452.376	1091.33
452.75	1114.6
453.123	1110.08
453.497	1120.03
453.871	1139.91
454.244	1160.03
454.618	1160.7
454.992	1171.78
455.365	1167.26
455.739	1207.48
456.112	1229.85
456.486	1219.91
456.859	1237.31
457.232	1253.36
457.606	1282.28
457.979	1263.75
458.352	1325.45
458.725	1314.15
459.099	1336.52
459.472	1345.33
459.845	1377.42
460.218	1363.18
460.591	1400.47
460.964	1401.15
461.337	1430.08
461.71	1461.26
462.083	1464.2
462.456	1456.74
462.829	1480.92
463.201	1516.4
463.574	1536.97
463.947	1528.15
464.32	1607.25
464.692	1601.82
465.065	1629.62
465.438	1629.17
465.81	1639.56
466.183	1684.08
466.555	1723.4
466.928	1740.58
467.3	1738.09
467.672	1776.05
468.045	1809.05
468.417	1850.18
468.789	1835.71
469.161	1894.24
469.534	1962.26
469.906	2000.91
470.278	1995.03
470.65	2021.92
471.022	2054.69
471.394	2099.89
471.766	2140.11
472.138	2178.08
472.51	2215.82
472.882	2257.17
473.253	2296.95
473.625	2355.7
473.997	2424.4
474.369	2461.46
474.74	2510.72
475.112	2587.56
475.484	2614.23
475.855	2697.84
476.227	2717.73
476.598	2793.43
476.97	2857.61
477.341	2963.59
477.713	3026.19
478.084	3040.88
478.455	3164.04
478.827	3211.95
479.198	3324.49
479.569	3357.93
479.94	3503.24
480.311	3573.97
480.682	3684.48
481.053	3783.69
481.424	3931.48
481.795	3965.6
482.166	4064.36
482.537	4209.89
482.908	4309.32
483.279	4402.43
483.65	4556.09
484.021	4673.61
484.391	4777.56
484.762	4862.3
485.133	4937.33
485.503	5087.61
485.874	5243.53
486.244	5359.46
486.615	5461.16
486.985	5629.06
487.356	5808.27
487.726	5843.74
488.097	6048.71
488.467	6099.56
488.837	6360.57
489.207	6478.08
489.578	6660.9
489.948	6784.28
490.318	6929.82
490.688	6995.8
491.058	7184.05
491.428	7302.24
491.798	7496.58
492.168	7710.36
492.538	7729.34
492.908	7920.75
493.278	8101.99
493.648	8182.21
494.017	8391.25
494.387	8532.49
494.757	8652.94
495.126	8811.8
495.496	8884.57
495.866	8967.96
496.235	9145.58
496.605	9304.67
496.974	9450.2
497.344	9578.79
497.713	9650.2
498.082	9784.21
498.452	9976.74
498.821	10067.81
499.19	10093.35
499.559	10272.1
499.928	10353.91
500.298	10431.42
500.667	10636.39
501.036	10642.94
501.405	10898.75
501.774	10854.23
502.143	11025.08
502.512	11049.71
502.88	11233.66
503.249	11246.77
503.618	11341.45
503.987	11444.5
504.356	11527.89
504.724	11660.31
505.093	11731.5
505.462	11772.4
505.83	11866.86
506.199	11959.74
506.567	12215.78
506.936	12131.04
507.304	12245.38
507.672	12391.14
508.041	12434.76
508.409	12556.34
508.777	12597.92
509.145	12757.69
509.514	12710.46
509.882	12895.76
510.25	12857.12
510.618	12937.8
510.986	12980.51
511.354	13099.83
511.722	13203.78
512.09	13322.64
512.458	13214.85
512.826	13344.79
513.193	13384.79
513.561	13432.7
513.929	13459.36
514.297	13632.47
514.664	13653.26
515.032	13667.95
515.4	13723.31
515.767	13819.13
516.135	13899.13
516.502	13811.44
516.869	14033.59
517.237	14105
517.604	13956.07
517.972	14129.63
518.339	14182.06
518.706	14172.11
519.073	14139.35
519.44	14292.79
519.808	14362.16
520.175	14288.27
520.542	14437.64
520.909	14520.13
521.276	14493.69
521.643	14496.62
522.009	14620.69
522.376	14659.33
522.743	14727.58
523.11	14842.15
523.477	14802.61
523.843	14860
524.21	14993.11
524.577	15055.71
524.943	15027.91
525.31	15071.3
525.676	15133.9
526.043	15142.71
526.409	15195.14
526.776	15346.32
527.142	15273.33
527.508	15292.99
527.874	15388.58
528.241	15383.61
528.607	15390.84
528.973	15487.11
529.339	15378.64
529.705	15491.17
530.071	15581.12
530.437	15482.59
530.803	15519.87
531.169	15594.45
531.535	15509.48
531.901	15421.35
532.267	15532.53
532.632	15573.21
532.998	15603.71
533.364	15550.16
533.73	15532.08
534.095	15623.83
534.461	15577.73
534.826	15659.53
535.192	15608.91
535.557	15623.15
535.923	15577.5
536.288	15569.59
536.653	15568.01
537.019	15490.95
537.384	15524.39
537.749	15468.8
538.114	15405.53
538.479	15407.79
538.845	15426.09
539.21	15329.82
539.575	15413.44
539.94	15341.35
540.305	15375.25
540.67	15282.14
541.034	15332.08
541.399	15285.76
541.764	15304.74
542.129	15263.38
542.494	15247.34
542.858	15221.13
543.223	15137.51
543.587	15189.71
543.952	15104.74
544.316	15136.16
544.681	15066.1
545.045	15017.97
545.41	15091.41
545.774	15020.23
546.138	14972.54
546.503	15010.06
546.867	14962.83
547.231	15025.65
547.595	14948.82
547.959	14893.68
548.324	14907.69
548.688	14846.67
549.052	14837.63
549.416	14756.05
549.779	14742.95
550.143	14735.26
550.507	14744.75
550.871	14774.58
551.235	14622.95
551.599	14704.3
551.962	14561.93
552.326	14700.91
552.689	14664.08
553.053	14507.02
553.417	14566.23
553.78	14744.53
554.143	14508.6
554.507	14581.14
554.87	14538.21
555.234	14636.06
555.597	14534.82
555.96	14553.12
556.323	14523.29
556.686	14521.48
557.05	14476.29
557.413	14520.35
557.776	14497.3
558.139	14560.58
558.502	14333.46
558.865	14526.45
559.228	14535.72
559.59	14536.17
559.953	14457.08
560.316	14650.52
560.679	14555.38
561.041	14538.88
561.404	14557.19
561.767	14618.66
562.129	14602.16
562.492	14637.64
562.854	14623.85
563.217	14582.5
563.579	14607.13
563.941	14698.2
564.304	14667.24
564.666	14744.53
565.028	14715.83
565.39	14653.23
565.753	14686.22
566.115	14683.96
566.477	14742.27
566.839	14792.44
567.201	14821.14
567.563	14756.73
567.925	14901.81
568.287	14874.02
568.648	14829.95
569.01	14887.57
569.372	14969.61
569.734	14898.42
570.095	15005.99
570.457	15015.93
570.819	14915.82
571.18	14976.84
571.542	15051.41
571.903	15054.58
572.265	15133.22
572.626	15081.47
572.987	15223.84
573.349	15107.68
573.71	15083.28
574.071	15152.65
574.432	15275.36
574.794	15303.83
575.155	15258.86
575.516	15103.61
575.877	15259.99
576.238	15115.82
576.599	15203.5
576.96	15168.02
577.32	15266.55
577.681	15347
578.042	15292.08
578.403	15287.79
578.763	15235.81
579.124	15207.79
579.485	15279.2
579.845	15326.89
580.206	15305.64
580.566	15328.92
580.927	15282.82
581.287	15431.52
581.648	15237.4
582.008	15303.61
582.368	15367.56
582.728	15286.66
583.089	15264.97
583.449	15246.89
583.809	15341.35
584.169	15236.27
584.529	15243.72
584.889	15358.75
585.249	15237.62
585.609	15166.66
585.969	15257.96
586.329	15172.76
586.688	15164.18
587.048	15252.54
587.408	15126.66
587.768	15147.68
588.127	15098.87
588.487	15080.56
588.846	15143.61
589.206	15015.71
589.565	15044.63
589.925	15204.85
590.284	15168.92
590.643	15154.69
591.003	15199.66
591.362	15244.63
591.721	15090.06
592.08	15094.35
592.44	15119.88
592.799	15230.39
593.158	14962.6
593.517	15066.33
593.876	15069.72
594.235	15062.26
594.593	15061.36
594.952	14999.21
595.311	14933.22
595.67	14994.01
596.029	15170.96
596.387	15127.57
596.746	15106.78
597.104	14977.97
597.463	15014.35
597.822	15078.53
598.18	15049.38
598.538	14990.4
598.897	15027.91
599.255	14898.2
599.613	15176.83
599.972	15021.36
600.33	14967.12
600.688	15005.31
601.046	15046.44
601.404	15111.52
601.762	15099.32
602.12	15152.2
602.478	15084.18
602.836	15062.03
603.194	15049.15
603.552	15099.09
603.91	15016.84
604.268	15061.13
604.625	15023.39
604.983	15101.81
605.341	15020.23
605.698	15045.99
606.056	15151.07
606.413	15096.83
606.771	15193.56
607.128	15128.7
607.485	15053.67
607.843	15027.91
608.2	15149.04
608.557	15189.26
608.914	15136.83
609.272	15149.94
609.629	15277.17
609.986	15185.42
610.343	15139.55
610.7	15186.55
611.057	15234.68
611.414	15222.93
611.771	15258.19
612.127	15331.63
612.484	15326.66
612.841	15296.6
613.198	15338.41
613.554	15295.7
613.911	15397.84
614.267	15238.53
614.624	15264.74
614.98	15241.69
615.337	15395.36
615.693	15323.04
616.05	15328.69
616.406	15395.13
616.762	15363.49
617.118	15457.05
617.475	15427.45
617.831	15512.87
618.187	15465.19
618.543	15467.22
618.899	15655.92
619.255	15531.4
619.611	15519.65
619.967	15501.12
620.323	15580.66
620.678	15520.33
621.034	15526.2
621.39	15470.38
621.746	15466.09
622.101	15705.18
622.457	15497.95
622.812	15473.55
623.168	15491.4
623.523	15560.1
623.879	15630.38
624.234	15599.65
624.589	15401.23
624.945	15479.2
625.3	15535.92
625.655	15527.78
626.01	15482.81
626.365	15514
626.72	15464.51
627.075	15531.85
627.43	15416.37
627.785	15420.67
628.14	15599.42
628.495	15477.62
628.85	15456.83
629.205	15452.98
629.559	15570.95
629.914	15592.64
630.269	15454.34
630.623	15468.12
630.978	15399.65
631.332	15446.43
631.687	15454.34
632.041	15322.59
632.396	15402.14
632.75	15342.03
633.104	15304.29
633.459	15242.82
633.813	15227.45
634.167	15284.17
634.521	15218.87
634.875	15269.26
635.229	15271.75
635.583	15232.42
635.937	15261.12
636.291	15285.98
636.645	15274.46
636.999	15137.51
637.352	15151.75
637.706	15047.8
638.06	15131.64
638.413	15072.65
638.767	15069.72
639.121	15102.94
639.474	15019.32
639.828	14985.88
640.181	14965.31
640.534	14965.54
640.888	14963.28
641.241	14846.22
641.594	14991.75
641.947	14984.07
642.301	14884.41
642.654	14951.53
643.007	14909.95
643.36	14899.33
643.713	14883.05
644.066	14849.38
644.419	14835.15
644.771	14725.55
645.124	14566.23
645.477	14547.47
645.83	14501.14
646.182	14400.36
646.535	14425.44
646.888	14361.26
647.24	14383.63
647.593	14462.95
647.945	14338.66
648.298	14228.16
648.65	14304.09
649.002	14274.03
649.355	14391.77
649.707	14358.77
650.059	14335.5
650.411	14521.03
650.763	14540.47
651.115	14722.16
651.467	14754.02
651.819	14587.02
652.171	14688.71
652.523	14580.46
652.875	14581.37
653.227	14535.27
653.578	14688.94
653.93	14710.4
654.282	14586.11
654.633	14543.85
654.985	14638.99
655.337	14657.98
655.688	14601.48
656.039	14698.65
656.391	14622.04
656.742	14599.67
657.094	14577.53
657.445	14681.93
657.796	14605.1
658.147	14572.55
658.498	14648.48
658.849	14624.3
659.2	14602.61
659.551	14578.43
659.902	14624.98
660.253	14592.44
660.604	14608.49
660.955	14551.09
661.306	14638.99
661.656	14688.48
662.007	14669.5
662.358	14672.44
662.708	14652.55
663.059	14710.86
663.409	14560.58
663.76	14633.12
664.11	14698.43
664.461	14677.86
664.811	14678.31
665.161	14655.04
665.511	14551.76
665.862	14668.82
666.212	14691.87
666.562	14757.63
666.912	14625.66
667.262	14609.62
667.612	14640.12
667.962	14655.94
668.312	14712.44
668.662	14741.36
669.011	14678.31
669.361	14641.25
669.711	14692.33
670.06	14620.46
670.41	14631.54
670.76	14580.92
671.109	14662.27
671.459	14577.98
671.808	14547.02
672.157	14676.28
672.507	14495.27
672.856	14559
673.205	14550.86
673.554	14680.12
673.904	14476.96
674.253	14574.14
674.602	14561.93
674.951	14330.75
675.3	14353.35
675.649	14535.49
675.998	14412.78
676.346	14414.82
676.695	14535.72
677.044	14305.22
677.393	14335.5
677.741	14463.18
678.09	14340.02
678.438	14361.71
678.787	14364.88
679.135	14315.61
679.484	14190.64
679.832	14309.96
680.181	14170.76
680.529	14269.96
680.877	14208.95
681.225	14222.73
681.573	14163.3
681.922	14203.98
682.27	14076.07
682.618	14032.23
682.966	14055.73
683.314	14023.19
683.661	13990.65
684.009	13945.68
684.357	13947.26
684.705	13883.31
685.053	13976.64
685.4	13923.76
685.748	13825
686.095	13834.95
686.443	13751.11
686.79	13767.15
687.138	13688.74
687.485	13710.88
687.832	13654.39
688.18	13739.36
688.527	13627.72
688.874	13568.74
689.221	13622.07
689.568	13558.34
689.915	13551.79
690.262	13383.43
690.609	13438.57
690.956	13294.85
691.303	13412.36
691.65	13223.21
691.997	13222.53
692.344	13172.59
692.69	13113.38
693.037	13097.79
693.383	13043.56
693.73	13087.62
694.077	13005.59
694.423	12909.32
694.769	12986.83
695.116	12858.25
695.462	12830.91
695.808	12771.02
696.155	12766.95
696.501	12696.22
696.847	12674.98
697.193	12611.25
697.539	12634.75
697.885	12503.46
698.231	12428.43
698.577	12443.57
698.923	12434.76
699.269	12362.67
699.614	12348.88
699.96	12310.24
700.306	12231.37
700.651	12226.4
700.997	12217.14
701.342	12077.25
701.688	12083.58
702.033	11991.83
702.379	11978.27
702.724	11905.96
703.069	11920.2
703.415	11835.68
703.76	11798.84
704.105	11710.71
704.45	11778.73
704.795	11732.63
705.14	11684.04
705.485	11644.04
705.83	11583.48
706.175	11607.66
706.52	11518.17
706.865	11559.07
707.209	11474.56
707.554	11495.8
707.899	11450.15
708.243	11364.5
708.588	11389.81
708.932	11345.52
709.277	11223.49
709.621	11216.94
709.966	11133.55
710.31	11207.67
710.654	11064.62
710.998	11074.57
711.342	11105.53
711.687	11108.46
712.031	11068.01
712.375	11059.2
712.719	11063.04
713.063	10948.24
713.407	11044.06
713.75	10960.9
714.094	10934.46
714.438	10847
714.782	10973.33
715.125	10797.51
715.469	10864.63
715.812	10739.21
716.156	10717.06
716.499	10708.02
716.843	10763.84
717.186	10717.06
717.53	10707.35
717.873	10666.22
718.216	10687.91
718.559	10646.1
718.902	10566.78
719.246	10671.64
719.589	10546.67
719.932	10590.06
720.275	10522.27
720.617	10537.41
720.96	10535.82
721.303	10575.37
721.646	10517.29
721.989	10502.15
722.331	10556.62
722.674	10468.26
723.016	10520.23
723.359	10465.09
723.701	10428.03
724.044	10359.11
724.386	10411.08
724.729	10482.27
725.071	10376.28
725.413	10320.46
725.755	10404.3
726.097	10314.81
726.439	10306.9
726.782	10310.52
727.124	10409.05
727.465	10331.08
727.807	10360.01
728.149	10294.02
728.491	10291.09
728.833	10262.84
729.175	10214.48
729.516	10284.08
729.858	10276.4
730.199	10237.53
730.541	10214.25
730.882	10199.11
731.224	10264.42
731.565	10151.65
731.906	10210.41
732.248	10185.33
732.589	10178.09
732.93	10153.46
733.271	10218.09
733.612	10154.59
733.953	10182.16
734.294	10181.03
734.635	10203.18
734.976	10197.75
735.317	10163.86
735.658	10144.42
735.999	10190.97
736.339	10159.56
736.68	10206.12
737.021	10203.63
737.361	10147.36
737.702	10227.81
738.042	10163.41
738.383	10093.58
738.723	10131.77
739.063	10155.72
739.404	10206.57
739.744	10183.52
740.084	10183.29
740.424	10189.85
740.764	10153.91
741.104	10248.6
741.444	10216.29
741.784	10176.74
742.124	10309.39
742.464	10270.07
742.804	10241.82
743.143	10301.48
743.483	10381.03
743.823	10350.52
744.162	10374.92
744.502	10433
744.841	10400.01
745.181	10489.95
745.52	10467.35
745.86	10556.39
746.199	10578.76
746.538	10582.15
746.877	10623.73
747.216	10712.54
747.556	10726.33
747.895	10804.97
748.234	10774.91
748.573	10799.32
748.911	10854.01
749.25	11003.16
749.589	11023.5
749.928	11126.32
750.267	11160.67
750.605	11235.02
750.944	11242.7
751.283	11321.79
751.621	11369.25
751.96	11519.98
752.298	11580.32
752.636	11653.08
752.975	11707.55
753.313	11801.55
753.651	11989.35
753.989	11956.58
754.327	12145.05
754.666	12125.61
755.004	12381.88
755.342	12411.26
755.679	12622.32
