Data from hue_200_FLMS001491_00009.txt Node
Date: Tue Feb 07 16:42:45 GMT 2017
User: dcchb
Spectrometer: FLMS00149
Trigger mode: 0
Integration Time (sec): 2.000000E-2
Scans to average: 10
Electric dark correction enabled: true
Nonlinearity correction enabled: false
Boxcar width: 0
XAxis mode: Wavelengths
Number of Pixels in Spectrum: 2048
>>>>>Begin Spectral Data<<<<<
341.393	-12.08
341.776	-12.08
342.16	-12.08
342.543	-62.47
342.927	-70.61
343.31	-69.93
343.693	-66.31
344.077	-52.53
344.46	-61.11
344.843	-49.14
345.226	-31.96
345.61	-40.1
345.993	-9.82
346.376	0.81
346.759	7.13
347.142	8.26
347.525	48.26
347.908	52.1
348.291	78.77
348.674	89.16
349.057	96.4
349.44	118.09
349.823	148.6
350.206	172.1
350.588	179.56
350.971	208.26
351.354	223.17
351.737	247.13
352.119	243.96
352.502	254.58
352.884	267.01
353.267	284.41
353.65	289.16
354.032	283.74
354.414	318.31
354.797	324.86
355.179	320.34
355.562	345.43
355.944	328.71
356.326	332.1
356.709	322.83
357.091	330.74
357.473	339.55
357.855	340.01
358.238	338.88
358.62	353.34
359.002	349.95
359.384	329.16
359.766	352.21
360.148	347.46
360.53	344.52
360.912	332.55
361.294	316.05
361.676	345.2
362.057	328.93
362.439	334.13
362.821	330.06
363.203	330.97
363.584	332.32
363.966	314.7
364.348	328.03
364.729	330.06
365.111	326.45
365.493	335.71
365.874	335.71
366.256	338.65
366.637	331.87
367.019	318.99
367.4	316.95
367.781	318.08
368.163	324.86
368.544	326.67
368.925	306.11
369.306	332.55
369.688	327.12
370.069	313.57
370.45	309.72
370.831	294.36
371.212	305.43
371.593	310.4
371.974	325.54
372.355	330.97
372.736	294.58
373.117	325.09
373.498	316.95
373.879	309.27
374.26	309.5
374.641	315.6
375.021	322.6
375.402	325.99
375.783	340.46
376.163	334.81
376.544	334.58
376.925	308.14
377.305	322.15
377.686	321.93
378.066	337.75
378.447	323.96
378.827	328.48
379.208	325.32
379.588	339.55
379.968	326.22
380.349	337.29
380.729	346.56
381.109	347.69
381.489	330.51
381.87	327.35
382.25	325.77
382.63	347.91
383.01	334.13
383.39	336.62
383.77	349.27
384.15	362.15
384.53	363.51
384.91	374.35
385.29	353.34
385.67	342.72
386.049	374.35
386.429	352.43
386.809	359.44
387.189	333
387.568	367.35
387.948	354.69
388.328	359.44
388.707	381.36
389.087	361.02
389.466	382.26
389.846	375.71
390.225	375.03
390.605	376.84
390.984	385.88
391.363	370.74
391.743	383.39
392.122	382.94
392.501	389.27
392.881	378.2
393.26	374.58
393.639	385.43
394.018	401.92
394.397	413.68
394.776	392.43
395.155	404.64
395.534	396.27
395.913	376.61
396.292	414.35
396.671	412.55
397.05	411.87
397.429	386.56
397.808	416.61
398.186	425.2
398.565	413.22
398.944	425.88
399.323	422.04
399.701	425.65
400.08	408.93
400.458	423.84
400.837	437.18
401.215	436.5
401.594	438.76
401.972	432.43
402.351	443.73
402.729	452.32
403.107	452.77
403.486	458.87
403.864	463.17
404.242	452.54
404.62	473.11
404.999	501.81
405.377	475.14
405.755	464.07
406.133	484.18
406.511	472.21
406.889	489.15
407.267	509.72
407.645	518.53
408.023	513.33
408.401	520.11
408.779	521.24
409.156	541.81
409.534	560.56
409.912	538.87
410.29	595.59
410.667	579.55
411.045	574.12
411.422	578.64
411.8	601.02
412.178	601.24
412.555	625.87
412.933	628.13
413.31	643.05
413.687	651.86
414.065	639.21
414.442	676.72
414.819	682.37
415.197	709.04
415.574	695.48
415.951	721.24
416.328	732.54
416.705	749.94
417.082	738.19
417.46	751.29
417.837	750.16
418.214	769.82
418.591	772.08
418.967	802.37
419.344	804.63
419.721	806.66
420.098	839.2
420.475	826.32
420.852	831.07
421.228	838.98
421.605	876.26
421.982	883.04
422.358	934.11
422.735	909.26
423.111	950.38
423.488	962.59
423.864	969.82
424.241	976.37
424.617	998.07
424.994	1040.33
425.37	1034.9
425.746	1038.52
426.123	1072.42
426.499	1077.61
426.875	1100.21
427.251	1117.16
427.627	1145.86
428.003	1144.28
428.379	1186.31
428.756	1182.47
429.132	1186.08
429.507	1208.91
429.883	1211.62
430.259	1233.99
430.635	1272.18
431.011	1263.37
431.387	1281
431.763	1292.3
432.138	1328.45
432.514	1333.2
432.89	1363.48
433.265	1392.63
433.641	1414.1
434.016	1443.48
434.392	1461.78
434.767	1490.94
435.143	1527.54
435.518	1565.28
435.894	1581.55
436.269	1636.92
436.644	1611.38
437.02	1690.03
437.395	1667.2
437.77	1719.86
438.145	1740.87
438.52	1803.47
438.895	1810.25
439.271	1838.5
439.646	1875.33
440.021	1917.14
440.395	1925.05
440.77	1902.22
441.145	1971.37
441.52	1987.42
441.895	2036.23
442.27	2051.6
442.645	2071.94
443.019	2115.33
443.394	2100.86
443.769	2115.78
444.143	2141.31
444.518	2177.25
444.892	2189.9
445.267	2223.35
445.641	2231.03
446.016	2252.72
446.39	2261.99
446.764	2291.82
447.139	2301.99
447.513	2339.05
447.887	2330.46
448.262	2340.63
448.636	2368.65
449.01	2458.14
449.384	2429.44
449.758	2440.74
450.132	2469.89
450.506	2494.3
450.88	2552.38
451.254	2510.8
451.628	2566.84
452.002	2561.87
452.376	2637.57
452.75	2650.9
453.123	2677.12
453.497	2737.91
453.871	2759.83
454.244	2762.09
454.618	2802.54
454.992	2850.9
455.365	2821.3
455.739	2884.8
456.112	2934.97
456.486	2958.92
456.859	3019.48
457.232	3037.11
457.606	3034.85
457.979	3082.76
458.352	3162.53
458.725	3179.48
459.099	3189.2
459.472	3275.3
459.845	3278.91
460.218	3304.45
460.591	3332.69
460.964	3359.59
461.337	3460.38
461.71	3518.23
462.083	3539.92
462.456	3586.47
462.829	3584.21
463.201	3654.49
463.574	3656.08
463.947	3668.28
464.32	3795.28
464.692	3822.17
465.065	3886.58
465.438	3882.06
465.81	3910.98
466.183	3998.67
466.555	4076.18
466.928	4104.43
467.3	4112.79
467.672	4156.18
468.045	4324.53
468.417	4296.06
468.789	4262.16
469.161	4334.7
469.534	4457.86
469.906	4514.13
470.278	4560.91
470.65	4619.67
471.022	4682.49
471.394	4728.36
471.766	4791.87
472.138	4815.37
472.51	4969.26
472.882	5017.17
473.253	5061.24
473.625	5116.83
473.997	5217.84
474.369	5272.76
474.74	5312.3
475.112	5411.96
475.484	5491.73
475.855	5579.64
476.227	5625.29
476.598	5785.06
476.97	5788.68
477.341	5931.04
477.713	5991.83
478.084	6042.68
478.455	6209.46
478.827	6234.09
479.198	6468.43
479.569	6409.68
479.94	6521.09
480.311	6630.01
480.682	6767.41
481.053	6932.15
481.424	7004.69
481.795	6986.38
482.166	7175.98
482.537	7218.47
482.908	7392.25
483.279	7394.51
483.65	7531.91
484.021	7692.81
484.391	7742.75
484.762	7869.3
485.133	7870.43
485.503	7940.94
485.874	8098.22
486.244	8208.72
486.615	8333.47
486.985	8465.89
487.356	8598.32
487.726	8572.11
488.097	8820.23
488.467	8845.77
488.837	9005.77
489.207	9052.32
489.578	9198.53
489.948	9227.68
490.318	9365.98
490.688	9396.04
491.058	9530.72
491.428	9576.6
491.798	9639.42
492.168	9781.11
492.538	9860.88
492.908	9938.62
493.278	10035.57
493.648	10048.45
494.017	10232.85
494.387	10257.71
494.757	10319.63
495.126	10388.33
495.496	10427.88
495.866	10403.92
496.235	10598.72
496.605	10636.91
496.974	10678.04
497.344	10793.29
497.713	10753.52
498.082	10862.67
498.452	10994.64
498.821	10912.38
499.19	10891.82
499.559	10999.16
499.928	11089.33
500.298	11188.99
500.667	11192.6
501.036	11217.01
501.405	11352.15
501.774	11288.42
502.143	11437.11
502.512	11444.57
502.88	11539.71
503.249	11449.77
503.618	11513.72
503.987	11588.3
504.356	11662.42
504.724	11655.64
505.093	11702.19
505.462	11732.93
505.83	11796.88
506.199	11807.95
506.567	11949.87
506.936	11901.51
507.304	11929.08
507.672	11960.04
508.041	12065.57
508.409	11991.45
508.777	12092.92
509.145	12206.59
509.514	12245.68
509.882	12252.01
510.25	12245.23
510.618	12254.95
510.986	12218.56
511.354	12332.01
511.722	12417.88
512.09	12481.83
512.458	12431.66
512.826	12479.35
513.193	12383.98
513.561	12543.98
513.929	12548.27
514.297	12604.09
514.664	12528.61
515.032	12588.95
515.4	12697.65
515.767	12710.98
516.135	12722.05
516.502	12611.32
516.869	12785.78
517.237	12811.54
517.604	12648.61
517.972	12846.34
518.339	12820.81
518.706	12776.97
519.073	12828.72
519.44	12879.34
519.808	12937.87
520.175	12895.38
520.542	12949.62
520.909	12995.49
521.276	12871.43
521.643	12987.13
522.009	13008.82
522.376	13034.81
522.743	13081.82
523.11	13127.01
523.477	13103.51
523.843	13120.46
524.21	13149.39
524.577	13203.4
524.943	13317.52
525.31	13227.35
525.676	13312.09
526.043	13342.15
526.409	13326.56
526.776	13361.58
527.142	13309.16
527.508	13265.09
527.874	13394.58
528.241	13320.68
528.607	13361.81
528.973	13394.35
529.339	13388.25
529.705	13404.97
530.071	13429.6
530.437	13397.06
530.803	13501.92
531.169	13450.39
531.535	13340.79
531.901	13310.29
532.267	13346.44
532.632	13407.68
532.998	13323.62
533.364	13307.12
533.73	13279.55
534.095	13297.18
534.461	13237.97
534.826	13262.38
535.192	13204.3
535.557	13229.61
535.923	13142.83
536.288	13161.59
536.653	13075.49
537.019	13135.83
537.384	13012.44
537.749	13057.18
538.114	12960.24
538.479	12876.4
538.845	12915.72
539.21	12882.5
539.575	12795.04
539.94	12856.74
540.305	12870.3
540.67	12765.44
541.034	12691.09
541.399	12669.17
541.764	12727.25
542.129	12647.7
542.494	12579.68
542.858	12588.72
543.223	12569.06
543.587	12508.05
543.952	12504.88
544.316	12449.29
544.681	12401.61
545.045	12334.49
545.41	12314.83
545.774	12260.82
546.138	12204.33
546.503	12161.62
546.867	12111.9
547.231	12113.71
547.595	12021.51
547.959	12026.7
548.324	11996.2
548.688	11943.09
549.052	11820.61
549.416	11864.22
549.779	11739.25
550.143	11815.41
550.507	11771.57
550.871	11752.81
551.235	11612.93
551.599	11758.69
551.962	11571.57
552.326	11620.61
552.689	11625.36
553.053	11477.34
553.417	11492.48
553.78	11484.8
554.143	11444.35
554.507	11424.46
554.87	11469.43
555.234	11397.57
555.597	11350.79
555.96	11370
556.323	11301.07
556.686	11379.49
557.05	11281.64
557.413	11315.54
557.776	11298.81
558.139	11260.17
558.502	11211.13
558.865	11133.39
559.228	11163.68
559.59	11246.61
559.953	11171.36
560.316	11141.98
560.679	11219.72
561.041	11224.46
561.404	11155.31
561.767	11146.5
562.129	11071.02
562.492	11145.37
562.854	11094.52
563.217	11139.95
563.579	11107.63
563.941	11153.73
564.304	11083.45
564.666	11163
565.028	11188.76
565.39	11108.54
565.753	11170.23
566.115	11126.84
566.477	11164.13
566.839	11160.51
567.201	11175.65
567.563	11118.7
567.925	11168.2
568.287	11162.77
568.648	11209.1
569.01	11237.57
569.372	11258.81
569.734	11201.64
570.095	11181.98
570.457	11244.13
570.819	11283.45
571.18	11239.83
571.542	11260.62
571.903	11222.43
572.265	11242.32
572.626	11302.65
572.987	11287.74
573.349	11303.56
573.71	11337.23
574.071	11393.73
574.432	11380.17
574.794	11398.92
575.155	11347.17
575.516	11259.72
575.877	11333.61
576.238	11388.53
576.599	11390.11
576.96	11371.81
577.32	11359.15
577.681	11327.06
578.042	11373.84
578.403	11339.26
578.763	11441.18
579.124	11368.42
579.485	11378.13
579.845	11391.47
580.206	11405.7
580.566	11406.38
580.927	11408.41
581.287	11433.27
581.648	11411.58
582.008	11362.77
582.368	11341.07
582.728	11432.37
583.089	11433.5
583.449	11405.7
583.809	11388.08
584.169	11356.89
584.529	11313.05
584.889	11357.79
585.249	11393.73
585.609	11308.08
585.969	11408.41
586.329	11382.43
586.688	11409.32
587.048	11357.57
587.408	11331.35
587.768	11315.99
588.127	11326.16
588.487	11314.41
588.846	11347.4
589.206	11316.44
589.565	11261.07
589.925	11311.92
590.284	11360.28
590.643	11383.78
591.003	11360.51
591.362	11396.89
591.721	11280.73
592.08	11257.91
592.44	11400.96
592.799	11324.58
593.158	11276.89
593.517	11292.94
593.876	11306.95
594.235	11283.9
594.593	11237.35
594.952	11292.71
595.311	11192.6
595.67	11229.89
596.029	11321.64
596.387	11246.16
596.746	11283.67
597.104	11209.1
597.463	11188.08
597.822	11298.14
598.18	11151.02
598.538	11154.86
598.897	11236.67
599.255	11152.83
599.613	11291.13
599.972	11249.1
600.33	11264.46
600.688	11283.9
601.046	11254.52
601.404	11294.29
601.762	11252.26
602.12	11314.86
602.478	11210.68
602.836	11321.19
603.194	11150.57
603.552	11252.94
603.91	11172.71
604.268	11315.76
604.625	11225.14
604.983	11157.8
605.341	11185.14
605.698	11216.56
606.056	11263.79
606.413	11234.41
606.771	11179.49
607.128	11312.82
607.485	11169.32
607.843	11205.93
608.2	11174.07
608.557	11250
608.914	11189.89
609.272	11278.93
609.629	11291.58
609.986	11304.46
610.343	11242.32
610.7	11329.77
611.057	11332.94
611.414	11348.76
611.771	11333.39
612.127	11357.34
612.484	11375.87
612.841	11313.28
613.198	11372.03
613.554	11334.97
613.911	11445.48
614.267	11428.98
614.624	11374.74
614.98	11374.07
615.337	11461.97
615.693	11411.58
616.05	11385.14
616.406	11454.52
616.762	11416.55
617.118	11498.58
617.475	11389.66
617.831	11448.19
618.187	11442.54
618.543	11447.28
618.899	11476.44
619.255	11420.17
619.611	11416.78
619.967	11453.39
620.323	11508.53
620.678	11391.24
621.034	11473.05
621.39	11422.88
621.746	11504.23
622.101	11527.51
622.457	11440.73
622.812	11437.11
623.168	11466.49
623.523	11440.5
623.879	11409.32
624.234	11459.94
624.589	11485.93
624.945	11537.9
625.3	11447.74
625.655	11452.93
626.01	11493.61
626.365	11439.15
626.72	11407.96
627.075	11455.87
627.43	11468.98
627.785	11316.44
628.14	11415.65
628.495	11492.48
628.85	11465.81
629.205	11438.24
629.559	11426.72
629.914	11409.32
630.269	11368.19
630.623	11347.4
630.978	11345.37
631.332	11275.54
631.687	11390.79
632.041	11349.21
632.396	11328.42
632.75	11264.24
633.104	11255.88
633.459	11188.99
633.813	11232.83
634.167	11222.43
634.521	11254.75
634.875	11241.64
635.229	11191.7
635.583	11167.07
635.937	11112.15
636.291	11137.91
636.645	11154.41
636.999	11110.8
637.352	11111.93
637.706	11042.1
638.06	11059.27
638.413	11025.6
638.767	11074.41
639.121	11090.01
639.474	10914.64
639.828	11022.44
640.181	11045.71
640.534	11052.94
640.888	10927.52
641.241	10956
641.594	10933.4
641.947	10935.88
642.301	10946.96
642.654	10930.69
643.007	11014.07
643.36	10903.8
643.713	10916.68
644.066	10888.88
644.419	10910.12
644.771	10806.62
645.124	10716.91
645.477	10731.37
645.83	10624.93
646.182	10598.72
646.535	10474.2
646.888	10605.95
647.24	10451.6
647.593	10588.32
647.945	10484.37
648.298	10420.64
648.65	10470.36
649.002	10428.1
649.355	10463.35
649.707	10514.43
650.059	10552.17
650.411	10654.76
650.763	10709
651.115	10761.2
651.467	10748.32
651.819	10763.23
652.171	10758.71
652.523	10740.86
652.875	10683.91
653.227	10559.17
653.578	10792.61
653.93	10796.91
654.282	10635.33
654.633	10640.75
654.985	10745.38
655.337	10690.24
655.688	10741.54
656.039	10789.22
656.391	10690.47
656.742	10733.63
657.094	10767.98
657.445	10697.02
657.796	10704.25
658.147	10629.68
658.498	10665.84
658.849	10687.98
659.2	10703.12
659.551	10748.77
659.902	10706.96
660.253	10778.83
660.604	10716
660.955	10716
661.306	10788.77
661.656	10742.44
662.007	10729.11
662.358	10793.97
662.708	10721.2
663.059	10788.77
663.409	10682.33
663.76	10774.53
664.11	10809.11
664.461	10805.49
664.811	10816.57
665.161	10744.03
665.511	10720.3
665.862	10738.83
666.212	10828.32
666.562	10800.3
666.912	10792.39
667.262	10753.97
667.612	10785.38
667.962	10730.92
668.312	10775.21
668.662	10795.32
669.011	10799.84
669.361	10758.49
669.711	10728.88
670.06	10776.11
670.41	10744.25
670.76	10696.8
671.109	10769.11
671.459	10713.07
671.808	10757.81
672.157	10704.7
672.507	10670.13
672.856	10657.93
673.205	10676.68
673.554	10622.67
673.904	10550.13
674.253	10685.5
674.602	10679.39
674.951	10513.52
675.3	10422.9
675.649	10636.23
675.998	10546.29
676.346	10614.99
676.695	10627.42
677.044	10548.55
677.393	10486.18
677.741	10582.22
678.09	10525.27
678.438	10460.87
678.787	10597.14
679.135	10486.18
679.484	10453.64
679.832	10475.56
680.181	10432.85
680.529	10505.61
680.877	10385.39
681.225	10403.47
681.573	10445.73
681.922	10360.31
682.27	10322.79
682.618	10335.67
682.966	10286.86
683.314	10294.77
683.661	10259.07
684.009	10230.82
684.357	10156.92
684.705	10153.53
685.053	10153.53
685.4	10139.97
685.748	10151.95
686.095	10058.62
686.443	10040.99
686.79	10084.16
687.138	10024.27
687.485	10037.38
687.832	10041.45
688.18	9968.23
688.527	9899.75
688.874	9940.66
689.221	9898.4
689.568	9874.9
689.915	9852.3
690.262	9837.38
690.609	9830.15
690.956	9763.03
691.303	9770.49
691.65	9637.84
691.997	9651.85
692.344	9594.23
692.69	9606.2
693.037	9594.68
693.383	9480.78
693.73	9562.81
694.077	9405.08
694.423	9503.61
694.769	9421.35
695.116	9319.66
695.462	9326.66
695.808	9287.11
696.155	9329.83
696.501	9291.63
696.847	9249.83
697.193	9123.96
697.539	9181.13
697.885	9123.5
698.231	9089.15
698.577	9120.11
698.923	8994.24
699.269	8952.89
699.614	8944.07
699.96	8894.81
700.306	8965.77
700.651	8856.62
700.997	8831.08
701.342	8767.81
701.688	8727.81
702.033	8746.79
702.379	8712.67
702.724	8700.92
703.069	8655.04
703.415	8580.69
703.76	8625.66
704.105	8527.59
704.45	8546.12
704.795	8487.36
705.14	8471.99
705.485	8483.75
705.83	8405.33
706.175	8403.97
706.52	8418.89
706.865	8399.23
707.209	8332.34
707.554	8301.38
707.899	8297.54
708.243	8255.5
708.588	8230.87
708.932	8166.69
709.277	8160.36
709.621	8161.04
709.966	8091.21
710.31	8138.9
710.654	8070.88
710.998	8035.17
711.342	8038.56
711.687	8054.15
712.031	7986.13
712.375	7985
712.719	7933.03
713.063	7923.99
713.407	8033.59
713.75	8001.95
714.094	7889.86
714.438	7896.64
714.782	7916.08
715.125	7846.25
715.469	7901.39
715.812	7809.19
716.156	7789.75
716.499	7780.94
716.843	7814.84
717.186	7777.78
717.53	7749.53
717.873	7810.32
718.216	7797.21
718.559	7699.36
718.902	7712.47
719.246	7692.58
719.589	7736.19
719.932	7643.54
720.275	7654.16
720.617	7619.59
720.96	7637.67
721.303	7632.69
721.646	7609.19
721.989	7552.47
722.331	7578.68
722.674	7623.2
723.016	7573.94
723.359	7609.64
723.701	7532.13
724.044	7559.02
724.386	7556.31
724.729	7496.65
725.071	7526.03
725.413	7514.96
725.755	7575.07
726.097	7453.94
726.439	7468.18
726.782	7457.78
727.124	7531.45
727.465	7469.99
727.807	7465.24
728.149	7474.28
728.491	7474.28
728.833	7427.5
729.175	7445.81
729.516	7436.99
729.858	7440.16
730.199	7412.36
730.541	7432.93
730.882	7435.64
731.224	7472.25
731.565	7453.04
731.906	7443.1
732.248	7477.22
732.589	7387.05
732.93	7403.55
733.271	7396.77
733.612	7422.98
733.953	7428.86
734.294	7392.7
734.635	7419.82
734.976	7411.91
735.317	7451.91
735.658	7437.9
735.999	7415.75
736.339	7412.59
736.68	7400.61
737.021	7365.58
737.361	7445.36
737.702	7507.27
738.042	7499.14
738.383	7451.23
738.723	7505.69
739.063	7510.66
739.404	7529.65
739.744	7495.52
740.084	7404.68
740.424	7551.34
740.764	7554.28
741.104	7586.14
741.444	7488.74
741.784	7509.99
742.124	7530.78
742.464	7567.16
742.804	7581.85
743.143	7613.49
743.483	7625.46
743.823	7585.92
744.162	7616.88
744.502	7745.91
744.841	7723.99
745.181	7797.44
745.52	7813.03
745.86	7867.04
746.199	7856.87
746.538	7835.63
746.877	7981.61
747.216	7953.59
747.556	7958.11
747.895	8129.18
748.234	8095.28
748.573	8152
748.911	8257.31
749.25	8272.45
749.589	8332.34
749.928	8408.72
750.267	8485.78
750.605	8561.26
750.944	8651.2
751.283	8714.02
751.621	8824.98
751.96	8826.34
752.298	9005.31
752.636	9031.53
752.975	9095.26
753.313	9185.2
753.651	9316.72
753.989	9373.89
754.327	9548.12
754.666	9607.56
755.004	9739.08
755.342	9956.7
755.679	10097.26
756.017	10127.77
756.355	10275.34
756.693	10418.38
757.031	10559.4
757.368	10731.6
757.706	10866.28
758.044	11045.49
758.381	11141.3
