Data from hue_60_FLMS001491_11.txt Node
Date: Mon Feb 06 15:11:59 GMT 2017
User: dcchb
Spectrometer: FLMS00149
Trigger mode: 0
Integration Time (sec): 2.000000E-2
Scans to average: 10
Electric dark correction enabled: true
Nonlinearity correction enabled: false
Boxcar width: 0
XAxis mode: Wavelengths
Number of Pixels in Spectrum: 2048
>>>>>Begin Spectral Data<<<<<
341.393	-31.26
341.776	-31.26
342.16	-31.26
342.543	-85.27
342.927	-53.18
343.31	-74.42
343.693	-68.77
344.077	-70.8
344.46	-56.34
344.843	-55.21
345.226	-53.85
345.61	-32.16
345.993	-8.88
346.376	3.09
346.759	25.01
347.142	25.92
347.525	44.67
347.908	67.72
348.291	69.98
348.674	96.88
349.057	87.16
349.44	120.6
349.823	133.03
350.206	141.85
350.588	195.63
350.971	206.7
351.354	221.62
351.737	235.86
352.119	235.18
352.502	258.45
352.884	271.11
353.267	291.45
353.65	297.1
354.032	284.44
354.414	307.94
354.797	290.54
355.179	306.14
355.562	311.33
355.944	323.54
356.326	326.93
356.709	336.87
357.091	328.28
357.473	347.04
357.855	340.71
358.238	331.22
358.62	326.25
359.002	327.15
359.384	316.31
359.766	342.29
360.148	322.63
360.53	321.73
360.912	329.19
361.294	349.3
361.676	336.42
362.057	344.55
362.439	319.69
362.821	311.56
363.203	332.8
363.584	331.22
363.966	302.07
364.348	308.17
364.729	319.02
365.111	316.08
365.493	300.26
365.874	335.97
366.256	306.59
366.637	310.66
367.019	306.36
367.4	293.71
367.781	303.2
368.163	320.15
368.544	302.29
368.925	310.43
369.306	334.84
369.688	301.39
370.069	305.23
370.45	306.81
370.831	308.85
371.212	301.39
371.593	304.55
371.974	298
372.355	302.75
372.736	286.25
373.117	314.05
373.498	321.28
373.879	330.54
374.26	309.75
374.641	295.06
375.021	297.77
375.402	298.45
375.783	298.45
376.163	319.69
376.544	312.46
376.925	316.31
377.305	346.13
377.686	309.3
378.066	312.24
378.447	313.82
378.827	314.05
379.208	316.53
379.588	330.99
379.968	311.79
380.349	317.21
380.729	330.32
381.109	321.95
381.489	325.12
381.87	331.22
382.25	338.45
382.63	316.08
383.01	332.58
383.39	340.49
383.77	314.95
384.15	329.19
384.53	338.68
384.91	339.81
385.29	335.97
385.67	351.78
386.049	355.17
386.429	340.71
386.809	327.38
387.189	332.8
387.568	343.2
387.948	344.33
388.328	334.84
388.707	339.58
389.087	348.17
389.466	358.56
389.846	345.91
390.225	354.72
390.605	348.17
390.984	358.79
391.363	366.02
391.743	363.99
392.122	342.29
392.501	330.99
392.881	367.38
393.26	366.02
393.639	369.64
394.018	353.82
394.397	373.25
394.776	360.37
395.155	359.24
395.534	369.86
395.913	370.77
396.292	375.29
396.671	345.46
397.05	358.34
397.429	348.62
397.808	388.39
398.186	377.77
398.565	386.59
398.944	373.25
399.323	396.98
399.701	381.84
400.08	379.13
400.458	383.87
400.837	383.87
401.215	385.23
401.594	377.55
401.972	373.93
402.351	395.85
402.729	366.93
403.107	412.8
403.486	365.57
403.864	382.52
404.242	403.08
404.62	406.92
404.999	382.29
405.377	392.91
405.755	394.04
406.133	411.22
406.511	403.08
406.889	413.93
407.267	395.63
407.645	401.05
408.023	422.74
408.401	428.39
408.779	402.18
409.156	402.86
409.534	417.32
409.912	440.14
410.29	422.07
410.667	419.58
411.045	441.73
411.422	446.02
411.8	433.82
412.178	465.68
412.555	436.3
412.933	428.17
413.31	424.55
413.687	439.47
414.065	458.9
414.442	436.08
414.819	467.94
415.197	458.67
415.574	456.19
415.951	452.12
416.328	466.58
416.705	461.61
417.082	449.41
417.46	469.97
417.837	483.31
418.214	472.69
418.591	491.89
418.967	488.96
419.344	482.85
419.721	495.28
420.098	505.45
420.475	502.06
420.852	486.92
421.228	490.54
421.605	488.96
421.982	515.17
422.358	512.01
422.735	512.68
423.111	514.27
423.488	510.42
423.864	514.04
424.241	545.45
424.617	530.31
424.994	529.18
425.37	540.93
425.746	526.7
426.123	548.62
426.499	541.61
426.875	537.99
427.251	534.38
427.627	544.77
428.003	568.73
428.379	542.97
428.756	546.13
429.132	565.56
429.507	567.6
429.883	577.99
430.259	596.3
430.635	585
431.011	581.38
431.387	601.95
431.763	601.27
432.138	591.55
432.514	610.53
432.89	622.74
433.265	617.09
433.641	630.87
434.016	604.66
434.392	628.16
434.767	629.29
435.143	645.34
435.518	663.19
435.894	672
436.269	668.84
436.644	656.18
437.02	626.81
437.395	662.06
437.77	682.62
438.145	673.58
438.52	672.45
438.895	660.48
439.271	673.13
439.646	680.82
440.021	679.23
440.395	703.41
440.77	701.83
441.145	709.74
441.52	726.01
441.895	713.13
442.27	697.76
442.645	723.75
443.019	704.77
443.394	712.23
443.769	746.35
444.143	720.59
444.518	756.52
444.892	748.16
445.267	748.84
445.641	737.99
446.016	754.49
446.39	749.51
446.764	756.07
447.139	767.37
447.513	771.89
447.887	764.88
448.262	775.73
448.636	769.63
449.01	771.21
449.384	768.95
449.758	796.29
450.132	796.74
450.506	816.86
450.88	828.38
451.254	826.8
451.628	833.35
452.002	817.99
452.376	826.57
452.75	849.17
453.123	873.13
453.497	876.52
453.871	863.64
454.244	872.22
454.618	856.63
454.992	889.85
455.365	883.75
455.739	896.85
456.112	919.91
456.486	910.87
456.859	915.61
457.232	930.98
457.606	946.8
457.979	950.41
458.352	959.23
458.725	977.53
459.099	981.6
459.472	978.21
459.845	992.22
460.218	999.23
460.591	1017.53
460.964	1021.82
461.337	1048.49
461.71	1047.81
462.083	1075.61
462.456	1108.6
462.829	1109.96
463.201	1121.26
463.574	1128.26
463.947	1147.92
464.32	1162.16
464.692	1172.33
465.065	1168.49
465.438	1190.63
465.81	1222.27
466.183	1214.36
466.555	1257.52
466.928	1238.31
467.3	1270.4
467.672	1289.84
468.045	1296.39
468.417	1343.62
468.789	1329.16
469.161	1356.96
469.534	1416.39
469.906	1413.68
470.278	1447.57
470.65	1449.38
471.022	1474.47
471.394	1514.01
471.766	1566.22
472.138	1578.19
472.51	1621.36
472.882	1671.07
473.253	1692.77
473.625	1737.28
473.997	1770.5
474.369	1800.79
474.74	1836.27
475.112	1848.24
475.484	1920.33
475.855	1951.74
476.227	2007.33
476.598	2088.46
476.97	2125.98
477.341	2210.94
477.713	2230.38
478.084	2280.55
478.455	2381.56
478.827	2397.61
479.198	2492.75
479.569	2522.35
479.94	2623.36
480.311	2698.84
480.682	2764.38
481.053	2869.91
481.424	2979.06
481.795	3056.35
482.166	3101.32
482.537	3200.75
482.908	3313.74
483.279	3391.93
483.65	3492.94
484.021	3607.74
484.391	3718.25
484.762	3780.17
485.133	3874.86
485.503	4011.8
485.874	4139.93
486.244	4217.67
486.615	4348.06
486.985	4483.88
487.356	4609.3
487.726	4763.42
488.097	4902.17
488.467	4968.84
488.837	5143.52
489.207	5287.25
489.578	5428.49
489.948	5576.28
490.318	5754.35
490.688	5801.58
491.058	5990.05
491.428	6184.63
491.798	6297.39
492.168	6506.2
492.538	6608.12
492.908	6721.33
493.278	6946.64
493.648	7036.35
494.017	7228.21
494.387	7333.3
494.757	7510.24
495.126	7669.33
495.496	7829.55
495.866	7986.61
496.235	8131.47
496.605	8311.8
496.974	8397.9
497.344	8567.84
497.713	8724.67
498.082	8893.03
498.452	9059.8
498.821	9189.07
499.19	9342.73
499.559	9449.17
499.928	9624.54
500.298	9796.28
500.667	9892.55
501.036	10050.74
501.405	10170.28
501.774	10293.22
502.143	10490.28
502.512	10623.15
502.88	10778.63
503.249	10824.05
503.618	11056.36
503.987	11130.94
504.356	11342.68
504.724	11420.19
505.093	11617.7
505.462	11662.22
505.83	11825.38
506.199	12004.36
506.567	12217.24
506.936	12283.22
507.304	12441.64
507.672	12589.2
508.041	12701.29
508.409	12766.83
508.777	12947.39
509.145	13142.63
509.514	13240.03
509.882	13365.68
510.25	13412.68
510.618	13633.02
510.986	13702.62
511.354	13901.71
511.722	14060.35
512.09	14251.53
512.458	14221.7
512.826	14357.07
513.193	14577.63
513.561	14583.95
513.929	14728.81
514.297	14966.09
514.664	15026.43
515.032	15180.1
515.4	15449.69
515.767	15463.03
516.135	15661.44
516.502	15591.61
516.869	15849.68
517.237	15865.05
517.604	15921.77
517.972	16225.72
518.339	16313.85
518.706	16433.17
519.073	16470.23
519.44	16701.86
519.808	16897.79
520.175	16835.42
520.542	17211.23
520.909	17264.79
521.276	17352.47
521.643	17545.46
522.009	17660.71
522.376	17775.06
522.743	17936.63
523.11	18123.07
523.477	18337.07
523.843	18449.61
524.21	18585.66
524.577	18811.19
524.943	18896.38
525.31	18971.41
525.676	19219.99
526.043	19273.55
526.409	19311.96
526.776	19598.28
527.142	19678.51
527.508	19878.05
527.874	20026.97
528.241	20081.66
528.607	20194.2
528.973	20389.9
529.339	20396.68
529.705	20603.91
530.071	20765.03
530.437	20796.67
530.803	21045.03
531.169	21151.46
531.535	21165.25
531.901	21240.95
532.267	21338.35
532.632	21536.99
532.998	21602.3
533.364	21686.36
533.73	21751.9
534.095	21877.09
534.461	22078.67
534.826	22143.98
535.192	22266.46
535.557	22381.04
535.923	22406.8
536.288	22415.16
536.653	22608.37
537.019	22513.69
537.384	22705.77
537.749	22840.23
538.114	22971.08
538.479	22993.22
538.845	23254.01
539.21	23049.27
539.575	23131.75
539.94	23227.12
540.305	23516.83
540.67	23353.21
541.034	23591.85
541.399	23634.11
541.764	23795.69
542.129	23820.77
542.494	23930.15
542.858	23883.37
543.223	24026.64
543.587	24237.94
543.952	24284.26
544.316	24282.68
544.681	24224.83
545.045	24440.64
545.41	24432.28
545.774	24572.84
546.138	24541.21
546.503	24723.35
546.867	24722.22
547.231	24927.18
547.595	24839.28
547.959	25082.43
548.324	24852.38
548.688	25160.4
549.052	25282.43
549.416	25309.32
549.779	25354.74
550.143	25405.14
550.507	25509.32
550.871	25719.03
551.235	25722.42
551.599	25818.91
551.962	26051.22
552.326	26013.93
552.689	26168.73
553.053	26082.41
553.417	26194.04
553.78	26397.43
554.143	26434.71
554.507	26447.6
554.87	26566.69
555.234	26890.52
555.597	26699.11
555.96	26886.91
556.323	27024.08
556.686	27001.93
557.05	27318.31
557.413	27396.27
557.776	27462.26
558.139	27582.71
558.502	27641.91
558.865	27698.64
559.228	27897.05
559.59	27981.11
559.953	28050.27
560.316	28406.87
560.679	28360.31
561.041	28474.66
561.404	28617.26
561.767	28771.6
562.129	28727.99
562.492	29057.24
562.854	29026.74
563.217	29134.76
563.579	29116.68
563.941	29362.55
564.304	29465.14
564.666	29675.99
565.028	29920.27
565.39	29888.18
565.753	30077.1
566.115	30014.06
566.477	30238.46
566.839	30315.97
567.201	30701.72
567.563	30581.05
567.925	30767.93
568.287	30875.5
568.648	30822.62
569.01	31153.01
569.372	31292.89
569.734	31212.67
570.095	31374.7
570.457	31555.48
570.819	31700.56
571.18	31502.83
571.542	31865.08
571.903	31989.6
572.265	32014.45
572.626	31932.88
572.987	32025.3
573.349	32230.95
573.71	32417.38
574.071	32482.92
574.432	32500.77
574.794	32797.03
575.155	32669.13
575.516	32788.22
575.877	32744.38
576.238	32870.25
576.599	32989.12
576.96	33072.96
577.32	32950.25
577.681	33316.12
578.042	33317.7
578.403	33263.69
578.763	33366.06
579.124	33361.54
579.485	33577.8
579.845	33658.93
580.206	33552.49
580.566	33511.82
580.927	33711.59
581.287	33781.64
581.648	33702.55
582.008	33937.34
582.368	33827.74
582.728	33932.14
583.089	33905.03
583.449	33887.4
583.809	33931.47
584.169	33913.16
584.529	33832.49
584.889	34201.06
585.249	33967.85
585.609	33946.83
585.969	34200.39
586.329	34009.66
586.688	34093.27
587.048	34115.19
587.408	34137.79
587.768	34106.15
588.127	34111.8
588.487	34024.8
588.846	34368.97
589.206	34058.69
589.565	34000.39
589.925	34371.68
590.284	34169.88
590.643	34306.37
591.003	34305.69
591.362	34468.18
591.721	34432.24
592.08	34425.24
592.44	34422.3
592.799	34408.29
593.158	34395.41
593.517	34435.18
593.876	34608.06
594.235	34502.75
594.593	34462.3
594.952	34621.17
595.311	34519.93
595.67	34674.5
596.029	34812.35
596.387	34838.79
596.746	34968.28
597.104	34822.29
597.463	34612.35
597.822	34972.12
598.18	34844.66
598.538	34661.62
598.897	35124.43
599.255	34759.69
599.613	35306.8
599.972	35071.32
600.33	35231.32
600.688	35077.88
601.046	35198.55
601.404	35282.39
601.762	35258.66
602.12	35398.09
602.478	35369.85
602.836	35363.97
603.194	35190.87
603.552	35395.38
603.91	35307.02
604.268	35618.65
604.625	35373.01
604.983	35662.72
605.341	35432.22
605.698	35727.58
606.056	35759.22
606.413	35689.39
606.771	35871.08
607.128	35937.06
607.485	35742.49
607.843	35792.66
608.2	36021.36
608.557	36232.42
608.914	36031.3
609.272	36255.7
609.629	36434.23
609.986	36462.02
610.343	36346.32
610.7	36581.57
611.057	36455.24
611.414	36558.74
611.771	36590.15
612.127	36665.86
612.484	36762.13
612.841	36866.3
613.198	36732.75
613.554	36745.4
613.911	37051.84
614.267	37028.56
614.624	36932.97
614.98	37115.11
615.337	37311.72
615.693	37184.71
616.05	37246.18
616.406	37414.54
616.762	37217.93
617.118	37350.59
617.475	37362.79
617.831	37542.9
618.187	37518.72
618.543	37683.01
618.899	37885.49
619.255	37842.55
619.611	37735.43
619.967	37892.72
620.323	37941.08
620.678	37893.62
621.034	37819.95
621.39	37816.79
621.746	37756
622.101	38214.74
622.457	37956.45
622.812	38110.57
623.168	38142.43
623.523	38201.41
623.879	38301.75
624.234	37947.18
624.589	38140.62
624.945	38262.43
625.3	38348.07
625.655	38270.56
626.01	38434.63
626.365	38258.58
626.72	38307.62
627.075	38355.76
627.43	38243.9
627.785	38253.39
628.14	38471.23
628.495	38402.08
628.85	38427.39
629.205	38386.72
629.559	38362.54
629.914	38407.28
630.269	38361.41
630.623	38276.66
630.978	38252.93
631.332	38460.39
631.687	38437.34
632.041	38299.04
632.396	38276.66
632.75	38285.48
633.104	38439.14
633.459	38153.28
633.813	38103.33
634.167	38125.48
634.521	38222.2
634.875	38193.5
635.229	38231.47
635.583	38051.36
635.937	38123.9
636.291	38075.31
636.645	38035.54
636.999	38037.8
637.352	38128.87
637.706	37952.6
638.06	38117.35
638.413	37983.11
638.767	37937.24
639.121	37821.31
639.474	37791.7
639.828	37725.94
640.181	37844.13
640.534	37860.18
640.888	37877.35
641.241	37572.73
641.594	37707.41
641.947	37696.11
642.301	37642.56
642.654	37745.6
643.007	37778.15
643.36	37665.83
643.713	37555.55
644.066	37806.17
644.419	37559.17
644.771	37211.83
645.124	36980.88
645.477	36894.55
645.83	36663.37
646.182	36434
646.535	36278.3
646.888	36470.38
647.24	36311.07
647.593	36552.41
647.945	36419.99
648.298	36311.97
648.65	36243.95
649.002	36164.63
649.355	36270.61
649.707	36193.78
650.059	36361.23
650.411	36817.72
650.763	36809.58
651.115	37143.13
651.467	37006.19
651.819	36901.11
652.171	36902.46
652.523	36895.91
652.875	36864.04
653.227	36723.26
653.578	36966.42
653.93	36906.98
654.282	36700.21
654.633	36611.85
654.985	36652.07
655.337	36764.39
655.688	36668.57
656.039	36899.3
656.391	36557.84
656.742	36693.65
657.094	36781.11
657.445	36794.89
657.796	36808.91
658.147	36554.22
658.498	36731.84
658.849	36692.75
659.2	36580.21
659.551	36514.9
659.902	36673.09
660.253	36602.36
660.604	36587.44
660.955	36354.45
661.306	36536.82
661.656	36532.75
662.007	36543.15
662.358	36514.45
662.708	36478.52
663.059	36477.61
663.409	36288.01
663.76	36491.17
664.11	36493.43
664.461	36562.81
664.811	36457.95
665.161	36396.03
665.511	36371.4
665.862	36352.42
666.212	36541.12
666.562	36479.87
666.912	36354.91
667.262	36314.91
667.612	36365.75
667.962	36370.05
668.312	36270.39
668.662	36452.3
669.011	36418.86
669.361	36300.44
669.711	36182.25
670.06	36174.12
670.41	36239.88
670.76	36123.73
671.109	36213.21
671.459	36118.3
671.808	36263.38
672.157	36323.95
672.507	36008.25
672.856	36080.56
673.205	36230.16
673.554	36236.94
673.904	36010.73
674.253	36278.75
674.602	36154.68
674.951	35493.91
675.3	35445.55
675.649	35983.84
675.998	35941.36
676.346	35971.64
676.695	35976.38
677.044	35755.6
677.393	35867.69
677.741	35920.11
678.09	35925.76
678.438	35679.22
678.787	35799.89
679.135	35704.75
679.484	35515.83
679.832	35782.49
680.181	35536.85
680.529	35680.57
680.877	35534.59
681.225	35457.98
681.573	35691.87
681.922	35424.31
682.27	35189.51
682.618	35257.99
682.966	35241.26
683.314	35314.26
683.661	35242.84
684.009	35019.12
684.357	35004.43
684.705	34875.4
685.053	35016.86
685.4	34891.44
685.748	34806.92
686.095	34753.37
686.443	34706.36
686.79	34694.16
687.138	34725.12
687.485	34668.62
687.832	34478.34
688.18	34508.17
688.527	34346.82
688.874	34460.27
689.221	34350.21
689.568	34242.19
689.915	34081.29
690.262	34057.79
690.609	33964.69
690.956	33839.49
691.303	33996.1
691.65	33731.7
691.997	33659.38
692.344	33463
692.69	33502.78
693.037	33442.21
693.383	33235.44
693.73	33355.89
694.077	33158.15
694.423	33073.18
694.769	33060.53
695.116	33037.03
695.462	32985.05
695.808	32853.75
696.155	33016.01
696.501	32700.54
696.847	32719.75
697.193	32472.97
697.539	32580.99
697.885	32307.78
698.231	32220.55
698.577	32310.94
698.923	32210.38
699.269	32066.2
699.614	31889.94
699.96	31807.68
700.306	31777.4
700.651	31721.81
700.997	31636.84
701.342	31711.64
701.688	31583.05
702.033	31508.25
702.379	31350.29
702.724	31414.24
703.069	31466.22
703.415	31103.97
703.76	31073.69
704.105	30956.63
704.45	30900.13
704.795	30851.32
705.14	30750.99
705.485	30633.47
705.83	30492.46
706.175	30660.59
706.52	30506.47
706.865	30365.01
707.209	30456.3
707.554	30202.07
707.899	30389.64
708.243	30208.4
708.588	30078.69
708.932	29886.83
709.277	29838.69
709.621	29976.32
709.966	29741.29
710.31	29821.74
710.654	29455.88
710.998	29637.12
711.342	29544.69
711.687	29406.39
712.031	29374.98
712.375	29103.8
712.719	29264.24
713.063	29269.22
713.407	29372.72
713.75	29244.81
714.094	29242.1
714.438	28973.63
714.782	29087.07
715.125	28843.69
715.469	28885.72
715.812	28825.61
716.156	28608.44
716.499	28886.18
716.843	28704.71
717.186	28542.23
717.53	28584.49
717.873	28663.81
718.216	28663.81
718.559	28440.99
718.902	28343.59
719.246	28332.07
719.589	28324.61
719.932	28065.41
720.275	28078.97
720.617	28158.74
720.96	28047.1
721.303	27962.13
721.646	28033.99
721.989	27885.3
722.331	27954.45
722.674	27758.52
723.016	27725.08
723.359	27750.39
723.701	27729.14
724.044	27534.12
724.386	27448.93
724.729	27660.45
725.071	27467
725.413	27513.1
725.755	27465.42
726.097	27334.58
726.439	27125.32
726.782	27135.04
727.124	27218.42
727.465	27020.01
727.807	27048.71
728.149	27104.75
728.491	26991.08
728.833	27030.86
729.175	26869.73
729.516	26847.59
729.858	26839
730.199	26755.61
730.541	26950.41
730.882	26721.26
731.224	26852.56
731.565	26619.12
731.906	26661.38
732.248	26655.5
732.589	26548.16
732.93	26479.23
733.271	26387.71
733.612	26522.62
733.953	26545.22
734.294	26548.84
734.635	26359.01
734.976	26408.73
735.317	26227.49
735.658	26243.53
735.999	26216.19
736.339	26152.69
736.68	26147.49
737.021	26051.9
737.361	26021.62
737.702	26051.45
738.042	25986.82
738.383	26055.06
738.723	25905.91
739.063	25731.23
739.404	25908.63
739.744	25779.59
740.084	25784.56
740.424	25692.36
740.764	25652.36
741.104	25711.57
741.444	25520.61
741.784	25447.17
742.124	25587.05
742.464	25505.7
742.804	25449.2
743.143	25404.23
743.483	25316.78
743.823	25293.95
744.162	25323.78
744.502	25280.85
744.841	25224.58
745.181	25189.1
745.52	25159.04
745.86	25227.74
746.199	24989.1
746.538	25038.59
746.877	25034.3
747.216	25101.87
747.556	24931.25
747.895	24900.74
748.234	24899.39
748.573	24831.14
748.911	24679.96
749.25	24729.22
749.589	24604.71
749.928	24844.02
750.267	24713.63
750.605	24462.34
750.944	24496.91
751.283	24439.29
751.621	24472.96
751.96	24315.9
752.298	24371.49
752.636	24481.55
752.975	24302.79
753.313	24121.33
753.651	24235
753.989	24072.74
754.327	23983.48
754.666	23939.86
755.004	23933.09
755.342	23970.15
755.679	23889.02
756.017	23656.48
756.355	23801.11
756.693	23792.52
