Data from hue_30_FLMS001491_57.txt Node
Date: Mon Feb 06 15:05:36 GMT 2017
User: dcchb
Spectrometer: FLMS00149
Trigger mode: 0
Integration Time (sec): 2.000000E-2
Scans to average: 10
Electric dark correction enabled: true
Nonlinearity correction enabled: false
Boxcar width: 0
XAxis mode: Wavelengths
Number of Pixels in Spectrum: 2048
>>>>>Begin Spectral Data<<<<<
341.393	-11.29
341.776	-11.29
342.16	-11.29
342.543	-56.48
342.927	-78.18
343.31	-71.85
343.693	-74.79
344.077	-76.59
344.46	-55.13
344.843	-38.63
345.226	-47.67
345.61	-34.34
345.993	-21.45
346.376	0.92
346.759	16.74
347.142	28.26
347.525	44.31
347.908	47.47
348.291	67.81
348.674	100.35
349.057	114.59
349.44	115.49
349.823	146.22
350.206	165.43
350.588	195.04
350.971	210.18
351.354	229.16
351.737	226.67
352.119	249.27
352.502	255.6
352.884	266.22
353.267	288.37
353.65	313.68
354.032	302.38
354.414	323.62
354.797	294.47
355.179	313.23
355.562	312.32
355.944	310.06
356.326	348.93
356.709	338.31
357.091	327.24
357.473	352.32
357.855	337.41
358.238	330.63
358.62	340.12
359.002	339.44
359.384	353.68
359.766	341.25
360.148	329.05
360.53	341.02
360.912	332.43
361.294	327.01
361.676	314.81
362.057	331.98
362.439	313.68
362.821	325.43
363.203	310.74
363.584	313.23
363.966	344.86
364.348	313.9
364.729	327.24
365.111	310.29
365.493	334.92
365.874	323.85
366.256	320.91
366.637	312.55
367.019	320.91
367.4	319.33
367.781	307.35
368.163	304.41
368.544	303.28
368.925	298.76
369.306	317.97
369.688	298.54
370.069	311.42
370.45	326.79
370.831	297.18
371.212	317.52
371.593	315.49
371.974	305.54
372.355	306.9
372.736	305.54
373.117	327.69
373.498	308.03
373.879	313
374.26	287.69
374.641	309.84
375.021	304.86
375.402	309.38
375.783	323.4
376.163	336.05
376.544	337.86
376.925	325.2
377.305	309.61
377.686	334.92
378.066	326.11
378.447	335.82
378.827	320.23
379.208	352.55
379.588	344.64
379.968	321.81
380.349	323.85
380.729	309.38
381.109	328.59
381.489	329.5
381.87	327.46
382.25	354.13
382.63	333.79
383.01	339.44
383.39	342.15
383.77	338.54
384.15	332.66
384.53	319.1
384.91	348.03
385.29	338.99
385.67	347.8
386.049	355.03
386.429	344.86
386.809	354.36
387.189	350.51
387.568	330.17
387.948	353.68
388.328	335.6
388.707	356.39
389.087	365.2
389.466	339.89
389.846	375.82
390.225	354.36
390.605	370.4
390.984	369.5
391.363	348.25
391.743	372.21
392.122	354.13
392.501	362.94
392.881	372.43
393.26	362.49
393.639	353.9
394.018	374.47
394.397	381.25
394.776	388.25
395.155	370.85
395.534	385.99
395.913	370.4
396.292	375.82
396.671	382.38
397.05	401.36
397.429	377.63
397.808	380.34
398.186	369.72
398.565	384.64
398.944	383.05
399.323	387.35
399.701	401.59
400.08	413.11
400.458	406.33
400.837	377.18
401.215	401.13
401.594	404.75
401.972	411.75
402.351	401.59
402.729	419.21
403.107	424.41
403.486	417.63
403.864	415.14
404.242	432.32
404.62	395.48
404.999	438.87
405.377	405.2
405.755	407.24
406.133	399.33
406.511	423.05
406.889	422.83
407.267	412.66
407.645	419.44
408.023	425.54
408.401	407.91
408.779	438.87
409.156	436.16
409.534	432.77
409.912	467.57
410.29	445.88
410.667	434.35
411.045	445.65
411.422	450.62
411.8	458.53
412.178	458.31
412.555	467.57
412.933	443.39
413.31	452.66
413.687	456.05
414.065	470.06
414.442	475.26
414.819	471.64
415.197	471.19
415.574	488.36
415.951	470.51
416.328	490.4
416.705	493.33
417.082	472.77
417.46	487.01
417.837	467.8
418.214	497.85
418.591	502.37
418.967	493.79
419.344	498.31
419.721	504.18
420.098	490.17
420.475	514.35
420.852	521.81
421.228	502.83
421.605	517.29
421.982	516.38
422.358	512.99
422.735	535.59
423.111	536.27
423.488	529.49
423.864	522.49
424.241	552.54
424.617	544.41
424.994	532.43
425.37	554.58
425.746	527.68
426.123	532.2
426.499	556.16
426.875	566.78
427.251	557.06
427.627	573.56
428.003	576.72
428.379	570.39
428.756	598.19
429.132	601.58
429.507	580.79
429.883	587.8
430.259	585.31
430.635	586.44
431.011	588.25
431.387	606.1
431.763	607.68
432.138	634.12
432.514	625.53
432.89	627.79
433.265	639.09
433.641	642.48
434.016	638.64
434.392	649.71
434.767	652.43
435.143	635.7
435.518	672.09
435.894	665.53
436.269	672.09
436.644	668.25
437.02	662.37
437.395	691.07
437.77	693.78
438.145	682.48
438.52	706.44
438.895	707.57
439.271	701.92
439.646	720.45
440.021	715.02
440.395	737.85
440.77	734.46
441.145	723.84
441.52	747.57
441.895	727
442.27	733.55
442.645	757.73
443.019	760.67
443.394	743.27
443.769	775.36
444.143	729.94
444.518	777.17
444.892	741.46
445.267	773.33
445.641	776.49
446.016	786.21
446.39	804.74
446.764	767.45
447.139	784.85
447.513	800.45
447.887	793.21
448.262	811.07
448.636	789.37
449.01	824.4
449.384	816.49
449.758	846.32
450.132	845.42
450.506	834.12
450.88	844.96
451.254	829.14
451.628	860.33
452.002	852.87
452.376	842.93
452.75	862.82
453.123	836.6
453.497	856.04
453.871	882.93
454.244	872.76
454.618	895.13
454.992	931.52
455.365	922.93
455.739	930.84
456.112	948.69
456.486	942.36
456.859	954.34
457.232	943.72
457.606	965.41
457.979	972.19
458.352	986.88
458.725	1020.1
459.099	1009.25
459.472	1004.28
459.845	1017.84
460.218	1026.65
460.591	1039.76
460.964	1051.96
461.337	1056.71
461.71	1098.29
462.083	1094.9
462.456	1100.55
462.829	1095.8
463.201	1122.92
463.574	1113.66
463.947	1157.05
464.32	1175.12
464.692	1162.92
465.065	1167.44
465.438	1195.01
465.81	1236.14
466.183	1206.99
466.555	1241.34
466.928	1247.44
467.3	1232.98
467.672	1278.85
468.045	1284.95
468.417	1307.32
468.789	1335.8
469.161	1344.39
469.534	1360.2
469.906	1369.24
470.278	1391.62
470.65	1424.16
471.022	1456.47
471.394	1424.16
471.766	1476.59
472.138	1469.13
472.51	1519.3
472.882	1552.52
473.253	1542.57
473.625	1597.26
473.997	1624.83
474.369	1630.03
474.74	1632.29
475.112	1675.45
475.484	1738.5
475.855	1746.86
476.227	1763.13
476.598	1847.88
476.97	1842.23
477.341	1877.7
477.713	1906.4
478.084	1946.18
478.455	2039.96
478.827	2035.44
479.198	2107.08
479.569	2085.38
479.94	2160.41
480.311	2167.64
480.682	2222.55
481.053	2270.24
481.424	2351.82
481.795	2383
482.166	2402.66
482.537	2476.11
482.908	2525.37
483.279	2587.06
483.65	2605.14
484.021	2690.79
484.391	2722.2
484.762	2787.29
485.133	2840.62
485.503	2887.85
485.874	2980.05
486.244	2971.24
486.615	3083.77
486.985	3108.86
487.356	3187.27
487.726	3205.58
488.097	3328.06
488.467	3331.9
488.837	3418
489.207	3463.43
489.578	3564.89
489.948	3590.43
490.318	3655.51
490.688	3669.07
491.058	3732.8
491.428	3806.47
491.798	3890.76
492.168	3972.79
492.538	3986.35
492.908	4087.59
493.278	4179.11
493.648	4180.47
494.017	4238.77
494.387	4261.6
494.757	4284.42
495.126	4372.78
495.496	4442.84
495.866	4457.52
496.235	4511.53
496.605	4640.8
496.974	4665.2
497.344	4653.68
497.713	4734.13
498.082	4802.37
498.452	4838.3
498.821	4923.95
499.19	4897.51
499.559	4955.36
499.928	5035.14
500.298	5074.68
500.667	5108.58
501.036	5073.55
501.405	5149.94
501.774	5155.36
502.143	5229.48
502.512	5337.05
502.88	5318.74
503.249	5322.59
503.618	5364.84
503.987	5415.01
504.356	5498.17
504.724	5538.4
505.093	5531.39
505.462	5579.75
505.83	5630.37
506.199	5694.1
506.567	5714.89
506.936	5702.46
507.304	5800.77
507.672	5829.47
508.041	5848
508.409	5891.38
508.777	5925.28
509.145	5912.18
509.514	6011.38
509.882	6060.19
510.25	6013.42
510.618	6119.63
510.986	6089.57
511.354	6242.56
511.722	6183.58
512.09	6308.1
512.458	6297.48
512.826	6273.3
513.193	6352.62
513.561	6336.8
513.929	6396
514.297	6490.69
514.664	6480.75
515.032	6461.99
515.4	6579.28
515.767	6617.92
516.135	6587.41
516.502	6593.51
516.869	6702.21
517.237	6687.3
517.604	6664.92
517.972	6789.67
518.339	6770.91
518.706	6786.05
519.073	6812.49
519.44	6816.11
519.808	6908.08
520.175	6968.19
520.542	7040.06
520.909	7021.52
521.276	7028.3
521.643	7122.09
522.009	7136.32
522.376	7110.56
522.743	7191.01
523.11	7281.63
523.477	7293.83
523.843	7307.17
524.21	7363.66
524.577	7428.29
524.943	7457.67
525.31	7481.85
525.676	7644.11
526.043	7609.08
526.409	7644.56
526.776	7685.24
527.142	7697.66
527.508	7803.2
527.874	7748.51
528.241	7868.51
528.607	7858.11
528.973	7916.19
529.339	7973.59
529.705	7955.29
530.071	8044.55
530.437	8101.95
530.803	8137.43
531.169	8135.17
531.535	8178.56
531.901	8313.02
532.267	8286.12
532.632	8263.07
532.998	8312.56
533.364	8415.84
533.73	8360.25
534.095	8448.15
534.461	8453.58
534.826	8560.69
535.192	8586.46
535.557	8633.46
535.923	8617.19
536.288	8639.33
536.653	8702.38
537.019	8665.1
537.384	8842.95
537.749	8834.58
538.114	8851.76
538.479	8864.87
538.845	8950.29
539.21	8903.06
539.575	8974.02
539.94	8981.7
540.305	9094.01
540.67	9069.61
541.034	9071.41
541.399	9192.54
541.764	9170.85
542.129	9241.35
542.494	9315.7
542.858	9306.66
543.223	9309.15
543.587	9350.28
543.952	9364.74
544.316	9305.08
544.681	9508.69
545.045	9520.22
545.41	9521.8
545.774	9597.73
546.138	9642.25
546.503	9626.2
546.867	9704.17
547.231	9769.47
547.595	9711.17
547.959	9767.21
548.324	9694.9
548.688	9817.84
549.052	9858.51
549.416	9933.31
549.779	9978.96
550.143	10007.89
550.507	10075.91
550.871	10060.54
551.235	10001.56
551.599	10095.79
551.962	10232.74
552.326	10196.36
552.689	10251.72
553.053	10236.58
553.417	10292.85
553.78	10393.87
554.143	10310.25
554.507	10373.98
554.87	10393.64
555.234	10493.07
555.597	10426.41
555.96	10537.82
556.323	10621.66
556.686	10545.27
557.05	10685.38
557.413	10573.07
557.776	10704.59
558.139	10733.07
558.502	10674.76
558.865	10743.91
559.228	10767.64
559.59	10838.6
559.953	10869.78
560.316	11030.68
560.679	11046.05
561.041	11090.57
561.404	11046.73
561.767	11097.35
562.129	11161.3
562.492	11253.28
562.854	11190.91
563.217	11179.16
563.579	11242.2
563.941	11347.06
564.304	11346.83
564.666	11405.36
565.028	11417.79
565.39	11395.19
565.753	11571.46
566.115	11563.33
566.477	11636.77
566.839	11643.1
567.201	11652.36
567.563	11646.94
567.925	11774.85
568.287	11832.47
568.648	11860.95
569.01	11944.78
569.372	12060.94
569.734	11951.56
570.095	12111.11
570.457	12043.09
570.819	12162.41
571.18	12218.68
571.542	12293.7
571.903	12311.33
572.265	12363.53
572.626	12419.57
572.987	12416.64
573.349	12433.59
573.71	12567.59
574.071	12666.35
574.432	12766.46
574.794	12812.11
575.155	12892.78
575.516	12825.21
575.877	13019.56
576.238	13043.96
576.599	13231.98
576.96	13272.89
577.32	13372.09
577.681	13388.36
578.042	13532.31
578.403	13633.78
578.763	13674.46
579.124	13845.07
579.485	13966.43
579.845	14088.01
580.206	14108.8
580.566	14278.73
580.927	14488.67
581.287	14574.09
581.648	14758.27
582.008	14961.65
582.368	15000.52
582.728	15177.47
583.089	15337.46
583.449	15528.19
583.809	15609.1
584.169	15836.66
584.529	16003.66
584.889	16313.94
585.249	16383.76
585.609	16572.69
585.969	16719.57
586.329	16921.6
586.688	17241.14
587.048	17475.26
587.408	17659.66
587.768	17761.81
588.127	18020.56
588.487	18215.13
588.846	18522.24
589.206	18690.37
589.565	18910.7
589.925	19253.07
590.284	19417.13
590.643	19704.13
591.003	20007.4
591.362	20171.46
591.721	20420.72
592.08	20664.1
592.44	20981.61
592.799	21255.73
593.158	21451.88
593.517	21667.69
593.876	21935.03
594.235	22141.8
594.593	22522.81
594.952	22788.57
595.311	22926.87
595.67	23275.79
596.029	23524.59
596.387	23892.72
596.746	24145.59
597.104	24366.38
597.463	24565.7
597.822	24908.29
598.18	24985.12
598.538	25254.27
598.897	25708.26
599.255	25667.14
599.613	26226.44
599.972	26265.09
600.33	26656.26
600.688	26648.13
601.046	26993.65
601.404	27408.11
601.762	27526.07
602.12	27872.5
602.478	28066.17
602.836	28364.24
603.194	28386.16
603.552	28696.66
603.91	28852.36
604.268	29138.23
604.625	29271.79
604.983	29583.19
605.341	29619.57
605.698	29962.84
606.056	30231.08
606.413	30261.59
606.771	30515.37
607.128	30709.72
607.485	30828.58
607.843	30988.13
608.2	31510.37
608.557	31626.3
608.914	31596.92
609.272	32002.11
609.629	32207.3
609.986	32339.28
610.343	32417.69
610.7	32729.78
611.057	32858.59
611.414	32955.08
611.771	33116.43
612.127	33419.25
612.484	33521.62
612.841	33767.71
613.198	33777.66
613.554	33967.03
613.911	34218.1
614.267	34247.93
614.624	34338.77
614.98	34547.81
615.337	34795.26
615.693	34793.68
616.05	34943.95
616.406	35240.67
616.762	35227.11
617.118	35232.08
617.475	35317.28
617.831	35535.12
618.187	35688.34
618.543	35901.44
618.899	36079.52
619.255	36244.94
619.611	36182.34
619.967	36369.45
620.323	36566.51
620.678	36431.6
621.034	36500.3
621.39	36573.74
621.746	36456.68
622.101	37051.47
622.457	36893.73
622.812	37060.51
623.168	37052.6
623.523	37285.14
623.879	37313.16
624.234	37131.92
624.589	37218.47
624.945	37298.69
625.3	37488.07
625.655	37573.94
626.01	37578.46
626.365	37695.07
626.72	37716.31
627.075	37619.59
627.43	37786.82
627.785	37721.28
628.14	37892.13
628.495	38017.77
628.85	37939.58
629.205	37788.85
629.559	38066.13
629.914	37831.11
630.269	38031.56
630.623	38038.79
630.978	37963.54
631.332	38047.38
631.687	38324.88
632.041	38025.45
632.396	38244.66
632.75	37985
633.104	38167.15
633.459	37998.34
633.813	38118.79
634.167	38103.87
634.521	38086.24
634.875	38087.6
635.229	38086.7
635.583	37824.1
635.937	38035.62
636.291	37905.01
636.645	38128.73
636.999	38031.78
637.352	38115.17
637.706	37925.8
638.06	38064.55
638.413	38006.02
638.767	37947.04
639.121	37988.17
639.474	37677.67
639.828	37856.65
640.181	37896.64
640.534	37932.12
640.888	37895.74
641.241	37668.63
641.594	37824.56
641.947	37963.76
642.301	37831.11
642.654	37847.61
643.007	37732.36
643.36	37840.83
643.713	37600.83
644.066	37944.78
644.419	37657.33
644.771	37421.18
645.124	37178.25
645.477	37058.93
645.83	36931.25
646.182	36752.72
646.535	36637.24
646.888	36883.11
647.24	36585.94
647.593	36756.11
647.945	36580.52
648.298	36531.03
648.65	36488.32
649.002	36441.32
649.355	36566.28
649.707	36436.34
650.059	36544.82
650.411	37086.95
650.763	37132.6
651.115	37483.1
651.467	37296.66
651.819	37444
652.171	37227.06
652.523	37121.07
652.875	37299.82
653.227	36973.96
653.578	37297.11
653.93	37229.54
654.282	37185.03
654.633	36993.62
654.985	37173.73
655.337	37120.85
655.688	37089.89
656.039	37349.77
656.391	36956.56
656.742	37059.38
657.094	37071.13
657.445	37200.84
657.796	36983.9
658.147	37018.7
658.498	36962.43
658.849	36985.26
659.2	36918.82
659.551	36886.28
659.902	36955.2
660.253	36914.07
660.604	37025.48
660.955	36813.06
661.306	36976.44
661.656	36742.32
662.007	36981.64
662.358	36871.14
662.708	36818.71
663.059	36936.9
663.409	36637.69
663.76	36871.59
664.11	36800.63
664.461	36883.34
664.811	36772.61
665.161	36838.14
665.511	36758.37
665.862	36738.94
666.212	36957.91
666.562	36891.7
666.912	36814.41
667.262	36806.05
667.612	36901.87
667.962	36856.22
668.312	36733.51
668.662	36910.46
669.011	36760.63
669.361	36798.37
669.711	36714.98
670.06	36678.37
670.41	36564.48
670.76	36582.56
671.109	36789.78
671.459	36588.43
671.808	36507.75
672.157	36717.47
672.507	36418.49
672.856	36451.49
673.205	36707.07
673.554	36763.57
673.904	36443.8
674.253	36701.87
674.602	36491.26
674.951	35994.55
675.3	35910.71
675.649	36395.22
675.998	36357.25
676.346	36321.32
676.695	36448.1
677.044	36244.71
677.393	36411.94
677.741	36374.65
678.09	36252.85
678.438	36143.7
678.787	36259.63
679.135	36181.66
679.484	35972.18
679.832	36273.86
680.181	35986.86
680.529	36023.7
680.877	35948
681.225	36108.67
681.573	36164.49
681.922	35938.73
682.27	35829.35
682.618	35806.98
682.966	35860.99
683.314	35714.1
683.661	35688.34
684.009	35530.15
684.357	35545.75
684.705	35446.77
685.053	35443.38
685.4	35462.81
685.748	35167.9
686.095	35298.3
686.443	35136.94
686.79	35178.98
687.138	35010.39
687.485	35085.87
687.832	34842.94
688.18	34956.84
688.527	34762.49
688.874	34849.49
689.221	34620.8
689.568	34598.2
689.915	34520.69
690.262	34504.87
690.609	34428.04
690.956	34296.51
691.303	34281.37
691.65	34108.5
691.997	34093.35
692.344	33955.05
692.69	33811.1
693.037	33831.67
693.383	33592.35
693.73	33840.48
694.077	33616.76
694.423	33592.58
694.769	33621.28
695.116	33285.47
695.462	33269.42
695.808	33223.32
696.155	33292.02
696.501	32962.54
696.847	32966.6
697.193	32883.44
697.539	32855.87
697.885	32733.39
698.231	32592.83
698.577	32622.43
698.923	32607.29
699.269	32423.12
699.614	32229.45
699.96	32259.96
700.306	32217.02
700.651	32130.69
700.997	31984.94
701.342	31968.89
701.688	31930.25
702.033	31805.05
702.379	31804.83
702.724	31776.35
703.069	31728.45
703.415	31480.54
703.76	31453.88
704.105	31386.31
704.45	31291.39
704.795	31097.5
705.14	31101.12
705.485	31121.91
705.83	30918.98
706.175	31013.21
706.52	30833.1
706.865	30822.03
707.209	30698.19
707.554	30625.42
707.899	30637.85
708.243	30524.18
708.588	30446.9
708.932	30071.09
709.277	30271.99
709.621	30257.3
709.966	30109.96
710.31	30117.41
710.654	29876.97
710.998	29903.18
711.342	29882.84
711.687	29701.38
712.031	29683.08
712.375	29650.53
712.719	29582.06
713.063	29590.2
713.407	29682.4
713.75	29385.23
714.094	29472.69
714.438	29351.78
714.782	29374.16
715.125	29249.64
715.469	29377.09
715.812	29292.35
716.156	28857.11
716.499	28934.85
716.843	28908.18
717.186	28910.67
717.53	28966.94
717.873	28976.88
718.216	28901.18
718.559	28754.29
718.902	28613.05
719.246	28577.57
719.589	28458.93
719.932	28308.42
720.275	28433.62
720.617	28425.26
720.96	28205.15
721.303	28333.96
721.646	28283.11
721.989	28108.43
722.331	28218.71
722.674	28071.37
723.016	28100.52
723.359	27992.5
723.701	28152.72
724.044	27860.75
724.386	27745.27
724.729	27925.38
725.071	27821.2
725.413	27625.05
725.755	27738.95
726.097	27705.73
726.439	27503.92
726.782	27555.45
727.124	27621.66
727.465	27539.63
727.807	27585.5
728.149	27470.25
728.491	27378.5
728.833	27477.94
729.175	27324.27
729.516	27327.21
729.858	27162.69
730.199	27279.97
730.541	27226.64
730.882	27023.71
731.224	27119.75
731.565	27004.28
731.906	26925.41
732.248	27057.38
732.589	26905.3
732.93	26770.38
733.271	26762.93
733.612	26842.92
733.953	26696.26
734.294	26758.18
734.635	26615.81
734.976	26621.69
735.317	26573.1
735.658	26643.38
735.999	26521.12
736.339	26495.14
736.68	26417.85
737.021	26356.61
737.361	26259.89
737.702	26479.32
738.042	26340.79
738.383	26284.75
738.723	26397.29
739.063	26231.64
739.404	26233.22
739.744	26277.29
740.084	26086.11
740.424	26068.48
740.764	25966.56
741.104	26060.35
741.444	25895.38
741.784	25761.82
742.124	25922.27
742.464	25851.99
742.804	25809.73
743.143	25685.67
743.483	25699
743.823	25604.54
744.162	25549.17
744.502	25592.11
744.841	25521.38
745.181	25626.46
745.52	25505.33
745.86	25495.84
746.199	25376.3
746.538	25487.48
746.877	25393.24
747.216	25362.29
747.556	25299.24
747.895	25393.02
748.234	25233.93
748.573	25258.11
748.911	25120.71
749.25	25195.28
749.589	25129.97
749.928	25076.42
750.267	25037.55
750.605	25035.51
750.944	24932.01
751.283	24939.47
751.621	24778.12
751.96	24808.63
752.298	24758.69
752.636	24788.51
752.975	24665.13
753.313	24494.06
753.651	24621.97
753.989	24593.04
754.327	24522.31
754.666	24398.47
755.004	24413.16
755.342	24428.52
755.679	24313.95
756.017	24282.31
756.355	24308.75
756.693	24152.83
757.031	24169.55
757.368	24157.12
757.706	24046.84
758.044	23910.35
758.381	24043.9
758.719	23801.42
759.056	23791.25
759.394	23710.13
