Data from hue_110_FLMS001491_00064.txt Node
Date: Tue Feb 07 17:01:39 GMT 2017
User: dcchb
Spectrometer: FLMS00149
Trigger mode: 0
Integration Time (sec): 2.000000E-2
Scans to average: 10
Electric dark correction enabled: true
Nonlinearity correction enabled: false
Boxcar width: 0
XAxis mode: Wavelengths
Number of Pixels in Spectrum: 2048
>>>>>Begin Spectral Data<<<<<
341.393	-4.72
341.776	-4.72
342.16	-4.72
342.543	-60.54
342.927	-62.57
343.31	-56.92
343.693	-74.55
344.077	-71.16
344.46	-68.44
344.843	-65.05
345.226	-58.95
345.61	-39.52
345.993	-21.21
346.376	-11.5
346.759	49.07
347.142	13.59
347.525	42.96
347.908	65.34
348.291	80.48
348.674	98.56
349.057	117.31
349.44	134.49
349.823	156.41
350.206	167.71
350.588	193.24
350.971	200.7
351.354	233.92
351.737	240.47
352.119	261.49
352.502	262.85
352.884	267.14
353.267	266.01
353.65	278.66
354.032	319.34
354.414	303.52
354.797	328.83
355.179	332.45
355.562	329.74
355.944	320.92
356.326	324.77
356.709	351.88
357.091	342.84
357.473	343.75
357.855	327.25
358.238	345.56
358.62	355.27
359.002	359.11
359.384	331.09
359.766	337.65
360.148	348.95
360.53	350.75
360.912	354.6
361.294	336.52
361.676	333.35
362.057	340.58
362.439	335.84
362.821	339.68
363.203	329.74
363.584	312.56
363.966	346.01
364.348	321.38
364.729	308.95
365.111	314.37
365.493	336.74
365.874	309.85
366.256	299.68
366.637	317.08
367.019	317.31
367.4	314.14
367.781	332.45
368.163	325.67
368.544	291.55
368.925	329.51
369.306	333.58
369.688	305.1
370.069	315.05
370.45	310.75
370.831	301.94
371.212	319.79
371.593	303.98
371.974	313.69
372.355	301.72
372.736	315.95
373.117	298.55
373.498	322.51
373.879	322.51
374.26	315.73
374.641	311.88
375.021	327.25
375.402	319.12
375.783	327.03
376.163	322.05
376.544	341.71
376.925	328.38
377.305	327.25
377.686	322.28
378.066	323.86
378.447	334.71
378.827	324.54
379.208	322.05
379.588	333.13
379.968	309.85
380.349	315.73
380.729	354.14
381.109	361.6
381.489	329.06
381.87	321.6
382.25	343.97
382.63	358.66
383.01	341.71
383.39	334.48
383.77	335.39
384.15	344.43
384.53	349.85
384.91	345.1
385.29	364.54
385.67	355.27
386.049	348.72
386.429	362.28
386.809	353.01
387.189	347.82
387.568	366.35
387.948	355.27
388.328	368.83
388.707	375.39
389.087	364.76
389.466	353.01
389.846	368.83
390.225	361.37
390.605	374.03
390.984	370.64
391.363	355.27
391.743	380.81
392.122	378.78
392.501	376.29
392.881	364.99
393.26	376.52
393.639	371.54
394.018	369.96
394.397	379.45
394.776	392.11
395.155	365.89
395.534	348.27
395.913	397.53
396.292	396.18
396.671	382.39
397.05	392.11
397.429	413.35
397.808	388.49
398.186	390.07
398.565	389.17
398.944	396.4
399.323	399.34
399.701	411.77
400.08	404.76
400.458	414.25
400.837	392.79
401.215	411.09
401.594	396.63
401.972	412.67
402.351	408.83
402.729	432.56
403.107	422.62
403.486	430.53
403.864	416.97
404.242	404.31
404.62	412.9
404.999	414.03
405.377	438.66
405.755	454.93
406.133	415.38
406.511	428.49
406.889	424.88
407.267	419.45
407.645	457.42
408.023	455.38
408.401	431.2
408.779	449.06
409.156	459
409.534	447.25
409.912	493.35
410.29	491.09
410.667	467.13
411.045	465.1
411.422	494.25
411.8	473.91
412.178	469.17
412.555	491.31
412.933	483.41
413.31	480.47
413.687	515.49
414.065	484.31
414.442	487.93
414.819	505.78
415.197	491.77
415.574	511.88
415.951	508.26
416.328	522.5
416.705	511.43
417.082	523.86
417.46	538.09
417.837	537.87
418.214	511.88
418.591	522.27
418.967	536.29
419.344	539.22
419.721	541.26
420.098	541.26
420.475	561.14
420.852	567.7
421.228	568.37
421.605	561.6
421.982	567.24
422.358	563.86
422.735	579.9
423.111	580.35
423.488	579.45
423.864	590.52
424.241	611.09
424.617	613.12
424.994	595.49
425.37	591.65
425.746	596.17
426.123	595.72
426.499	620.12
426.875	604.08
427.251	611.54
427.627	636.4
428.003	635.72
428.379	632.55
428.756	641.37
429.132	643.63
429.507	659.67
429.883	664.64
430.259	667.81
430.635	666
431.011	655.38
431.387	692.21
431.763	691.54
432.138	705.55
432.514	701.25
432.89	715.49
433.265	707.58
433.641	708.03
434.016	738.99
434.392	731.31
434.767	758.2
435.143	723.17
435.518	760.01
435.894	753.23
436.269	780.35
436.644	788.71
437.02	794.81
437.395	762.04
437.77	777.63
438.145	814.02
438.52	816.73
438.895	806.56
439.271	821.7
439.646	803.85
440.021	861.93
440.395	843.62
440.77	836.84
441.145	836.84
441.52	865.09
441.895	860.8
442.27	869.84
442.645	862.83
443.019	870.74
443.394	878.88
443.769	859.67
444.143	903.73
444.518	906.67
444.892	886.78
445.267	887.46
445.641	924.3
446.016	916.61
446.39	947.8
446.764	928.14
447.139	941.25
447.513	949.38
447.887	941.02
448.262	971.75
448.636	946.9
449.01	979.21
449.384	968.59
449.758	992.09
450.132	981.47
450.506	1012.66
450.88	1000
451.254	1014.46
451.628	1025.31
452.002	1023.96
452.376	1019.44
452.75	1071.64
453.123	1058.31
453.497	1059.21
453.871	1081.36
454.244	1092.65
454.618	1101.92
454.992	1111.41
455.365	1129.04
455.739	1145.76
456.112	1135.37
456.486	1183.73
456.859	1188.25
457.232	1200.45
457.606	1191.64
457.979	1193.44
458.352	1200.22
458.725	1252.42
459.099	1233.44
459.472	1265.76
459.845	1281.58
460.218	1324.97
460.591	1303.72
460.964	1317.06
461.337	1368.35
461.71	1388.69
462.083	1412.87
462.456	1394.12
462.829	1386.21
463.201	1444.06
463.574	1436.37
463.947	1475.47
464.32	1484.96
464.692	1494.45
465.065	1512.08
465.438	1565.86
465.81	1569.25
466.183	1588.69
466.555	1610.83
466.928	1630.72
467.3	1626.65
467.672	1669.36
468.045	1733.77
468.417	1730.6
468.789	1731.28
469.161	1792.98
469.534	1805.4
469.906	1874.56
470.278	1908
470.65	1906.64
471.022	1946.19
471.394	2002.01
471.766	2045.17
472.138	2091.27
472.51	2122.46
472.882	2175.34
473.253	2184.6
473.625	2246.97
473.997	2305.5
474.369	2320.87
474.74	2387.76
475.112	2388.89
475.484	2499.17
475.855	2552.28
476.227	2606.29
476.598	2666.85
476.97	2727.41
477.341	2806.96
477.713	2878.6
478.084	2941.19
478.455	3033.17
478.827	3080.85
479.198	3177.8
479.569	3224.12
479.94	3343.22
480.311	3440.16
480.682	3502.76
481.053	3630.89
481.424	3722.42
481.795	3808.74
482.166	3891.68
482.537	3981.84
482.908	4146.36
483.279	4192.01
483.65	4343.42
484.021	4479.23
484.391	4553.81
484.762	4656.85
485.133	4756.06
485.503	4898.2
485.874	5055.71
486.244	5173.9
486.615	5315.59
486.985	5407.8
487.356	5570.5
487.726	5623.38
488.097	5852.53
488.467	5918.97
488.837	6135.01
489.207	6240.77
489.578	6368.22
489.948	6493.64
490.318	6666.29
490.688	6749
491.058	6997.13
491.428	7076
491.798	7255.66
492.168	7492.71
492.538	7593.5
492.908	7718.7
493.278	7875.98
493.648	7962.08
494.017	8141.74
494.387	8285.91
494.757	8391.22
495.126	8561.39
495.496	8592.8
495.866	8723.64
496.235	8891.32
496.605	9069.39
496.974	9162.05
497.344	9310.74
497.713	9470.74
498.082	9579.44
498.452	9778.75
498.821	9837.06
499.19	9928.13
499.559	10082.02
499.928	10129.25
500.298	10305.29
500.667	10413.54
501.036	10496.93
501.405	10626.42
501.774	10613.99
502.143	10851.49
502.512	10851.49
502.88	11015.33
503.249	11055.56
503.618	11208.1
503.987	11222.78
504.356	11400.18
504.724	11507.07
505.093	11537.13
505.462	11662.32
505.83	11707.97
506.199	11758.36
506.567	12055.76
506.936	11937.34
507.304	12178.69
507.672	12157.67
508.041	12329.2
508.409	12388.86
508.777	12491.9
509.145	12530.77
509.514	12538.46
509.882	12649.64
510.25	12761.27
510.618	12860.48
510.986	12803.53
511.354	12935.28
511.722	13064.77
512.09	13168.27
512.458	13187.93
512.826	13255.72
513.193	13345.21
513.561	13357.64
513.929	13480.8
514.297	13500.69
514.664	13600.12
515.032	13587.92
515.4	13636.51
515.767	13742.94
516.135	13801.47
516.502	13761.25
516.869	13956.72
517.237	13956.05
517.604	13903.17
517.972	14012.99
518.339	14164.85
518.706	14144.74
519.073	14130.73
519.44	14287.79
519.808	14332.08
520.175	14273.33
520.542	14431.06
520.909	14466.54
521.276	14401.01
521.643	14546.54
522.009	14516.03
522.376	14638.06
522.743	14668.12
523.11	14829.69
523.477	14916.25
523.843	14864.5
524.21	14994.44
524.577	15071.04
524.943	15122.57
525.31	15117.14
525.676	15155.11
526.043	15199.63
526.409	15204.83
526.776	15346.07
527.142	15319.85
527.508	15322.34
527.874	15442.79
528.241	15426.52
528.607	15394.65
528.973	15593.74
529.339	15512.39
529.705	15594.19
530.071	15553.97
530.437	15558.94
530.803	15602.1
531.169	15677.13
531.535	15624.93
531.901	15632.61
532.267	15582.44
532.632	15676.45
532.998	15584.48
533.364	15628.09
533.73	15649.11
534.095	15710.8
534.461	15695.66
534.826	15706.28
535.192	15702.44
535.557	15763
535.923	15751.7
536.288	15653.18
536.653	15641.88
537.019	15557.81
537.384	15650.46
537.749	15691.82
538.114	15570.92
538.479	15534.76
538.845	15565.27
539.21	15540.41
539.575	15594.87
539.94	15469
540.305	15553.52
540.67	15432.16
541.034	15488.43
541.399	15476.91
541.764	15314.43
542.129	15426.97
542.494	15443.69
542.858	15365.5
543.223	15348.78
543.587	15344.48
543.952	15298.61
544.316	15311.49
544.681	15248.21
545.045	15187.65
545.41	15220.19
545.774	15199.63
546.138	15117.6
546.503	15139.74
546.867	15010.03
547.231	15163.47
547.595	15137.94
547.959	15015
548.324	15053.87
548.688	15120.31
549.052	14996.02
549.416	14987.66
549.779	14956.47
550.143	14876.25
550.507	15019.75
550.871	14840.09
551.235	14775.46
551.599	14830.37
551.962	14888.45
552.326	14839.41
552.689	14786.76
553.053	14714.67
553.417	14669.25
553.78	14856.13
554.143	14821.56
554.507	14731.17
554.87	14730.49
555.234	14750.37
555.597	14688.23
555.96	14651.62
556.323	14579.98
556.686	14639.87
557.05	14700.43
557.413	14600.32
557.776	14594.45
558.139	14650.26
558.502	14578.85
558.865	14565.07
559.228	14720.32
559.59	14644.39
559.953	14661.11
560.316	14712.86
560.679	14697.04
561.041	14761.22
561.404	14755.8
561.767	14761.22
562.129	14736.82
562.492	14786.31
562.854	14803.48
563.217	14748.57
563.579	14759.64
563.941	14843.03
564.304	14762.8
564.666	14902.91
565.028	14808.45
565.39	14892.52
565.753	14932.97
566.115	14973.87
566.477	14992.63
566.839	14974.78
567.201	15084.6
567.563	14994.66
567.925	15072.63
568.287	15083.47
568.648	15055.45
569.01	15121.89
569.372	15116.69
569.734	15095.9
570.095	15130.7
570.457	15113.76
570.819	15203.7
571.18	15126.64
571.542	15208.89
571.903	15166.18
572.265	15199.18
572.626	15268.1
572.987	15267.42
573.349	15309.23
573.71	15230.81
574.071	15250.47
574.432	15272.85
574.794	15286.86
575.155	15356.23
575.516	15340.64
575.877	15315.78
576.238	15407.08
576.599	15324.82
576.96	15426.74
577.32	15247.99
577.681	15459.51
578.042	15409.34
578.403	15431.49
578.763	15387.19
579.124	15382.45
579.485	15511.48
579.845	15428.1
580.206	15416.57
580.566	15483.24
580.927	15379.28
581.287	15406.63
581.648	15361.88
582.008	15494.76
582.368	15386.29
582.728	15384.71
583.089	15430.36
583.449	15344.48
583.809	15405.95
584.169	15388.1
584.529	15316.01
584.889	15418.38
585.249	15310.13
585.609	15358.95
585.969	15414.76
586.329	15405.05
586.688	15333.64
587.048	15332.05
587.408	15334.09
587.768	15210.48
588.127	15218.61
588.487	15236.69
588.846	15279.85
589.206	15296.12
589.565	15252.96
589.925	15243.92
590.284	15257.71
590.643	15309.46
591.003	15236.69
591.362	15286.41
591.721	15159.63
592.08	15239.4
592.44	15166.41
592.799	15247.54
593.158	15146.3
593.517	15152.4
593.876	15155.11
594.235	15148.78
594.593	15125.73
594.952	15223.36
595.311	15116.69
595.67	15195.11
596.029	15207.09
596.387	15192.4
596.746	15268.78
597.104	15122.79
597.463	15079.18
597.822	15170.25
598.18	15086.86
598.538	15016.81
598.897	15143.81
599.255	14976.81
599.613	15193.3
599.972	15065.62
600.33	15135.45
600.688	15026.53
601.046	15113.08
601.404	15223.36
601.762	15117.82
602.12	15173.87
602.478	15147.43
602.836	15112.63
603.194	15077.37
603.552	15135.9
603.91	15097.26
604.268	15092.51
604.625	15112.63
604.983	15111.04
605.341	15081.67
605.698	15125.73
606.056	15217.26
606.413	15117.6
606.771	15240.31
607.128	15146.75
607.485	15149.46
607.843	15109.91
608.2	15250.02
608.557	15185.84
608.914	15217.93
609.272	15222.68
609.629	15171.83
609.986	15259.74
610.343	15123.47
610.7	15287.76
611.057	15250.7
611.414	15206.86
611.771	15263.13
612.127	15337.03
612.484	15319.4
612.841	15429.68
613.198	15276.24
613.554	15334.99
613.911	15320.08
614.267	15378.61
614.624	15326.63
614.98	15370.7
615.337	15404.37
615.693	15399.85
616.05	15381.32
616.406	15516
616.762	15437.14
617.118	15398.95
617.475	15504.03
617.831	15517.81
618.187	15468.1
618.543	15512.84
618.899	15595.32
619.255	15599.62
619.611	15639.84
619.967	15521.65
620.323	15686.62
620.678	15445.5
621.034	15514.65
621.39	15512.84
621.746	15491.15
622.101	15671.48
622.457	15573.4
622.812	15543.35
623.168	15612.95
623.523	15442.56
623.879	15594.65
624.234	15632.84
624.589	15570.69
624.945	15609.79
625.3	15539.51
625.655	15547.64
626.01	15557.36
626.365	15551.26
626.72	15610.47
627.075	15503.58
627.43	15564.59
627.785	15489.11
628.14	15577.47
628.495	15590.8
628.85	15584.25
629.205	15498.83
629.559	15645.94
629.914	15461.54
630.269	15507.19
630.623	15507.87
630.978	15489.79
631.332	15478.49
631.687	15490.69
632.041	15409.57
632.396	15487.98
632.75	15335.22
633.104	15447.76
633.459	15321.89
633.813	15327.31
634.167	15272.62
634.521	15159.63
634.875	15337.25
635.229	15238.5
635.583	15236.24
635.937	15170.25
636.291	15116.69
636.645	15155.34
636.999	15158.73
637.352	15191.72
637.706	15088.45
638.06	15111.04
638.413	15070.37
638.767	15084.38
639.121	14996.7
639.474	14954.89
639.828	15033.76
640.181	15014.55
640.534	14988.33
640.888	14902.69
641.241	14955.12
641.594	14958.73
641.947	14942.91
642.301	14987.43
642.654	14990.59
643.007	14956.47
643.36	14996.7
643.713	14881.9
644.066	15014.77
644.419	14821.11
644.771	14785.63
645.124	14699.08
645.477	14697.27
645.83	14496.37
646.182	14409.14
646.535	14460.44
646.888	14426.09
647.24	14361.68
647.593	14438.74
647.945	14394.68
648.298	14354.23
648.65	14322.14
649.002	14320.1
649.355	14441.23
649.707	14426.54
650.059	14490.04
650.411	14591.73
650.763	14620.43
651.115	14787.89
651.467	14694.33
651.819	14675.12
652.171	14749.02
652.523	14599.64
652.875	14694.78
653.227	14718.06
653.578	14758.28
653.93	14638.74
654.282	14758.28
654.633	14592.64
654.985	14674.22
655.337	14730.71
655.688	14626.08
656.039	14711.05
656.391	14620.89
656.742	14684.16
657.094	14654.11
657.445	14685.97
657.796	14659.3
658.147	14626.31
658.498	14770.49
658.849	14760.54
659.2	14688.68
659.551	14679.64
659.902	14768.23
660.253	14705.18
660.604	14721.9
660.955	14679.42
661.306	14711.73
661.656	14769.58
662.007	14730.26
662.358	14710.15
662.708	14703.37
663.059	14739.75
663.409	14673.77
663.76	14799.19
664.11	14744.73
664.461	14820.88
664.811	14797.15
665.161	14793.99
665.511	14740.66
665.862	14857.04
666.212	14713.54
666.562	14790.83
666.912	14775.01
667.262	14745.63
667.612	14765.97
667.962	14820.88
668.312	14794.67
668.662	14763.93
669.011	14824.95
669.361	14780.2
669.711	14743.14
670.06	14692.98
670.41	14726.42
670.76	14693.2
671.109	14687.55
671.459	14804.38
671.808	14670.15
672.157	14747.66
672.507	14644.16
672.856	14671.96
673.205	14571.4
673.554	14728.23
673.904	14646.65
674.253	14690.04
674.602	14618.4
674.951	14373.66
675.3	14360.55
675.649	14524.39
675.998	14520.78
676.346	14558.74
676.695	14622.24
677.044	14400.78
677.393	14555.35
677.741	14465.86
678.09	14460.44
678.438	14422.7
678.787	14435.58
679.135	14406.88
679.484	14361.91
679.832	14412.98
680.181	14292.53
680.529	14334.79
680.877	14244.85
681.225	14312.19
681.573	14286.88
681.922	14225.64
682.27	14092.54
682.618	14163.5
682.966	14144.06
683.314	14205.98
683.661	14107.23
684.009	14060.22
684.357	14070.62
684.705	13989.26
685.053	14014.12
685.4	13970.06
685.748	13942.94
686.095	13958.53
686.443	13807.8
686.79	13735.71
687.138	13891.64
687.485	13763.96
687.832	13783.85
688.18	13773.45
688.527	13688.93
688.874	13757.41
689.221	13570.52
689.568	13607.81
689.915	13540.69
690.262	13570.52
690.609	13511.99
690.956	13533.01
691.303	13377.76
691.65	13356.97
691.997	13292.79
692.344	13269.51
692.69	13246.91
693.037	13203.75
693.383	13026.58
693.73	13178.66
694.077	13031.78
694.423	13013.92
694.769	12985.68
695.116	12898.45
695.462	12911.78
695.808	12827.26
696.155	12854.15
696.501	12793.82
696.847	12784.55
697.193	12681.28
697.539	12703.42
697.885	12581.62
698.231	12546.37
698.577	12416.2
698.923	12432.24
699.269	12394.5
699.614	12292.13
699.96	12333.26
700.306	12332.81
700.651	12276.09
700.997	12171.01
701.342	12156.77
701.688	12184.11
702.033	12086.26
702.379	12098.47
702.724	11996.32
703.069	12055.98
703.415	11812.6
703.76	11903.67
704.105	11844.01
704.45	11834.29
704.795	11672.94
705.14	11708.42
705.485	11741.87
705.83	11561.76
706.175	11618.25
706.52	11542.32
706.865	11556.56
707.209	11556.79
707.554	11445.83
707.899	11452.83
708.243	11433.4
708.588	11358.6
708.932	11266.17
709.277	11255.33
709.621	11309.56
709.966	11199.06
710.31	11286.96
710.654	11109.11
710.998	11126.06
711.342	11164.25
711.687	11114.54
712.031	11064.37
712.375	11030.7
712.719	11022.34
713.063	11034.77
713.407	10980.76
713.75	11042
714.094	10897.37
714.438	10932.17
714.782	10884.04
715.125	10843.13
715.469	10917.26
715.812	10748.45
716.156	10720.88
716.499	10803.59
716.843	10752.06
717.186	10690.82
717.53	10699.86
717.873	10774.21
718.216	10769.46
718.559	10760.42
718.902	10620.31
719.246	10714.55
719.589	10672.74
719.932	10620.77
720.275	10564.5
720.617	10648.79
720.96	10585.06
721.303	10539.86
721.646	10609.69
721.989	10581.44
722.331	10489.24
722.674	10471.84
723.016	10582.12
723.359	10506.19
723.701	10517.27
724.044	10427.78
724.386	10358.4
724.729	10407.44
725.071	10433.2
725.413	10379.64
725.755	10377.38
726.097	10394.56
726.439	10253.77
726.782	10392.07
727.124	10302.81
727.465	10315.46
727.807	10270.72
728.149	10340.77
728.491	10209.7
728.833	10303.03
729.175	10260.1
729.516	10198.86
729.858	10331.28
730.199	10286.99
730.541	10226.2
730.882	10253.32
731.224	10336.48
731.565	10255.58
731.906	10296.93
732.248	10287.44
732.589	10254.9
732.93	10236.82
733.271	10223.94
733.612	10192.75
733.953	10323.82
734.294	10235.69
734.635	10172.64
734.976	10267.33
735.317	10159.76
735.658	10197.95
735.999	10291.96
736.339	10254.22
736.68	10223.94
737.021	10251.28
737.361	10209.48
737.702	10217.16
738.042	10229.36
738.383	10202.7
738.723	10291.74
739.063	10263.49
739.404	10326.08
739.744	10271.4
740.084	10283.6
740.424	10295.12
740.764	10328.8
741.104	10395.24
741.444	10248.35
741.784	10323.6
742.124	10353.65
742.464	10347.55
742.804	10379.19
743.143	10398.17
743.483	10463.48
743.823	10421.68
744.162	10476.14
744.502	10484.5
744.841	10521.11
745.181	10640.43
745.52	10577.38
745.86	10687.43
746.199	10653.53
746.538	10681.33
746.877	10767.43
747.216	10830.25
747.556	10861.21
747.895	10905.96
748.234	10912.51
748.573	10973.07
748.911	11015.33
749.25	11101.66
749.589	11070.25
749.928	11258.49
750.267	11284.48
750.605	11358.83
750.944	11400.41
751.283	11517.69
751.621	11676.11
751.96	11702.77
752.298	11781.64
752.636	11842.88
752.975	11894.86
753.313	12052.82
753.651	12179.37
753.989	12192.48
754.327	12394.5
754.666	12493.49
755.004	12611.45
755.342	12723.31
755.679	12850.54
756.017	12919.01
