Data from hue_32_FLMS001491_00071.txt Node
Date: Tue Feb 07 17:23:52 GMT 2017
User: dcchb
Spectrometer: FLMS00149
Trigger mode: 0
Integration Time (sec): 2.000000E-2
Scans to average: 10
Electric dark correction enabled: true
Nonlinearity correction enabled: false
Boxcar width: 0
XAxis mode: Wavelengths
Number of Pixels in Spectrum: 2048
>>>>>Begin Spectral Data<<<<<
341.393	-17.43
341.776	-17.43
342.16	-17.43
342.543	-72.12
342.927	-60.14
343.31	-87.94
343.693	-50.42
344.077	-74.83
344.46	-37.54
344.843	-67.15
345.226	-50.2
345.61	-33.93
345.993	-7.94
346.376	-14.72
346.759	6.98
347.142	14.89
347.525	49.91
347.908	71.61
348.291	58.95
348.674	103.92
349.057	118.39
349.44	133.53
349.823	153.41
350.206	161.1
350.588	184.83
350.971	206.07
351.354	233.64
351.737	261.66
352.119	249
352.502	265.05
352.884	272.28
353.267	297.37
353.65	293.52
354.032	304.14
354.414	307.76
354.797	327.87
355.179	322
355.562	331.49
355.944	322.22
356.326	344.82
356.709	356.35
357.091	330.58
357.473	364.48
357.855	346.18
358.238	355.44
358.62	344.14
359.002	332.39
359.384	340.98
359.766	369.91
360.148	336.69
360.53	331.71
360.912	339.17
361.294	364.48
361.676	340.75
362.057	334.43
362.439	335.1
362.821	333.07
363.203	345.27
363.584	324.26
363.966	311.6
364.348	352.28
364.729	333.75
365.111	350.25
365.493	312.05
365.874	331.94
366.256	325.16
366.637	337.14
367.019	315.44
367.4	311.15
367.781	346.63
368.163	288.78
368.544	311.15
368.925	326.52
369.306	333.97
369.688	340.08
370.069	306.86
370.45	320.19
370.831	313.64
371.212	330.81
371.593	324.03
371.974	330.36
372.355	314.77
372.736	336.01
373.117	315.9
373.498	325.16
373.879	307.31
374.26	331.71
374.641	314.77
375.021	355.44
375.402	323.35
375.783	326.29
376.163	328.1
376.544	347.08
376.925	326.29
377.305	325.16
377.686	342.11
378.066	340.3
378.447	335.56
378.827	348.21
379.208	372.17
379.588	328.1
379.968	339.62
380.349	352.5
380.729	343.24
381.109	345.5
381.489	345.27
381.87	352.96
382.25	347.76
382.63	342.56
383.01	361.09
383.39	340.53
383.77	350.47
384.15	342.34
384.53	338.72
384.91	352.73
385.29	343.47
385.67	349.57
386.049	352.05
386.429	344.82
386.809	379.62
387.189	373.97
387.568	365.39
387.948	359.06
388.328	342.11
388.707	360.87
389.087	344.6
389.466	369.23
389.846	358.38
390.225	375.78
390.605	363.35
390.984	373.3
391.363	342.11
391.743	356.57
392.122	366.29
392.501	377.59
392.881	379.62
393.26	372.84
393.639	383.01
394.018	393.63
394.397	387.53
394.776	392.73
395.155	397.48
395.534	374.43
395.913	394.76
396.292	394.76
396.671	393.41
397.05	401.32
397.429	385.05
397.808	371.94
398.186	394.76
398.565	403.12
398.944	395.89
399.323	371.94
399.701	397.93
400.08	384.14
400.458	403.35
400.837	380.3
401.215	412.16
401.594	416.46
401.972	398.61
402.351	402.22
402.729	410.58
403.107	416.91
403.486	422.79
403.864	413.97
404.242	420.53
404.62	415.78
404.999	427.08
405.377	421.43
405.755	428.21
406.133	430.47
406.511	430.92
406.889	418.04
407.267	423.01
407.645	433.18
408.023	426.85
408.401	419.4
408.779	432.73
409.156	442.45
409.534	439.73
409.912	449.23
410.29	449
410.667	474.54
411.045	453.75
411.422	464.37
411.8	453.97
412.178	438.6
412.555	471.37
412.933	481.99
413.31	483.12
413.687	484.48
414.065	486.06
414.442	478.38
414.819	476.34
415.197	481.99
415.574	481.99
415.951	516.12
416.328	492.84
416.705	481.77
417.082	503.91
417.46	487.42
417.837	501.2
418.214	504.59
418.591	506.4
418.967	520.64
419.344	507.08
419.721	518.83
420.098	504.59
420.475	515.44
420.852	514.99
421.228	525.16
421.605	516.34
421.982	538.71
422.358	546.4
422.735	532.16
423.111	544.59
423.488	552.73
423.864	562.67
424.241	540.97
424.617	546.4
424.994	570.58
425.37	560.86
425.746	578.49
426.123	571.26
426.499	554.31
426.875	572.16
427.251	601.54
427.627	576.91
428.003	579.17
428.379	594.08
428.756	621.65
429.132	628.88
429.507	618.94
429.883	601.54
430.259	605.38
430.635	622.33
431.011	644.02
431.387	627.3
431.763	634.53
432.138	631.14
432.514	650.35
432.89	595.21
433.265	654.19
433.641	648.09
434.016	654.87
434.392	692.61
434.767	676.34
435.143	681.08
435.518	681.08
435.894	702.33
436.269	713.85
436.644	721.99
437.02	710.01
437.395	714.08
437.77	713.17
438.145	715.21
438.52	716.34
438.895	735.09
439.271	713.63
439.646	720.63
440.021	745.71
440.395	727.86
440.77	766.96
441.145	759.73
441.52	790.91
441.895	785.94
442.27	757.01
442.645	768.77
443.019	791.59
443.394	768.31
443.769	758.6
444.143	777.13
444.518	781.65
444.892	783
445.267	812.15
445.641	804.7
446.016	818.26
446.39	835.88
446.764	823.45
447.139	784.81
447.513	820.97
447.887	836.33
448.262	839.5
448.636	861.19
449.01	827.75
449.384	847.86
449.758	848.99
450.132	849.21
450.506	862.77
450.88	872.72
451.254	867.97
451.628	869.55
452.002	891.47
452.376	918.37
452.75	896.9
453.123	898.48
453.497	933.51
453.871	938.25
454.244	955.88
454.618	921.76
454.992	936.22
455.365	945.03
455.739	942.77
456.112	987.74
456.486	983.45
456.859	1002.88
457.232	1009.66
457.606	1009.89
457.979	1026.84
458.352	1041.98
458.725	1062.99
459.099	1033.84
459.472	1073.62
459.845	1057.57
460.218	1061.86
460.591	1101.64
460.964	1070
461.337	1113.84
461.71	1101.64
462.083	1150
462.456	1158.81
462.829	1154.29
463.201	1181.64
463.574	1163.33
463.947	1203.33
464.32	1215.76
464.692	1232.93
465.065	1226.15
465.438	1257.57
465.81	1272.03
466.183	1299.82
466.555	1345.7
466.928	1299.6
467.3	1333.5
467.672	1346.38
468.045	1400.16
468.417	1397
468.789	1410.1
469.161	1419.82
469.534	1435.87
469.906	1459.37
470.278	1480.61
470.65	1494.85
471.022	1545.92
471.394	1550.67
471.766	1571
472.138	1596.54
472.51	1619.59
472.882	1692.58
473.253	1680.15
473.625	1679.7
473.997	1781.39
474.369	1768.96
474.74	1827.72
475.112	1847.61
475.484	1865.46
475.855	1897.55
476.227	1938.23
476.598	2017.77
476.97	2005.79
477.341	2068.84
477.713	2111.1
478.084	2151.78
478.455	2199.01
478.827	2208.05
479.198	2294.37
479.569	2329.4
479.94	2405.11
480.311	2462.28
480.682	2526.68
481.053	2577.53
481.424	2645.78
481.795	2705.44
482.166	2772.1
482.537	2784.76
482.908	2849.84
483.279	2915.38
483.65	2967.35
484.021	3101.13
484.391	3105.2
484.762	3244.63
485.133	3240.34
485.503	3308.36
485.874	3421.58
486.244	3462.93
486.615	3561.91
486.985	3671.97
487.356	3737.5
487.726	3751.96
488.097	3875.12
488.467	3936.82
488.837	4051.62
489.207	4104.04
489.578	4177.94
489.948	4291.61
490.318	4357.15
490.688	4393.75
491.058	4551.04
491.428	4622.68
491.798	4678.72
492.168	4762.33
492.538	4828.32
492.908	4926.62
493.278	5009.56
493.648	5061.31
494.017	5154.41
494.387	5223.56
494.757	5293.84
495.126	5395.54
495.496	5417.91
495.866	5507.85
496.235	5583.78
496.605	5650.9
496.974	5693.38
497.344	5847.73
497.713	5852.7
498.082	5871
498.452	6037.33
498.821	6058.34
499.19	6134.05
499.559	6194.84
499.928	6277.55
500.298	6316.42
500.667	6392.57
501.036	6392.8
501.405	6456.75
501.774	6562.74
502.143	6605
502.512	6701.49
502.88	6721.38
503.249	6750.3
503.618	6837.31
503.987	6838.89
504.356	6943.74
504.724	6950.98
505.093	7002.5
505.462	7057.87
505.83	7134.47
506.199	7191.65
506.567	7264.64
506.936	7322.72
507.304	7366.56
507.672	7437.29
508.041	7510.73
508.409	7576.95
508.777	7619.88
509.145	7663.95
509.514	7740.11
509.882	7802.03
510.25	7751.86
510.618	7853.55
510.986	7906.2
511.354	7898.75
511.722	7968.35
512.09	8072.98
512.458	8018.74
512.826	8106.2
513.193	8182.36
513.561	8188.91
513.929	8273.65
514.297	8353.88
514.664	8334.89
515.032	8394.1
515.4	8454.89
515.767	8551.16
516.135	8598.16
516.502	8543.7
516.869	8674.55
517.237	8737.82
517.604	8660.08
517.972	8773.53
518.339	8795.45
518.706	8845.84
519.073	8861.43
519.44	8866.18
519.808	8980.98
520.175	8996.35
520.542	9049.9
520.909	9113.86
521.276	9116.12
521.643	9163.35
522.009	9270.46
522.376	9315.21
522.743	9314.08
523.11	9462.1
523.477	9540.74
523.843	9574.18
524.21	9671.81
524.577	9721.52
524.943	9823.89
525.31	9855.98
525.676	9953.83
526.043	9902.54
526.409	9943.44
526.776	10052.59
527.142	10060.05
527.508	10131
527.874	10177.78
528.241	10262.07
528.607	10326.25
528.973	10377.55
529.339	10380.26
529.705	10486.02
530.071	10522.41
530.437	10646.25
530.803	10636.75
531.169	10708.39
531.535	10679.46
531.901	10754.72
532.267	10794.72
532.632	10830.87
532.998	10900.25
533.364	11000.13
533.73	10994.48
534.095	11033.35
534.461	11109.51
534.826	11165.55
535.192	11171.88
535.557	11354.25
535.923	11289.62
536.288	11362.38
536.653	11387.69
537.019	11387.24
537.384	11457.07
537.749	11524.87
538.114	11561.48
538.479	11625.2
538.845	11662.26
539.21	11637.86
539.575	11678.08
539.94	11777.29
540.305	11798.08
540.67	11836.5
541.034	11936.83
541.399	11904.07
541.764	11999.66
542.129	12028.36
542.494	12067.45
542.858	12101.57
543.223	12104.29
543.587	12230.84
543.952	12235.36
544.316	12261.57
544.681	12356.71
545.045	12412.3
545.41	12506.08
545.774	12507.89
546.138	12542.24
546.503	12602.13
546.867	12634.22
547.231	12734.55
547.595	12813.65
547.959	12769.58
548.324	12914.21
548.688	12838.73
549.052	12879.18
549.416	12965.28
549.779	12991.27
550.143	13022.68
550.507	13115.79
550.871	13203.01
551.235	13149
551.599	13210.25
551.962	13266.97
552.326	13325.27
552.689	13420.41
553.053	13285.72
553.417	13317.14
553.78	13615.66
554.143	13487.3
554.507	13572.72
554.87	13502.22
555.234	13716.45
555.597	13648.88
555.96	13632.38
556.323	13719.61
556.686	13757.58
557.05	13851.58
557.413	13852.26
557.776	13923.45
558.139	14085.7
558.502	14075.99
558.865	14035.53
559.228	14180.16
559.59	14251.35
559.953	14245.7
560.316	14349.88
560.679	14353.04
561.041	14454.96
561.404	14547.84
561.767	14617.44
562.129	14512.58
562.492	14633.94
562.854	14626.93
563.217	14632.81
563.579	14662.41
563.941	14742.63
564.304	14808.17
564.666	14899.24
565.028	14916.19
565.39	15039.8
565.753	15073.02
566.115	15019.24
566.477	15136.3
566.839	15240.25
567.201	15306.24
567.563	15402.5
567.925	15456.29
568.287	15451.99
568.648	15589.17
569.01	15572.44
569.372	15674.59
569.734	15651.09
570.095	15766.11
570.457	15780.57
570.819	15863.96
571.18	15937.63
571.542	16011.3
571.903	16103.5
572.265	16128.81
572.626	16301.46
572.987	16286.55
573.349	16327.45
573.71	16457.17
574.071	16514.79
574.432	16622.13
574.794	16786.42
575.155	16827.1
575.516	16792.75
575.877	16913.43
576.238	17175.34
576.599	17262.79
576.96	17227.99
577.32	17404.94
577.681	17578.72
578.042	17677.02
578.403	17762.89
578.763	17832.27
579.124	17974.87
579.485	18211.7
579.845	18349.77
580.206	18426.15
580.566	18542.76
580.927	18689.65
581.287	19041.5
581.648	19046.93
582.008	19302.97
582.368	19485.56
582.728	19580.25
583.089	19765.78
583.449	19968.49
583.809	20176.62
584.169	20238.76
584.529	20488.47
584.889	20845.98
585.249	20968.91
585.609	21124.39
585.969	21516.02
586.329	21607.54
586.688	21855.22
587.048	22167.52
587.408	22325.71
587.768	22566.61
588.127	22762.54
588.487	23046.37
588.846	23406.81
589.206	23544.89
589.565	23706.69
589.925	24139
590.284	24285.66
590.643	24528.59
591.003	24870.73
591.362	25128.58
591.721	25295.8
592.08	25652.86
592.44	25818.28
592.799	26138.04
593.158	26401.31
593.517	26744.13
593.876	26932.82
594.235	27267.96
594.593	27433.83
594.952	27917.2
595.311	27916.98
595.67	28222.05
596.029	28584.3
596.387	28931.41
596.746	29127.79
597.104	29377.28
597.463	29579.76
597.822	30035.34
598.18	30048.9
598.538	30367.76
598.897	30712.38
599.255	30789.22
599.613	31426.26
599.972	31355.76
600.33	31667.84
600.688	31740.38
601.046	32197.09
601.404	32540.81
601.762	32660.58
602.12	32821.03
602.478	33266.89
602.836	33404.29
603.194	33436.83
603.552	33589.6
603.91	33863.94
604.268	34167.89
604.625	34267.09
604.983	34629.8
605.341	34690.81
605.698	35021.88
606.056	35119.5
606.413	35288.76
606.771	35640.16
607.128	35942.98
607.485	35812.36
607.843	35929.65
608.2	36363.31
608.557	36624.55
608.914	36471.56
609.272	36808.27
609.629	37034.03
609.986	37314.47
610.343	37178.43
610.7	37746.55
611.057	37725.76
611.414	37969.59
611.771	38116.48
612.127	38365.29
612.484	38447.77
612.841	38620.2
613.198	38768.67
613.554	38683.7
613.911	39133.63
614.267	39264.02
614.624	39301.54
614.98	39492.27
615.337	39655.2
615.693	39788.53
616.05	39863.33
616.406	40101.06
616.762	40160.72
617.118	40209.31
617.475	40220.84
617.831	40546.7
618.187	40479.81
618.543	40678.9
618.899	41007.26
619.255	40888.61
619.611	41027.37
619.967	41195.27
620.323	41396.85
620.678	41283.18
621.034	41396.17
621.39	41373.8
621.746	41377.41
622.101	41880
622.457	41569.95
622.812	41806.1
623.168	41854.46
623.523	41963.84
623.879	42060.33
624.234	41971.07
624.589	41972.43
624.945	42183.5
625.3	42217.17
625.655	42327.9
626.01	42384.17
626.365	42544.16
626.72	42456.71
627.075	42405.41
627.43	42513.66
627.785	42382.13
628.14	42527.44
628.495	42630.72
628.85	42670.71
629.205	42476.59
629.559	42874.1
629.914	42712.3
630.269	42738.28
630.623	42653.99
630.978	42584.39
631.332	42897.6
631.687	42919.3
632.041	42647.44
632.396	42828.68
632.75	42570.83
633.104	42814.44
633.459	42804.95
633.813	42716.59
634.167	42776.02
634.521	42737.38
634.875	42780.32
635.229	42799.07
635.583	42627.1
635.937	42663.26
636.291	42660.54
636.645	42650.83
636.999	42542.81
637.352	42748
637.706	42473.88
638.06	42895.57
638.413	42552.98
638.767	42526.31
639.121	42795.46
639.474	42568.34
639.828	42684.27
640.181	42491.74
640.534	42486.54
640.888	42518.85
641.241	42278.41
641.594	42368.35
641.947	42601.34
642.301	42322.7
642.654	42459.87
643.007	42420.1
643.36	42419.65
643.713	42331.51
644.066	42587.55
644.419	42178.07
644.771	41901.02
645.124	41661.93
645.477	41645.66
645.83	41436.4
646.182	41185.1
646.535	41151.88
646.888	41250.64
647.24	40910.08
647.593	41127.25
647.945	41136.52
648.298	40940.82
648.65	40995.05
649.002	40836.86
649.355	40939.69
649.707	41031.44
650.059	41122.05
650.411	41571.53
650.763	41699.67
651.115	42034.8
651.467	41964.07
651.819	41913.67
652.171	41738.76
652.523	41755.48
652.875	41823.05
653.227	41593
653.578	41815.82
653.93	41723.62
654.282	41578.31
654.633	41555.49
654.985	41587.35
655.337	41673.68
655.688	41456.28
656.039	41713.68
656.391	41395.72
656.742	41586.67
657.094	41621.7
657.445	41752.32
657.796	41607.01
658.147	41348.49
658.498	41449.96
658.849	41659.67
659.2	41476.17
659.551	41249.28
659.902	41642.27
660.253	41474.81
660.604	41494.25
660.955	41216.74
661.306	41519.56
661.656	41331.77
662.007	41236.63
662.358	41451.09
662.708	41415.61
663.059	41210.64
663.409	41083.41
663.76	41337.87
664.11	41485.43
664.461	41437.3
664.811	41495.6
665.161	41444.76
665.511	41390.97
665.862	41298.55
666.212	41337.19
666.562	41401.14
666.912	41204.54
667.262	41294.25
667.612	41289.06
667.962	41282.5
668.312	41337.64
668.662	41450.86
669.011	41183.52
669.361	41291.32
669.711	41269.85
670.06	41200.47
670.41	41109.63
670.76	40983.07
671.109	41140.36
671.459	41132
671.808	41116.18
672.157	41141.94
672.507	40953.92
672.856	40914.15
673.205	40951.89
673.554	41221.03
673.904	40807.03
674.253	41104.2
674.602	41040.7
674.951	40405.69
675.3	40304.9
675.649	40865.56
675.998	40762.74
676.346	41026.24
676.695	40976.52
677.044	40725.45
677.393	40833.93
677.741	40757.09
678.09	40781.72
678.438	40752.57
678.787	40802.06
679.135	40778.33
679.484	40393.26
679.832	40556.42
680.181	40362.3
680.529	40492.92
680.877	40369.76
681.225	40423.32
681.573	40597.77
681.922	40235.3
682.27	40080.27
682.618	40098.35
682.966	40100.39
683.314	40231.91
683.661	40120.5
684.009	39777
684.357	39784.91
684.705	39867.62
685.053	39863.56
685.4	39696.33
685.748	39525.03
686.095	39578.59
686.443	39487.52
686.79	39337.47
687.138	39381.99
687.485	39506.96
687.832	39357.35
688.18	39256.11
688.527	39140.19
688.874	39145.61
689.221	38975.67
689.568	38902.23
689.915	38769.57
690.262	38767.31
690.609	38622.91
690.956	38583.59
691.303	38517.38
691.65	38219.31
691.997	38304.95
692.344	38128.91
692.69	38051.63
693.037	38093.89
693.383	37787.9
693.73	37936.38
694.077	37838.52
694.423	37755.82
694.769	37699.32
695.116	37621.58
695.462	37520.79
695.808	37373.68
696.155	37585.65
696.501	37246.22
696.847	37211.87
697.193	36789.29
697.539	37115.38
697.885	36706.35
698.231	36757.88
698.577	36668.61
698.923	36626.81
699.269	36507.94
699.614	36311.11
699.96	36292.58
700.306	36286.93
700.651	36164.44
700.997	36062.07
701.342	35971.46
701.688	35974.62
702.033	35790.22
702.379	35630
702.724	35565.14
703.069	35742.31
703.415	35306.84
703.76	35332.6
704.105	35320.4
704.45	35216.67
704.795	35092.83
705.14	34928.54
705.485	34971.03
705.83	34853.52
706.175	34932.61
706.52	34716.35
706.865	34632.73
707.209	34730.36
707.554	34475.68
707.899	34523.36
708.243	34395.23
708.588	34253.99
708.932	34104.39
709.277	34170.37
709.621	34171.05
709.966	33832.08
710.31	33956.59
710.654	33659.2
710.998	33697.62
711.342	33675.24
711.687	33594.34
712.031	33497.17
712.375	33393.67
712.719	33378.08
713.063	33246.78
713.407	33452.43
713.75	33326.55
714.094	33126.11
714.438	33104.41
714.782	33216.5
715.125	32878.88
715.469	33091.98
715.812	32852.67
716.156	32674.59
716.499	32728.6
716.843	32773.57
717.186	32526.35
717.53	32708.04
717.873	32599.34
718.216	32566.12
718.559	32266.02
718.902	32131.33
719.246	32252.46
719.589	32190.09
719.932	32001.39
720.275	32096.98
720.617	32052.46
720.96	32023.54
721.303	31889.3
721.646	31931.34
721.989	31784.9
722.331	31797.78
722.674	31649.76
723.016	31722.3
723.359	31566.6
723.701	31760.49
724.044	31421.07
724.386	31293.61
724.729	31535.41
725.071	31431.24
725.413	31284.35
725.755	31208.64
726.097	31223.11
726.439	31061.53
726.782	30937.92
727.124	31106.5
727.465	30941.31
727.807	31000.74
728.149	30921.87
728.491	30843.45
728.833	30870.8
729.175	30720.97
729.516	30650.47
729.858	30685.04
730.199	30713.74
730.541	30683.68
730.882	30528.21
731.224	30668.54
731.565	30454.99
731.906	30485.5
732.248	30474.2
732.589	30210.48
732.93	30170.7
733.271	30242.34
733.612	30265.16
733.953	30285.28
734.294	30112.17
734.635	29927.32
734.976	30099.07
735.317	29959.86
735.658	29934.33
735.999	29983.59
736.339	29797.38
736.68	29963.25
737.021	29845.97
737.361	29613.66
737.702	29834.67
738.042	29657.27
738.383	29685.07
738.723	29614.11
739.063	29643.94
739.404	29650.04
739.744	29560.32
740.084	29441.01
740.424	29471.06
740.764	29282.82
741.104	29583.37
741.444	29353.55
741.784	29136.38
742.124	29194.01
742.464	29073.11
742.804	29102.48
743.143	29101.35
743.483	29184.06
743.823	28908.36
744.162	28829.5
744.502	29083.73
744.841	28807.12
745.181	28930.06
745.52	28748.37
745.86	28806.45
746.199	28724.19
746.538	28723.51
746.877	28775.03
747.216	28695.26
747.556	28636.05
747.895	28585.43
748.234	28442.61
748.573	28491.88
748.911	28491.43
749.25	28443.97
749.589	28281.49
749.928	28350.19
750.267	28426.79
750.605	28422.73
750.944	28135.05
751.283	28132.79
751.621	28131.89
751.96	27973.47
752.298	28022.74
752.636	28023.42
752.975	28003.3
753.313	27841.73
753.651	27986.35
753.989	27788.62
754.327	27700.26
754.666	27515.18
755.004	27631.56
755.342	27612.13
755.679	27540.04
756.017	27333.49
756.355	27637.21
756.693	27258.01
757.031	27436.31
757.368	27268.63
757.706	27199.26
758.044	27182.31
758.381	27206.04
