Data from hue_90_FLMS001491_22.txt Node
Date: Mon Feb 06 15:24:53 GMT 2017
User: dcchb
Spectrometer: FLMS00149
Trigger mode: 0
Integration Time (sec): 2.000000E-2
Scans to average: 10
Electric dark correction enabled: true
Nonlinearity correction enabled: false
Boxcar width: 0
XAxis mode: Wavelengths
Number of Pixels in Spectrum: 2048
>>>>>Begin Spectral Data<<<<<
341.393	20.86
341.776	20.86
342.16	20.86
342.543	-48.06
342.927	-59.36
343.31	-65.69
343.693	-72.92
344.077	-62.75
344.46	-52.36
344.843	-60.94
345.226	-57.33
345.61	-11.23
345.993	-21.62
346.376	7.53
346.759	15.89
347.142	23.12
347.525	47.75
347.908	52.05
348.291	53.63
348.674	88.43
349.057	116.45
349.44	118.94
349.823	132.95
350.206	163.68
350.588	189.44
350.971	199.39
351.354	221.31
351.737	222.44
352.119	245.71
352.502	238.71
352.884	258.14
353.267	273.06
353.65	297.69
354.032	301.31
354.414	327.97
354.797	291.59
355.179	316.67
355.562	315.77
355.944	332.04
356.326	322.55
356.709	318.71
357.091	310.8
357.473	348.08
357.855	334.98
358.238	338.14
358.62	336.78
359.002	337.91
359.384	308.99
359.766	338.59
360.148	318.93
360.53	331.36
360.912	347.18
361.294	334.3
361.676	324.58
362.057	332.27
362.439	335.88
362.821	332.72
363.203	315.54
363.584	326.62
363.966	323.9
364.348	329.1
364.729	334.3
365.111	308.76
365.493	332.04
365.874	320.51
366.256	318.93
366.637	320.06
367.019	323
367.4	315.99
367.781	303.34
368.163	316.67
368.544	307.63
368.925	310.57
369.306	339.27
369.688	310.34
370.069	323.9
370.45	304.02
370.831	320.06
371.212	326.62
371.593	310.8
371.974	311.93
372.355	306.5
372.736	314.41
373.117	301.31
373.498	294.75
373.879	312.38
374.26	315.09
374.641	318.25
375.021	325.03
375.402	315.09
375.783	341.3
376.163	323
376.544	342.43
376.925	346.28
377.305	325.26
377.686	313.06
378.066	334.3
378.447	330.91
378.827	332.94
379.208	327.75
379.588	338.82
379.968	343.79
380.349	327.52
380.729	330.01
381.109	345.15
381.489	330.01
381.87	330.68
382.25	339.04
382.63	327.29
383.01	337.46
383.39	357.8
383.77	364.58
384.15	344.24
384.53	357.12
384.91	339.5
385.29	358.25
385.67	362.77
386.049	353.28
386.429	348.54
386.809	357.12
387.189	372.26
387.568	356.67
387.948	344.47
388.328	348.31
388.707	357.12
389.087	389.21
389.466	337.01
389.846	360.29
390.225	380.63
390.605	380.17
390.984	352.83
391.363	377.24
391.743	374.3
392.122	361.64
392.501	395.77
392.881	383.34
393.26	389.21
393.639	391.7
394.018	376.11
394.397	400.96
394.776	363.45
395.155	383.79
395.534	372.26
395.913	403.45
396.292	387.63
396.671	397.12
397.05	405.71
397.429	387.18
397.808	389.44
398.186	391.25
398.565	405.71
398.944	401.87
399.323	396.44
399.701	404.58
400.08	398.03
400.458	405.48
400.837	417.46
401.215	422.43
401.594	412.94
401.972	412.94
402.351	389.89
402.729	429.66
403.107	424.92
403.486	411.59
403.864	401.87
404.242	431.25
404.62	428.08
404.999	440.51
405.377	428.76
405.755	414.75
406.133	446.84
406.511	437.8
406.889	429.66
407.267	441.19
407.645	438.03
408.023	475.99
408.401	461.98
408.779	437.8
409.156	458.82
409.534	451.81
409.912	458.36
410.29	458.14
410.667	452.71
411.045	461.75
411.422	480.51
411.8	492.94
412.178	461.08
412.555	491.58
412.933	486.84
413.31	495.42
413.687	504.92
414.065	504.01
414.442	489.78
414.819	483.45
415.197	507.85
415.574	503.11
415.951	499.49
416.328	517.12
416.705	515.99
417.082	523.9
417.46	541.3
417.837	555.99
418.214	558.7
418.591	528.87
418.967	544.92
419.344	572.71
419.721	542.88
420.098	530.9
420.475	563.22
420.852	555.54
421.228	570.45
421.605	539.04
421.982	550.11
422.358	563.45
422.735	596.21
423.111	578.13
423.488	562.32
423.864	565.48
424.241	603.9
424.617	589.43
424.994	596.67
425.37	595.54
425.746	598.02
426.123	620.17
426.499	587.85
426.875	633.73
427.251	614.29
427.627	631.24
428.003	629.43
428.379	618.13
428.756	649.32
429.132	650.67
429.507	648.64
429.883	669.88
430.259	658.36
430.635	668.98
431.011	679.83
431.387	694.06
431.763	713.27
432.138	711.24
432.514	701.3
432.89	709.88
433.265	682.76
433.641	726.83
434.016	720.73
434.392	727.51
434.767	745.59
435.143	744.23
435.518	738.36
435.894	771.35
436.269	755.3
436.644	755.76
437.02	781.74
437.395	769.99
437.77	798.69
438.145	798.69
438.52	794.85
438.895	802.54
439.271	799.37
439.646	823.78
440.021	796.21
440.395	823.55
440.77	825.13
441.145	831.69
441.52	856.32
441.895	874.17
442.27	847.28
442.645	885.25
443.019	857.9
443.394	881.18
443.769	866.71
444.143	880.27
444.518	892.7
444.892	902.19
445.267	897
445.641	889.99
446.016	906.94
446.39	912.14
446.764	911.01
447.139	918.92
447.513	937.45
447.887	921.4
448.262	939.03
448.636	956.43
449.01	946.26
449.384	991.68
449.758	944.68
450.132	968.18
450.506	976.77
450.88	1005.47
451.254	1000.04
451.628	1016.32
452.002	1024.9
452.376	1026.03
452.75	1054.51
453.123	1055.86
453.497	1054.73
453.871	1062.87
454.244	1071.23
454.618	1080.72
454.992	1107.84
455.365	1080.27
455.739	1121.62
456.112	1148.29
456.486	1134.5
456.859	1136.99
457.232	1209.76
457.606	1185.58
457.979	1190.77
458.352	1210.43
458.725	1236.42
459.099	1231.68
459.472	1230.77
459.845	1248.85
460.218	1283.43
460.591	1287.72
460.964	1313.03
461.337	1332.46
461.71	1348.74
462.083	1356.87
462.456	1376.98
462.829	1393.03
463.201	1397.55
463.574	1419.02
463.947	1423.31
464.32	1446.36
464.692	1470.09
465.065	1497.66
465.438	1499.92
465.81	1536.08
466.183	1558.22
466.555	1600.03
466.928	1613.14
467.3	1609.97
467.672	1642.74
468.045	1673.25
468.417	1680.48
468.789	1706.92
469.161	1734.49
469.534	1731.1
469.906	1812.68
470.278	1821.72
470.65	1851.32
471.022	1890.87
471.394	1910.3
471.766	1959.12
472.138	1995.27
472.51	2016.97
472.882	2037.31
473.253	2130.64
473.625	2174.02
473.997	2212.67
474.369	2220.35
474.74	2265.32
475.112	2364.3
475.484	2392.78
475.855	2426.22
476.227	2474.81
476.598	2552.09
476.97	2603.17
477.341	2683.39
477.713	2747.79
478.084	2775.82
478.455	2870.73
478.827	2894.23
479.198	3021.69
479.569	3057.39
479.94	3193.66
480.311	3244.96
480.682	3314.11
481.053	3418.51
481.424	3496.48
481.795	3567.89
482.166	3622.8
482.537	3780.76
482.908	3871.83
483.279	3924.49
483.65	4088.55
484.021	4167.42
484.391	4260.3
484.762	4353.4
485.133	4445.6
485.503	4585.26
485.874	4753.62
486.244	4815.99
486.615	4917.46
486.985	5055.53
487.356	5139.6
487.726	5255.75
488.097	5450.32
488.467	5513.37
488.837	5648.96
489.207	5799.24
489.578	5925.34
489.948	6020.25
490.318	6184.09
490.688	6262.28
491.058	6420.24
491.428	6563.06
491.798	6704.75
492.168	6852.09
492.538	6957.85
492.908	7086.21
493.278	7224.29
493.648	7286.43
494.017	7440.33
494.387	7632.86
494.757	7689.59
495.126	7849.58
495.496	7913.31
495.866	8069.91
496.235	8191.04
496.605	8329.57
496.974	8370.7
497.344	8537.93
497.713	8636.23
498.082	8751.93
498.452	8889.78
498.821	8958.93
499.19	9028.76
499.559	9194.86
499.928	9279.6
500.298	9377.45
500.667	9487.73
501.036	9596.43
501.405	9672.58
501.774	9755.07
502.143	9827.16
502.512	9914.61
502.88	10023.54
503.249	10147.6
503.618	10175.17
503.987	10284.09
504.356	10320.7
504.724	10370.65
505.093	10506.01
505.462	10590.07
505.83	10672.33
506.199	10764.53
506.567	10926.34
506.936	10896.73
507.304	11019.44
507.672	11139.44
508.041	11095.37
508.409	11239.55
508.777	11293.56
509.145	11368.13
509.514	11328.81
509.882	11438.41
510.25	11569.48
510.618	11611.52
510.986	11665.98
511.354	11731.97
511.722	11879.98
512.09	11932.86
512.458	11899.64
512.826	12037.72
513.193	12011.73
513.561	12126.08
513.929	12154.33
514.297	12210.15
514.664	12222.8
515.032	12325.17
515.4	12406.3
515.767	12409.69
516.135	12450.36
516.502	12363.81
516.869	12552.28
517.237	12609
517.604	12525.39
517.972	12669.12
518.339	12763.58
518.706	12725.16
519.073	12730.13
519.44	12868.88
519.808	12909.79
520.175	12822.78
520.542	12997.92
520.909	13018.71
521.276	12977.36
521.643	13128.09
522.009	13135.77
522.376	13219.84
522.743	13250.12
523.11	13241.53
523.477	13391.58
523.843	13457.8
524.21	13484.24
524.577	13532.14
524.943	13611.01
525.31	13593.61
525.676	13638.13
526.043	13710.44
526.409	13686.26
526.776	13789.31
527.142	13751.35
527.508	13774.85
527.874	13883.55
528.241	13940.72
528.607	13899.82
528.973	13942.08
529.339	13874.73
529.705	14013.94
530.071	14043.32
530.437	14058.01
530.803	14079.02
531.169	14010.32
531.535	14012.13
531.901	14039.02
532.267	14093.94
532.632	14062.3
532.998	14083.09
533.364	14137.33
533.73	14067.5
534.095	14156.31
534.461	14145.46
534.826	14174.16
535.192	14127.16
535.557	14189.75
535.923	14166.03
536.288	14057.33
536.653	14084.22
537.019	14076.99
537.384	14124.22
537.749	14101.85
538.114	14079.47
538.479	14020.04
538.845	14049.64
539.21	13955.64
539.575	13973.94
539.94	13971.68
540.305	13976.43
540.67	13958.35
541.034	13849.65
541.399	14009.87
541.764	13894.39
542.129	13941.62
542.494	13937.56
542.858	13891
543.223	13818.46
543.587	13745.92
543.952	13796.54
544.316	13785.47
544.681	13686.49
545.045	13773.95
545.41	13724.68
545.774	13701.18
546.138	13740.27
546.503	13702.31
546.867	13613.72
547.231	13672.71
547.595	13693.95
547.959	13638.58
548.324	13552.93
548.688	13635.87
549.052	13580.5
549.416	13492.82
549.779	13468.19
550.143	13504.35
550.507	13555.19
550.871	13472.71
551.235	13414.41
551.599	13487.85
551.962	13467.51
552.326	13405.14
552.689	13484.91
553.053	13399.27
553.417	13341.19
553.78	13536.89
554.143	13370.57
554.507	13323.56
554.87	13352.04
555.234	13390.9
555.597	13328.08
555.96	13384.8
556.323	13347.74
556.686	13376.44
557.05	13381.41
557.413	13346.39
557.776	13292.15
558.139	13385.03
558.502	13340.06
558.865	13362.21
559.228	13336.44
559.59	13310.68
559.953	13370.11
560.316	13436.55
560.679	13378.7
561.041	13436.78
561.404	13526.04
561.767	13532.14
562.129	13353.84
562.492	13466.61
562.854	13485.59
563.217	13489.21
563.579	13409.21
563.941	13601.52
564.304	13557.68
564.666	13588.64
565.028	13621.86
565.39	13556.55
565.753	13621.86
566.115	13597.23
566.477	13608.07
566.839	13649.2
567.201	13690.11
567.563	13706.15
567.925	13804
568.287	13733.04
568.648	13710.44
569.01	13832.93
569.372	13794.74
569.734	13822.98
570.095	13908.41
570.457	13860.5
570.819	13918.12
571.18	13781.86
571.542	13921.29
571.903	13922.87
572.265	13975.3
572.626	13938.01
572.987	13980.49
573.349	13992.47
573.71	14076.99
574.071	14024.11
574.432	13968.74
574.794	14102.75
575.155	14067.05
575.516	14053.71
575.877	14161.05
576.238	14145.01
576.599	14108.63
576.96	14114.73
577.32	14120.83
577.681	14166.25
578.042	14235.85
578.403	14239.24
578.763	14168.74
579.124	14191.11
579.485	14269.07
579.845	14274.05
580.206	14274.72
580.566	14151.79
580.927	14187.27
581.287	14254.39
581.648	14210.77
582.008	14165.57
582.368	14206.7
582.728	14169.87
583.089	14182.07
583.449	14133.26
583.809	14148.63
584.169	14102.3
584.529	14170.09
584.889	14247.83
585.249	14151.11
585.609	14114.05
585.969	14198.79
586.329	14161.28
586.688	14173.26
587.048	14076.76
587.408	14175.74
587.768	14187.49
588.127	14216.87
588.487	14060.72
588.846	14198.34
589.206	14027.95
589.565	14025.92
589.925	14095.29
590.284	14071.57
590.643	14135.29
591.003	14057.55
591.362	14093.71
591.721	14077.21
592.08	14122.19
592.44	14157.89
592.799	14023.66
593.158	13961.06
593.517	14058.23
593.876	14033.15
594.235	13915.18
594.593	14011.23
594.952	13987.27
595.311	13978.69
595.67	13987.05
596.029	14030.66
596.387	14072.47
596.746	14098.46
597.104	14028.4
597.463	13981.85
597.822	13999.93
598.18	13925.13
598.538	13986.37
598.897	13964
599.255	13928.97
599.613	14152.92
599.972	13909.08
600.33	14028.4
600.688	13954.51
601.046	13982.53
601.404	14028.18
601.762	13973.26
602.12	14100.94
602.478	14089.42
602.836	14084.22
603.194	13958.12
603.552	13947.73
603.91	13943.43
604.268	14017.33
604.625	14060.72
604.983	13969.65
605.341	13986.14
605.698	13950.66
606.056	14135.29
606.413	14029.76
606.771	14117.21
607.128	14080.15
607.485	14098.23
607.843	14048.97
608.2	14113.82
608.557	14082.64
608.914	14029.98
609.272	14113.15
609.629	14153.37
609.986	14178.45
610.343	14156.08
610.7	14211.67
611.057	14164.9
611.414	14168.29
611.771	14128.96
612.127	14234.05
612.484	14201.05
612.841	14284.21
613.198	14234.05
613.554	14276.31
613.911	14186.36
614.267	14265.01
614.624	14195.4
614.98	14290.54
615.337	14349.07
615.693	14289.64
616.05	14415.96
616.406	14346.36
616.762	14328.06
617.118	14393.82
617.475	14327.38
617.831	14335.06
618.187	14390.43
618.543	14396.75
618.899	14474.94
619.255	14494.83
619.611	14474.94
619.967	14506.13
620.323	14500.93
620.678	14462.06
621.034	14385
621.39	14453.93
621.746	14362.63
622.101	14601.72
622.457	14496.64
622.812	14433.59
623.168	14473.14
623.523	14425
623.879	14454.83
624.234	14413.02
624.589	14518.78
624.945	14505.23
625.3	14367.38
625.655	14438.56
626.01	14408.28
626.365	14524.89
626.72	14497.32
627.075	14474.04
627.43	14437.43
627.785	14450.54
628.14	14430.43
628.495	14445.79
628.85	14448.73
629.205	14435.62
629.559	14484.44
629.914	14327.38
630.269	14443.08
630.623	14393.14
630.978	14332.8
631.332	14359.92
631.687	14423.42
632.041	14316.76
632.396	14339.58
632.75	14388.84
633.104	14184.78
633.459	14242.86
633.813	14313.37
634.167	14220.71
634.521	14182.07
634.875	14164.67
635.229	14217.1
635.583	14135.29
635.937	14125.8
636.291	14158.79
636.645	14109.76
636.999	14118.12
637.352	14165.12
637.706	14044.45
638.06	14176.87
638.413	13981.4
638.767	13991.79
639.121	13982.75
639.474	13912.25
639.828	13925.58
640.181	13928.52
640.534	14015.97
640.888	13925.35
641.241	13864.34
641.594	13890.1
641.947	13870.89
642.301	13894.85
642.654	13969.19
643.007	13842.64
643.36	13854.62
643.713	13834.96
644.066	13945.69
644.419	13851.46
644.771	13685.81
645.124	13524.91
645.477	13636.77
645.83	13545.7
646.182	13449.21
646.535	13471.81
646.888	13393.16
647.24	13342.32
647.593	13414.86
647.945	13430.9
648.298	13383.22
648.65	13290.12
649.002	13267.29
649.355	13364.24
649.707	13271.59
650.059	13406.27
650.411	13514.07
650.763	13577.11
651.115	13655.08
651.467	13613.95
651.819	13722.87
652.171	13632.48
652.523	13685.36
652.875	13654.63
653.227	13665.93
653.578	13629.32
653.93	13777.34
654.282	13622.09
654.633	13526.49
654.985	13617.34
655.337	13638.81
655.688	13557.68
656.039	13717.68
656.391	13579.15
656.742	13596.78
657.094	13550.67
657.445	13586.83
657.796	13648.07
658.147	13540.96
658.498	13572.37
658.849	13633.61
659.2	13598.13
659.551	13516.55
659.902	13656.43
660.253	13496.44
660.604	13596.78
660.955	13510.45
661.306	13599.04
661.656	13582.99
662.007	13563.33
662.358	13569.88
662.708	13540.73
663.059	13568.3
663.409	13557.91
663.76	13631.58
664.11	13608.53
664.461	13597
664.811	13614.63
665.161	13670.45
665.511	13571.69
665.862	13672.03
666.212	13675.87
666.562	13627.51
666.912	13670.67
667.262	13718.13
667.612	13543.67
667.962	13705.7
668.312	13627.28
668.662	13717
669.011	13562.43
669.361	13581.18
669.711	13555.19
670.06	13575.31
670.41	13565.36
670.76	13515.42
671.109	13627.73
671.459	13510.45
671.808	13423.22
672.157	13596.1
672.507	13455.54
672.856	13537.12
673.205	13530.34
673.554	13493.73
673.904	13375.76
674.253	13538.7
674.602	13500.51
674.951	13258.93
675.3	13206.05
675.649	13479.49
675.998	13404.69
676.346	13387.74
676.695	13472.94
677.044	13323.79
677.393	13439.04
677.741	13415.31
678.09	13373.96
678.438	13251.93
678.787	13387.52
679.135	13333.96
679.484	13252.83
679.832	13277.24
680.181	13143.68
680.529	13225.26
680.877	13242.21
681.225	13192.49
681.573	13236.11
681.922	13151.36
682.27	13114.08
682.618	13147.75
682.966	12997.02
683.314	13070.01
683.661	13063.68
684.009	12996.11
684.357	12943.91
684.705	12928.77
685.053	12905.95
685.4	12919.96
685.748	12842.44
686.095	12799.96
686.443	12773.07
686.79	12773.97
687.138	12750.7
687.485	12775.55
687.832	12710.02
688.18	12710.02
688.527	12676.35
688.874	12670.25
689.221	12554.99
689.568	12583.02
689.915	12457.14
690.262	12458.05
690.609	12548.44
690.956	12438.16
691.303	12482.68
691.65	12327.66
691.997	12388.67
692.344	12190.48
692.69	12272.74
693.037	12175.8
693.383	12108.45
693.73	12113.65
694.077	12018.06
694.423	12122.69
694.769	11960.66
695.116	11926.08
695.462	11962.69
695.808	11877.05
696.155	11926.08
696.501	11721.12
696.847	11729.71
697.193	11711.4
697.539	11743.49
697.885	11609.26
698.231	11570.39
698.577	11497.4
698.923	11520.67
699.269	11485.87
699.614	11414.91
699.96	11417.17
700.306	11444.74
700.651	11355.93
700.997	11242.26
701.342	11269.15
701.688	11215.82
702.033	11186.22
702.379	11145.09
702.724	11069.61
703.069	11190.06
703.415	10997.52
703.76	11080.68
704.105	11004.08
704.45	10959.1
704.795	10885.89
705.14	10882.95
705.485	10910.07
705.83	10824.87
706.175	10793.46
706.52	10776.06
706.865	10678.89
707.209	10701.26
707.554	10685.67
707.899	10680.69
708.243	10630.75
708.588	10577.19
708.932	10607.25
709.277	10463.75
709.621	10467.37
709.966	10433.69
710.31	10523.64
710.654	10390.31
710.998	10405.22
711.342	10395.73
711.687	10315.73
712.031	10195.73
712.375	10191.67
712.719	10228.28
713.063	10214.49
713.407	10244.55
713.75	10251.33
714.094	10199.58
714.438	10104.44
714.782	10125.68
715.125	10153.25
715.469	10115.74
715.812	10069.64
716.156	9911.45
716.499	10016.98
716.843	10085.23
717.186	9978.79
717.53	9944.44
717.873	9981.73
718.216	9979.92
718.559	9901.51
718.902	9878.45
719.246	9938.57
719.589	9847.04
719.932	9834.84
720.275	9846.14
720.617	9801.39
720.96	9782.64
721.303	9853.6
721.646	9749.19
721.989	9698.12
722.331	9750.55
722.674	9692.92
723.016	9756.88
723.359	9719.36
723.701	9770.89
724.044	9695.63
724.386	9633.72
724.729	9696.31
725.071	9669.87
725.413	9638.91
725.755	9634.62
726.097	9576.54
726.439	9576.77
726.782	9623.77
727.124	9600.27
727.465	9602.08
727.807	9631
728.149	9632.13
728.491	9549.2
728.833	9561.85
729.175	9507.62
729.516	9492.48
729.858	9555.3
730.199	9500.39
730.541	9556.2
730.882	9524.11
731.224	9507.62
731.565	9553.72
731.906	9459.26
732.248	9514.62
732.589	9459.03
732.93	9450.22
733.271	9499.93
733.612	9545.13
733.953	9408.18
734.294	9440.95
734.635	9453.83
734.976	9419.26
735.317	9404.34
735.658	9447.96
735.999	9461.74
736.339	9433.27
736.68	9489.54
737.021	9399.6
737.361	9435.3
737.702	9464.91
738.042	9406.15
738.383	9398.02
738.723	9475.75
739.063	9457.45
739.404	9497.67
739.744	9470.1
740.084	9434.4
740.424	9473.95
740.764	9531.12
741.104	9480.05
741.444	9494.28
741.784	9499.03
742.124	9507.84
742.464	9559.59
742.804	9558.46
743.143	9620.38
743.483	9599.14
743.823	9553.94
744.162	9553.94
744.502	9649.53
744.841	9667.61
745.181	9685.69
745.52	9741.28
745.86	9747.16
746.199	9675.07
746.538	9744.45
746.877	9803.2
747.216	9848.4
747.556	9902.86
747.895	9942.86
748.234	9921.84
748.573	10031.67
748.911	10023.08
749.25	10088.17
749.589	10078
749.928	10195.51
750.267	10269.18
750.605	10309.63
750.944	10327.03
751.283	10383.75
751.621	10527.93
751.96	10549.4
752.298	10582.84
752.636	10705.78
752.975	10718.66
753.313	10790.52
753.651	10981.02
753.989	10990.74
754.327	11075.71
754.666	11169.04
755.004	11272.54
755.342	11424.18
755.679	11494.01
756.017	11543.04
756.355	11726.32
756.693	11807.9
757.031	11970.38
757.368	11986.2
757.706	12110.03
758.044	12289.01
