Data from hue_110_FLMS001491_00008.txt Node
Date: Tue Feb 07 17:00:49 GMT 2017
User: dcchb
Spectrometer: FLMS00149
Trigger mode: 0
Integration Time (sec): 2.000000E-2
Scans to average: 10
Electric dark correction enabled: true
Nonlinearity correction enabled: false
Boxcar width: 0
XAxis mode: Wavelengths
Number of Pixels in Spectrum: 2048
>>>>>Begin Spectral Data<<<<<
341.393	-10.76
341.776	-10.76
342.16	-10.76
342.543	-48.95
342.927	-72.68
343.31	-60.25
343.693	-82.17
344.077	-70.65
344.46	-76.52
344.843	-43.08
345.226	-45.11
345.61	-34.94
345.993	-19.12
346.376	-7.15
346.759	11.61
347.142	38.05
347.525	59.52
347.908	59.74
348.291	87.54
348.674	80.99
349.057	101.55
349.44	124.6
349.823	148.56
350.206	162.11
350.588	194.66
350.971	233.52
351.354	210.47
351.737	238.5
352.119	245.28
352.502	278.27
352.884	269.91
353.267	261.55
353.65	274.65
354.032	270.36
354.414	307.87
354.797	316.01
355.179	303.81
355.562	319.85
355.944	334.77
356.326	320.75
356.709	345.61
357.091	339.74
357.473	343.35
357.855	338.15
358.238	342.9
358.62	342.22
359.002	325.5
359.384	339.06
359.766	337.7
360.148	332.73
360.53	333.18
360.912	339.51
361.294	347.42
361.676	346.29
362.057	328.66
362.439	328.66
362.821	355.1
363.203	309.91
363.584	326.4
363.966	313.97
364.348	322.11
364.729	317.14
365.111	327.31
365.493	311.94
365.874	307.87
366.256	325.73
366.637	306.97
367.019	313.07
367.4	302.9
367.781	315.78
368.163	324.14
368.544	315.56
368.925	301.09
369.306	329.12
369.688	334.77
370.069	302
370.45	292.05
370.831	309
371.212	321.66
371.593	297.7
371.974	313.75
372.355	295.22
372.736	337.25
373.117	314.88
373.498	327.99
373.879	326.63
374.26	319.85
374.641	317.14
375.021	302.9
375.402	312.62
375.783	322.11
376.163	327.99
376.544	355.56
376.925	328.66
377.305	329.79
377.686	319.17
378.066	324.82
378.447	331.38
378.827	325.95
379.208	329.57
379.588	340.64
379.968	337.93
380.349	338.83
380.729	330.25
381.109	346.06
381.489	324.82
381.87	343.35
382.25	329.79
382.63	345.84
383.01	372.05
383.39	351.94
383.77	346.29
384.15	335.9
384.53	361.88
384.91	336.35
385.29	360.53
385.67	358.04
386.049	355.56
386.429	337.48
386.809	352.39
387.189	325.95
387.568	367.31
387.948	351.04
388.328	365.95
388.707	372.73
389.087	358.04
389.466	363.47
389.846	354.43
390.225	360.3
390.605	383.8
390.984	363.69
391.363	372.28
391.743	372.5
392.122	388.32
392.501	369.34
392.881	368.89
393.26	368.44
393.639	398.04
394.018	376.35
394.397	360.53
394.776	364.37
395.155	386.29
395.534	392.16
395.913	372.5
396.292	375.22
396.671	397.14
397.05	394.65
397.429	392.62
397.808	398.94
398.186	376.35
398.565	407.31
398.944	408.21
399.323	388.1
399.701	385.84
400.08	384.71
400.458	402.56
400.837	412.05
401.215	405.5
401.594	404.59
401.972	401.66
402.351	410.24
402.729	409.79
403.107	413.41
403.486	400.07
403.864	433.07
404.242	452.05
404.62	440.07
404.999	424.03
405.377	414.54
405.755	412.05
406.133	437.14
406.511	441.43
406.889	441.43
407.267	423.8
407.645	431.71
408.023	445.95
408.401	447.53
408.779	455.21
409.156	468.32
409.534	464.25
409.912	451.82
410.29	468.77
410.667	462.67
411.045	456.34
411.422	467.42
411.8	474.42
412.178	489.34
412.555	477.59
412.933	469.45
413.31	496.34
413.687	494.08
414.065	476.91
414.442	504.48
414.819	498.38
415.197	497.7
415.574	506.96
415.951	492.95
416.328	520.3
416.705	499.73
417.082	495.44
417.46	510.58
417.837	520.3
418.214	539.05
418.591	541.99
418.967	540.86
419.344	531.14
419.721	536.12
420.098	548.32
420.475	523.01
420.852	533.63
421.228	566.85
421.605	558.94
421.982	573.4
422.358	538.15
422.735	579.5
423.111	573.85
423.488	561.88
423.864	562.1
424.241	564.14
424.617	574.98
424.994	589.45
425.37	582.44
425.746	592.84
426.123	610.92
426.499	588.32
426.875	588.77
427.251	586.06
427.627	624.93
428.003	631.93
428.379	622.67
428.756	594.87
429.132	649.79
429.507	632.38
429.883	650.24
430.259	649.11
430.635	653.85
431.011	664.25
431.387	654.53
431.763	658.37
432.138	695.89
432.514	673.74
432.89	675.77
433.265	691.82
433.641	697.24
434.016	707.64
434.392	717.13
434.767	726.85
435.143	716.9
435.518	708.31
435.894	749.44
436.269	741.53
436.644	757.13
437.02	755.55
437.395	737.92
437.77	770.46
438.145	768.65
438.52	787.18
438.895	763.68
439.271	808.2
439.646	806.39
440.021	798.71
440.395	811.36
440.77	793.51
441.145	812.94
441.52	838.93
441.895	837.58
442.27	844.13
442.645	830.8
443.019	843.23
443.394	862.21
443.769	840.06
444.143	844.36
444.518	888.87
444.892	861.08
445.267	835.99
445.641	900.85
446.016	908.76
446.39	865.6
446.764	895.88
447.139	894.52
447.513	893.85
447.887	921.87
448.262	912.38
448.636	928.42
449.01	947.18
449.384	939.04
449.758	941.98
450.132	947.63
450.506	957.8
450.88	958.7
451.254	970.23
451.628	999.38
452.002	993.73
452.376	1005.48
452.75	998.93
453.123	1001.41
453.497	1050.23
453.871	1047.06
454.244	1055.2
454.618	1048.87
454.992	1065.37
455.365	1075.08
455.739	1085.03
456.112	1112.6
456.486	1127.06
456.859	1124.35
457.232	1126.83
457.606	1121.41
457.979	1164.35
458.352	1195.53
458.725	1198.02
459.099	1203.22
459.472	1208.19
459.845	1232.59
460.218	1264.01
460.591	1300.84
460.964	1277.79
461.337	1291.8
461.71	1285.93
462.083	1330.45
462.456	1341.52
462.829	1338.81
463.201	1377.9
463.574	1397.11
463.947	1406.15
464.32	1395.98
464.692	1465.36
465.065	1442.76
465.438	1476.88
465.81	1524.34
466.183	1533.83
466.555	1567.5
466.928	1536.09
467.3	1566.6
467.672	1598.69
468.045	1617.44
468.417	1678.91
468.789	1675.07
469.161	1689.53
469.534	1727.72
469.906	1798
470.278	1785.12
470.65	1804.33
471.022	1868.51
471.394	1868.06
471.766	1942.18
472.138	1999.13
472.51	2003.2
472.882	2042.06
473.253	2099.46
473.625	2151.44
473.997	2168.39
474.369	2210.42
474.74	2257.43
475.112	2323.64
475.484	2355.96
475.855	2400.47
476.227	2491.32
476.598	2572.9
476.97	2570.41
477.341	2684.53
477.713	2708.71
478.084	2776.96
478.455	2882.04
478.827	2934.92
479.198	3030.51
479.569	3051.98
479.94	3180.11
480.311	3218.98
480.682	3339.66
481.053	3439.54
481.424	3536.71
481.795	3587.34
482.166	3671.17
482.537	3743.94
482.908	3901.23
483.279	3960.88
483.65	4087.66
484.021	4193.19
484.391	4311.38
484.762	4412.62
485.133	4437.48
485.503	4605.39
485.874	4702.56
486.244	4834.31
486.615	4964.93
486.985	5095.32
487.356	5226.61
487.726	5327.4
488.097	5506.61
488.467	5581.86
488.837	5786.83
489.207	5883.77
489.578	6002.64
489.948	6135.97
490.318	6255.97
490.688	6355.85
491.058	6490.54
491.428	6701.83
491.798	6826.35
492.168	7040.8
492.538	7017.53
492.908	7256.84
493.278	7376.39
493.648	7403.05
494.017	7581.58
494.387	7797.85
494.757	7836.94
495.126	7970.5
495.496	8141.79
495.866	8276.93
496.235	8322.13
496.605	8524.15
496.974	8603.02
497.344	8719.63
497.713	8901.55
498.082	8940.19
498.452	9130.47
498.821	9235.77
499.19	9328.88
499.559	9457.24
499.928	9624.24
500.298	9682.32
500.667	9757.34
501.036	9803.44
501.405	9941.74
501.774	9999.82
502.143	10154.62
502.512	10277.55
502.88	10321.62
503.249	10463.76
503.618	10500.6
503.987	10607.94
504.356	10726.13
504.724	10796.19
505.093	10849.74
505.462	10971.77
505.83	11011.77
506.199	11163.63
506.567	11241.82
506.936	11296.28
507.304	11414.02
507.672	11441.14
508.041	11610.85
508.409	11671.19
508.777	11802.26
509.145	11868.47
509.514	11841.13
509.882	11948.47
510.25	12003.84
510.618	12058.52
510.986	12171.52
511.354	12246.54
511.722	12281.57
512.09	12410.83
512.458	12332.64
512.826	12479.3
513.193	12559.75
513.561	12524.28
513.929	12736.92
514.297	12726.3
514.664	12827.09
515.032	12874.55
515.4	12927.2
515.767	12974.21
516.135	13071.38
516.502	13012.62
516.869	13185.73
517.237	13115.67
517.604	13098.95
517.972	13279.96
518.339	13361.77
518.706	13262.56
519.073	13469.34
519.44	13407.64
519.808	13539.84
520.175	13578.71
520.542	13638.82
520.909	13698.93
521.276	13626.62
521.643	13775.54
522.009	13773.73
522.376	13856.67
522.743	13917.46
523.11	13915.43
523.477	14029.32
523.843	14122.43
524.21	14138.7
524.577	14204.46
524.943	14196.77
525.31	14242.87
525.676	14251.46
526.043	14361.06
526.409	14341.63
526.776	14512.7
527.142	14408.75
527.508	14463.66
527.874	14468.18
528.241	14543.88
528.607	14513.83
528.973	14708.85
529.339	14439.48
529.705	14587.05
530.071	14699.13
530.437	14642.41
530.803	14697.1
531.169	14681.96
531.535	14659.59
531.901	14660.26
532.267	14641.06
532.632	14707.27
532.998	14680.6
533.364	14760.15
533.73	14792.46
534.095	14832.01
534.461	14744.78
534.826	14719.7
535.192	14809.41
535.557	14915.4
535.923	14748.85
536.288	14763.99
536.653	14769.87
537.019	14684.22
537.384	14660.04
537.749	14726.48
538.114	14662.52
538.479	14646.48
538.845	14657.1
539.21	14600.38
539.575	14548.85
539.94	14564.9
540.305	14521.06
540.67	14512.92
541.034	14590.44
541.399	14528.29
541.764	14465.47
542.129	14525.8
542.494	14450.78
542.858	14432.25
543.223	14359.03
543.587	14418.91
543.952	14367.84
544.316	14368.75
544.681	14335.08
545.045	14316.09
545.41	14320.16
545.774	14269.99
546.138	14197.68
546.503	14250.56
546.867	14098.02
547.231	14173.05
547.595	14078.36
547.959	14144.35
548.324	14027.96
548.688	14019.38
549.052	14029.77
549.416	14026.38
549.779	13978.93
550.143	13910.23
550.507	13983.22
550.871	13938.93
551.235	13854.64
551.599	13910
551.962	13843.11
552.326	13898.7
552.689	13886.05
553.053	13731.93
553.417	13698.03
553.78	13893.96
554.143	13697.35
554.507	13810.34
554.87	13730.12
555.234	13845.37
555.597	13700.06
555.96	13700.74
556.323	13799.95
556.686	13730.12
557.05	13802.43
557.413	13698.03
557.776	13743.23
558.139	13804.69
558.502	13710.68
558.865	13702.1
559.228	13719.95
559.59	13733.96
559.953	13651.25
560.316	13859.83
560.679	13759.72
561.041	13783.68
561.404	13817.57
561.767	13792.94
562.129	13682.66
562.492	13761.76
562.854	13796.11
563.217	13725.15
563.579	13808.54
563.941	13828.87
564.304	13823.68
564.666	13840.4
565.028	13888.08
565.39	13910
565.753	13893.96
566.115	13973.05
566.477	14009.21
566.839	13969.43
567.201	13973.73
567.563	14046.95
567.925	14018.02
568.287	14037.91
568.648	14084.69
569.01	14110.9
569.372	14214.17
569.734	13955.2
570.095	14127.4
570.457	14080.39
570.819	14151.13
571.18	14105.02
571.542	14198.81
571.903	14224.12
572.265	14317.9
572.626	14210.11
572.987	14214.4
573.349	14247.39
573.71	14330.78
574.071	14293.95
574.432	14291.01
574.794	14387.05
575.155	14324.45
575.516	14203.33
575.877	14325.36
576.238	14344.57
576.599	14368.29
576.96	14305.92
577.32	14373.94
577.681	14422.53
578.042	14413.94
578.403	14392.02
578.763	14365.58
579.124	14433.83
579.485	14344.57
579.845	14513.38
580.206	14353.15
580.566	14322.42
580.927	14410.33
581.287	14376.66
581.648	14431.8
582.008	14467.5
582.368	14460.04
582.728	14386.83
583.089	14436.99
583.449	14356.77
583.809	14368.75
584.169	14406.71
584.529	14258.69
584.889	14437.67
585.249	14310.22
585.609	14279.48
585.969	14331.46
586.329	14378.01
586.688	14338.69
587.048	14320.16
587.408	14204.91
587.768	14268.18
588.127	14293.27
588.487	14295.75
588.846	14390.67
589.206	14171.46
589.565	14181.86
589.925	14313.61
590.284	14169.88
590.643	14277
591.003	14211.01
591.362	14234.51
591.721	14173.27
592.08	14189.54
592.44	14274.96
592.799	14268.86
593.158	14156.77
593.517	14185.02
593.876	14206.26
594.235	14186.83
594.593	14087.85
594.952	14192.71
595.311	14096.89
595.67	14116.78
596.029	14248.07
596.387	14073.39
596.746	14189.09
597.104	14163.55
597.463	14164.23
597.822	14100.73
598.18	14032.94
598.538	14210.56
598.897	14172.37
599.255	14107.74
599.613	14181.18
599.972	14142.76
600.33	14196.55
600.688	14084.91
601.046	14083.1
601.404	14213.95
601.762	14115.65
602.12	14211.91
602.478	14213.04
602.836	14128.53
603.194	14137.11
603.552	14268.64
603.91	14056.89
604.268	14142.54
604.625	14093.27
604.983	14194.97
605.341	14081.52
605.698	14115.19
606.056	14143.89
606.413	14101.63
606.771	14152.71
607.128	14181.63
607.485	14076.1
607.843	14186.15
608.2	14224.12
608.557	14207.17
608.914	14175.08
609.272	14237.68
609.629	14290.33
609.986	14292.14
610.343	14275.42
610.7	14364.68
611.057	14228.64
611.414	14241.97
611.771	14275.19
612.127	14375.3
612.484	14378.46
612.841	14406.71
613.198	14330.56
613.554	14297.79
613.911	14428.18
614.267	14376.43
614.624	14328.75
614.98	14381.85
615.337	14429.31
615.693	14438.58
616.05	14438.12
616.406	14428.18
616.762	14413.04
617.118	14415.52
617.475	14483.32
617.831	14635.63
618.187	14481.29
618.543	14479.48
618.899	14528.29
619.255	14541.17
619.611	14575.52
619.967	14593.83
620.323	14677.66
620.678	14632.02
621.034	14518.12
621.39	14543.21
621.746	14522.87
622.101	14687.83
622.457	14498.46
622.812	14589.76
623.168	14637.89
623.523	14554.73
623.879	14634.95
624.234	14524.22
624.589	14535.97
624.945	14642.86
625.3	14633.37
625.655	14600.6
626.01	14638.57
626.365	14558.12
626.72	14612.36
627.075	14572.13
627.43	14585.69
627.785	14512.7
628.14	14614.39
628.495	14504.56
628.85	14592.02
629.205	14490.78
629.559	14569.42
629.914	14522.41
630.269	14556.99
630.623	14433.6
630.978	14427.5
631.332	14494.39
631.687	14489.65
632.041	14469.99
632.396	14483.55
632.75	14515.64
633.104	14379.14
633.459	14330.56
633.813	14331.69
634.167	14464.56
634.521	14380.27
634.875	14336.88
635.229	14298.01
635.583	14282.42
635.937	14294.17
636.291	14188.86
636.645	14224.57
636.999	14182.99
637.352	14179.82
637.706	14166.94
638.06	14173.5
638.413	14157.23
638.767	14197.68
639.121	14235.42
639.474	14056.21
639.828	14075.19
640.181	14050.34
640.534	14124.23
640.888	14086.04
641.241	14015.31
641.594	14078.81
641.947	14058.47
642.301	14012.82
642.654	14048.75
643.007	14071.81
643.36	14006.27
643.713	13905.48
644.066	13961.53
644.419	13952.26
644.771	13907.06
645.124	13771.93
645.477	13721.08
645.83	13665.26
646.182	13604.7
646.535	13535.55
646.888	13542.33
647.24	13515.44
647.593	13527.86
647.945	13571.93
648.298	13387.53
648.65	13402.67
649.002	13404.7
649.355	13442.67
649.707	13457.81
650.059	13589.11
650.411	13652.38
650.763	13720.63
651.115	13828.65
651.467	13817.57
651.819	13752.04
652.171	13811.02
652.523	13764.92
652.875	13780.74
653.227	13761.76
653.578	13779.16
653.93	13698.71
654.282	13781.19
654.633	13651.25
654.985	13789.33
655.337	13780.51
655.688	13803.79
656.039	13869.55
656.391	13752.04
656.742	13779.16
657.094	13766.5
657.445	13882.66
657.796	13752.94
658.147	13780.97
658.498	13762.66
658.849	13853.73
659.2	13748.2
659.551	13839.95
659.902	13767.41
660.253	13752.72
660.604	13806.05
660.955	13770.12
661.306	13788.42
661.656	13882.88
662.007	13841.98
662.358	13793.17
662.708	13881.53
663.059	13822.77
663.409	13772.15
663.76	13908.19
664.11	13851.02
664.461	13836.33
664.811	13790
665.161	13874.07
665.511	13748.88
665.862	13848.31
666.212	13825.48
666.562	13906.61
666.912	13934.41
667.262	13847.86
667.612	13848.76
667.962	13893.5
668.312	13806.28
668.662	13898.02
669.011	13837.01
669.361	13784.13
669.711	13680.63
670.06	13764.02
670.41	13748.88
670.76	13792.49
671.109	13796.11
671.459	13752.94
671.808	13793.39
672.157	13755.2
672.507	13659.61
672.856	13688.31
673.205	13712.04
673.554	13667.97
673.904	13647.86
674.253	13772.38
674.602	13752.72
674.951	13551.14
675.3	13518.83
675.649	13648.77
675.998	13615.55
676.346	13626.85
676.695	13670.69
677.044	13550.46
677.393	13528.77
677.741	13619.39
678.09	13585.26
678.438	13552.04
678.787	13627.75
679.135	13580.74
679.484	13466.4
679.832	13506.85
680.181	13311.6
680.529	13415.1
680.877	13333.75
681.225	13388.43
681.573	13445.38
681.922	13357.7
682.27	13285.39
682.618	13337.59
682.966	13185.27
683.314	13216.91
683.661	13186.4
684.009	13107.08
684.357	13250.58
684.705	13202
685.053	13171.26
685.4	13121.77
685.748	13038.84
686.095	13044.94
686.443	12970.37
686.79	13011.27
687.138	12957.71
687.485	13007.88
687.832	12870.93
688.18	12921.55
688.527	12800.2
688.874	12785.74
689.221	12799.3
689.568	12759.07
689.915	12681.79
690.262	12730.82
690.609	12629.58
690.956	12608.79
691.303	12542.81
691.65	12537.61
691.997	12521.56
692.344	12421.23
692.69	12420.1
693.037	12390.72
693.383	12341.91
693.73	12412.19
694.077	12333.32
694.423	12249.25
694.769	12167
695.116	12150.73
695.462	12149.6
695.808	12007
696.155	12098.52
696.501	12007.23
696.847	11998.19
697.193	11876.83
697.539	11893.56
697.885	11776.72
698.231	11722.94
698.577	11764.97
698.923	11703.28
699.269	11690.85
699.614	11572.21
699.96	11483.17
700.306	11517.52
700.651	11479.78
700.997	11447.24
701.342	11426.45
701.688	11421.25
702.033	11303.74
702.379	11303.97
702.724	11282.05
703.069	11361.82
703.415	11088.61
703.76	11143.97
704.105	11203.86
704.45	11077.08
704.795	11053.13
705.14	10999.34
705.485	11014.03
705.83	10938.78
706.175	10922.96
706.52	10826.69
706.865	10857.65
707.209	10803.64
707.554	10827.37
707.899	10799.57
708.243	10699.69
708.588	10780.14
708.932	10636.42
709.277	10585.8
709.621	10616.53
709.966	10550.32
710.31	10594.61
710.654	10485.01
710.998	10494.95
711.342	10486.36
711.687	10401.39
712.031	10360.26
712.375	10332.92
712.719	10339.02
713.063	10358.91
713.407	10343.32
713.75	10299.02
714.094	10263.54
714.438	10205.24
714.782	10281.85
715.125	10201.62
715.469	10229.19
715.812	10177.9
716.156	10052.02
716.499	10143.09
716.843	10102.42
717.186	10023.32
717.53	10119.37
717.873	10118.01
718.216	10058.13
718.559	10011.8
718.902	9971.12
719.246	9939.71
719.589	9933.83
719.932	9907.39
720.275	9964.12
720.617	9847.51
720.96	9934.29
721.303	9913.72
721.646	9943.33
721.989	9797.12
722.331	9854.29
722.674	9907.62
723.016	9936.09
723.359	9859.26
723.701	9851.13
724.044	9779.04
724.386	9778.36
724.729	9807.96
725.071	9818.81
725.413	9819.26
725.755	9802.31
726.097	9713.28
726.439	9673.05
726.782	9692.03
727.124	9765.93
727.465	9717.34
727.807	9688.42
728.149	9671.24
728.491	9713.95
728.833	9723.44
729.175	9720.06
729.516	9641.64
729.858	9680.06
730.199	9643.67
730.541	9600.96
730.882	9605.26
731.224	9605.26
731.565	9569.78
731.906	9678.93
732.248	9620.4
732.589	9613.39
732.93	9524.58
733.271	9529.1
733.612	9537.24
733.953	9674.63
734.294	9606.16
734.635	9617.23
734.976	9587.18
735.317	9543.34
735.658	9598.25
735.999	9607.29
736.339	9515.09
736.68	9541.98
737.021	9571.36
737.361	9541.08
737.702	9649.55
738.042	9592.6
738.383	9574.75
738.723	9551.02
739.063	9589.89
739.404	9639.15
739.744	9609.1
740.084	9580.17
740.424	9661.07
740.764	9651.81
741.104	9709.89
741.444	9653.16
741.784	9656.1
742.124	9772.03
742.464	9704.46
742.804	9744.01
743.143	9795.53
743.483	9791.69
743.823	9829.2
744.162	9813.84
744.502	9908.3
744.841	9874.4
745.181	9962.76
745.52	9906.72
745.86	9996.43
746.199	9973.16
746.538	10047.28
746.877	10150.55
747.216	10094.96
747.556	10209.31
747.895	10236.88
748.234	10205.69
748.573	10285.92
748.911	10357.55
749.25	10452.47
749.589	10410.43
749.928	10548.73
750.267	10613.37
750.605	10686.81
750.944	10726.13
751.283	10821.27
751.621	10915.28
751.96	10923.64
752.298	11096.74
752.636	11256.96
752.975	11228.49
753.313	11320.47
753.651	11444.3
753.989	11554.13
754.327	11655.37
754.666	11749.15
755.004	11873.44
755.342	11993.44
755.679	12124.96
756.017	12185.3
756.355	12392.08
756.693	12488.8
757.031	12675.23
757.368	12760.88
757.706	12832.29
