Data from hue_100_FLMS001491_00068.txt Node
Date: Tue Feb 07 17:03:31 GMT 2017
User: dcchb
Spectrometer: FLMS00149
Trigger mode: 0
Integration Time (sec): 2.000000E-2
Scans to average: 10
Electric dark correction enabled: true
Nonlinearity correction enabled: false
Boxcar width: 0
XAxis mode: Wavelengths
Number of Pixels in Spectrum: 2048
>>>>>Begin Spectral Data<<<<<
341.393	-18.09
341.776	-18.09
342.16	-18.09
342.543	-63.74
342.927	-73.23
343.31	-62.84
343.693	-82.72
344.077	-78.43
344.46	-44.31
344.843	-43.85
345.226	-47.02
345.61	-38.21
345.993	-26.23
346.376	-4.53
346.759	1.57
347.142	34.11
347.525	54.9
347.908	63.04
348.291	84.28
348.674	77.95
349.057	112.3
349.44	107.78
349.823	136.93
350.206	152.07
350.588	195.23
350.971	202.24
351.354	220.32
351.737	218.06
352.119	244.27
352.502	258.51
352.884	253.76
353.267	262.35
353.65	280.2
354.032	303.25
354.414	311.62
354.797	313.42
355.179	315.68
355.562	323.59
355.944	325.85
356.326	333.76
356.709	337.38
357.091	318.4
357.473	332.41
357.855	330.15
358.238	348.9
358.62	343.71
359.002	334.89
359.384	343.48
359.766	345.06
360.148	342.12
360.53	325.18
360.912	330.82
361.294	352.29
361.676	364.95
362.057	334.67
362.439	343.03
362.821	353.2
363.203	319.07
363.584	329.47
363.966	335.34
364.348	331.28
364.729	286.76
365.111	316.81
365.493	312.75
365.874	315.68
366.256	311.16
366.637	307.32
367.019	311.62
367.4	315.46
367.781	306.19
368.163	312.52
368.544	304.84
368.925	322.24
369.306	318.62
369.688	314.55
370.069	304.84
370.45	307.77
370.831	302.35
371.212	329.24
371.593	326.76
371.974	331.5
372.355	321.79
372.736	329.69
373.117	313.65
373.498	332.41
373.879	323.37
374.26	313.42
374.641	320.88
375.021	316.59
375.402	323.82
375.783	312.29
376.163	327.66
376.544	327.89
376.925	322.24
377.305	314.55
377.686	334.44
378.066	331.28
378.447	351.16
378.827	331.95
379.208	345.06
379.588	319.3
379.968	322.92
380.349	353.42
380.729	336.7
381.109	330.37
381.489	328.56
381.87	343.48
382.25	331.95
382.63	326.3
383.01	353.87
383.39	343.25
383.77	356.81
384.15	351.39
384.53	357.94
384.91	351.39
385.29	375.8
385.67	338.73
386.049	362.01
386.429	360.88
386.809	361.33
387.189	378.73
387.568	369.69
387.948	353.87
388.328	347.32
388.707	357.04
389.087	367.43
389.466	360.2
389.846	357.72
390.225	364.95
390.605	379.18
390.984	375.8
391.363	374.44
391.743	374.89
392.122	383.25
392.501	390.03
392.881	376.02
393.26	384.38
393.639	396.59
394.018	400.88
394.397	406.75
394.776	397.04
395.155	405.17
395.534	408.34
395.913	400.88
396.292	399.07
396.671	399.98
397.05	375.8
397.429	392.52
397.808	396.81
398.186	402.24
398.565	395.91
398.944	383.03
399.323	403.37
399.701	425.06
400.08	423.48
400.458	420.31
400.837	429.81
401.215	421.67
401.594	431.61
401.972	397.26
402.351	423.7
402.729	420.31
403.107	420.09
403.486	431.61
403.864	421.22
404.242	408.11
404.62	421.67
404.999	446.53
405.377	446.98
405.755	432.97
406.133	426.42
406.511	441.56
406.889	465.06
407.267	454.21
407.645	472.74
408.023	448.79
408.401	446.98
408.779	475
409.156	453.76
409.534	460.31
409.912	463.93
410.29	467.09
410.667	470.48
411.045	491.95
411.422	491.72
411.8	488.56
412.178	490.59
412.555	493.53
412.933	516.36
413.31	488.33
413.687	525.4
414.065	515
414.442	509.8
414.819	526.3
415.197	538.95
415.574	502.57
415.951	538.95
416.328	515
416.705	522.68
417.082	535.34
417.46	544.83
417.837	553.64
418.214	529.24
418.591	555
418.967	549.58
419.344	560.2
419.721	576.24
420.098	572.4
420.475	587.77
420.852	555.68
421.228	559.52
421.605	585.96
421.982	580.31
422.358	576.47
422.735	595.68
423.111	607.2
423.488	589.57
423.864	618.05
424.241	612.17
424.617	608.11
424.994	623.25
425.37	627.09
425.746	614.43
426.123	613.3
426.499	612.4
426.875	641.78
427.251	635.22
427.627	660.31
428.003	666.86
428.379	667.09
428.756	671.83
429.132	658.5
429.507	672.06
429.883	660.53
430.259	667.99
430.635	684.26
431.011	698.72
431.387	721.77
431.763	722.9
432.138	706.41
432.514	744.6
432.89	741.89
433.265	743.02
433.641	751.38
434.016	757.71
434.392	759.06
434.767	764.71
435.143	770.59
435.518	782.34
435.894	787.08
436.269	794.99
436.644	811.72
437.02	808.1
437.395	832.96
437.77	821.89
438.145	825.5
438.52	826.4
438.895	826.86
439.271	832.05
439.646	882.45
440.021	850.13
440.395	849.91
440.77	891.26
441.145	863.47
441.52	869.34
441.895	907.31
442.27	891.04
442.645	881.77
443.019	910.24
443.394	899.4
443.769	931.03
444.143	924.71
444.518	949.34
444.892	909.11
445.267	918.38
445.641	918.15
446.016	951.37
446.39	940.07
446.764	941.43
447.139	930.36
447.513	987.08
447.887	975.1
448.262	984.37
448.636	1020.07
449.01	993.41
449.384	999.73
449.758	1015.33
450.132	1026.4
450.506	1039.28
450.88	1056.68
451.254	1043.57
451.628	1049.9
452.002	1093.52
452.376	1104.82
452.75	1074.76
453.123	1118.15
453.497	1107.08
453.871	1124.7
454.244	1144.36
454.618	1150.92
454.992	1144.81
455.365	1176.9
455.739	1173.06
456.112	1180.97
456.486	1199.95
456.859	1210.12
457.232	1241.54
457.606	1225.04
457.979	1274.08
458.352	1257.58
458.725	1282.66
459.099	1336.45
459.472	1315.43
459.845	1344.13
460.218	1338.71
460.591	1352.27
460.964	1377.8
461.337	1378.93
461.71	1418.48
462.083	1425.94
462.456	1395.88
462.829	1467.74
463.201	1473.85
463.574	1492.15
463.947	1541.87
464.32	1534.18
464.692	1552.71
465.065	1560.85
465.438	1619.15
465.81	1638.81
466.183	1660.06
466.555	1673.61
466.928	1731.01
467.3	1714.07
467.672	1755.65
468.045	1789.54
468.417	1809.88
468.789	1810.11
469.161	1866.6
469.534	1888.98
469.906	1895.98
470.278	1964.23
470.65	1987.73
471.022	2036.77
471.394	2106.37
471.766	2150.66
472.138	2145.24
472.51	2203.77
472.882	2260.49
473.253	2244.67
473.625	2322.41
473.997	2385.46
474.369	2439.7
474.74	2470.88
475.112	2508.62
475.484	2597.43
475.855	2656.19
476.227	2683.76
476.598	2757.65
476.97	2853.7
477.341	2944.09
477.713	3022.51
478.084	3044.2
478.455	3192.44
478.827	3216.62
479.198	3307.02
479.569	3401.93
479.94	3476.5
480.311	3596.95
480.682	3687.12
481.053	3834.24
481.424	3865.87
481.795	3997.17
482.166	4098.41
482.537	4196.03
482.908	4344.73
483.279	4451.85
483.65	4575.91
484.021	4744.95
484.391	4786.3
484.762	4913.3
485.133	5009.8
485.503	5135.44
485.874	5354.65
486.244	5458.83
486.615	5606.17
486.985	5726.84
487.356	5918.93
487.726	6028.75
488.097	6242.76
488.467	6304.45
488.837	6525.24
489.207	6650.21
489.578	6847.49
489.948	6942.4
490.318	7171.77
490.688	7287.03
491.058	7490.64
491.428	7642.95
491.798	7750.74
492.168	7986.22
492.538	8130.17
492.908	8324.74
493.278	8462.81
493.648	8605.86
494.017	8759.53
494.387	8984.16
494.757	9034.78
495.126	9303.24
495.496	9353.64
495.866	9505.05
496.235	9619.17
496.605	9811.93
496.974	9960.85
497.344	10141.64
497.713	10278.13
498.082	10374.63
498.452	10546.38
498.821	10698.46
499.19	10742.98
499.559	10929.42
499.928	11119.92
500.298	11168.05
500.667	11331.89
501.036	11432.68
501.405	11549.51
501.774	11639
502.143	11706.57
502.512	11862.27
502.88	12047.35
503.249	12113.34
503.618	12240.57
503.987	12403.73
504.356	12413.44
504.724	12498.41
505.093	12683.49
505.462	12689.6
505.83	12762.14
506.199	12913.54
506.567	13163.03
506.936	13124.39
507.304	13372.06
507.672	13352.86
508.041	13434.66
508.409	13591.94
508.777	13667.42
509.145	13731.83
509.514	13745.84
509.882	13853.63
510.25	13951.94
510.618	14036.45
510.986	14099.95
511.354	14235.32
511.722	14292.27
512.09	14482.32
512.458	14460.4
512.826	14552.37
513.193	14564.8
513.561	14589.66
513.929	14773.38
514.297	14776.32
514.664	14923.44
515.032	14937.9
515.4	15039.14
515.767	15017.67
516.135	15119.14
516.502	15000.27
516.869	15226.93
517.237	15298.11
517.604	15228.06
517.972	15423.08
518.339	15442.07
518.706	15440.71
519.073	15523.87
519.44	15513.02
519.808	15699.23
520.175	15614.72
520.542	15822.62
520.909	15760.48
521.276	15771.32
521.643	15903.07
522.009	15856.97
522.376	15981.26
522.743	16044.31
523.11	16090.18
523.477	16202.05
523.843	16218.77
524.21	16440.46
524.577	16383.51
524.943	16458.08
525.31	16451.76
525.676	16614.46
526.043	16621.24
526.409	16592.09
526.776	16652.2
527.142	16647.91
527.508	16689.94
527.874	16761.35
528.241	16827.79
528.607	16785.76
528.973	16836.61
529.339	16857.85
529.705	16932.65
530.071	16926.55
530.437	16929.26
530.803	16992.99
531.169	17072.31
531.535	16954.12
531.901	16919.99
532.267	16953.89
532.632	16994.34
532.998	16979.88
533.364	17027.56
533.73	17067.79
534.095	16968.81
534.461	17066.2
534.826	17071.63
535.192	17030.27
535.557	17101.46
535.923	16929.26
536.288	17004.51
536.653	16941.24
537.019	16825.31
537.384	16945.98
537.749	16843.16
538.114	16827.79
538.479	16818.75
538.845	16744.4
539.21	16644.52
539.575	16706.67
539.94	16764.74
540.305	16746.44
540.67	16670.51
541.034	16656.72
541.399	16681.36
541.764	16651.3
542.129	16555.03
542.494	16553.67
542.858	16579.44
543.223	16483.85
543.587	16529.49
543.952	16369.95
544.316	16370.85
544.681	16281.14
545.045	16400.23
545.41	16310.52
545.774	16397.07
546.138	16226.9
546.503	16235.49
546.867	16196.17
547.231	16233.23
547.595	16159.33
547.959	16087.47
548.324	16078.21
548.688	16099.22
549.052	16117.3
549.416	16020.13
549.779	15972.45
550.143	15852.45
550.507	15962.5
550.871	15895.39
551.235	15814.71
551.599	15857.2
551.962	15761.38
552.326	15725.9
552.689	15820.13
553.053	15710.99
553.417	15637.09
553.78	15838.67
554.143	15612.68
554.507	15669.4
554.87	15644.77
555.234	15735.39
555.597	15680.48
555.96	15538.11
556.323	15594.38
556.686	15577.66
557.05	15621.95
557.413	15602.29
557.776	15518.22
558.139	15592.12
558.502	15591.89
558.865	15553.93
559.228	15590.54
559.59	15636.41
559.953	15599.58
560.316	15643.42
560.679	15652.68
561.041	15622.63
561.404	15621.72
561.767	15649.97
562.129	15549.41
562.492	15752.34
562.854	15569.52
563.217	15596.86
563.579	15564.77
563.941	15636.41
564.304	15637.31
564.666	15724.32
565.028	15671.44
565.39	15715.28
565.753	15853.13
566.115	15692.45
566.477	15811.32
566.839	15810.42
567.201	15844.09
567.563	15808.84
567.925	15924.76
568.287	15839.34
568.648	15854.71
569.01	15886.35
569.372	15997.98
569.734	15867.82
570.095	15996.63
570.457	15939.23
570.819	15931.09
571.18	15962.28
571.542	15967.7
571.903	16021.03
572.265	16106.23
572.626	16049.51
572.987	16004.99
573.349	16135.15
573.71	16069.85
574.071	16181.26
574.432	16186.23
574.794	16331.76
575.155	16135.61
575.516	16141.03
575.877	16239.33
576.238	16119.79
576.599	16195.27
576.96	16206.79
577.32	16211.31
577.681	16228.03
578.042	16218.09
578.403	16143.06
578.763	16212.67
579.124	16204.98
579.485	16298.09
579.845	16341.93
580.206	16236.85
580.566	16277.3
580.927	16273.46
581.287	16299.9
581.648	16226.68
582.008	16320.69
582.368	16266
582.728	16260.8
583.089	16162.95
583.449	16245.21
583.809	16209.73
584.169	16257.86
584.529	16136.28
584.889	16237.53
585.249	16126.57
585.609	16062.39
585.969	16192.78
586.329	16146.68
586.688	16193.23
587.048	16145.32
587.408	16061.26
587.768	15971.77
588.127	15989.62
588.487	16057.19
588.846	16108.94
589.206	16024.42
589.565	16066.23
589.925	16068.72
590.284	16040.92
590.643	15991.43
591.003	16003.41
591.362	16044.08
591.721	15988.49
592.08	16013.35
592.44	16051.32
592.799	16026.68
593.158	15987.36
593.517	16035.72
593.876	15974.93
594.235	15901.49
594.593	15908.72
594.952	15954.59
595.311	15917.08
595.67	15908.49
596.029	16061.94
596.387	15989.85
596.746	15987.36
597.104	15861.49
597.463	15880.02
597.822	15953.24
598.18	15948.95
598.538	15847.25
598.897	15884.31
599.255	15793.24
599.613	16042.95
599.972	15816.29
600.33	15852.9
600.688	15829.17
601.046	15833.24
601.404	15895.16
601.762	15847.7
602.12	15950.07
602.478	15973.58
602.836	15863.75
603.194	15897.87
603.552	15889.29
603.91	15852.22
604.268	15919.34
604.625	15901.49
604.983	15990.07
605.341	15859.68
605.698	15879.79
606.056	15901.04
606.413	15853.13
606.771	15986.46
607.128	16050.64
607.485	15809.97
607.843	15899.23
608.2	15859.23
608.557	16078.89
608.914	15857.2
609.272	16037.53
609.629	16006.12
609.986	16150.52
610.343	16003.18
610.7	16000.92
611.057	16065.55
611.414	16101.26
611.771	16031.65
612.127	16162.72
612.484	16058.55
612.841	16195.49
613.198	16145.32
613.554	16082.95
613.911	16157.08
614.267	16164.98
614.624	16115.04
614.98	16101.94
615.337	16223.29
615.693	16210.86
616.05	16203.85
616.406	16311.65
616.762	16303.06
617.118	16187.58
617.475	16201.82
617.831	16329.27
618.187	16290.86
618.543	16366.56
618.899	16368.6
619.255	16384.87
619.611	16277.75
619.967	16371.76
620.323	16442.94
620.678	16365.66
621.034	16437.52
621.39	16325.21
621.746	16285.43
622.101	16492.21
622.457	16413.34
622.812	16413.79
623.168	16411.98
623.523	16441.36
623.879	16447.01
624.234	16363.85
624.589	16376.28
624.945	16444.07
625.3	16442.27
625.655	16421.47
626.01	16422.15
626.365	16365.66
626.72	16384.41
627.075	16357.75
627.43	16330.86
627.785	16383.06
628.14	16447.46
628.495	16335.83
628.85	16355.71
629.205	16232.78
629.559	16361.14
629.914	16291.76
630.269	16323.4
630.623	16267.35
630.978	16242.27
631.332	16320.23
631.687	16334.02
632.041	16160.92
632.396	16193.68
632.75	16166.79
633.104	16169.5
633.459	16130.41
633.813	16141.48
634.167	16180.8
634.521	16059.45
634.875	16221.48
635.229	16091.99
635.583	16002.95
635.937	16099.45
636.291	16028.72
636.645	16028.04
636.999	15994.82
637.352	15980.81
637.706	15918.21
638.06	16063.29
638.413	15966.57
638.767	15834.6
639.121	15897.19
639.474	15849.51
639.828	15786.01
640.181	15797.76
640.534	15785.11
640.888	15773.81
641.241	15649.52
641.594	15715.05
641.947	15733.58
642.301	15686.13
642.654	15721.83
643.007	15750.53
643.36	15739.01
643.713	15720.48
644.066	15752.57
644.419	15671.89
644.771	15571.1
645.124	15493.14
645.477	15472.35
645.83	15326.59
646.182	15326.14
646.535	15261.73
646.888	15199.59
647.24	15126.59
647.593	15226.25
647.945	15199.81
648.298	15108.74
648.65	15053.38
649.002	15071.91
649.355	15197.1
649.707	15090.89
650.059	15182.64
650.411	15415.85
650.763	15361.39
651.115	15557.77
651.467	15443.87
651.819	15438.68
652.171	15376.76
652.523	15351.45
652.875	15361.16
653.227	15432.35
653.578	15525.23
653.93	15501.05
654.282	15452.46
654.633	15381.5
654.985	15454.49
655.337	15475.29
655.688	15497.43
656.039	15549.41
656.391	15420.15
656.742	15482.74
657.094	15506.47
657.445	15557.77
657.796	15470.54
658.147	15422.18
658.498	15521.39
658.849	15459.24
659.2	15471.44
659.551	15549.18
659.902	15455.4
660.253	15550.31
660.604	15478.45
660.955	15448.85
661.306	15644.77
661.656	15506.92
662.007	15557.54
662.358	15487.71
662.708	15518.9
663.059	15545.79
663.409	15433.7
663.76	15559.12
664.11	15493.59
664.461	15579.24
664.811	15575.85
665.161	15539.01
665.511	15442.52
665.862	15453.59
666.212	15596.41
666.562	15568.62
666.912	15550.54
667.262	15561.61
667.612	15506.02
667.962	15588.73
668.312	15544.44
668.662	15599.58
669.011	15540.14
669.361	15572.23
669.711	15542.63
670.06	15542.63
670.41	15421.05
670.76	15461.05
671.109	15568.84
671.459	15480.93
671.808	15436.87
672.157	15506.7
672.507	15364.33
672.856	15495.62
673.205	15500.14
673.554	15493.36
673.904	15377.43
674.253	15432.57
674.602	15357.77
674.951	15127.5
675.3	15031.91
675.649	15281.84
675.998	15273.03
676.346	15184.45
676.695	15333.82
677.044	15131.79
677.393	15267.16
677.741	15199.13
678.09	15253.37
678.438	15165.69
678.787	15225.57
679.135	15276.87
679.484	15102.41
679.832	15228.51
680.181	15149.64
680.529	15122.98
680.877	15091.11
681.225	15074.84
681.573	15152.13
681.922	15051.34
682.27	15007.73
682.618	15009.08
682.966	14979.03
683.314	14961.63
683.661	14855.87
684.009	14763.44
684.357	14769.99
684.705	14793.27
685.053	14817
685.4	14665.14
685.748	14598.25
686.095	14567.29
686.443	14622.88
686.79	14534.52
687.138	14549.43
687.485	14596.66
687.832	14428.08
688.18	14541.52
688.527	14463.56
688.874	14444.35
689.221	14401.87
689.568	14279.16
689.915	14243.23
690.262	14309.67
690.609	14178.37
690.956	14079.39
691.303	14133.63
691.65	14133.63
691.997	14007.98
692.344	13978.83
692.69	13855.89
693.037	13910.81
693.383	13772.28
693.73	13820.19
694.077	13743.81
694.423	13817.25
694.769	13669.68
695.116	13614.77
695.462	13629.46
695.808	13542.23
696.155	13526.86
696.501	13392.4
696.847	13414.55
697.193	13334.1
697.539	13469.69
697.885	13328.67
698.231	13189.02
698.577	13205.06
698.923	13159.41
699.269	13132.52
699.614	13017.72
699.96	13026.99
700.306	12888.69
700.651	12908.8
700.997	12855.92
701.342	12812.08
701.688	12729.14
702.033	12734.11
702.379	12723.95
702.724	12630.61
703.069	12669.03
703.415	12531.86
703.76	12572.31
704.105	12563.72
704.45	12553.78
704.795	12392.88
705.14	12336.61
705.485	12375.48
705.83	12252.09
706.175	12285.76
706.52	12238.76
706.865	12181.59
707.209	12170.97
707.554	12112.89
707.899	12078.31
708.243	11997.64
708.588	12034.02
708.932	11941.37
709.277	11990.63
709.621	11878.54
709.966	11809.62
710.31	11942.95
710.654	11704.31
710.998	11781.15
711.342	11799.22
711.687	11677.64
712.031	11637.19
712.375	11577.31
712.719	11665.67
713.063	11623.18
713.407	11622.73
713.75	11532.34
714.094	11491.21
714.438	11469.29
714.782	11429.52
715.125	11444.2
715.469	11438.33
715.812	11404.43
716.156	11294.15
716.499	11318.33
716.843	11328.05
717.186	11322.85
717.53	11347.48
717.873	11345.22
718.216	11328.05
718.559	11291.21
718.902	11157.43
719.246	11239.69
719.589	11161.73
719.932	11157.88
720.275	11135.51
720.617	11095.51
720.96	11044.22
721.303	11136.64
721.646	11176.87
721.989	11076.3
722.331	11097.55
722.674	11092.35
723.016	11054.61
723.359	11037.44
723.701	11049.86
724.044	11041.96
724.386	10985.69
724.729	11036.08
725.071	11054.61
725.413	11004.67
725.755	11032.46
726.097	10914.05
726.439	10837.67
726.782	10887.84
727.124	10934.39
727.465	10879.93
727.807	10916.76
728.149	10866.59
728.491	10796.54
728.833	10890.55
729.175	10897.55
729.516	10783.66
729.858	10834.05
730.199	10841.51
730.541	10851.9
730.882	10796.31
731.224	10876.76
731.565	10734.39
731.906	10801.06
732.248	10780.72
732.589	10829.31
732.93	10752.47
733.271	10791.34
733.612	10787.27
733.953	10847.61
734.294	10766.93
734.635	10786.82
734.976	10813.71
735.317	10777.33
735.658	10766.03
735.999	10792.02
736.339	10798.12
736.68	10828.18
737.021	10814.16
737.361	10760.61
737.702	10850.55
738.042	10773.26
738.383	10790.21
738.723	10867.27
739.063	10836.09
739.404	10835.86
739.744	10851.23
740.084	10849.19
740.424	10881.96
740.764	10954.27
741.104	10970.77
741.444	10900.94
741.784	10929.19
742.124	10898
742.464	10891.68
742.804	10991.11
743.143	10945.01
743.483	11041.73
743.823	10997.89
744.162	11060.03
744.502	11109.98
744.841	11132.12
745.181	11244.44
745.52	11220.93
745.86	11308.62
746.199	11310.65
746.538	11348.61
746.877	11449.4
747.216	11487.59
747.556	11551.55
747.895	11646.91
748.234	11597.2
748.573	11679.45
748.911	11730.98
749.25	11821.14
749.589	11912.22
749.928	11969.39
750.267	12081.25
750.605	12068.14
750.944	12178.87
751.283	12339.77
751.621	12438.08
751.96	12443.73
752.298	12621.35
752.636	12608.24
752.975	12708.8
753.313	12878.74
753.651	12994.9
753.989	13123.26
754.327	13264.27
754.666	13264.27
755.004	13543.81
755.342	13634.2
755.679	13824.26
