Data from hue_00_FLMS001491_23.txt Node
Date: Mon Feb 06 15:29:28 GMT 2017
User: dcchb
Spectrometer: FLMS00149
Trigger mode: 0
Integration Time (sec): 2.000000E-2
Scans to average: 10
Electric dark correction enabled: true
Nonlinearity correction enabled: false
Boxcar width: 0
XAxis mode: Wavelengths
Number of Pixels in Spectrum: 2048
>>>>>Begin Spectral Data<<<<<
341.393	-19.75
341.776	-19.75
342.16	-19.75
342.543	-51.83
342.927	-55.45
343.31	-64.26
343.693	-66.75
344.077	-72.4
344.46	-57.48
344.843	-62.68
345.226	-52.29
345.61	-24.94
345.993	-21.78
346.376	0.37
346.759	7.82
347.142	53.25
347.525	41.5
347.908	64.32
348.291	70.2
348.674	81.72
349.057	103.42
349.44	114.04
349.823	150.42
350.206	167.14
350.588	203.07
350.971	200.59
351.354	205.79
351.737	232.45
352.119	245.33
352.502	271.32
352.884	262.96
353.267	274.71
353.65	287.14
354.032	290.98
354.414	329.62
354.797	305.67
355.179	313.35
355.562	320.81
355.944	328.95
356.326	330.75
356.709	306.12
357.091	330.75
357.473	346.35
357.855	340.7
358.238	342.96
358.62	346.12
359.002	348.83
359.384	325.78
359.766	342.28
360.148	356.52
360.53	331.21
360.912	338.44
361.294	340.47
361.676	348.38
362.057	324.88
362.439	319
362.821	330.98
363.203	323.52
363.584	335.05
363.966	319.23
364.348	311.09
364.729	333.24
365.111	312.9
365.493	321.71
365.874	320.58
366.256	318.32
366.637	317.65
367.019	306.12
367.4	314.03
367.781	302.73
368.163	307.48
368.544	310.42
368.925	331.21
369.306	307.03
369.688	299.34
370.069	324.88
370.45	309.51
370.831	316.52
371.212	303.86
371.593	297.76
371.974	290.3
372.355	305.44
372.736	312.45
373.117	323.07
373.498	337.99
373.879	298.89
374.26	304.09
374.641	306.35
375.021	304.54
375.402	309.06
375.783	314.71
376.163	325.33
376.544	316.29
376.925	318.55
377.305	317.65
377.686	321.71
378.066	328.27
378.447	326.69
378.827	321.04
379.208	344.31
379.588	313.35
379.968	337.53
380.349	348.38
380.729	328.27
381.109	333.69
381.489	333.69
381.87	326.23
382.25	349.28
382.63	337.08
383.01	345.67
383.39	340.47
383.77	336.63
384.15	340.92
384.53	342.05
384.91	331.21
385.29	346.8
385.67	338.89
386.049	350.64
386.429	355.39
386.809	361.49
387.189	327.36
387.568	359.91
387.948	339.57
388.328	357.19
388.707	359.23
389.087	349.28
389.466	349.51
389.846	358.55
390.225	339.12
390.605	353.13
390.984	342.73
391.363	376.85
391.743	374.82
392.122	364.2
392.501	367.59
392.881	378.89
393.26	358.32
393.639	361.49
394.018	382.28
394.397	380.92
394.776	361.49
395.155	360.58
395.534	397.87
395.913	364.65
396.292	381.15
396.671	387.25
397.05	402.84
397.429	397.42
397.808	368.27
398.186	355.39
398.565	400.58
398.944	385.89
399.323	379.11
399.701	403.29
400.08	408.04
400.458	382.5
400.837	395.16
401.215	387.25
401.594	390.41
401.972	402.39
402.351	382.96
402.729	407.14
403.107	398.55
403.486	389.51
403.864	414.59
404.242	413.92
404.62	409.17
404.999	414.14
405.377	429.96
405.755	429.28
406.133	420.7
406.511	412.56
406.889	438.77
407.267	431.09
407.645	432.22
408.023	430.64
408.401	415.27
408.779	434.03
409.156	440.13
409.534	440.58
409.912	449.85
410.29	448.72
410.667	445.33
411.045	446.01
411.422	453.91
411.8	438.1
412.178	452.56
412.555	457.3
412.933	448.49
413.31	482.16
413.687	483.74
414.065	491.43
414.442	484.65
414.819	475.61
415.197	468.6
415.574	489.85
415.951	509.51
416.328	479.9
416.705	499.79
417.082	507.92
417.46	483.07
417.837	499.79
418.214	497.98
418.591	518.32
418.967	491.88
419.344	527.13
419.721	528.04
420.098	506.57
420.475	523.07
420.852	520.35
421.228	521.48
421.605	519.9
421.982	535.72
422.358	532.33
422.735	528.04
423.111	535.04
423.488	536.62
423.864	552.9
424.241	562.16
424.617	555.83
424.994	568.94
425.37	570.52
425.746	579.34
426.123	573.46
426.499	563.52
426.875	596.96
427.251	590.41
427.627	586.34
428.003	613.46
428.379	572.78
428.756	583.4
429.132	612.78
429.507	599.22
429.883	615.49
430.259	614.14
430.635	599.22
431.011	614.14
431.387	643.74
431.763	643.29
432.138	651.2
432.514	644.42
432.89	639.67
433.265	662.27
433.641	683.06
434.016	678.32
434.392	678.77
434.767	672.21
435.143	655.72
435.518	683.97
435.894	692.55
436.269	690.74
436.644	706.79
437.02	707.92
437.395	723.29
437.77	712.89
438.145	707.24
438.52	733.91
438.895	737.52
439.271	728.48
439.646	753.12
440.021	754.92
440.395	758.31
440.77	754.47
441.145	759.67
441.52	784.75
441.895	779.33
442.27	752.66
442.645	769.84
443.019	770.06
443.394	784.53
443.769	797.86
444.143	800.8
444.518	800.57
444.892	769.84
445.267	791.76
445.641	829.72
446.016	810.97
446.39	833.11
446.764	843.51
447.139	806.45
447.513	836.96
447.887	834.47
448.262	806.9
448.636	836.5
449.01	849.61
449.384	849.84
449.758	862.04
450.132	853.23
450.506	858.88
450.88	850.06
451.254	870.17
451.628	879.21
452.002	879.44
452.376	871.76
452.75	882.38
453.123	893
453.497	907.46
453.871	938.42
454.244	941.81
454.618	928.93
454.992	937.52
455.365	954.01
455.739	955.14
456.112	958.08
456.486	965.31
456.859	967.12
457.232	990.85
457.606	962.6
457.979	995.82
458.352	1034.01
458.725	1035.37
459.099	1041.92
459.472	1036.05
459.845	1055.71
460.218	1052.09
460.591	1077.63
460.964	1072.88
461.337	1086.89
461.71	1116.72
462.083	1117.63
462.456	1118.08
462.829	1107.91
463.201	1121.24
463.574	1134.8
463.947	1157.85
464.32	1189.26
464.692	1188.58
465.065	1196.04
465.438	1195.14
465.81	1193.56
466.183	1215.48
466.555	1265.64
466.928	1257.28
467.3	1271.29
467.672	1234.91
468.045	1317.85
468.417	1322.14
468.789	1367.56
469.161	1340.44
469.534	1371.63
469.906	1391.74
470.278	1415.47
470.65	1388.81
471.022	1410.27
471.394	1457.96
471.766	1465.19
472.138	1481.68
472.51	1495.24
472.882	1536.6
473.253	1549.48
473.625	1569.14
473.997	1609.36
474.369	1621.12
474.74	1622.47
475.112	1634.67
475.484	1681.9
475.855	1737.27
476.227	1732.3
476.598	1780.43
476.97	1778.63
477.341	1828.12
477.713	1838.28
478.084	1870.83
478.455	1921.67
478.827	1949.24
479.198	2026.53
479.569	1977.26
479.94	2049.13
480.311	2073.53
480.682	2104.49
481.053	2172.06
481.424	2212.29
481.795	2257.26
482.166	2236.24
482.537	2309.69
482.908	2315.33
483.279	2364.6
483.65	2424.94
484.021	2471.71
484.391	2498.83
484.762	2511.49
485.133	2539.28
485.503	2589.23
485.874	2614.99
486.244	2686.85
486.615	2710.35
486.985	2734.08
487.356	2777.47
487.726	2840.52
488.097	2891.14
488.467	2931.36
488.837	2946.05
489.207	3014.07
489.578	3027.18
489.948	3052.04
490.318	3106.73
490.688	3188.76
491.058	3176.55
491.428	3234.18
491.798	3270.79
492.168	3316.89
492.538	3300.17
492.908	3388.53
493.278	3447.73
493.648	3403.22
494.017	3463.33
494.387	3478.92
494.757	3559.14
495.126	3561.18
495.496	3577.45
495.866	3633.72
496.235	3690.44
496.605	3710.33
496.974	3723.43
497.344	3776.54
497.713	3786.03
498.082	3809.31
498.452	3875.52
498.821	3915.97
499.19	3869.87
499.559	3972.24
499.928	3980.6
500.298	3958.46
500.667	3984.9
501.036	3987.38
501.405	4067.38
501.774	4054.05
502.143	4109.41
502.512	4102.86
502.88	4193.7
503.249	4160.48
503.618	4189.64
503.987	4209.52
504.356	4253.81
504.724	4215.4
505.093	4263.08
505.462	4252.68
505.83	4332.68
506.199	4323.87
506.567	4412.45
506.936	4321.84
507.304	4459.01
507.672	4433.25
508.041	4485.22
508.409	4456.3
508.777	4511.89
509.145	4518.67
509.514	4501.49
509.882	4530.87
510.25	4538.1
510.618	4592.56
510.986	4620.36
511.354	4668.72
511.722	4676.4
512.09	4711.2
512.458	4706.01
512.826	4721.6
513.193	4765.67
513.561	4786.46
513.929	4767.47
514.297	4843.86
514.664	4816.29
515.032	4853.12
515.4	4833.23
515.767	4917.75
516.135	4890.41
516.502	4890.63
516.869	4948.94
517.237	4968.37
517.604	4940.35
517.972	5014.47
518.339	5000.91
518.706	5013.34
519.073	5003.63
519.44	5067.35
519.808	5094.24
520.175	5070.52
520.542	5143.06
520.909	5188.93
521.276	5167.91
521.643	5219.21
522.009	5247.91
522.376	5198.42
522.743	5303.73
523.11	5311.64
523.477	5365.88
523.843	5342.37
524.21	5398.87
524.577	5402.71
524.943	5432.09
525.31	5496.04
525.676	5583.5
526.043	5604.29
526.409	5545.98
526.776	5665.98
527.142	5611.07
527.508	5662.59
527.874	5672.99
528.241	5754.34
528.607	5681.35
528.973	5794.34
529.339	5783.49
529.705	5790.72
530.071	5821.01
530.437	5900.55
530.803	5866.88
531.169	5945.07
531.535	5919.99
531.901	5935.35
532.267	5970.38
532.632	5968.8
532.998	6065.52
533.364	6082.92
533.73	6068.46
534.095	6180.54
534.461	6133.77
534.826	6204.72
535.192	6230.26
535.557	6288.56
535.923	6261.67
536.288	6350.93
536.653	6301.44
537.019	6300.54
537.384	6378.73
537.749	6349.58
538.114	6461.67
538.479	6432.29
538.845	6468.22
539.21	6446.53
539.575	6488.33
539.94	6554.09
540.305	6525.85
540.67	6502.8
541.034	6581.89
541.399	6620.76
541.764	6662.11
542.129	6661.21
542.494	6658.5
542.858	6735.78
543.223	6720.19
543.587	6771.94
543.952	6793.86
544.316	6824.14
544.681	6845.61
545.045	6865.27
545.41	6940.98
545.774	6894.88
546.138	6951.37
546.503	7016.91
546.867	6984.36
547.231	7045.83
547.595	7013.06
547.959	7055.55
548.324	7096.9
548.688	7078.6
549.052	7126.28
549.416	7173.06
549.779	7184.59
550.143	7183.68
550.507	7233.85
550.871	7307.75
551.235	7194.98
551.599	7375.09
551.962	7297.58
552.326	7364.69
552.689	7413.05
553.053	7415.77
553.417	7405.6
553.78	7508.87
554.143	7441.75
554.507	7522.43
554.87	7470
555.234	7639.49
555.597	7546.61
555.96	7673.16
556.323	7727.62
556.686	7648.98
557.05	7736.43
557.413	7746.83
557.776	7746.38
558.139	7778.69
558.502	7767.62
558.865	7837.22
559.228	7878.13
559.59	7852.59
559.953	7870.22
560.316	7951.12
560.679	7937.33
561.041	8074.51
561.404	7998.12
561.767	8091.45
562.129	8055.97
562.492	8137.78
562.854	8088.74
563.217	8091.68
563.579	8182.98
563.941	8175.29
564.304	8255.52
564.666	8285.57
565.028	8264.56
565.39	8289.64
565.753	8389.98
566.115	8395.4
566.477	8469.75
566.839	8466.59
567.201	8538
567.563	8502.74
567.925	8591.33
568.287	8585.23
568.648	8634.04
569.01	8663.64
569.372	8702.96
569.734	8638.33
570.095	8694.83
570.457	8806.01
570.819	8818.67
571.18	8820.93
571.542	8859.34
571.903	8959.91
572.265	9015.05
572.626	8955.16
572.987	9081.03
573.349	9076.51
573.71	9119.22
574.071	9206.23
574.432	9290.74
574.794	9294.81
575.155	9391.53
575.516	9359.67
575.877	9433.34
576.238	9509.5
576.599	9595.37
576.96	9717.63
577.32	9771.18
577.681	9802.37
578.042	9894.34
578.403	9951.29
578.763	9970.73
579.124	10153.77
579.485	10276.26
579.845	10439.19
580.206	10473.99
580.566	10481.45
580.927	10664.49
581.287	10809.12
581.648	10876.92
582.008	11057.25
582.368	11121.43
582.728	11261.31
583.089	11389.9
583.449	11570.91
583.809	11650
584.169	11888.87
584.529	11987.62
584.889	12231.46
585.249	12358.91
585.609	12547.38
585.969	12757.09
586.329	12987.82
586.688	13179
587.048	13370.41
587.408	13580.58
587.768	13762.94
588.127	13933.33
588.487	14147.34
588.846	14501.45
589.206	14665.52
589.565	14830.26
589.925	15186.41
590.284	15373.07
590.643	15634.53
591.003	15942.55
591.362	16245.14
591.721	16458.69
592.08	16674.73
592.44	16985.68
592.799	17230.42
593.158	17646.91
593.517	17869.95
593.876	18131.87
594.235	18350.39
594.593	18613.44
594.952	18936.82
595.311	19230.82
595.67	19569.57
596.029	19879.84
596.387	20204.13
596.746	20535.42
597.104	20750.1
597.463	20934.96
597.822	21379.92
598.18	21522.74
598.538	21839.57
598.897	22144.42
599.255	22420.34
599.613	22928.35
599.972	23154.56
600.33	23392.52
600.688	23619.86
601.046	24023.69
601.404	24384.13
601.762	24477.24
602.12	24892.59
602.478	25158.58
602.836	25327.16
603.194	25564.44
603.552	25928.5
603.91	26146.35
604.268	26461.82
604.625	26642.38
604.983	26982.48
605.341	27140.44
605.698	27598.06
606.056	27759.86
606.413	27979.52
606.771	28106.52
607.128	28527.07
607.485	28588.09
607.843	28845.26
608.2	29219.94
608.557	29340.16
608.914	29595.07
609.272	29901.5
609.629	30223.3
609.986	30435.05
610.343	30594.59
610.7	30956.62
611.057	31042.04
611.414	31293.33
611.771	31447
612.127	31741.68
612.484	31809.93
612.841	32175.34
613.198	32100.54
613.554	32395.67
613.911	32599.74
614.267	32713.41
614.624	32972.61
614.98	33198.36
615.337	33246.72
615.693	33512.48
616.05	33596.77
616.406	34005.35
616.762	33848.97
617.118	34184.33
617.475	34143.65
617.831	34508.16
618.187	34574.15
618.543	34638.33
618.899	35046.68
619.255	34982.95
619.611	35029.5
619.967	35474.69
620.323	35615.25
620.678	35423.84
621.034	35527.12
621.39	35698.41
621.746	35815.47
622.101	36235.35
622.457	35914.23
622.812	36212.52
623.168	36364.16
623.523	36406.42
623.879	36625.17
624.234	36322.8
624.589	36835.78
624.945	36655.22
625.3	36847.31
625.655	36897.25
626.01	36919.85
626.365	37084.36
626.72	37166.62
627.075	37348.76
627.43	37194.19
627.785	37327.75
628.14	37331.36
628.495	37489.32
628.85	37507.18
629.205	37371.14
629.559	37584.69
629.914	37549.21
630.269	37668.76
630.623	37597.34
630.978	37647.74
631.332	37709.21
631.687	37843.44
632.041	37823.78
632.396	37827.62
632.75	37812.93
633.104	37727.96
633.459	37655.42
633.813	37752.82
634.167	37797.11
634.521	37788.75
634.875	37910.78
635.229	37922.53
635.583	37696.33
635.937	37856.77
636.291	37754.4
636.645	37791.01
636.999	37837.11
637.352	37930.67
637.706	37694.29
638.06	37924.57
638.413	37800.05
638.767	37760.28
639.121	37875.3
639.474	37597.8
639.828	37656.55
640.181	37738.58
640.534	37769.54
640.888	37617.46
641.241	37491.81
641.594	37673.95
641.947	37735.42
642.301	37577.23
642.654	37693.16
643.007	37773.16
643.36	37605.48
643.713	37585.14
644.066	37884.57
644.419	37522.32
644.771	37375.43
645.124	37048.43
645.477	36948.55
645.83	36706.07
646.182	36609.12
646.535	36556.24
646.888	36746.07
647.24	36434.89
647.593	36736.35
647.945	36562.8
648.298	36502.46
648.65	36409.13
649.002	36273.31
649.355	36627.43
649.707	36430.6
650.059	36506.07
650.411	37040.52
650.763	37165.72
651.115	37284.58
651.467	37176.79
651.819	37352.38
652.171	37207.98
652.523	37250.46
652.875	37101.76
653.227	36979.06
653.578	37279.84
653.93	37304.25
654.282	36992.84
654.633	36807.76
654.985	37063.57
655.337	36945.61
655.688	37058.15
656.039	37137.24
656.391	36900.64
656.742	36936.57
657.094	36977.7
657.445	37078.94
657.796	36919.17
658.147	36877.14
658.498	37026.06
658.849	36921.2
659.2	37084.82
659.551	36818.83
659.902	37039.17
660.253	36962.11
660.604	37034.65
660.955	36819.51
661.306	36991.03
661.656	36827.87
662.007	36814.99
662.358	36774.77
662.708	36856.12
663.059	36961.88
663.409	36575.68
663.76	36941.32
664.11	36770.7
664.461	36907.87
664.811	36905.16
665.161	36814.09
665.511	36704.26
665.862	36782.45
666.212	36893.86
666.562	36883.24
666.912	36819.06
667.262	36813.64
667.612	36728.44
667.962	36837.59
668.312	36695.22
668.662	37045.27
669.011	36792.17
669.361	36785.61
669.711	36619.07
670.06	36761.21
670.41	36654.54
670.76	36548.56
671.109	36698.39
671.459	36691.61
671.808	36655.67
672.157	36641.66
672.507	36526.41
672.856	36482.12
673.205	36541.55
673.554	36660.42
673.904	36451.16
674.253	36680.53
674.602	36641.21
674.951	35962.13
675.3	35941.34
675.649	36439.18
675.998	36379.07
676.346	36311.28
676.695	36535.68
677.044	36262.46
677.393	36313.99
677.741	36318.28
678.09	36393.53
678.438	36185.18
678.787	36273.31
679.135	36321.67
679.484	36067.67
679.832	36194.44
680.181	35896.15
680.529	36109.25
680.877	36019.99
681.225	35973.88
681.573	36196.25
681.922	35997.84
682.27	35713.1
682.618	35849.82
682.966	35748.81
683.314	35777.96
683.661	35712.2
684.009	35511.52
684.357	35436.5
684.705	35368.02
685.053	35462.49
685.4	35401.92
685.748	35265.88
686.095	35250.97
686.443	35104.75
686.79	34994.7
687.138	35178.65
687.485	35143.62
687.832	35021.14
688.18	34958.09
688.527	34870.41
688.874	34910.64
689.221	34847.59
689.568	34561.72
689.915	34438.33
690.262	34640.13
690.609	34461.38
690.956	34377.54
691.303	34374.83
691.65	34174.84
691.997	34042.64
692.344	33908.4
692.69	33884.9
693.037	33958.12
693.383	33644.23
693.73	33684.91
694.077	33451.47
694.423	33610.78
694.769	33571.01
695.116	33458.02
695.462	33192.94
695.808	33204.01
696.155	33266.61
696.501	33073.62
696.847	33123.34
697.193	32827.53
697.539	32982.55
697.885	32789.11
698.231	32653.97
698.577	32723.8
698.923	32628.66
699.269	32559.96
699.614	32370.59
699.96	32319.52
700.306	32326.97
700.651	32217.83
700.997	32070.71
701.342	31978.51
701.688	31909.58
702.033	31850.83
702.379	31897.83
702.724	31840.21
703.069	31709.14
703.415	31527.22
703.76	31515.24
704.105	31523.15
704.45	31317.28
704.795	31154.12
705.14	31083.62
705.485	31141.92
705.83	30993.45
706.175	30944.41
706.52	30897.63
706.865	30809.05
707.209	30710.29
707.554	30612.9
707.899	30704.87
708.243	30478.66
708.588	30598.21
708.932	30250.87
709.277	30309.17
709.621	30412.9
709.966	30154.83
710.31	30153.92
710.654	29962.74
710.998	29943.08
711.342	29899.24
711.687	29903.54
712.031	29767.04
712.375	29742.86
712.719	29714.61
713.063	29664.22
713.407	29698.34
713.75	29482.08
714.094	29410.44
714.438	29368.18
714.782	29369.54
715.125	29248.86
715.469	29270.33
715.812	29100.39
716.156	28989.21
716.499	29002.32
716.843	29011.58
717.186	28831.25
717.53	29039.83
717.873	28968.87
718.216	28872.83
718.559	28777.69
718.902	28596
719.246	28559.62
719.589	28574.31
719.932	28495.89
720.275	28501.31
720.617	28538.6
720.96	28474.42
721.303	28418.38
721.646	28488.88
721.989	28173.41
722.331	28228.33
722.674	28185.16
723.016	28279.17
723.359	28004.83
723.701	28059.06
724.044	27921.89
724.386	27776.59
724.729	27971.84
725.071	27873.98
725.413	27839.41
725.755	27878.5
726.097	27689.13
726.439	27539.98
726.782	27484.84
727.124	27666.98
727.465	27529.36
727.807	27466.76
728.149	27431.51
728.491	27411.85
728.833	27469.25
729.175	27436.03
729.516	27305.86
729.858	27200.33
730.199	27244.4
730.541	27156.72
730.882	27248.24
731.224	27080.79
731.565	27030.39
731.906	26908.13
732.248	27048.24
732.589	26953.78
732.93	26860.23
733.271	26775.93
733.612	26831.3
733.953	26875.37
734.294	26734.58
734.635	26670.4
734.976	26738.87
735.317	26500.91
735.658	26618.42
735.999	26586.79
736.339	26448.26
736.68	26550.63
737.021	26502.5
737.361	26374.36
737.702	26556.96
738.042	26402.84
738.383	26372.56
738.723	26403.29
739.063	26197.42
739.404	26281.94
739.744	26098.66
740.084	26010.76
740.424	26222.95
740.764	25984.99
741.104	26155.61
741.444	25912.68
741.784	25904.54
742.124	25965.33
742.464	25882.17
742.804	25750.65
743.143	25776.41
743.483	25734.61
743.823	25599.92
744.162	25629.98
744.502	25670.43
744.841	25517.21
745.181	25552.69
745.52	25536.19
745.86	25474.05
746.199	25365.58
746.538	25466.59
746.877	25501.84
747.216	25441.51
747.556	25385.46
747.895	25377.55
748.234	25201.29
748.573	25183.66
748.911	25226.14
749.25	25263.43
749.589	25118.35
749.928	25102.31
750.267	25154.73
750.605	24984.57
750.944	25081.52
751.283	24931.92
751.621	24957.45
751.96	24814.63
752.298	24831.35
752.636	24882.42
752.975	24565.15
753.313	24624.58
753.651	24695.31
753.989	24565.6
754.327	24483.11
754.666	24415.54
755.004	24460.06
755.342	24503.68
755.679	24322.21
756.017	24300.07
756.355	24245.61
756.693	24155.89
757.031	24273.85
757.368	24094.2
757.706	23994.54
758.044	23933.75
758.381	23995.67
758.719	23873.64
759.056	23857.37
759.394	23827.76
759.731	23590.93
760.068	23656.69
