Data from hue_70_FLMS001491_42.txt Node
Date: Mon Feb 06 15:20:57 GMT 2017
User: dcchb
Spectrometer: FLMS00149
Trigger mode: 0
Integration Time (sec): 2.000000E-2
Scans to average: 10
Electric dark correction enabled: true
Nonlinearity correction enabled: false
Boxcar width: 0
XAxis mode: Wavelengths
Number of Pixels in Spectrum: 2048
>>>>>Begin Spectral Data<<<<<
341.393	-26.07
341.776	-26.07
342.16	-26.07
342.543	-40.99
342.927	-59.29
343.31	-79.86
343.693	-57.71
344.077	-54.77
344.46	-51.83
344.843	-56.35
345.226	-48.22
345.61	-32.63
345.993	-11.38
346.376	3.98
346.759	2.63
347.142	1.5
347.525	34.49
347.908	63.87
348.291	77.65
348.674	89.63
349.057	119.01
349.44	120.82
349.823	140.7
350.206	127.14
350.588	198.1
350.971	214.82
351.354	214.82
351.737	234.94
352.119	265.44
352.502	279
352.884	287.59
353.267	278.55
353.65	278.78
354.032	292.79
354.414	299.12
354.797	330.75
355.179	295.27
355.562	331.21
355.944	330.3
356.326	324.43
356.709	333.92
357.091	329.17
357.473	340.02
357.855	331.66
358.238	328.27
358.62	339.12
359.002	356.29
359.384	330.08
359.766	334.14
360.148	333.01
360.53	319.23
360.912	341.38
361.294	356.97
361.676	335.5
362.057	345.67
362.439	323.97
362.821	324.43
363.203	326.46
363.584	328.04
363.966	317.87
364.348	329.17
364.729	310.87
365.111	306.57
365.493	309.96
365.874	310.87
366.256	297.99
366.637	302.51
367.019	321.94
367.4	319.45
367.781	310.19
368.163	327.82
368.544	309.51
368.925	295.73
369.306	316.52
369.688	297.99
370.069	312.45
370.45	296.4
370.831	310.19
371.212	317.65
371.593	303.18
371.974	304.31
372.355	313.13
372.736	301.6
373.117	321.94
373.498	321.49
373.879	311.32
374.26	309.74
374.641	317.42
375.021	326.69
375.402	304.99
375.783	307.25
376.163	311.55
376.544	340.02
376.925	314.26
377.305	322.84
377.686	321.94
378.066	325.78
378.447	317.87
378.827	333.47
379.208	332.34
379.588	348.38
379.968	347.7
380.349	310.64
380.729	321.94
381.109	329.85
381.489	332.79
381.87	333.47
382.25	329.4
382.63	331.88
383.01	318.78
383.39	319.68
383.77	345.22
384.15	344.76
384.53	339.34
384.91	336.18
385.29	346.57
385.67	361.26
386.049	335.5
386.429	340.7
386.809	349.96
387.189	348.38
387.568	340.7
387.948	334.37
388.328	332.56
388.707	365.78
389.087	327.14
389.466	327.59
389.846	346.8
390.225	347.02
390.605	377.08
390.984	354.93
391.363	347.48
391.743	365.56
392.122	361.04
392.501	376.4
392.881	372.79
393.26	363.97
393.639	375.27
394.018	364.2
394.397	378.66
394.776	372.11
395.155	367.14
395.534	359.23
395.913	375.72
396.292	366.46
396.671	377.98
397.05	382.73
397.429	370.3
397.808	360.81
398.186	375.72
398.565	360.36
398.944	363.75
399.323	399.23
399.701	387.93
400.08	381.83
400.458	362.84
400.837	396.06
401.215	376.63
401.594	380.02
401.972	383.18
402.351	406.91
402.729	381.37
403.107	385.67
403.486	403.07
403.864	390.19
404.242	397.42
404.62	393.58
404.999	400.36
405.377	408.49
405.755	399
406.133	415.95
406.511	401.71
406.889	405.55
407.267	392.22
407.645	423.63
408.023	424.54
408.401	412.33
408.779	437.42
409.156	416.85
409.534	422.95
409.912	426.34
410.29	411.66
410.667	430.86
411.045	425.89
411.422	427.93
411.8	430.19
412.178	450.52
412.555	458.43
412.933	443.97
413.31	438.32
413.687	455.04
414.065	447.59
414.442	457.76
414.819	454.82
415.197	465.44
415.574	459.11
415.951	483.07
416.328	451.2
416.705	480.35
417.082	498.43
417.46	474.71
417.837	479.45
418.214	473.12
418.591	492.56
418.967	475.83
419.344	487.81
419.721	493.24
420.098	497.98
420.475	501.6
420.852	501.15
421.228	507.92
421.605	481.94
421.982	474.93
422.358	505.44
422.735	520.35
423.111	499.34
423.488	514.25
423.864	524.87
424.241	522.39
424.617	527.36
424.994	538.88
425.37	537.98
425.746	545.66
426.123	542.5
426.499	540.69
426.875	552.67
427.251	551.99
427.627	550.86
428.003	544.53
428.379	551.99
428.756	554.02
429.132	576.17
429.507	584.53
429.883	589.28
430.259	585.44
430.635	589.73
431.011	595.38
431.387	592.22
431.763	594.7
432.138	604.87
432.514	611.2
432.89	587.7
433.265	624.76
433.641	607.81
434.016	629.5
434.392	632.89
434.767	644.19
435.143	645.32
435.518	627.92
435.894	638.09
436.269	651.88
436.644	642.38
437.02	678.09
437.395	661.82
437.77	678.99
438.145	680.8
438.52	674.25
438.895	687.81
439.271	700.91
439.646	691.2
440.021	705.66
440.395	697.98
440.77	702.04
441.145	705.89
441.52	711.99
441.895	718.54
442.27	751.99
442.645	723.29
443.019	709.5
443.394	724.19
443.769	754.47
444.143	761.48
444.518	751.53
444.892	730.52
445.267	737.52
445.641	759.9
446.016	772.1
446.39	758.54
446.764	759.67
447.139	737.07
447.513	796.28
447.887	770.52
448.262	773.23
448.636	781.36
449.01	780.69
449.384	804.87
449.758	810.52
450.132	821.59
450.506	817.29
450.88	838.09
451.254	806.9
451.628	836.5
452.002	840.8
452.376	841.7
452.75	829.72
453.123	854.36
453.497	860.23
453.871	878.99
454.244	881.02
454.618	870.85
454.992	896.61
455.365	883.51
455.739	910.63
456.112	923.05
456.486	909.04
456.859	971.87
457.232	934.58
457.606	956.05
457.979	985.2
458.352	986.56
458.725	998.31
459.099	992.66
459.472	1016.39
459.845	1038.98
460.218	996.27
460.591	1041.02
460.964	1040.57
461.337	1087.57
461.71	1097.51
462.083	1091.64
462.456	1078.98
462.829	1108.13
463.201	1123.73
463.574	1130.73
463.947	1143.16
464.32	1154.69
464.692	1162.82
465.065	1179.09
465.438	1178.64
465.81	1208.7
466.183	1248.7
466.555	1255.7
466.928	1295.25
467.3	1296.6
467.672	1291.41
468.045	1353.33
468.417	1336.6
468.789	1350.84
469.161	1362.59
469.534	1414.34
469.906	1454.11
470.278	1458.18
470.65	1451.85
471.022	1512.64
471.394	1543.6
471.766	1561.91
472.138	1601.68
472.51	1619.31
472.882	1646.65
473.253	1719.19
473.625	1734.33
473.997	1777.04
474.369	1783.6
474.74	1819.53
475.112	1921.67
475.484	1905.18
475.855	1944.04
476.227	1980.43
476.598	2048.67
476.97	2119.18
477.341	2175.68
477.713	2197.15
478.084	2256.58
478.455	2351.94
478.827	2391.49
479.198	2450.02
479.569	2528.89
479.94	2591.94
480.311	2627.87
480.682	2751.48
481.053	2845.04
481.424	2917.13
481.795	2981.98
482.166	3055.2
482.537	3133.84
482.908	3259.04
483.279	3321.18
483.65	3460.84
484.021	3561.86
484.391	3621.29
484.762	3706.94
485.133	3819.02
485.503	3894.28
485.874	4048.17
486.244	4082.75
486.615	4220.14
486.985	4377.88
487.356	4512.11
487.726	4609.96
488.097	4758.66
488.467	4853.57
488.837	5011.31
489.207	5107.35
489.578	5225.31
489.948	5395.25
490.318	5488.36
490.688	5585.76
491.058	5737.39
491.428	5856.94
491.798	6007.44
492.168	6216.02
492.538	6319.52
492.908	6456.24
493.278	6611.94
493.648	6686.97
494.017	6907.08
494.387	7019.39
494.757	7170.57
495.126	7253.06
495.496	7420.96
495.866	7476.78
496.235	7609.66
496.605	7858.69
496.974	7946.6
497.344	8048.52
497.713	8231.56
498.082	8364.44
498.452	8533.7
498.821	8656.86
499.19	8722.62
499.559	8871.09
499.928	9035.38
500.298	9127.58
500.667	9322.16
501.036	9329.61
501.405	9512.21
501.774	9580
502.143	9733.9
502.512	9880.79
502.88	10023.83
503.249	10074.23
503.618	10238.74
503.987	10296.14
504.356	10396.7
504.724	10499.98
505.093	10644.61
505.462	10752.4
505.83	10807.99
506.199	10997.14
506.567	11234.87
506.936	11231.94
507.304	11358.71
507.672	11460.4
508.041	11576.56
508.409	11716.44
508.777	11840.28
509.145	11885.48
509.514	12093.83
509.882	12096.32
510.25	12254.06
510.618	12280.27
510.986	12386.71
511.354	12517.33
511.722	12668.73
512.09	12762.97
512.458	12791.44
512.826	12953.47
513.193	13042.06
513.561	13081.38
513.929	13242.5
514.297	13293.8
514.664	13481.14
515.032	13496.28
515.4	13682.49
515.767	13682.49
516.135	13730.63
516.502	13739.67
516.869	14063.73
517.237	14027.12
517.604	14072.99
517.972	14197.51
518.339	14342.14
518.706	14305.98
519.073	14461.91
519.44	14489.48
519.808	14672.52
520.175	14612.41
520.542	14866.42
520.909	14949.35
521.276	15027.32
521.643	15089.69
522.009	15236.58
522.376	15295.11
522.743	15279.06
523.11	15489.68
523.477	15645.83
523.843	15671.37
524.21	15874.75
524.577	15961.08
524.943	15921.76
525.31	16093.28
525.676	16234.97
526.043	16316.55
526.409	16355.42
526.776	16487.17
527.142	16533.04
527.508	16637.9
527.874	16732.81
528.241	16771.68
528.607	16794.28
528.973	17024.55
529.339	16892.8
529.705	17127.83
530.071	17258.67
530.437	17215.28
530.803	17286.01
531.169	17462.28
531.535	17422.51
531.901	17472.68
532.267	17455.5
532.632	17636.51
532.998	17596.06
533.364	17656.4
533.73	17653.01
534.095	17753.12
534.461	17783.18
534.826	17870.86
535.192	17877.64
535.557	18038.99
535.923	18013
536.288	18011.87
536.653	18083.28
537.019	18018.42
537.384	18093.68
537.749	18133.45
538.114	18228.81
538.479	18164.41
538.845	18348.13
539.21	18217.29
539.575	18265.65
539.94	18291.64
540.305	18365.31
540.67	18331.64
541.034	18434.91
541.399	18406.21
541.764	18477.17
542.129	18462.71
542.494	18474.01
542.858	18496.83
543.223	18534.12
543.587	18538.86
543.952	18620.44
544.316	18612.08
544.681	18510.39
545.045	18667.67
545.41	18733.21
545.774	18555.59
546.138	18615.92
546.503	18661.12
546.867	18641.46
547.231	18812.98
547.595	18746.31
547.959	18708.8
548.324	18822.47
548.688	18782.47
549.052	18870.15
549.416	18770.04
549.779	18881
550.143	18914.67
550.507	18823.6
550.871	18831.06
551.235	18951.51
551.599	19032.64
551.962	19012.3
552.326	19189.92
552.689	19047.32
553.053	19048.45
553.417	19071.73
553.78	19285.51
554.143	19198.05
554.507	19210.71
554.87	19189.69
555.234	19463.13
555.597	19217.94
555.96	19262.01
556.323	19365.96
556.686	19502
557.05	19516.01
557.413	19487.09
557.776	19584.71
558.139	19573.64
558.502	19566.86
558.865	19591.72
559.228	19784.25
559.59	19719.62
559.953	19749.23
560.316	19896.79
560.679	19954.64
561.041	20052.5
561.404	20004.36
561.767	20108.99
562.129	20067.41
562.492	20194.64
562.854	20183.57
563.217	20096.11
563.579	20204.81
563.941	20448.42
564.304	20351.24
564.666	20521.41
565.028	20542.88
565.39	20419.94
565.753	20584.01
566.115	20599.15
566.477	20769.99
566.839	20730.22
567.201	20789.65
567.563	20817.67
567.925	20973.38
568.287	21075.75
568.648	20944.22
569.01	21052.7
569.372	21261.96
569.734	21136.53
570.095	21231.22
570.457	21324.33
570.819	21313.93
571.18	21360.26
571.542	21436.64
571.903	21545.34
572.265	21524.77
572.626	21503.98
572.987	21509.63
573.349	21661.04
573.71	21655.39
574.071	21654.94
574.432	21810.42
574.794	21955.5
575.155	21837.53
575.516	21799.12
575.877	21912.33
576.238	21925.44
576.599	22084.98
576.96	21994.82
577.32	21981.48
577.681	22035.49
578.042	22108.49
578.403	22095.83
578.763	22129.05
579.124	22187.81
579.485	22267.35
579.845	22223.74
580.206	22210.18
580.566	22341.7
580.927	22271.19
581.287	22264.19
581.648	22182.61
582.008	22437.74
582.368	22268.26
582.728	22343.06
583.089	22332.21
583.449	22368.82
583.809	22391.64
584.169	22317.97
584.529	22243.85
584.889	22547.12
585.249	22282.49
585.609	22284.53
585.969	22457.18
586.329	22355.26
586.688	22334.02
587.048	22403.39
587.408	22336.96
587.768	22284.08
588.127	22299.44
588.487	22200.01
588.846	22430.74
589.206	22205.89
589.565	22262.61
589.925	22460.34
590.284	22254.92
590.643	22381.47
591.003	22379.89
591.362	22382.6
591.721	22282.72
592.08	22361.81
592.44	22409.27
592.799	22365.65
593.158	22380.34
593.517	22386.45
593.876	22350.74
594.235	22332.21
594.593	22325.66
594.952	22382.38
595.311	22347.8
595.67	22464.41
596.029	22471.41
596.387	22467.8
596.746	22470.28
597.104	22338.08
597.463	22383.06
597.822	22493.34
598.18	22364.52
598.538	22432.09
598.897	22570.4
599.255	22324.3
599.613	22650.62
599.972	22494.47
600.33	22464.18
600.688	22358.2
601.046	22539.21
601.404	22609.49
601.762	22662.6
602.12	22614.91
602.478	22616.72
602.836	22739.43
603.194	22524.52
603.552	22521.58
603.91	22501.24
604.268	22724.29
604.625	22533.79
604.983	22621.47
605.341	22528.59
605.698	22670.73
606.056	22704.85
606.413	22652.43
606.771	22784.4
607.128	22774.23
607.485	22695.82
607.843	22732.65
608.2	22934
608.557	22858.3
608.914	22883.16
609.272	22905.08
609.629	23057.39
609.986	23058.74
610.343	22936.94
610.7	23093.32
611.057	23110.95
611.414	23088.57
611.771	23109.14
612.127	23212.19
612.484	23180.1
612.841	23281.34
613.198	23231.17
613.554	23222.13
613.911	23399.53
614.267	23305.29
614.624	23315.46
614.98	23299.19
615.337	23435.46
615.693	23441.56
616.05	23491.27
616.406	23615.11
616.762	23411.05
617.118	23515.46
617.475	23488.56
617.831	23669.35
618.187	23617.37
618.543	23623.25
618.899	23789.12
619.255	23727.2
619.611	23628.9
619.967	23778.05
620.323	23748.44
620.678	23709.35
621.034	23687.2
621.39	23642.91
621.746	23651.27
622.101	23896.46
622.457	23605.17
622.812	23798.84
623.168	23905.5
623.523	23814.66
623.879	23776.69
624.234	23738.5
624.589	23892.17
624.945	23731.27
625.3	23841.77
625.655	23855.56
626.01	23974.43
626.365	23882.45
626.72	23806.97
627.075	23883.81
627.43	23840.19
627.785	23835.22
628.14	23874.32
628.495	23879.29
628.85	23836.8
629.205	23710.93
629.559	23995.22
629.914	23771.72
630.269	23929.23
630.623	23823.92
630.978	23738.73
631.332	23920.64
631.687	23780.76
632.041	23792.28
632.396	23840.19
632.75	23731.27
633.104	23790.48
633.459	23562.46
633.813	23708.44
634.167	23693.98
634.521	23595.68
634.875	23752.96
635.229	23676.58
635.583	23437.94
635.937	23575.57
636.291	23525.17
636.645	23551.39
636.999	23434.78
637.352	23591.61
637.706	23426.87
638.06	23564.72
638.413	23435.01
638.767	23384.39
639.121	23442.24
639.474	23218.74
639.828	23296.48
640.181	23340.09
640.534	23383.71
640.888	23167.44
641.241	23037.05
641.594	23190.27
641.947	23300.09
642.301	23127.89
642.654	23241.79
643.007	23294.22
643.36	23080.66
643.713	23162.24
644.066	23198.18
644.419	23051.74
644.771	22961.57
645.124	22709.15
645.477	22765.87
645.83	22540.79
646.182	22489.72
646.535	22383.73
646.888	22493.11
647.24	22310.74
647.593	22515.48
647.945	22378.76
648.298	22377.86
648.65	22280.01
649.002	22280.46
649.355	22273
649.707	22331.98
650.059	22315.49
650.411	22694.69
650.763	22737.17
651.115	22957.5
651.467	22820.78
651.819	22855.36
652.171	22839.77
652.523	22745.31
652.875	22774.23
653.227	22644.29
653.578	22804.97
653.93	22848.58
654.282	22692.2
654.633	22620.79
654.985	22746.66
655.337	22716.15
655.688	22698.75
656.039	22755.93
656.391	22648.59
656.742	22714.35
657.094	22723.16
657.445	22703.27
657.796	22697.62
658.147	22634.12
658.498	22637.51
658.849	22764.51
659.2	22720.9
659.551	22698.98
659.902	22791.18
660.253	22603.39
660.604	22730.17
660.955	22616.27
661.306	22715.93
661.656	22599.1
662.007	22758.41
662.358	22736.04
662.708	22724.29
663.059	22738.07
663.409	22543.5
663.76	22720.67
664.11	22736.49
664.461	22661.92
664.811	22700.79
665.161	22770.16
665.511	22668.47
665.862	22692.88
666.212	22799.32
666.562	22815.36
666.912	22847.45
667.262	22780.56
667.612	22779.2
667.962	22747.11
668.312	22729.04
668.662	22784.63
669.011	22695.59
669.361	22794.12
669.711	22641.58
670.06	22775.36
670.41	22672.54
670.76	22639.55
671.109	22652.65
671.459	22665.31
671.808	22629.38
672.157	22731.29
672.507	22428.93
672.856	22553.45
673.205	22590.06
673.554	22588.7
673.904	22517.29
674.253	22653.1
674.602	22520.23
674.951	22303.06
675.3	22169.95
675.649	22511.19
675.998	22384.19
676.346	22321.81
676.695	22575.82
677.044	22313.68
677.393	22308.93
677.741	22370.85
678.09	22247.69
678.438	22295.83
678.787	22363.62
679.135	22320.91
679.484	22130.86
679.832	22264.87
680.181	21982.84
680.529	22135.6
680.877	22145.32
681.225	22015.61
681.573	22226
681.922	21978.55
682.27	22018.32
682.618	21953.91
682.966	21914.14
683.314	21922.73
683.661	21910.75
684.009	21736.97
684.357	21680.48
684.705	21669.63
685.053	21695.62
685.4	21647.26
685.748	21518.22
686.095	21619.01
686.443	21402.97
686.79	21453.14
687.138	21481.16
687.485	21396.87
687.832	21362.29
688.18	21397.77
688.527	21203.43
688.874	21179.92
689.221	21194.61
689.568	21226.7
689.915	21007.5
690.262	21073.49
690.609	20970.66
690.956	20941.29
691.303	20993.26
691.65	20740.39
691.997	20856.09
692.344	20745.58
692.69	20664.68
693.037	20544.46
693.383	20466.95
693.73	20467.63
694.077	20415.2
694.423	20352.6
694.769	20354.86
695.116	20340.62
695.462	20229.67
695.808	20219.95
696.155	20201.64
696.501	20022.44
696.847	19983.12
697.193	19854.31
697.539	19874.19
697.885	19724.37
698.231	19716.91
698.577	19738.61
698.923	19524.37
699.269	19593.52
699.614	19474.21
699.96	19321.22
700.306	19356.24
700.651	19214.78
700.997	19178.62
701.342	19178.39
701.688	19172.07
702.033	19141.33
702.379	18987.44
702.724	18995.35
703.069	18907.21
703.415	18792.64
703.76	18727.56
704.105	18704.51
704.45	18688.46
704.795	18613.21
705.14	18504.51
705.485	18584.29
705.83	18397.4
706.175	18420
706.52	18306.33
706.865	18221.58
707.209	18352.65
707.554	18138.2
707.899	18234.24
708.243	18103.17
708.588	18055.94
708.932	17973.23
709.277	17990.85
709.621	18008.03
709.966	17808.71
710.31	17813.91
710.654	17700.92
710.998	17691.88
711.342	17761.71
711.687	17775.72
712.031	17600.36
712.375	17577.98
712.719	17607.14
713.063	17457.08
713.407	17563.3
713.75	17487.14
714.094	17468.61
714.438	17473.13
714.782	17341.61
715.125	17309.52
715.469	17390.87
715.812	17270.65
716.156	17136.87
716.499	17207.6
716.843	17194.49
717.186	17027.49
717.53	17135.96
717.873	17027.26
718.216	17046.25
718.559	16956.31
718.902	16824.33
719.246	17038.11
719.589	16897.1
719.932	16797.67
720.275	16815.07
720.617	16811.9
720.96	16780.04
721.303	16724
721.646	16769.19
721.989	16659.82
722.331	16712.02
722.674	16692.58
723.016	16701.17
723.359	16636.54
723.701	16664.11
724.044	16523.77
724.386	16440.16
724.729	16599.93
725.071	16506.6
725.413	16409.65
725.755	16474.51
726.097	16477.22
726.439	16340.05
726.782	16366.72
727.124	16427.28
727.465	16313.84
727.807	16294.18
728.149	16261.63
728.491	16329.66
728.833	16388.18
729.175	16239.94
729.516	16147.97
729.858	16141.41
730.199	16244.46
730.541	16223.67
730.882	16246.95
731.224	16263.22
731.565	16114.75
731.906	16117.46
732.248	16204.01
732.589	16047.63
732.93	16128.76
733.271	16045.6
733.612	16015.99
733.953	16142.99
734.294	16091.7
734.635	15994.52
734.976	16011.02
735.317	15984.13
735.658	16020.74
735.999	16005.14
736.339	16000.17
736.68	15996.56
737.021	15918.82
737.361	15849.22
737.702	16040.4
738.042	16032.04
738.383	15938.93
738.723	15891.93
739.063	15964.47
739.404	16122.43
739.744	15898.48
740.084	15946.61
740.424	15953.62
740.764	15883.79
741.104	15979.83
741.444	15986.39
741.784	15869.1
742.124	15937.12
742.464	16015.09
742.804	15974.41
743.143	15893.96
743.483	15918.37
743.823	15957.46
744.162	15935.77
744.502	15960.85
744.841	15896.67
745.181	16077.91
745.52	15963.79
745.86	16127.85
746.199	16057.8
746.538	16026.61
746.877	16206.72
747.216	16182.09
747.556	16177.57
747.895	16185.7
748.234	16269.32
748.573	16259.83
748.911	16227.29
749.25	16208.3
749.589	16266.61
749.928	16408.07
750.267	16402.42
750.605	16549.54
750.944	16587.73
751.283	16567.62
751.621	16672.02
751.96	16594.06
752.298	16691.91
752.636	16775.97
752.975	16810.77
753.313	16829.76
753.651	16935.52
753.989	17018.9
754.327	17031.78
754.666	16997.66
755.004	17168.05
755.342	17154.72
755.679	17339.8
756.017	17322.62
756.355	17552.22
756.693	17411.21
757.031	17591.09
