Data from hue_32_FLMS001491_00068.txt Node
Date: Tue Feb 07 17:23:45 GMT 2017
User: dcchb
Spectrometer: FLMS00149
Trigger mode: 0
Integration Time (sec): 2.000000E-2
Scans to average: 10
Electric dark correction enabled: true
Nonlinearity correction enabled: false
Boxcar width: 0
XAxis mode: Wavelengths
Number of Pixels in Spectrum: 2048
>>>>>Begin Spectral Data<<<<<
341.393	-6.88
341.776	-6.88
342.16	-6.88
342.543	-72.64
342.927	-59.08
343.31	-59.31
343.693	-69.93
344.077	-65.18
344.46	-59.31
344.843	-43.94
345.226	-50.04
345.61	-32.87
345.993	-22.7
346.376	-10.72
346.759	8.49
347.142	5.55
347.525	50.52
347.908	58.88
348.291	88.49
348.674	90.75
349.057	111.31
349.44	112.89
349.823	129.16
350.206	152.21
350.588	209.39
350.971	198.31
351.354	229.27
351.737	247.35
352.119	236.05
352.502	253
352.884	273.11
353.267	300.46
353.65	289.16
354.032	286
354.414	296.16
354.797	330.51
355.179	325.32
355.562	352.89
355.944	335.26
356.326	334.81
356.709	369.61
357.091	342.72
357.473	347.69
357.855	339.55
358.238	337.29
358.62	328.03
359.002	329.84
359.384	333.68
359.766	345.2
360.148	323.28
360.53	337.07
360.912	338.88
361.294	342.72
361.676	318.99
362.057	338.2
362.439	337.52
362.821	318.99
363.203	327.12
363.584	331.42
363.966	321.7
364.348	315.83
364.729	331.42
365.111	321.02
365.493	321.25
365.874	306.33
366.256	310.4
366.637	308.37
367.019	314.92
367.4	339.78
367.781	318.76
368.163	312.44
368.544	304.07
368.925	308.59
369.306	358.08
369.688	311.53
370.069	314.7
370.45	324.41
370.831	317.18
371.212	314.7
371.593	314.92
371.974	337.07
372.355	323.28
372.736	311.98
373.117	327.8
373.498	320.34
373.879	312.44
374.26	309.5
374.641	328.48
375.021	312.21
375.402	310.18
375.783	339.1
376.163	331.87
376.544	325.77
376.925	326.45
377.305	326.22
377.686	338.65
378.066	323.06
378.447	337.52
378.827	346.11
379.208	346.56
379.588	329.16
379.968	330.06
380.349	361.25
380.729	347.24
381.109	351.53
381.489	351.08
381.87	339.33
382.25	337.29
382.63	370.51
383.01	344.07
383.39	345.2
383.77	337.52
384.15	339.33
384.53	333.9
384.91	347.01
385.29	348.59
385.67	386.78
386.049	350.63
386.429	334.36
386.809	368.03
387.189	349.27
387.568	351.3
387.948	353.34
388.328	357.86
388.707	339.78
389.087	373.45
389.466	364.64
389.846	363.73
390.225	362.38
390.605	361.02
390.984	347.24
391.363	379.55
391.743	385.43
392.122	362.15
392.501	371.42
392.881	382.49
393.26	373
393.639	381.81
394.018	362.15
394.397	372.09
394.776	372.32
395.155	380.91
395.534	408.25
395.913	417.07
396.292	384.52
396.671	405.99
397.05	394.47
397.429	413.45
397.808	388.82
398.186	399.21
398.565	387.24
398.944	390.63
399.323	402.6
399.701	404.18
400.08	401.47
400.458	401.47
400.837	407.35
401.215	418.87
401.594	408.7
401.972	392.89
402.351	405.54
402.729	399.66
403.107	418.2
403.486	407.57
403.864	405.54
404.242	403.28
404.62	424.52
404.999	431.75
405.377	444.86
405.755	414.58
406.133	451.64
406.511	431.08
406.889	429.95
407.267	442.6
407.645	431.08
408.023	442.38
408.401	447.12
408.779	474.46
409.156	446.67
409.534	440.57
409.912	427.23
410.29	454.35
410.667	474.01
411.045	485.99
411.422	488.25
411.8	462.71
412.178	485.09
412.555	472.88
412.933	503.84
413.31	477.85
413.687	459.78
414.065	524.86
414.442	480.11
414.819	499.32
415.197	485.09
415.574	495.48
415.951	509.49
416.328	503.84
416.705	527.12
417.082	516.27
417.46	493.9
417.837	515.14
418.214	549.94
418.591	523.5
418.967	534.8
419.344	557.4
419.721	537.51
420.098	542.49
420.475	521.7
420.852	540.68
421.228	549.27
421.605	559.66
421.982	557.4
422.358	559.43
422.735	554.24
423.111	560.34
423.488	567.34
423.864	551.07
424.241	561.69
424.617	599.66
424.994	572.77
425.37	570.06
425.746	580
426.123	596.5
426.499	581.13
426.875	590.17
427.251	597.85
427.627	607.34
428.003	602.6
428.379	609.83
428.756	608.92
429.132	617.06
429.507	619.32
429.883	639.21
430.259	650.51
430.635	637.17
431.011	641.92
431.387	660.22
431.763	660.67
432.138	646.44
432.514	648.25
432.89	674.23
433.265	681.24
433.641	699.09
434.016	692.76
434.392	717.62
434.767	676.04
435.143	703.16
435.518	719.66
435.894	736.83
436.269	728.02
436.644	737.96
437.02	749.26
437.395	730.05
437.77	744.06
438.145	753.55
438.52	756.72
438.895	760.56
439.271	749.03
439.646	793.1
440.021	795.13
440.395	783.38
440.77	774.57
441.145	799.65
441.52	781.58
441.895	792.2
442.27	821.35
442.645	842.36
443.019	810.5
443.394	834
443.769	813.44
444.143	803.5
444.518	808.69
444.892	821.12
445.267	811.63
445.641	848.69
446.016	843.72
446.39	871.74
446.764	853.44
447.139	836.04
447.513	879.65
447.887	874.91
448.262	874.45
448.636	873.32
449.01	885.98
449.384	883.72
449.758	905.41
450.132	889.14
450.506	909.03
450.88	913.32
451.254	897.05
451.628	959.65
452.002	933.89
452.376	948.12
452.75	970.95
453.123	975.47
453.497	977.28
453.871	958.52
454.244	971.4
454.618	1000.33
454.992	1029.93
455.365	1012.08
455.739	1027.67
456.112	1015.47
456.486	1044.17
456.859	1034.68
457.232	1073.32
457.606	1086.43
457.979	1058.63
458.352	1097.5
458.725	1112.41
459.099	1108.12
459.472	1138.85
459.845	1158.06
460.218	1151.96
460.591	1166.65
460.964	1169.36
461.337	1186.08
461.71	1226.08
462.083	1211.17
462.456	1246.2
462.829	1219.53
463.201	1248
463.574	1255.24
463.947	1274.9
464.32	1287.78
464.692	1318.51
465.065	1329.58
465.438	1351.96
465.81	1358.51
466.183	1360.54
466.555	1401.9
466.928	1394.67
467.3	1408.23
467.672	1416.81
468.045	1477.6
468.417	1482.57
468.789	1539.75
469.161	1517.38
469.534	1542.46
469.906	1559.18
470.278	1601.21
470.65	1624.04
471.022	1641.44
471.394	1659.07
471.766	1676.47
472.138	1725.05
472.51	1744.71
472.882	1767.76
473.253	1784.49
473.625	1795.79
473.997	1884.6
474.369	1885.95
474.74	1919.85
475.112	1903.35
475.484	1999.4
475.855	2076
476.227	2070.81
476.598	2163.01
476.97	2161.43
477.341	2212.95
477.713	2226.74
478.084	2282.1
478.455	2344.25
478.827	2377.24
479.198	2478.71
479.569	2499.04
479.94	2577.69
480.311	2599.38
480.682	2657.46
481.053	2729.55
481.424	2840.96
481.795	2877.79
482.166	2912.37
482.537	2978.35
482.908	3056.54
483.279	3133.38
483.65	3206.37
484.021	3321.85
484.391	3329.98
484.762	3386.7
485.133	3464.89
485.503	3569.52
485.874	3626.25
486.244	3702.63
486.615	3839.35
486.985	3866.24
487.356	3972
487.726	4044.99
488.097	4165.22
488.467	4196.63
488.837	4300.8
489.207	4390.07
489.578	4490.63
489.948	4590.51
490.318	4659.21
490.688	4733.11
491.058	4811.53
491.428	4890.85
491.798	4960.67
492.168	5092.87
492.538	5188.69
492.908	5250.61
493.278	5346.2
493.648	5426.88
494.017	5499.19
494.387	5589.58
494.757	5675.46
495.126	5806.53
495.496	5741.9
495.866	5882.91
496.235	5949.12
496.605	6104.37
496.974	6112.06
497.344	6213.07
497.713	6321.09
498.082	6352.95
498.452	6423.69
498.821	6472.05
499.19	6562.67
499.559	6671.82
499.928	6655.09
500.298	6793.39
500.667	6828.42
501.036	6919.04
501.405	7008.08
501.774	6981.19
502.143	7114.97
502.512	7204.23
502.88	7247.39
503.249	7245.59
503.618	7331.01
503.987	7418.24
504.356	7405.81
504.724	7528.97
505.093	7567.84
505.462	7651
505.83	7707.72
506.199	7795.63
506.567	7886.93
506.936	7890.99
507.304	7980.93
507.672	8055.06
508.041	8061.84
508.409	8173.7
508.777	8185
509.145	8329.85
509.514	8257.09
509.882	8375.95
510.25	8432.67
510.618	8490.75
510.986	8516.97
511.354	8555.83
511.722	8588.6
512.09	8763.29
512.458	8735.94
512.826	8791.76
513.193	8937.75
513.561	8919.44
513.929	9003.05
514.297	9094.58
514.664	9123.96
515.032	9106.1
515.4	9265.87
515.767	9221.58
516.135	9289.83
516.502	9226.33
516.869	9427.9
517.237	9445.3
517.604	9463.16
517.972	9486.21
518.339	9527.79
518.706	9614.34
519.073	9639.2
519.44	9637.16
519.808	9786.31
520.175	9785.63
520.542	9879.87
520.909	9971.16
521.276	9928.45
521.643	10095.23
522.009	10108.56
522.376	10195.11
522.743	10179.97
523.11	10276.92
523.477	10373.64
523.843	10407.99
524.21	10555.1
524.577	10598.04
524.943	10595.33
525.31	10657.02
525.676	10716.68
526.043	10797.13
526.409	10839.84
526.776	10942.44
527.142	10975.43
527.508	11067.86
527.874	11152.15
528.241	11211.13
528.607	11285.25
528.973	11348.98
529.339	11259.49
529.705	11429.66
530.071	11502.2
530.437	11626.94
530.803	11629.88
531.169	11720.27
531.535	11720.5
531.901	11791.23
532.267	11857.67
532.632	11794.39
532.998	11901.96
533.364	12001.39
533.73	12016.76
534.095	12137.44
534.461	12189.86
534.826	12260.82
535.192	12267.6
535.557	12405
535.923	12224.89
536.288	12423.98
536.653	12501.04
537.019	12445.68
537.384	12507.82
537.749	12635.5
538.114	12606.35
538.479	12613.58
538.845	12659.23
539.21	12752.56
539.575	12802.95
539.94	12792.11
540.305	12855.83
540.67	12975.38
541.034	13020.35
541.399	13029.84
541.764	13061.93
542.129	13155.04
542.494	13211.53
542.858	13316.84
543.223	13320
543.587	13381.02
543.952	13404.75
544.316	13383.73
544.681	13547.12
545.045	13570.62
545.41	13580.56
545.774	13675.47
546.138	13659.65
546.503	13703.27
546.867	13755.02
547.231	13886.99
547.595	13803.61
547.959	14010.61
548.324	13936.26
548.688	13970.61
549.052	14070.27
549.416	14118.63
549.779	14210.6
550.143	14172.41
550.507	14289.47
550.871	14402.46
551.235	14317.04
551.599	14491.95
551.962	14413.53
552.326	14458.05
552.689	14547.77
553.053	14503.7
553.417	14573.53
553.78	14742.34
554.143	14690.81
554.507	14783.69
554.87	14895.1
555.234	14935.33
555.597	14893.75
555.96	15006.51
556.323	15058.26
556.686	15084.7
557.05	15170.35
557.413	15188.65
557.776	15220.52
558.139	15308.2
558.502	15314.53
558.865	15325.15
559.228	15400.85
559.59	15536.44
559.953	15523.56
560.316	15731.69
560.679	15664.12
561.041	15792.03
561.404	15765.81
561.767	15877.9
562.129	15721.75
562.492	15996.99
562.854	15996.99
563.217	16086.03
563.579	16152.7
563.941	16202.41
564.304	16168.29
564.666	16330.77
565.028	16413.93
565.39	16388.17
565.753	16554.04
566.115	16556.98
566.477	16636.3
566.839	16575.74
567.201	16751.78
567.563	16756.3
567.925	16939.34
568.287	16808.72
568.648	16978.44
569.01	17022.05
569.372	17110.41
569.734	17135.5
570.095	17220.24
570.457	17273.57
570.819	17396.51
571.18	17373.68
571.542	17486
571.903	17567.8
572.265	17615.94
572.626	17795.82
572.987	17698.19
573.349	17843.5
573.71	17983.84
574.071	18022.93
574.432	18177.28
574.794	18376.14
575.155	18202.59
575.516	18317.16
575.877	18532.75
576.238	18621.11
576.599	18734.32
576.96	18843.02
577.32	18929.12
577.681	18998.27
578.042	19231.03
578.403	19301.77
578.763	19386.06
579.124	19583.57
579.485	19834.63
579.845	19793.05
580.206	20049.77
580.566	20142.65
580.927	20333.38
581.287	20429.19
581.648	20658.57
582.008	20895.17
582.368	21001.83
582.728	21186.46
583.089	21240.92
583.449	21498.54
583.809	21687.01
584.169	21910.96
584.529	22159.54
584.889	22452.19
585.249	22504.62
585.609	22694.67
585.969	22992.29
586.329	23213.3
586.688	23404.71
587.048	23632.95
587.408	23800.63
587.768	24067.52
588.127	24261.86
588.487	24399.71
588.846	24815.52
589.206	24902.3
589.565	25182.97
589.925	25596.29
590.284	25661.83
590.643	25941.59
591.003	26316.27
591.362	26645.3
591.721	26793.32
592.08	27038.74
592.44	27497.03
592.799	27647.31
593.158	27831.03
593.517	28172.95
593.876	28520.06
594.235	28776.77
594.593	28901.97
594.952	29269.19
595.311	29365
595.67	29700.82
596.029	30023.07
596.387	30301.48
596.746	30572.88
597.104	30732.43
597.463	30939.43
597.822	31217.61
598.18	31408.79
598.538	31710.71
598.897	32174.2
599.255	32133.07
599.613	32796.33
599.972	32883.1
600.33	33138.46
600.688	33107.73
601.046	33478.57
601.404	33790.2
601.762	34006.46
602.12	34272.45
602.478	34448.49
602.836	34714.92
603.194	34662.94
603.552	35046.66
603.91	35097.06
604.268	35593.32
604.625	35491.85
604.983	35923.93
605.341	35879.18
605.698	36309.45
606.056	36288.66
606.413	36526.4
606.771	36867.18
607.128	36967.52
607.485	37056.33
607.843	37256.77
608.2	37601.62
608.557	37907.38
608.914	37911.22
609.272	38079.58
609.629	38276.41
609.986	38588.27
610.343	38523.63
610.7	38896.96
611.057	38911.19
611.414	39010.4
611.771	39224.18
612.127	39435.7
612.484	39537.62
612.841	39742.58
613.198	39846.54
613.554	39852.64
613.911	40310.03
614.267	40295.11
614.624	40325.85
614.98	40429.35
615.337	40833.63
615.693	40828.88
616.05	40830.69
616.406	41171.93
616.762	41028.65
617.118	41216.9
617.475	41308.65
617.831	41384.35
618.187	41543.22
618.543	41695.75
618.899	42153.37
619.255	41936.2
619.611	42050.55
619.967	42162.86
620.323	42280.82
620.678	42276.08
621.034	42175.74
621.39	42335.29
621.746	42471.1
622.101	42813.24
622.457	42581.61
622.812	42776.4
623.168	43032.89
623.523	42896.17
623.879	43189.05
624.234	43004.87
624.589	43207.13
624.945	43037.87
625.3	43351.98
625.655	43286.67
626.01	43556.95
626.365	43441.47
626.72	43394.47
627.075	43379.55
627.43	43505.88
627.785	43354.92
628.14	43529.6
628.495	43662.26
628.85	43556.72
629.205	43453.67
629.559	43664.29
629.914	43521.02
630.269	43771.18
630.623	43653.44
630.978	43527.12
631.332	43698.87
631.687	43938.41
632.041	43563.73
632.396	43783.38
632.75	43615.93
633.104	43682.59
633.459	43561.47
633.813	43714.01
634.167	43720.11
634.521	43642.6
634.875	43769.15
635.229	43746.55
635.583	43679.66
635.937	43637.4
636.291	43669.94
636.645	43705.42
636.999	43589.49
637.352	43734.8
637.706	43516.27
638.06	43744.29
638.413	43679.43
638.767	43474.92
639.121	43533.9
639.474	43281.47
639.828	43411.87
640.181	43547.46
640.534	43591.98
640.888	43350.85
641.241	43118.09
641.594	43303.85
641.947	43523.05
642.301	43330.74
642.654	43333.68
643.007	43376.39
643.36	43316.5
643.713	43302.72
644.066	43322.6
644.419	43136.62
644.771	42865.89
645.124	42619.8
645.477	42443.53
645.83	42228.85
646.182	42191.33
646.535	41989.76
646.888	42183.65
647.24	41999.25
647.593	42206.7
647.945	42119.7
648.298	41808.29
648.65	41819.59
649.002	41758.58
649.355	41955.86
649.707	41951.57
650.059	42039.47
650.411	42675.16
650.763	42595.84
651.115	42952.44
651.467	42726.46
651.819	42784.54
652.171	42644.88
652.523	42669.51
652.875	42734.82
653.227	42542.96
653.578	42765.33
653.93	42793.58
654.282	42477.65
654.633	42301.84
654.985	42607.37
655.337	42606.01
655.688	42476.98
656.039	42670.42
656.391	42285.34
656.742	42535.96
657.094	42615.73
657.445	42607.37
657.796	42586.8
658.147	42571.44
658.498	42445.34
658.849	42629.06
659.2	42437.2
659.551	42463.87
659.902	42436.75
660.253	42245.8
660.604	42356.53
660.955	42312.01
661.306	42314.49
661.656	42293.7
662.007	42321.05
662.358	42171
662.708	42390.42
663.059	42277.89
663.409	42077.44
663.76	42345.91
664.11	42335.06
664.461	42394.27
664.811	42267.49
665.161	42320.6
665.511	42238.79
665.862	42183.42
666.212	42242.41
666.562	42267.26
666.912	42079.02
667.262	42116.53
667.612	42178.23
667.962	42229.75
668.312	42209.41
668.662	42284.21
669.011	42154.05
669.361	42096.65
669.711	42140.94
670.06	42165.57
670.41	41909.99
670.76	42079.7
671.109	42098.91
671.459	42011
671.808	41987.05
672.157	42021.17
672.507	41826.15
672.856	41760.84
673.205	41844.45
673.554	41965.13
673.904	41875.18
674.253	42051.45
674.602	41904.56
674.951	41346.16
675.3	41199.95
675.649	41868.63
675.998	41752.02
676.346	41747.96
676.695	41932.81
677.044	41533.27
677.393	41735.53
677.741	41851.46
678.09	41620.73
678.438	41511.13
678.787	41613.72
679.135	41593.84
679.484	41272.71
679.832	41448.53
680.181	41180.06
680.529	41310.45
680.877	41321.98
681.225	41209.21
681.573	41400.17
681.922	41182.32
682.27	40943.68
682.618	41039.27
682.966	40887.64
683.314	40995.89
683.661	40943.23
684.009	40776.68
684.357	40719.51
684.705	40656.23
685.053	40625.27
685.4	40689.68
685.748	40496.01
686.095	40567.42
686.443	40268.45
686.79	40240.65
687.138	40407.43
687.485	40326.07
687.832	40291.27
688.18	40298.05
688.527	40011.73
688.874	39929.25
689.221	39828.91
689.568	39802.02
689.915	39652.64
690.262	39701.91
690.609	39508.69
690.956	39396.38
691.303	39501.24
691.65	39198.87
691.997	39247.23
692.344	39089.72
692.69	38997.97
693.037	38946.45
693.383	38599.11
693.73	38863.74
694.077	38684.76
694.423	38636.85
694.769	38419.91
695.116	38443.64
695.462	38400.93
695.808	38263.53
696.155	38222.62
696.501	38038
696.847	37938.11
697.193	37840.94
697.539	37885.68
697.885	37590.1
698.231	37561.17
698.577	37455.41
698.923	37476.2
699.269	37374.74
699.614	37241.63
699.96	37117.12
700.306	37138.81
700.651	36879.84
700.997	36783.11
701.342	36758.48
701.688	36840.29
702.033	36586.96
702.379	36581.76
702.724	36547.64
703.069	36464.25
703.415	36101.78
703.76	36090.93
704.105	36085.05
704.45	36160.08
704.795	35800.09
705.14	35749.7
705.485	35720.32
705.83	35598.74
706.175	35675.57
706.52	35554.9
706.865	35422.25
707.209	35393.09
707.554	35319.2
707.899	35358.75
708.243	35121.24
708.588	35112.88
708.932	34861.36
709.277	34949.04
709.621	34906.33
709.966	34682.61
710.31	34873.56
710.654	34390.41
710.998	34483.29
711.342	34541.37
711.687	34364.87
712.031	34237.42
712.375	34097.99
712.719	34161.04
713.063	34109.06
713.407	34170.3
713.75	33904.32
714.094	33964.88
714.438	33806.47
714.782	33819.35
715.125	33584.1
715.469	33684.89
715.812	33423.2
716.156	33384.33
716.499	33437.21
716.843	33465.01
717.186	33354.28
717.53	33514.05
717.873	33379.59
718.216	33313.83
718.559	33154.51
718.902	33032.93
719.246	32970.79
719.589	32968.3
719.932	32805.14
720.275	32916.32
720.617	32844.46
720.96	32631.13
721.303	32747.74
721.646	32691.24
721.989	32369.9
722.331	32688.08
722.674	32472.27
723.016	32630.68
723.359	32467.75
723.701	32316.11
724.044	32312.5
724.386	32070.92
724.729	32301.88
725.071	32072.96
725.413	31936.46
725.755	32061.43
726.097	31924.03
726.439	31726.75
726.782	31761.55
727.124	31832.51
727.465	31653.08
727.807	31651.95
728.149	31568.56
728.491	31592.97
728.833	31509.81
729.175	31419.87
729.516	31537.83
729.858	31417.15
730.199	31444.95
730.541	31242.24
730.882	31210.83
731.224	31308.91
731.565	31146.43
731.906	31096.26
732.248	31138.07
732.589	30979.65
732.93	30922.48
733.271	30886.55
733.612	30795.48
733.953	30900.11
734.294	30846.1
734.635	30813.55
734.976	30874.34
735.317	30610.17
735.658	30616.72
735.999	30532.21
736.339	30529.72
736.68	30515.48
737.021	30457.18
737.361	30366.79
737.702	30532.43
738.042	30376.73
738.383	30243.17
738.723	30440.91
739.063	30161.14
739.404	30320.91
739.744	30179.22
740.084	30092.44
740.424	30235.49
740.764	30065.1
741.104	30160.01
741.444	29950.3
741.784	29892.45
742.124	29889.96
742.464	29896.29
742.804	29860.13
743.143	29779.01
743.483	29801.38
743.823	29650.42
744.162	29702.4
744.502	29707.37
744.841	29478
745.181	29717.09
745.52	29517.54
745.86	29607.26
746.199	29478.9
746.538	29455.17
746.877	29462.4
747.216	29426.7
747.556	29279.36
747.895	29261.28
748.234	29244.78
748.573	29064.9
748.911	29174.5
749.25	29151.45
749.589	28970.89
749.928	29034.62
750.267	29072.13
750.605	28951
750.944	28859.48
751.283	28681.86
751.621	28761.63
751.96	28661.52
752.298	28626.95
752.636	28602.54
752.975	28580.62
753.313	28372.71
753.651	28434.63
753.989	28281.87
754.327	28367.97
754.666	28235.09
755.004	28186.96
755.342	28286.39
755.679	28209.33
756.017	28038.03
756.355	28141.76
756.693	27953.06
757.031	28080.74
757.368	27882.56
757.706	27799.85
758.044	27665.84
