Data from hue_100_FLMS001491_00091.txt Node
Date: Tue Feb 07 17:03:53 GMT 2017
User: dcchb
Spectrometer: FLMS00149
Trigger mode: 0
Integration Time (sec): 2.000000E-2
Scans to average: 10
Electric dark correction enabled: true
Nonlinearity correction enabled: false
Boxcar width: 0
XAxis mode: Wavelengths
Number of Pixels in Spectrum: 2048
>>>>>Begin Spectral Data<<<<<
341.393	-6.58
341.776	-6.58
342.16	-6.58
342.543	-40.48
342.927	-60.37
343.31	-53.81
343.693	-74.15
344.077	-79.35
344.46	-70.53
344.843	-56.3
345.226	-37.32
345.61	-22.4
345.993	-23.53
346.376	-20.37
346.759	23.02
347.142	30.03
347.525	36.13
347.908	59.18
348.291	66.86
348.674	90.59
349.057	131.95
349.44	138.5
349.823	139.86
350.206	170.59
350.588	197.48
350.971	208.55
351.354	230.25
351.737	234.09
352.119	253.07
352.502	249.68
352.884	278.16
353.267	291.04
353.65	299.85
354.032	314.09
354.414	305.95
354.797	329.45
355.179	329.45
355.562	328.1
355.944	334.2
356.326	336.01
356.709	348.44
357.091	336.23
357.473	356.8
357.855	350.7
358.238	340.53
358.62	347.99
359.002	361.09
359.384	340.53
359.766	326.97
360.148	337.36
360.53	324.48
360.912	329.68
361.294	330.81
361.676	361.77
362.057	345.05
362.439	343.01
362.821	322.9
363.203	357.48
363.584	342.34
363.966	340.08
364.348	324.48
364.729	322.22
365.111	331.04
365.493	334.88
365.874	326.97
366.256	331.94
366.637	316.35
367.019	306.86
367.4	319.74
367.781	326.06
368.163	332.62
368.544	314.09
368.925	334.88
369.306	316.57
369.688	330.36
370.069	322.68
370.45	325.61
370.831	321.09
371.212	327.42
371.593	318.61
371.974	328.1
372.355	308.89
372.736	343.24
373.117	306.4
373.498	319.74
373.879	331.04
374.26	310.02
374.641	320.64
375.021	324.71
375.402	339.85
375.783	337.82
376.163	348.89
376.544	336.91
376.925	347.53
377.305	329.91
377.686	339.85
378.066	320.19
378.447	336.01
378.827	354.54
379.208	330.36
379.588	332.17
379.968	340.75
380.349	340.3
380.729	331.49
381.109	365.61
381.489	364.93
381.87	342.79
382.25	344.14
382.63	327.42
383.01	348.66
383.39	326.06
383.77	356.35
384.15	341.43
384.53	351.15
384.91	358.38
385.29	363.35
385.67	351.83
386.049	356.12
386.429	377.36
386.809	366.52
387.189	388.21
387.568	389.57
387.948	371.94
388.328	384.14
388.707	356.8
389.087	363.8
389.466	386.63
389.846	360.64
390.225	397.48
390.605	359.74
390.984	396.12
391.363	359.51
391.743	378.04
392.122	373.07
392.501	368.55
392.881	402.67
393.26	394.99
393.639	390.47
394.018	394.09
394.397	388.44
394.776	415.55
395.155	386.85
395.534	393.41
395.913	397.93
396.292	392.96
396.671	390.24
397.05	404.03
397.429	393.86
397.808	402.22
398.186	400.41
398.565	408.1
398.944	420.75
399.323	399.06
399.701	411.03
400.08	418.49
400.458	415.1
400.837	419.17
401.215	430.24
401.594	424.82
401.972	446.06
402.351	426.85
402.729	430.24
403.107	431.15
403.486	448.55
403.864	432.73
404.242	422.33
404.62	451.94
404.999	444.03
405.377	437.47
405.755	455.78
406.133	454.2
406.511	459.85
406.889	459.17
407.267	459.39
407.645	453.97
408.023	464.14
408.401	488.77
408.779	489.9
409.156	485.16
409.534	493.74
409.912	485.83
410.29	479.96
410.667	506.17
411.045	482.9
411.422	500.52
411.8	505.04
412.178	473.18
412.555	506.17
412.933	526.96
413.31	537.13
413.687	531.94
414.065	538.26
414.442	535.1
414.819	522.9
415.197	526.06
415.574	549.11
415.951	534.42
416.328	542.56
416.705	545.72
417.082	554.08
417.46	576.68
417.837	566.96
418.214	567.41
418.591	561.76
418.967	570.35
419.344	569.9
419.721	569.45
420.098	570.8
420.475	608.32
420.852	588.43
421.228	571.71
421.605	585.27
421.982	580.97
422.358	614.87
422.735	595.21
423.111	596.34
423.488	592.72
423.864	616.23
424.241	627.75
424.617	613.29
424.994	642.67
425.37	643.12
425.746	632.27
426.123	640.63
426.499	642.21
426.875	638.37
427.251	668.43
427.627	669.78
428.003	682.67
428.379	672.72
428.756	680.86
429.132	683.57
429.507	698.48
429.883	680.41
430.259	696.9
430.635	705.04
431.011	703.46
431.387	709.78
431.763	729.22
432.138	733.96
432.514	703.68
432.89	738.94
433.265	749.33
433.641	750.01
434.016	785.26
434.392	779.16
434.767	784.36
435.143	804.47
435.518	804.92
435.894	773.06
436.269	801.98
436.644	823
437.02	852.83
437.395	850.34
437.77	839.05
438.145	846.28
438.52	830.68
438.895	839.27
439.271	842.66
439.646	876.33
440.021	893.51
440.395	863.68
440.77	840.63
441.145	856.45
441.52	924.47
441.895	916.11
442.27	935.54
442.645	918.59
443.019	911.36
443.394	921.08
443.769	918.14
444.143	945.26
444.518	957.69
444.892	945.71
445.267	954.07
445.641	965.14
446.016	957.23
446.39	962.66
446.764	984.8
447.139	1005.6
447.513	976.9
447.887	1016.67
448.262	1010.34
448.636	974.86
449.01	1028.42
449.384	1040.62
449.758	1026.39
450.132	1043.79
450.506	1023.45
450.88	1039.27
451.254	1051.24
451.628	1069.55
452.002	1056.44
452.376	1082.66
452.75	1110.68
453.123	1122.88
453.497	1118.13
453.871	1152.03
454.244	1142.99
454.618	1162.65
454.992	1155.2
455.365	1175.31
455.739	1219.83
456.112	1195.87
456.486	1251.01
456.859	1232.03
457.232	1245.81
457.606	1273.38
457.979	1252.14
458.352	1291.46
458.725	1324.91
459.099	1316.1
459.472	1347.73
459.845	1383.21
460.218	1393.61
460.591	1399.71
460.964	1407.62
461.337	1411.69
461.71	1470.67
462.083	1480.61
462.456	1476.54
462.829	1497.79
463.201	1521.51
463.574	1560.16
463.947	1522.64
464.32	1597.44
464.692	1594.51
465.065	1618.23
465.438	1629.76
465.81	1662.3
466.183	1667.72
466.555	1699.59
466.928	1718.57
467.3	1735.07
467.672	1792.02
468.045	1799.47
468.417	1838.57
468.789	1857.78
469.161	1874.5
469.534	1930.09
469.906	1952.69
470.278	1985.91
470.65	2002.18
471.022	2053.93
471.394	2098.45
471.766	2150.2
472.138	2172.34
472.51	2224.32
472.882	2292.57
473.253	2326.69
473.625	2358.33
473.997	2437.65
474.369	2464.99
474.74	2519.23
475.112	2584.76
475.484	2594.48
475.855	2652.56
476.227	2711.99
476.598	2834.02
476.97	2861.37
477.341	2961.93
477.713	3013.23
478.084	3079.44
478.455	3208.02
478.827	3240.56
479.198	3349.26
479.569	3411.63
479.94	3502.25
480.311	3561.23
480.682	3696.6
481.053	3805.3
481.424	3887.78
481.795	3979.98
482.166	4097.27
482.537	4211.16
482.908	4347.2
483.279	4394.43
483.65	4510.14
484.021	4643.24
484.391	4753.29
484.762	4892.72
485.133	4946.06
485.503	5139.05
485.874	5282.09
486.244	5357.57
486.615	5522.09
486.985	5678.24
487.356	5803.89
487.726	5941.06
488.097	6081.39
488.467	6206.59
488.837	6364.1
489.207	6553.47
489.578	6637.54
489.948	6781.04
490.318	6953.69
490.688	7047.47
491.058	7221.02
491.428	7449.72
491.798	7550.51
492.168	7770.84
492.538	7878.86
492.908	8063.49
493.278	8208.34
493.648	8312.52
494.017	8427.77
494.387	8618.05
494.757	8743.7
495.126	8917.25
495.496	8936.69
495.866	9169.22
496.235	9293.96
496.605	9406.5
496.974	9516.33
497.344	9759.26
497.713	9827.51
498.082	9949.54
498.452	10146.6
498.821	10199.25
499.19	10333.71
499.559	10488.74
499.928	10652.12
500.298	10661.84
500.667	10858.9
501.036	10848.73
501.405	11062.05
501.774	11117.87
502.143	11214.82
502.512	11300.92
502.88	11424.08
503.249	11460.69
503.618	11604.86
503.987	11675.6
504.356	11847.8
504.724	11887.12
505.093	11980
505.462	12015.02
505.83	12188.58
506.199	12296.15
506.567	12431.96
506.936	12385.63
507.304	12631.28
507.672	12645.29
508.041	12729.81
508.409	12799.86
508.777	12851.39
509.145	13032.62
509.514	13042.34
509.882	13165.95
510.25	13136.58
510.618	13210.02
510.986	13257.93
511.354	13403.69
511.722	13476.68
512.09	13593.74
512.458	13519.16
512.826	13663.34
513.193	13712.15
513.561	13794.64
513.929	13897.23
514.297	13919.61
514.664	14016.78
515.032	14085.7
515.4	14168.64
515.767	14102.88
516.135	14286.6
516.502	14162.09
516.869	14310.33
517.237	14435.52
517.604	14289.77
517.972	14505.13
518.339	14572.02
518.706	14468.97
519.073	14525.24
519.44	14591.45
519.808	14692.24
520.175	14659.7
520.542	14809.07
520.909	14868.96
521.276	14827.83
521.643	14913.93
522.009	14977.66
522.376	15038.45
522.743	15016.07
523.11	15117.54
523.477	15272.11
523.843	15176.52
524.21	15373.58
524.577	15438.66
524.943	15419.91
525.31	15457.19
525.676	15482.05
526.043	15552.33
526.409	15586.68
526.776	15690.41
527.142	15642.05
527.508	15726.34
527.874	15803.62
528.241	15706.23
528.607	15863.96
528.973	15912.1
529.339	15771.08
529.705	15938.31
530.071	15935.37
530.437	15956.84
530.803	15955.48
531.169	15984.64
531.535	15849.72
531.901	15960
532.267	15945.77
532.632	15994.58
532.998	15992.77
533.364	15983.05
533.73	15973.11
534.095	16099.66
534.461	16065.99
534.826	16087.46
535.192	15939.44
535.557	16019.21
535.923	15873
536.288	16047.23
536.653	16062.83
537.019	15928.82
537.384	15878.42
537.749	15971.08
538.114	15819.67
538.479	15828.03
538.845	15847.01
539.21	15795.04
539.575	15831.19
539.94	15784.19
540.305	15749.39
540.67	15639.79
541.034	15740.57
541.399	15791.19
541.764	15724.3
542.129	15678.66
542.494	15634.81
542.858	15567.25
543.223	15611.76
543.587	15628.49
543.952	15575.61
544.316	15519.56
544.681	15466.23
545.045	15543.52
545.41	15525.44
545.774	15481.82
546.138	15463.52
546.503	15474.82
546.867	15272.79
547.231	15461.26
547.595	15280.25
547.959	15314.6
548.324	15297.42
548.688	15261.04
549.052	15217.2
549.416	15223.53
549.779	15188.05
550.143	15194.37
550.507	15122.06
550.871	15138.56
551.235	15151.44
551.599	15110.31
551.962	15117.31
552.326	15092.23
552.689	15105.79
553.053	15037.99
553.417	15003.19
553.78	15116.86
554.143	15057.88
554.507	14932.23
554.87	15024.21
555.234	15040.25
555.597	14955.06
555.96	14980.37
556.323	14988.05
556.686	14941.05
557.05	14944.66
557.413	15023.31
557.776	14843.88
558.139	15009.29
558.502	14896.76
558.865	14767.95
559.228	14949.86
559.59	14947.6
559.953	14916.42
560.316	15028.5
560.679	14955.74
561.041	15015.62
561.404	15089.97
561.767	15100.14
562.129	15121.61
562.492	15075.06
562.854	15046.58
563.217	14940.37
563.579	15067.6
563.941	15018.11
564.304	15114.15
564.666	15172.68
565.028	15186.69
565.39	15226.01
565.753	15216.07
566.115	15220.59
566.477	15249.51
566.839	15228.72
567.201	15264.66
567.563	15321.15
567.925	15318.44
568.287	15286.58
568.648	15265.79
569.01	15420.13
569.372	15431.66
569.734	15284.54
570.095	15443.18
570.457	15447.48
570.819	15358.21
571.18	15447.93
571.542	15520.47
571.903	15508.94
572.265	15408.38
572.626	15477.08
572.987	15465.55
573.349	15595.04
573.71	15587.58
574.071	15571.31
574.432	15631.88
574.794	15661.71
575.155	15672.33
575.516	15678.2
575.877	15733.8
576.238	15623.52
576.599	15695.38
576.96	15757.07
577.32	15665.77
577.681	15740.12
578.042	15782.38
578.403	15668.94
578.763	15729.05
579.124	15807.92
579.485	15769.95
579.845	15729.73
580.206	15723.85
580.566	15834.81
580.927	15692.89
581.287	15739.44
581.648	15711.65
582.008	15799.56
582.368	15726.11
582.728	15786.9
583.089	15719.33
583.449	15684.53
583.809	15699.9
584.169	15722.27
584.529	15647.24
584.889	15771.31
585.249	15664.19
585.609	15614.25
585.969	15706.9
586.329	15597.08
586.688	15754.59
587.048	15593.23
587.408	15622.61
587.768	15562.95
588.127	15591.2
588.487	15501.03
588.846	15619
589.206	15505.55
589.565	15496.06
589.925	15602.5
590.284	15541.26
590.643	15605.89
591.003	15594.14
591.362	15593.46
591.721	15469.85
592.08	15523.63
592.44	15587.81
592.799	15562.27
593.158	15581.03
593.517	15579.9
593.876	15511.43
594.235	15466.23
594.593	15501.49
594.952	15548.94
595.311	15471.2
595.67	15467.36
596.029	15503.29
596.387	15480.47
596.746	15611.54
597.104	15447.7
597.463	15379.23
597.822	15416.52
598.18	15380.58
598.538	15376.06
598.897	15409.74
599.255	15324.77
599.613	15608.83
599.972	15503.97
600.33	15493.35
600.688	15454.03
601.046	15432.11
601.404	15534.93
601.762	15430.53
602.12	15480.92
602.478	15523.18
602.836	15531.09
603.194	15400.92
603.552	15446.8
603.91	15418.1
604.268	15447.25
604.625	15506.68
604.983	15491.77
605.341	15261.72
605.698	15465.78
606.056	15449.96
606.413	15477.3
606.771	15484.54
607.128	15501.94
607.485	15439.34
607.843	15488.38
608.2	15443.86
608.557	15643.85
608.914	15569.51
609.272	15683.4
609.629	15610.18
609.986	15672.55
610.343	15608.37
610.7	15638.88
611.057	15632.33
611.414	15629.62
611.771	15644.53
612.127	15627.13
612.484	15575.61
612.841	15588.04
613.198	15713
613.554	15714.81
613.911	15719.78
614.267	15743.06
614.624	15731.54
614.98	15684.31
615.337	15761.59
615.693	15749.61
616.05	15786.68
616.406	15878.88
616.762	15724.3
617.118	15753.91
617.475	15735.6
617.831	15853.34
618.187	15837.52
618.543	15866.67
618.899	16039.1
619.255	16007.01
619.611	15861.25
619.967	16003.62
620.323	16024.86
620.678	15870.97
621.034	15913.9
621.39	15890.4
621.746	15833.23
622.101	15964.3
622.457	15915.71
622.812	15966.11
623.168	15959.55
623.523	15969.95
623.879	15967.01
624.234	15916.39
624.589	15945.99
624.945	15943.06
625.3	16056.72
625.655	15938.08
626.01	15898.08
626.365	15972.21
626.72	15974.92
627.075	15868.71
627.43	15866
627.785	15882.04
628.14	15904.19
628.495	15823.74
628.85	15821.93
629.205	15797.52
629.559	15836.84
629.914	15830.97
630.269	15807.69
630.623	15761.59
630.978	15729.28
631.332	15877.29
631.687	15850.18
632.041	15828.71
632.396	15762.5
632.75	15645.44
633.104	15732.89
633.459	15703.97
633.813	15661.03
634.167	15681.14
634.521	15648.83
634.875	15591.2
635.229	15567.25
635.583	15553.01
635.937	15536.74
636.291	15569.28
636.645	15530.64
636.999	15538.77
637.352	15550.52
637.706	15474.14
638.06	15529.96
638.413	15535.38
638.767	15456.51
639.121	15429.85
639.474	15351.21
639.828	15367.48
640.181	15430.3
640.534	15374.71
640.888	15325.9
641.241	15205.9
641.594	15351.43
641.947	15284.99
642.301	15217.42
642.654	15304.43
643.007	15268.95
643.36	15212.91
643.713	15262.4
644.066	15263.75
644.419	15141.27
644.771	15081.61
645.124	15010.65
645.477	14975.17
645.83	14898.56
646.182	14722.3
646.535	14731.11
646.888	14766.14
647.24	14670.32
647.593	14792.13
647.945	14738.34
648.298	14680.94
648.65	14722.07
649.002	14696.08
649.355	14693.37
649.707	14684.78
650.059	14743.09
650.411	14952.12
650.763	15006.13
651.115	15061.5
651.467	15036.19
651.819	15106.02
652.171	15035.51
652.523	14928.17
652.875	15028.5
653.227	14963.65
653.578	15059.69
653.93	15017.66
654.282	15033.47
654.633	14945.34
654.985	14986.47
655.337	14986.92
655.688	14977.21
656.039	15137.2
656.391	14904.66
656.742	14983.53
657.094	14997.09
657.445	15070.31
657.796	14967.49
658.147	15043.19
658.498	15010.42
658.849	15050.42
659.2	15059.24
659.551	14993.25
659.902	15104.21
660.253	15014.49
660.604	15028.73
660.955	14970.65
661.306	14958
661.656	15070.99
662.007	15132.23
662.358	15138.78
662.708	15074.6
663.059	15099.46
663.409	14975.4
663.76	15070.31
664.11	15162.74
664.461	15163.19
664.811	15119.35
665.161	15147.6
665.511	15063.53
665.862	15064.66
666.212	15153.02
666.562	15105.56
666.912	15063.98
667.262	15091.33
667.612	15085
667.962	15144.21
668.312	15004.77
668.662	15181.04
669.011	15138.78
669.361	15073.47
669.711	15066.69
670.06	15054.27
670.41	14990.54
670.76	15012.91
671.109	14947.83
671.459	14950.09
671.808	14917.32
672.157	15056.75
672.507	14984.44
672.856	14998
673.205	14929.75
673.554	14921.84
673.904	14844.1
674.253	15025.79
674.602	14872.8
674.951	14668.96
675.3	14548.74
675.649	14822.63
675.998	14844.33
676.346	14811.79
676.695	14900.6
677.044	14724.33
677.393	14771.33
677.741	14836.42
678.09	14719.13
678.438	14754.61
678.787	14737.66
679.135	14782.86
679.484	14588.97
679.832	14734.73
680.181	14584.22
680.529	14665.35
680.877	14537.67
681.225	14524.34
681.573	14564.56
681.922	14464.22
682.27	14455.64
682.618	14433.04
682.966	14353.94
683.314	14464.45
683.661	14440.5
684.009	14340.61
684.357	14275.75
684.705	14258.13
685.053	14294.29
685.4	14294.96
685.748	14172.71
686.095	14190.56
686.443	14112.6
686.79	14036.44
687.138	14006.84
687.485	14150.11
687.832	14070.56
688.18	14088.87
688.527	13902.66
688.874	13898.82
689.221	13849.78
689.568	13874.41
689.915	13876.44
690.262	13846.16
690.609	13692.49
690.956	13732.49
691.303	13679.16
691.65	13629.44
691.997	13568.43
692.344	13610.46
692.69	13500.63
693.037	13481.65
693.383	13339.96
693.73	13393.52
694.077	13308.1
694.423	13353.74
694.769	13260.19
695.116	13188.1
695.462	13102.45
695.808	13107.42
696.155	13195.56
696.501	13052.51
696.847	13086.41
697.193	12899.97
697.539	13048.22
697.885	12831.5
698.231	12860.65
698.577	12753.53
698.923	12725.51
699.269	12686.64
699.614	12682.35
699.96	12564.39
700.306	12559.87
700.651	12432.41
700.997	12440.32
701.342	12445.07
701.688	12459.98
702.033	12364.39
702.379	12298.18
702.724	12246.43
703.069	12298.63
703.415	12208.24
703.76	12165.53
704.105	12165.53
704.45	12120.33
704.795	12128.24
705.14	11952.65
705.485	11949.26
705.83	11942.48
706.175	11922.6
706.52	11783.16
706.865	11838.53
707.209	11798.53
707.554	11725.77
707.899	11768.25
708.243	11633.79
708.588	11678.76
708.932	11554.7
709.277	11563.28
709.621	11590.85
709.966	11523.96
710.31	11619.1
710.654	11417.52
710.998	11440.35
711.342	11404.64
711.687	11339.79
712.031	11306.34
712.375	11298.66
712.719	11300.69
713.063	11315.38
713.407	11324.65
713.75	11285.1
714.094	11185.67
714.438	11144.76
714.782	11220.47
715.125	11114.93
715.469	11121.49
715.812	11107.02
716.156	10999.68
716.499	11064.99
716.843	11032.68
717.186	10944.77
717.53	10982.51
717.873	10980.47
718.216	11029.29
718.559	10926.46
718.902	10859.8
719.246	10845.56
719.589	10800.14
719.932	10787.48
720.275	10862.96
720.617	10801.72
720.96	10800.59
721.303	10787.48
721.646	10800.82
721.989	10751.1
722.331	10671.1
722.674	10676.75
723.016	10739.12
723.359	10696.41
723.701	10780.48
724.044	10643.99
724.386	10589.52
724.729	10700.26
725.071	10654.61
725.413	10660.03
725.755	10655.74
726.097	10594.27
726.439	10545.46
726.782	10596.76
727.124	10612.12
727.465	10636.75
727.807	10497.32
728.149	10544.33
728.491	10519.24
728.833	10541.39
729.175	10518.34
729.516	10429.08
729.858	10479.24
730.199	10531.67
730.541	10488.28
730.882	10446.02
731.224	10505.01
731.565	10439.47
731.906	10421.84
732.248	10447.61
732.589	10371.22
732.93	10369.64
733.271	10498.23
733.612	10423.65
733.953	10383.88
734.294	10439.02
734.635	10385.24
734.976	10386.37
735.317	10379.59
735.658	10392.69
735.999	10352.47
736.339	10422.3
736.68	10481.5
737.021	10425.46
737.361	10330.55
737.702	10534.84
738.042	10447.38
738.383	10450.77
738.723	10460.94
739.063	10419.36
739.404	10464.33
739.744	10483.09
740.084	10492.13
740.424	10491.45
740.764	10447.38
741.104	10608.28
741.444	10498.68
741.784	10486.25
742.124	10585.68
742.464	10599.47
742.804	10564.21
743.143	10588.62
743.483	10602.86
743.823	10643.76
744.162	10656.41
744.502	10669.97
744.841	10748.84
745.181	10765.11
745.52	10812.79
745.86	10836.07
746.199	10811.89
746.538	10954.03
746.877	10996.07
747.216	11068.38
747.556	11040.81
747.895	11088.72
748.234	11056.18
748.573	11181.82
748.911	11246.91
749.25	11349.5
749.589	11389.73
749.928	11464.3
750.267	11540.46
750.605	11629.04
750.944	11549.95
751.283	11693.45
751.621	11790.17
751.96	11927.34
752.298	11921.92
752.636	12136.6
752.975	12104.29
753.313	12205.53
753.651	12357.61
753.989	12465.63
754.327	12585.63
754.666	12635.12
755.004	12880.76
755.342	12967.54
755.679	13098.16
756.017	13178.16
