Data from hue_30_FLMS001491_36.txt Node
Date: Mon Feb 06 15:05:12 GMT 2017
User: dcchb
Spectrometer: FLMS00149
Trigger mode: 0
Integration Time (sec): 2.000000E-2
Scans to average: 10
Electric dark correction enabled: true
Nonlinearity correction enabled: false
Boxcar width: 0
XAxis mode: Wavelengths
Number of Pixels in Spectrum: 2048
>>>>>Begin Spectral Data<<<<<
341.393	-11.96
341.776	-11.96
342.16	-11.96
342.543	-47.89
342.927	-53.54
343.31	-77.95
343.693	-80.89
344.077	-58.74
344.46	-54.67
344.843	-45.41
345.226	-50.83
345.61	-35.92
345.993	-45.18
346.376	-0.66
346.759	18.09
347.142	27.13
347.525	38.21
347.908	66.91
348.291	73.01
348.674	95.6
349.057	131.31
349.44	139.67
349.823	153
350.206	164.98
350.588	188.94
350.971	208.14
351.354	219.22
351.737	237.97
352.119	254.47
352.502	267.8
352.884	280.91
353.267	277.29
353.65	297.63
354.032	284.07
354.414	303.51
354.797	302.38
355.179	308.48
355.562	301.93
355.944	344.86
356.326	332.66
356.709	340.57
357.091	332.66
357.473	327.46
357.855	346.9
358.238	348.93
358.62	338.76
359.002	344.41
359.384	342.6
359.766	329.05
360.148	343.73
360.53	333.79
360.912	313
361.294	343.06
361.676	317.97
362.057	329.5
362.439	336.28
362.821	326.79
363.203	320.68
363.584	329.95
363.966	321.59
364.348	346.67
364.729	309.38
365.111	319.33
365.493	310.97
365.874	305.77
366.256	305.99
366.637	324.53
367.019	315.49
367.4	302.61
367.781	330.4
368.163	324.75
368.544	302.61
368.925	323.85
369.306	314.81
369.688	294.02
370.069	321.81
370.45	318.88
370.831	302.83
371.212	312.1
371.593	318.42
371.974	317.29
372.355	319.33
372.736	313.45
373.117	305.77
373.498	304.19
373.879	300.57
374.26	301.93
374.641	323.85
375.021	319.1
375.402	319.33
375.783	318.88
376.163	315.49
376.544	333.79
376.925	309.61
377.305	322.04
377.686	312.77
378.066	343.06
378.447	323.4
378.827	326.79
379.208	333.34
379.588	321.59
379.968	337.63
380.349	336.28
380.729	323.62
381.109	335.82
381.489	339.21
381.87	327.92
382.25	343.73
382.63	348.71
383.01	327.46
383.39	344.86
383.77	322.04
384.15	339.89
384.53	325.43
384.91	351.19
385.29	352.77
385.67	349.61
386.049	320.23
386.429	334.47
386.809	329.5
387.189	347.58
387.568	349.61
387.948	357.52
388.328	355.71
388.707	361.81
389.087	374.02
389.466	368.37
389.846	355.49
390.225	351.87
390.605	355.49
390.984	376.05
391.363	357.52
391.743	362.26
392.122	345.77
392.501	353.68
392.881	363.39
393.26	344.19
393.639	345.54
394.018	365.88
394.397	356.84
394.776	372.21
395.155	368.59
395.534	368.59
395.913	393.45
396.292	372.89
396.671	381.02
397.05	373.34
397.429	379.44
397.808	390.06
398.186	385.54
398.565	374.69
398.944	384.41
399.323	384.41
399.701	412.43
400.08	380.57
400.458	391.42
400.837	393
401.215	376.73
401.594	387.57
401.972	382.38
402.351	405.2
402.729	395.03
403.107	399.1
403.486	392.77
403.864	413.56
404.242	403.17
404.62	388.93
404.999	402.94
405.377	392.09
405.755	402.94
406.133	411.75
406.511	428.03
406.889	424.18
407.267	416.5
407.645	415.6
408.023	408.36
408.401	433.68
408.779	417.86
409.156	435.71
409.534	430.06
409.912	435.03
410.29	416.05
410.667	452.43
411.045	443.62
411.422	422.6
411.8	442.26
412.178	450.17
412.555	454.69
412.933	430.06
413.31	456.27
413.687	449.04
414.065	463.73
414.442	470.74
414.819	457.18
415.197	454.69
415.574	471.19
415.951	440.91
416.328	470.51
416.705	458.31
417.082	456.5
417.46	477.97
417.837	485.43
418.214	484.07
418.591	477.97
418.967	493.33
419.344	484.52
419.721	491.98
420.098	487.91
420.475	480.68
420.852	506.67
421.228	503.5
421.605	511.87
421.982	518.19
422.358	529.94
422.735	529.27
423.111	535.14
423.488	526.55
423.864	523.39
424.241	522.03
424.617	545.08
424.994	520.9
425.37	537.18
425.746	529.04
426.123	555.03
426.499	533.33
426.875	548.25
427.251	554.8
427.627	546.89
428.003	561.36
428.379	571.75
428.756	557.06
429.132	554.35
429.507	564.29
429.883	593.44
430.259	577.85
430.635	584.18
431.011	573.33
431.387	584.18
431.763	586.44
432.138	595.25
432.514	593.9
432.89	624.63
433.265	623.5
433.641	608.59
434.016	620.79
434.392	638.87
434.767	641.58
435.143	611.75
435.518	642.48
435.894	650.39
436.269	640
436.644	651.52
437.02	664.63
437.395	677.74
437.77	668.7
438.145	666.89
438.52	664.86
438.895	684.29
439.271	666.44
439.646	685.65
440.021	689.26
440.395	691.3
440.77	703.5
441.145	719.32
441.52	710.28
441.895	724.74
442.27	732.42
442.645	715.48
443.019	733.55
443.394	752.99
443.769	730.84
444.143	726.55
444.518	768.13
444.892	737.62
445.267	752.31
445.641	734.23
446.016	746.66
446.39	746.21
446.764	763.16
447.139	755.47
447.513	757.06
447.887	749.82
448.262	790.95
448.636	787.79
449.01	806.09
449.384	798.41
449.758	800.9
450.132	794.57
450.506	796.38
450.88	831.4
451.254	827.34
451.628	811.07
452.002	813.1
452.376	827.79
452.75	835.02
453.123	839.77
453.497	857.39
453.871	877.73
454.244	860.1
454.618	898.75
454.992	883.15
455.365	892.42
455.739	883.61
456.112	923.15
456.486	908.24
456.859	922.02
457.232	935.81
457.606	928.58
457.979	955.47
458.352	957.05
458.725	962.02
459.099	973.77
459.472	995.47
459.845	971.97
460.218	993.66
460.591	1012.87
460.964	1004.73
461.337	1022.36
461.71	1025.3
462.083	1046.09
462.456	1083.83
462.829	1074.56
463.201	1066.65
463.574	1091.28
463.947	1107.1
464.32	1112.53
464.692	1106.43
465.065	1135.8
465.438	1143.03
465.81	1172.86
466.183	1179.19
466.555	1210.83
466.928	1202.69
467.3	1209.25
467.672	1220.32
468.045	1261.9
468.417	1265.07
468.789	1258.51
469.161	1279.75
469.534	1316.82
469.906	1325.85
470.278	1337.15
470.65	1339.64
471.022	1374.44
471.394	1390.49
471.766	1438.39
472.138	1444.5
472.51	1444.72
472.882	1471.39
473.253	1488.11
473.625	1534.21
473.997	1538.5
474.369	1570.14
474.74	1592.29
475.112	1657.37
475.484	1678.39
475.855	1651.95
476.227	1707.99
476.598	1762
476.97	1751.15
477.341	1806.75
477.713	1834.77
478.084	1849.46
478.455	1920.42
478.827	1931.49
479.198	1996.12
479.569	1984.14
479.94	2080.64
480.311	2089.9
480.682	2121.09
481.053	2211.03
481.424	2206.28
481.795	2273.4
482.166	2315.21
482.537	2362.66
482.908	2445.83
483.279	2457.8
483.65	2485.15
484.021	2528.31
484.391	2581.19
484.762	2646.72
485.133	2671.36
485.503	2755.42
485.874	2791.81
486.244	2847.17
486.615	2891.46
486.985	2945.47
487.356	3011.23
487.726	3036.32
488.097	3096.88
488.467	3169.87
488.837	3203.09
489.207	3288.29
489.578	3347.5
489.948	3377.55
490.318	3437.44
490.688	3508.17
491.058	3540.49
491.428	3644.44
491.798	3667.26
492.168	3741.16
492.538	3791.1
492.908	3871.32
493.278	3898.89
493.648	3920.59
494.017	3977.31
494.387	4018.44
494.757	4084.43
495.126	4154.93
495.496	4235.83
495.866	4257.76
496.235	4285.55
496.605	4299.56
496.974	4355.15
497.344	4432.67
497.713	4431.99
498.082	4509.73
498.452	4535.94
498.821	4577.75
499.19	4687.12
499.559	4642.6
499.928	4755.14
500.298	4725.77
500.667	4807.35
501.036	4825.88
501.405	4923.27
501.774	4864.74
502.143	4980.9
502.512	4967.34
502.88	5017.06
503.249	5011.86
503.618	5074.23
503.987	5108.35
504.356	5139.31
504.724	5155.13
505.093	5230.84
505.462	5190.61
505.83	5230.61
506.199	5328.24
506.567	5378.18
506.936	5361
507.304	5442.81
507.672	5424.05
508.041	5478.97
508.409	5544.5
508.777	5598.74
509.145	5649.81
509.514	5641.9
509.882	5682.58
510.25	5720.54
510.618	5762.8
510.986	5754.44
511.354	5803.93
511.722	5848.67
512.09	5880.09
512.458	5885.51
512.826	5995.79
513.193	5968.67
513.561	5962.12
513.929	6021.55
514.297	6071.94
514.664	6095.22
515.032	6107.2
515.4	6134.32
515.767	6181.77
516.135	6185.16
516.502	6191.04
516.869	6326.85
517.237	6299.51
517.604	6299.28
517.972	6342.22
518.339	6389.68
518.706	6419.96
519.073	6389.9
519.44	6409.11
519.808	6510.58
520.175	6526.85
520.542	6531.59
520.909	6624.25
521.276	6607.3
521.643	6642.78
522.009	6747.41
522.376	6700.63
522.743	6751.25
523.11	6819.95
523.477	6883.45
523.843	6884.58
524.21	6988.53
524.577	6984.46
524.943	6971.58
525.31	7041.18
525.676	7123.67
526.043	7130.67
526.409	7167.51
526.776	7237.34
527.142	7224.46
527.508	7197.11
527.874	7310.78
528.241	7289.31
528.607	7378.8
528.973	7431.01
529.339	7438.46
529.705	7471.46
530.071	7595.52
530.437	7581.51
530.803	7660.83
531.169	7683.65
531.535	7667.38
531.901	7662.19
532.267	7729.08
532.632	7814.72
532.998	7836.87
533.364	7892.91
533.73	7876.87
534.095	7986.24
534.461	8053.81
534.826	8005.91
535.192	7994.61
535.557	8075.51
535.923	8061.5
536.288	8158.22
536.653	8149.4
537.019	8178.78
537.384	8237.99
537.749	8238.44
538.114	8262.85
538.479	8305.11
538.845	8294.94
539.21	8422.39
539.575	8410.64
539.94	8390.75
540.305	8515.27
540.67	8462.62
541.034	8452.9
541.399	8574.48
541.764	8645.89
542.129	8613.8
542.494	8626.23
542.858	8738.54
543.223	8718.65
543.587	8771.76
543.952	8851.76
544.316	8857.63
544.681	8820.8
545.045	8810.4
545.41	8911.64
545.774	8947.12
546.138	8971.08
546.503	9079.78
546.867	9034.8
547.231	9141.47
547.595	9123.16
547.959	9182.15
548.324	9157.06
548.688	9183.05
549.052	9273.22
549.416	9290.62
549.779	9299.88
550.143	9359.32
550.507	9398.86
550.871	9434.34
551.235	9410.84
551.599	9461.01
551.962	9510.5
552.326	9559.76
552.689	9604.96
553.053	9627.56
553.417	9599.08
553.78	9712.53
554.143	9694.45
554.507	9703.71
554.87	9734.45
555.234	9823.03
555.597	9823.48
555.96	9829.81
556.323	9829.13
556.686	9856.7
557.05	9976.47
557.413	9949.81
557.776	9938.06
558.139	10060.54
558.502	10089.47
558.865	10054.67
559.228	10108.67
559.59	10183.48
559.953	10129.24
560.316	10285.17
560.679	10268.9
561.041	10354.54
561.404	10340.99
561.767	10413.3
562.129	10456.69
562.492	10522.9
562.854	10443.36
563.217	10548.66
563.579	10580.98
563.941	10607.19
564.304	10705.5
564.666	10709.11
565.028	10768.32
565.39	10760.86
565.753	10823.68
566.115	10841.76
566.477	10891.03
566.839	10875.21
567.201	11006.5
567.563	10993.17
567.925	10986.84
568.287	11100.06
568.648	10994.08
569.01	11093.73
569.372	11185.93
569.734	11129.44
570.095	11248.98
570.457	11265.93
570.819	11324.24
571.18	11381.18
571.542	11437.68
571.903	11485.59
572.265	11505.25
572.626	11596.77
572.987	11580.05
573.349	11726.03
573.71	11801.51
574.071	11825.92
574.432	11920.6
574.794	12033.6
575.155	12065.01
575.516	12091.45
575.877	12161.95
576.238	12223.42
576.599	12387.94
576.96	12411.21
577.32	12541.15
577.681	12590.64
578.042	12670.64
578.403	12714.26
578.763	12887.36
579.124	13048.03
579.485	13104.3
579.845	13188.37
580.206	13306.1
580.566	13367.35
580.927	13554.01
581.287	13638.75
581.648	13792.19
582.008	13954
582.368	14031.06
582.728	14261.56
583.089	14361.67
583.449	14540.2
583.809	14675.79
584.169	14869
584.529	14947.42
584.889	15364.81
585.249	15368.65
585.609	15512.15
585.969	15772.25
586.329	15959.37
586.688	16174.28
587.048	16396.42
587.408	16425.8
587.768	16709.18
588.127	16953.24
588.487	17157.98
588.846	17438.2
589.206	17597.74
589.565	17792.99
589.925	18061.01
590.284	18239.53
590.643	18522.69
591.003	18865.05
591.362	19097.59
591.721	19216.91
592.08	19444.7
592.44	19755.88
592.799	20108.19
593.158	20303.89
593.517	20493.71
593.876	20810.09
594.235	21003.76
594.593	21280.36
594.952	21656.85
595.311	21644.19
595.67	22090.96
596.029	22487.11
596.387	22568.91
596.746	22895.68
597.104	23065.62
597.463	23271.72
597.822	23575.44
598.18	23777.92
598.538	23916
598.897	24334.74
599.255	24375.64
599.613	25009.07
599.972	24971.79
600.33	25325.68
600.688	25472.34
601.046	25761.6
601.404	26122.94
601.762	26329.72
602.12	26589.37
602.478	26880.89
602.836	26923.37
603.194	27059.19
603.552	27232.52
603.91	27492.62
604.268	27905.27
604.625	28107.07
604.983	28317.46
605.341	28252.83
605.698	28621.63
606.056	28862.53
606.413	29086.48
606.771	29194.27
607.128	29382.07
607.485	29426.81
607.843	29698.44
608.2	30023.18
608.557	30267.69
608.914	30281.93
609.272	30582.71
609.629	30724.63
609.986	31027.22
610.343	31052.3
610.7	31335.01
611.057	31440.77
611.414	31700.88
611.771	31786.97
612.127	31969.34
612.484	32168.21
612.841	32499.05
613.198	32375.21
613.554	32498.82
613.911	32671.7
614.267	32810.22
614.624	32901.75
614.98	33089.99
615.337	33370.89
615.693	33391
616.05	33507.16
616.406	33775.17
616.762	33743.31
617.118	33827.83
617.475	33937.65
617.831	34146.91
618.187	34404.99
618.543	34410.63
618.899	34760.68
619.255	34701.47
619.611	34608.37
619.967	34871.64
620.323	35177.85
620.678	34903.28
621.034	35102.37
621.39	35170.84
621.746	35192.31
622.101	35515.69
622.457	35331.74
622.812	35547.78
623.168	35718.17
623.523	35575.35
623.879	35849.47
624.234	35731.28
624.589	35987.09
624.945	36023.7
625.3	35989.35
625.655	36098.05
626.01	36093.53
626.365	36208.55
626.72	36214.66
627.075	36309.57
627.43	36394.76
627.785	36216.24
628.14	36452.39
628.495	36517.25
628.85	36443.12
629.205	36417.81
629.559	36744.58
629.914	36596.34
630.269	36628.2
630.623	36620.29
630.978	36510.69
631.332	36653.06
631.687	36881.98
632.041	36547.75
632.396	36806.73
632.75	36608.09
633.104	36670.69
633.459	36602.67
633.813	36594.53
634.167	36531.03
634.521	36590.24
634.875	36712.72
635.229	36538.26
635.583	36569.22
635.937	36639.5
636.291	36479.05
636.645	36629.56
636.999	36547.53
637.352	36738.03
637.706	36547.75
638.06	36759.05
638.413	36528.77
638.767	36523.12
639.121	36493.97
639.474	36409
639.828	36541.88
640.181	36590.24
640.534	36640.86
640.888	36442.9
641.241	36270.02
641.594	36438.83
641.947	36527.42
642.301	36435.89
642.654	36555.21
643.007	36503.46
643.36	36467.53
643.713	36410.36
644.066	36585.72
644.419	36246.97
644.771	36119.97
645.124	35853.99
645.477	35767.66
645.83	35502.81
646.182	35400.21
646.535	35161.8
646.888	35360.67
647.24	35192.76
647.593	35288.35
647.945	35245.19
648.298	35075.25
648.65	35104.18
649.002	35131.97
649.355	35173.33
649.707	35109.6
650.059	35273.21
650.411	35594.78
650.763	35628.46
651.115	36201.55
651.467	35969.01
651.819	35962.91
652.171	35830.03
652.523	35941.44
652.875	35880.2
653.227	35734.89
653.578	35999.75
653.93	35898.73
654.282	35772.41
654.633	35638.17
654.985	35798.85
655.337	35773.99
655.688	35761.11
656.039	35769.92
656.391	35653.54
656.742	35549.14
657.094	35568.34
657.445	35699.87
657.796	35568.57
658.147	35603.82
658.498	35600.43
658.849	35662.35
659.2	35590.49
659.551	35563.82
659.902	35582.36
660.253	35472.53
660.604	35581.9
660.955	35500.32
661.306	35571.06
661.656	35466.65
662.007	35508.68
662.358	35643.82
662.708	35501.45
663.059	35487.67
663.409	35315.24
663.76	35454.45
664.11	35366.54
664.461	35528.12
664.811	35603.6
665.161	35536.93
665.511	35393.89
665.862	35470.49
666.212	35526.76
666.562	35511.17
666.912	35479.53
667.262	35303.04
667.612	35410.61
667.962	35388.01
668.312	35194.57
668.662	35531.06
669.011	35425.52
669.361	35277.28
669.711	35315.92
670.06	35119.54
670.41	35247.45
670.76	35172.2
671.109	35467.1
671.459	35269.14
671.808	35339.2
672.157	35372.64
672.507	34999.77
672.856	35196.83
673.205	35214.91
673.554	35312.31
673.904	35107.57
674.253	35311.4
674.602	35188.69
674.951	34759.33
675.3	34473.91
675.649	34991.86
675.998	35022.82
676.346	34962.03
676.695	35103.72
677.044	34990.73
677.393	34965.87
677.741	34960
678.09	35006.55
678.438	34750.74
678.787	34985.31
679.135	34937.85
679.484	34578.31
679.832	34837.06
680.181	34654.02
680.529	34686.11
680.877	34653.11
681.225	34536.28
681.573	34700.8
681.922	34489.73
682.27	34418.32
682.618	34395.27
682.966	34362.05
683.314	34382.16
683.661	34263.07
684.009	34207.93
684.357	34084.32
684.705	34088.61
685.053	33989.85
685.4	34004.09
685.748	33806.58
686.095	33917.31
686.443	33679.58
686.79	33659.69
687.138	33751.22
687.485	33711.67
687.832	33543.54
688.18	33687.94
688.527	33491.11
688.874	33460.15
689.221	33356.2
689.568	33256.77
689.915	33175.19
690.262	33110.1
690.609	33096.32
690.956	33011.12
691.303	32944.91
691.65	32831.24
691.997	32807.74
692.344	32625.14
692.69	32539.05
693.037	32671.47
693.383	32370.69
693.73	32411.59
694.077	32306.06
694.423	32333.18
694.769	32167.53
695.116	32238.71
695.462	32126.18
695.808	31963.92
696.155	31986.97
696.501	31810.93
696.847	31704.04
697.193	31529.35
697.539	31670.37
697.885	31450.26
698.231	31370.49
698.577	31300.89
698.923	31249.59
699.269	31166.88
699.614	31039.2
699.96	30998.75
700.306	30989.71
700.651	30797.17
700.997	30736.38
701.342	30731.86
701.688	30666.1
702.033	30591.75
702.379	30430.4
702.724	30379.78
703.069	30435.82
703.415	30183.85
703.76	30166.9
704.105	30135.94
704.45	30059.34
704.795	29828.16
705.14	29827.03
705.485	29752.23
705.83	29688.05
706.175	29689.4
706.52	29593.36
706.865	29458.45
707.209	29549.07
707.554	29493.48
707.899	29460.03
708.243	29289.87
708.588	29333.71
708.932	29094.62
709.277	29012.58
709.621	29093.94
709.966	28947.05
710.31	29073.83
710.654	28738.69
710.998	28812.14
711.342	28687.62
711.687	28601.97
712.031	28580.73
712.375	28486.72
712.719	28530.11
713.063	28496.67
713.407	28474.29
713.75	28246.73
714.094	28399.04
714.438	28261.42
714.782	28118.82
715.125	28169.22
715.469	28063.23
715.812	28026.62
716.156	27814.2
716.499	27866.17
716.843	27874.76
717.186	27709.79
717.53	27818.72
717.873	27786.18
718.216	27703.69
718.559	27581.44
718.902	27370.37
719.246	27590.02
719.589	27390.93
719.932	27318.39
720.275	27367.88
720.617	27218.28
720.96	27230.26
721.303	27275.23
721.646	27214.67
721.989	26988.68
722.331	27153.2
722.674	27053.54
723.016	27002.02
723.359	26948.01
723.701	26936.48
724.044	26859.42
724.386	26591.86
724.729	26809.25
725.071	26813.77
725.413	26643.38
725.755	26751.63
726.097	26594.57
726.439	26468.02
726.782	26480.9
727.124	26508.92
727.465	26462.14
727.807	26344.86
728.149	26317.51
728.491	26268.25
728.833	26317.97
729.175	26166.11
729.516	26255.82
729.858	26042.72
730.199	26088.59
730.541	26001.36
730.882	25956.85
731.224	26035.94
731.565	25962.5
731.906	25971.76
732.248	25834.14
732.589	25820.35
732.93	25585.78
733.271	25799.79
733.612	25679.79
733.953	25721.37
734.294	25637.31
734.635	25610.41
734.976	25661.71
735.317	25484.54
735.658	25571.55
735.999	25519.34
736.339	25336.52
736.68	25525.22
737.021	25388.05
737.361	25262.17
737.702	25379.01
738.042	25338.56
738.383	25326.81
738.723	25304.89
739.063	25236.86
739.404	25151.44
739.744	25155.74
740.084	25059.47
740.424	25033.03
740.764	24943.99
741.104	25072.8
741.444	24894.27
741.784	24889.98
742.124	24909.87
742.464	24885.24
742.804	24811.57
743.143	24798.01
743.483	24766.37
743.823	24565.02
744.162	24558.24
744.502	24734.05
744.841	24614.28
745.181	24646.82
745.52	24590.33
745.86	24628.97
746.199	24508.75
746.538	24426.04
746.877	24506.49
747.216	24572.93
747.556	24466.04
747.895	24497.45
748.234	24304.69
748.573	24315.08
748.911	24344.23
749.25	24275.76
749.589	24145.59
749.928	24119.61
750.267	24184.01
750.605	24069.66
750.944	23972.72
751.283	24023.11
751.621	24098.59
751.96	23843.68
752.298	23768.43
752.636	23896.33
752.975	23703.35
753.313	23699.96
753.651	23765.49
753.989	23680.97
754.327	23589
754.666	23458.83
755.004	23598.72
755.342	23589.45
755.679	23484.37
756.017	23409.57
756.355	23385.16
756.693	23349.91
757.031	23340.87
757.368	23273.53
757.706	23242.79
758.044	23119.41
758.381	23195.34
758.719	23063.36
759.056	23088.22
759.394	23030.6
759.731	22850.71
