Data from hue_26_FLMS001491_00032.txt Node
Date: Tue Feb 07 17:13:54 GMT 2017
User: dcchb
Spectrometer: FLMS00149
Trigger mode: 0
Integration Time (sec): 2.000000E-2
Scans to average: 10
Electric dark correction enabled: true
Nonlinearity correction enabled: false
Boxcar width: 0
XAxis mode: Wavelengths
Number of Pixels in Spectrum: 2048
>>>>>Begin Spectral Data<<<<<
341.393	-22.41
341.776	-22.41
342.16	-22.41
342.543	-71.68
342.927	-56.54
343.31	-79.36
343.693	-55.86
344.077	-69.42
344.46	-73.71
344.843	-40.95
345.226	-31.23
345.61	-42.08
345.993	-9.99
346.376	-0.72
346.759	6.74
347.142	21.2
347.525	30.01
347.908	46.51
348.291	99.16
348.674	98.49
349.057	101.2
349.44	119.5
349.823	143.46
350.206	166.28
350.588	173.96
350.971	213.06
351.354	216
351.737	234.3
352.119	246.05
352.502	253.51
352.884	265.26
353.267	284.02
353.65	282.89
354.032	298.48
354.414	313.62
354.797	307.29
355.179	333.73
355.562	327.41
355.944	342.77
356.326	355.43
356.709	353.85
357.091	340.74
357.473	344.13
357.855	351.81
358.238	341.19
358.62	366.73
359.002	353.39
359.384	336.9
359.766	338.71
360.148	347.07
360.53	353.62
360.912	341.42
361.294	348.42
361.676	334.64
362.057	323.34
362.439	336.67
362.821	343.9
363.203	331.47
363.584	325.6
363.966	315.43
364.348	321.76
364.729	330.57
365.111	313.17
365.493	318.14
365.874	315.66
366.256	326.73
366.637	327.86
367.019	322.44
367.4	310.46
367.781	304.13
368.163	303.9
368.544	315.66
368.925	327.41
369.306	322.89
369.688	297.12
370.069	313.4
370.45	310.23
370.831	301.64
371.212	310.91
371.593	315.66
371.974	309.1
372.355	303.9
372.736	330.34
373.117	314.3
373.498	334.19
373.879	325.15
374.26	321.98
374.641	323.34
375.021	337.58
375.402	318.82
375.783	329.21
376.163	331.7
376.544	307.97
376.925	318.59
377.305	315.43
377.686	340.51
378.066	329.67
378.447	345.49
378.827	326.95
379.208	331.93
379.588	331.25
379.968	335.54
380.349	324.92
380.729	331.25
381.109	334.41
381.489	341.19
381.87	317.01
382.25	341.19
382.63	349.1
383.01	322.89
383.39	330.34
383.77	378.03
384.15	327.86
384.53	355.88
384.91	359.5
385.29	375.09
385.67	348.2
386.049	365.37
386.429	351.59
386.809	343
387.189	341.87
387.568	359.04
387.948	368.76
388.328	367.18
388.707	360.17
389.087	371.25
389.466	372.38
389.846	377.12
390.225	365.15
390.605	361.3
390.984	382.77
391.363	387.07
391.743	374.41
392.122	349.55
392.501	367.63
392.881	391.36
393.26	389.33
393.639	383.22
394.018	377.57
394.397	389.33
394.776	372.15
395.155	390.91
395.534	401.53
395.913	374.64
396.292	389.78
396.671	398.82
397.05	388.65
397.429	388.65
397.808	380.51
398.186	397.24
398.565	380.51
398.944	389.55
399.323	418.93
399.701	382.77
400.08	416.9
400.458	408.08
400.837	382.09
401.215	404.01
401.594	400.63
401.972	399.95
402.351	422.55
402.729	400.17
403.107	418.03
403.486	432.94
403.864	431.36
404.242	406.27
404.62	397.24
404.999	429.1
405.377	401.98
405.755	433.84
406.133	413.05
406.511	440.85
406.889	434.07
407.267	431.81
407.645	433.17
408.023	461.19
408.401	434.3
408.779	431.81
409.156	459.61
409.534	450.12
409.912	444.69
410.29	444.69
410.667	468.42
411.045	456.67
411.422	452.6
411.8	446.73
412.178	467.06
412.555	483.33
412.933	477.91
413.31	470.23
413.687	473.62
414.065	510.45
414.442	495.76
414.819	481.98
415.197	487.18
415.574	494.41
415.951	498.7
416.328	497.35
416.705	507.51
417.082	502.32
417.46	512.94
417.837	505.03
418.214	514.75
418.591	506.38
418.967	516.55
419.344	510.23
419.721	514.29
420.098	526.27
420.475	541.64
420.852	528.98
421.228	526.27
421.605	533.5
421.982	553.16
422.358	549.77
422.735	545.03
423.111	544.58
423.488	552.71
423.864	558.36
424.241	576.89
424.617	583.9
424.994	557.91
425.37	556.1
425.746	597.46
426.123	578.02
426.499	591.13
426.875	581.64
427.251	586.61
427.627	601.3
428.003	608.76
428.379	592.94
428.756	594.74
429.132	606.04
429.507	621.64
429.883	590.45
430.259	623.22
430.635	648.3
431.011	636.78
431.387	630.68
431.763	647.62
432.138	646.27
432.514	634.52
432.89	666.38
433.265	658.25
433.641	672.26
434.016	676.78
434.392	682.88
434.767	689.21
435.143	681.3
435.518	701.63
435.894	708.19
436.269	726.94
436.644	692.59
437.02	741.63
437.395	741.86
437.77	724.01
438.145	734.4
438.52	740.05
438.895	757.68
439.271	730.33
439.646	765.59
440.021	748.41
440.395	729.66
440.77	765.14
441.145	785.47
441.52	785.02
441.895	802.65
442.27	780.73
442.645	803.1
443.019	771.46
443.394	806.94
443.769	794.06
444.143	806.49
444.518	831.8
444.892	800.16
445.267	807.39
445.641	821.4
446.016	828.41
446.39	845.81
446.764	852.14
447.139	833.38
447.513	846.72
447.887	843.78
448.262	850.1
448.636	863.21
449.01	859.37
449.384	865.25
449.758	863.21
450.132	876.54
450.506	888.07
450.88	904.11
451.254	870.22
451.628	925.81
452.002	928.07
452.376	939.14
452.75	928.52
453.123	908.86
453.497	915.87
453.871	953.38
454.244	954.96
454.618	951.57
454.992	979.59
455.365	980.5
455.739	975.98
456.112	987.05
456.486	992.25
456.859	1026.37
457.232	1028.63
457.606	1033.15
457.979	1043.32
458.352	1036.09
458.725	1047.61
459.099	1036.31
459.472	1083.54
459.845	1087.84
460.218	1098.91
460.591	1109.08
460.964	1096.2
461.337	1161.96
461.71	1147.95
462.083	1155.41
462.456	1173.94
462.829	1174.84
463.201	1192.92
463.574	1222.98
463.947	1217.78
464.32	1265.46
464.692	1233.15
465.065	1240.6
465.438	1274.27
465.81	1294.84
466.183	1276.76
466.555	1332.35
466.928	1333.48
467.3	1358.11
467.672	1379.13
468.045	1398.56
468.417	1402.41
468.789	1376.19
469.161	1436.3
469.534	1428.62
469.906	1464.1
470.278	1500.26
470.65	1489.64
471.022	1505.45
471.394	1534.15
471.766	1568.73
472.138	1590.65
472.51	1596.3
472.882	1646.92
473.253	1677.2
473.625	1688.5
473.997	1722.85
474.369	1721.27
474.74	1749.97
475.112	1789.74
475.484	1820.7
475.855	1838.55
476.227	1903.41
476.598	1926.01
476.97	1965.56
477.341	2024.76
477.713	2030.86
478.084	2042.84
478.455	2113.35
478.827	2100.02
479.198	2186.57
479.569	2171.88
479.94	2271.31
480.311	2273.34
480.682	2340.69
481.053	2403.74
481.424	2440.57
481.795	2488.25
482.166	2531.19
482.537	2544.52
482.908	2628.36
483.279	2617.97
483.65	2703.39
484.021	2795.59
484.391	2815.7
484.762	2855.7
485.133	2863.84
485.503	2917.85
485.874	2998.07
486.244	3021.12
486.615	3112.87
486.985	3171.17
487.356	3238.52
487.726	3281.68
488.097	3336.59
488.467	3352.86
488.837	3443.48
489.207	3511.5
489.578	3544.95
489.948	3592.18
490.318	3671.05
490.688	3690.03
491.058	3718.5
491.428	3773.19
491.798	3837.6
492.168	3918.27
492.538	3947.88
492.908	3948.55
493.278	4044.82
493.648	4057.03
494.017	4119.85
494.387	4194.42
494.757	4193.75
495.126	4328.21
495.496	4292.95
495.866	4327.53
496.235	4407.3
496.605	4440.29
496.974	4458.82
497.344	4552.38
497.713	4553.28
498.082	4582.66
498.452	4663.56
498.821	4633.28
499.19	4680.06
499.559	4733.62
499.928	4803
500.298	4789.21
500.667	4857.23
501.036	4891.13
501.405	4899.04
501.774	4916.89
502.143	4973.61
502.512	5022.88
502.88	5088.64
503.249	5064.46
503.618	5109.65
503.987	5171.12
504.356	5168.86
504.724	5180.16
505.093	5192.14
505.462	5219.93
505.83	5270.1
506.199	5321.17
506.567	5351.91
506.936	5349.65
507.304	5460.61
507.672	5448.63
508.041	5427.61
508.409	5490.43
508.777	5570.88
509.145	5566.59
509.514	5600.49
509.882	5569.3
510.25	5621.5
510.618	5661.05
510.986	5652.01
511.354	5713.03
511.722	5736.53
512.09	5797.32
512.458	5793.48
512.826	5865.34
513.193	5854.72
513.561	5838.67
513.929	5940.82
514.297	5988.05
514.664	6005.45
515.032	5977.88
515.4	6050.87
515.767	6077.31
516.135	6067.59
516.502	6083.19
516.869	6170.19
517.237	6172
517.604	6186.91
517.972	6207.7
518.339	6259.23
518.706	6278.44
519.073	6244.09
519.44	6268.27
519.808	6387.81
520.175	6390.3
520.542	6369.28
520.909	6431.65
521.276	6475.04
521.643	6498.09
522.009	6517.07
522.376	6547.81
522.743	6620.57
523.11	6666.22
523.477	6672.55
523.843	6649.5
524.21	6807.46
524.577	6810.17
524.943	6844.07
525.31	6898.53
525.676	6905.99
526.043	6973.56
526.409	6984.86
526.776	7078.64
527.142	7089.49
527.508	7070.73
527.874	7145.31
528.241	7160
528.607	7147.34
528.973	7238.41
529.339	7291.07
529.705	7343.27
530.071	7393.89
530.437	7370.39
530.803	7454.9
531.169	7470.72
531.535	7467.11
531.901	7466.2
532.267	7531.06
532.632	7559.53
532.998	7627.78
533.364	7689.25
533.73	7701.22
534.095	7752.97
534.461	7755.46
534.826	7781.67
535.192	7883.14
535.557	7878.39
535.923	7879.07
536.288	7934.44
536.653	7965.85
537.019	7972.4
537.384	7983.7
537.749	8027.77
538.114	8052.85
538.479	8116.81
538.845	8154.55
539.21	8163.13
539.575	8156.35
539.94	8175.34
540.305	8289.46
540.67	8273.19
541.034	8358.61
541.399	8343.47
541.764	8368.1
542.129	8361.09
542.494	8429.57
542.858	8473.63
543.223	8516.12
543.587	8542.33
543.952	8587.75
544.316	8631.6
544.681	8594.08
545.045	8663.23
545.41	8693.74
545.774	8755.66
546.138	8722.21
546.503	8767.64
546.867	8828.2
547.231	8848.76
547.595	8830.46
547.959	8868.65
548.324	8888.31
548.688	8962.43
549.052	8981.42
549.416	8996.33
549.779	9054.41
550.143	9012.6
550.507	9138.7
550.871	9135.99
551.235	9111.81
551.599	9268.87
551.962	9251.69
552.326	9282.43
552.689	9256.66
553.053	9296.66
553.417	9351.58
553.78	9416.21
554.143	9392.25
554.507	9437.9
554.87	9486.71
555.234	9538.92
555.597	9526.26
555.96	9584.79
556.323	9536.43
556.686	9608.52
557.05	9652.13
557.413	9699.82
557.776	9704.11
558.139	9715.63
558.502	9814.16
558.865	9845.12
559.228	9893.93
559.59	9867.95
559.953	9879.7
560.316	9960.37
560.679	10022.52
561.041	10109.52
561.404	10060.03
561.767	10138.22
562.129	10054.83
562.492	10203.76
562.854	10236.3
563.217	10211.21
563.579	10283.98
563.941	10303.64
564.304	10320.14
564.666	10460.93
565.028	10422.51
565.39	10404.66
565.753	10465.22
566.115	10523.52
566.477	10543.64
566.839	10607.36
567.201	10718.32
567.563	10686.46
567.925	10757.64
568.287	10723.52
568.648	10828.83
569.01	10920.35
569.372	10951.08
569.734	10965.32
570.095	11008.26
570.457	11059.33
570.819	11076.05
571.18	11158.31
571.542	11078.99
571.903	11195.82
572.265	11212.54
572.626	11285.08
572.987	11371.64
573.349	11380.22
573.71	11480.79
574.071	11474.01
574.432	11544.06
574.794	11669.71
575.155	11699.76
575.516	11764.85
575.877	11801.23
576.238	11889.36
576.599	11960.55
576.96	12082.58
577.32	12069.7
577.681	12301.33
578.042	12331.84
578.403	12430.82
578.763	12460.42
579.124	12572.06
579.485	12729.11
579.845	12859.96
580.206	12889.79
580.566	13021.76
580.927	13109.44
581.287	13315.09
581.648	13361.19
582.008	13568.87
582.368	13712.14
582.728	13860.61
583.089	13976.54
583.449	14136.99
583.809	14365
584.169	14508.5
584.529	14609.07
584.889	15017.42
585.249	14957.98
585.609	15214.7
585.969	15543.5
586.329	15700.56
586.688	15895.81
587.048	16062.81
587.408	16292.18
587.768	16559.75
588.127	16725.17
588.487	16966.74
588.846	17267.07
589.206	17395.43
589.565	17675.65
589.925	18131.91
590.284	18316.76
590.643	18531.22
591.003	18891.44
591.362	19222.28
591.721	19381.37
592.08	19739.33
592.44	19930.28
592.799	20304.06
593.158	20578.85
593.517	20750.37
593.876	21115.56
594.235	21388.55
594.593	21692.27
594.952	22009.55
595.311	22258.13
595.67	22635.07
596.029	23048.84
596.387	23235.96
596.746	23628.49
597.104	23820.12
597.463	24221.24
597.822	24518.63
598.18	24676.82
598.538	24931.96
598.897	25441.55
599.255	25553.18
599.613	26113.85
599.972	26211.02
600.33	26661.4
600.688	26740.5
601.046	27215.06
601.404	27504.32
601.762	27681.04
602.12	28104.08
602.478	28365.54
602.836	28588.81
603.194	28710.84
603.552	29019.08
603.91	29234.44
604.268	29725.73
604.625	29859.29
604.983	30254.98
605.341	30271.93
605.698	30874.17
606.056	30933.38
606.413	31290.43
606.771	31650.42
607.128	31717.77
607.485	31973.13
607.843	32198.89
608.2	32559.33
608.557	32820.34
608.914	32901.24
609.272	33355.69
609.629	33552.3
609.986	33820.31
610.343	33813.76
610.7	34296.01
611.057	34424.82
611.414	34598.6
611.771	34799.95
612.127	35066.61
612.484	35223.66
612.841	35537.78
613.198	35581.39
613.554	35817.77
613.911	36079.69
614.267	36225.9
614.624	36308.16
614.98	36575.27
615.337	36871.3
615.693	37023.62
616.05	37044.18
616.406	37464.74
616.762	37347.9
617.118	37563.04
617.475	37646.43
617.831	38064.95
618.187	38067.66
618.543	38236.69
618.899	38511.94
619.255	38582.45
619.611	38632.39
619.967	38943.34
620.323	39108.76
620.678	38950.8
621.034	38972.27
621.39	39202.54
621.746	39187.4
622.101	39782.64
622.457	39539.48
622.812	39685.69
623.168	39912.81
623.523	39965.23
623.879	40186.92
624.234	39916.42
624.589	40155.29
624.945	40367.48
625.3	40373.81
625.655	40572.9
626.01	40678.21
626.365	40803.63
626.72	40820.35
627.075	40809.05
627.43	40846.34
627.785	40910.52
628.14	40981.03
628.495	41017.64
628.85	41087.01
629.205	40974.25
629.559	41289.27
629.914	41218.99
630.269	41253.56
630.623	41275.71
630.978	41269.61
631.332	41419.66
631.687	41497.4
632.041	41349.6
632.396	41519.77
632.75	41398.64
633.104	41484.74
633.459	41462.14
633.813	41371.53
634.167	41303.96
634.521	41573.55
634.875	41620.11
635.229	41564.51
635.583	41421.24
635.937	41438.42
636.291	41402.94
636.645	41469.15
636.999	41275.48
637.352	41624.4
637.706	41339.21
638.06	41523.61
638.413	41575.59
638.767	41347.35
639.121	41488.58
639.474	41213.34
639.828	41340.11
640.181	41470.51
640.534	41435.25
640.888	41281.81
641.241	41068.26
641.594	41295.82
641.947	41405.2
642.301	41245.88
642.654	41301.24
643.007	41285.65
643.36	41247.91
643.713	41312.09
644.066	41361.58
644.419	41172.43
644.771	40876.62
645.124	40675.27
645.477	40565.22
645.83	40288.84
646.182	40349.86
646.535	40179.47
646.888	40156.64
647.24	40032.8
647.593	40212.46
647.945	40131.56
648.298	40019.92
648.65	39853.6
649.002	39856.76
649.355	40088.85
649.707	40014.05
650.059	40192.57
650.411	40680.7
650.763	40655.16
651.115	41153.68
651.467	40997.07
651.819	40871.88
652.171	40926.11
652.523	40840.92
652.875	40869.39
653.227	40633.47
653.578	41055.15
653.93	40914.81
654.282	40741.49
654.633	40585.11
654.985	40813.35
655.337	40880.01
655.688	40777.19
656.039	40876.62
656.391	40433.02
656.742	40612
657.094	40687.25
657.445	40764.31
657.796	40738.55
658.147	40760.92
658.498	40585.11
658.849	40710.75
659.2	40579
659.551	40519.57
659.902	40555.28
660.253	40473.47
660.604	40576.07
660.955	40523.64
661.306	40540.59
661.656	40514.15
662.007	40418.56
662.358	40429.4
662.708	40508.72
663.059	40586.91
663.409	40241.84
663.76	40640.92
664.11	40459.23
664.461	40541.26
664.811	40506.69
665.161	40602.96
665.511	40418.1
665.862	40459.68
666.212	40645.67
666.562	40589.17
666.912	40357.31
667.262	40487.25
667.612	40419.46
667.962	40409.74
668.312	40356.18
668.662	40524.77
669.011	40565.22
669.361	40352.57
669.711	40534.49
670.06	40270.76
670.41	40231.44
670.76	40206.36
671.109	40406.8
671.459	40264.21
671.808	40175.62
672.157	40249.75
672.507	40131.56
672.856	40112.58
673.205	40235.28
673.554	40188.51
673.904	40154.38
674.253	40385.34
674.602	40306.69
674.951	39696.99
675.3	39412.25
675.649	40109.86
675.998	40152.8
676.346	40132.46
676.695	40201.61
677.044	39905.12
677.393	40067.6
677.741	40033.26
678.09	39914.16
678.438	39822.87
678.787	39917.33
679.135	39958.68
679.484	39642.98
679.832	39791.45
680.181	39498.13
680.529	39624.23
680.877	39659.25
681.225	39582.87
681.573	39633.72
681.922	39424.23
682.27	39284.8
682.618	39223.56
682.966	39321.18
683.314	39434.4
683.661	39156.89
684.009	39167.74
684.357	38960.97
684.705	39120.96
685.053	39094.97
685.4	39027.63
685.748	38851.59
686.095	38866.73
686.443	38683.23
686.79	38631.26
687.138	38749
687.485	38721.65
687.832	38567.76
688.18	38561.2
688.527	38446.86
688.874	38299.52
689.221	38250.03
689.568	38174.1
689.915	38142.23
690.262	38131.84
690.609	37975.68
690.956	37826.08
691.303	37914.44
691.65	37639.65
691.997	37807.78
692.344	37422.25
692.69	37473.55
693.037	37483.27
693.383	37299.09
693.73	37162.6
694.077	37096.16
694.423	37078.3
694.769	36904.3
695.116	36877.41
695.462	36874.92
695.808	36663.85
696.155	36795.6
696.501	36505.66
696.847	36596.96
697.193	36328.95
697.539	36404.2
697.885	36187.93
698.231	36148.39
698.577	36208.27
698.923	36080.59
699.269	35813.25
699.614	35608.96
699.96	35568.97
700.306	35544.79
700.651	35422.98
700.997	35415.52
701.342	35353.38
701.688	35302.08
702.033	35171.46
702.379	35211.69
702.724	35025.7
703.069	35168.98
703.415	34770.79
703.76	34783
704.105	34685.83
704.45	34694.41
704.795	34534.19
705.14	34362.44
705.485	34413.74
705.83	34245.38
706.175	34357.47
706.52	34157.25
706.865	34038.84
707.209	34039.06
707.554	33874.55
707.899	33997.48
708.243	33769.92
708.588	33696.25
708.932	33463.94
709.277	33486.99
709.621	33500.32
709.966	33381.23
710.31	33388.46
710.654	32979.88
710.998	33243.38
711.342	33170.84
711.687	32992.31
712.031	32935.36
712.375	32871.86
712.719	32865.08
713.063	32870.28
713.407	32947.57
713.75	32605.88
714.094	32612.89
714.438	32524.98
714.782	32578.54
715.125	32369.73
715.469	32451.08
715.812	32223.74
716.156	32200.69
716.499	32160.92
716.843	32182.39
717.186	31967.93
717.53	32165.21
717.873	32060.81
718.216	31893.81
718.559	31925.22
718.902	31593.25
719.246	31753.25
719.589	31656.98
719.932	31428.74
720.275	31453.14
720.617	31522.52
720.96	31517.77
721.303	31385.8
721.646	31563.42
721.989	31207.5
722.331	31338.79
722.674	31152.36
723.016	31139.03
723.359	31174.51
723.701	31133.38
724.044	30958.92
724.386	30852.48
724.729	30951.23
725.071	30870.11
725.413	30876.21
725.755	30799.37
726.097	30699.04
726.439	30467.86
726.782	30509.66
727.124	30634.63
727.465	30540.85
727.807	30465.37
728.149	30347.18
728.491	30343.79
728.833	30382.66
729.175	30260.86
729.516	30189.9
729.858	30079.84
730.199	30228.32
730.541	30198.49
730.882	30112.61
731.224	30116.45
731.565	29960.3
731.906	30071.48
732.248	30036
732.589	29880.75
732.93	29831.04
733.271	29752.17
733.612	29826.07
733.953	29779.97
734.294	29695.22
734.635	29483.02
734.976	29593.76
735.317	29547.43
735.658	29507.66
735.999	29611.61
736.339	29424.95
736.68	29506.3
737.021	29384.95
737.361	29278.96
737.702	29397.38
738.042	29349.92
738.383	29196.93
738.723	29266.98
739.063	29116.25
739.404	29198.96
739.744	29092.75
740.084	29029.02
740.424	28981.12
740.764	28874.45
741.104	29030.38
741.444	28889.82
741.784	28746.09
742.124	28860.44
742.464	28665.19
742.804	28700.9
743.143	28594.91
743.483	28612.54
743.823	28375.48
744.162	28521.02
744.502	28568.25
744.841	28322.6
745.181	28527.8
745.52	28356.73
745.86	28457.51
746.199	28287.12
746.538	28257.52
746.877	28311.53
747.216	28245.09
747.556	28227.69
747.895	28280.57
748.234	28108.37
748.573	28092.1
748.911	28045.1
749.25	27961.03
749.589	27843.52
749.928	27969.62
750.267	27905.89
750.605	27768.72
750.944	27758.78
751.283	27597.65
751.621	27681.94
751.96	27517.2
752.298	27594.03
752.636	27540.7
752.975	27424.1
753.313	27432.46
753.651	27444.66
753.989	27335.28
754.327	27314.72
754.666	27179.13
755.004	27188.17
755.342	27275.17
755.679	27096.19
756.017	26957.21
756.355	27098.23
756.693	26902.98
757.031	27050.77
757.368	26851.45
757.706	26784.11
758.044	26640.16
758.381	26706.15
758.719	26566.72
759.056	26569.43
759.394	26486.49
759.731	26314.97
