Data from hue_170_FLMS001491_00057.txt Node
Date: Tue Feb 07 16:48:53 GMT 2017
User: dcchb
Spectrometer: FLMS00149
Trigger mode: 0
Integration Time (sec): 2.000000E-2
Scans to average: 10
Electric dark correction enabled: true
Nonlinearity correction enabled: false
Boxcar width: 0
XAxis mode: Wavelengths
Number of Pixels in Spectrum: 2048
>>>>>Begin Spectral Data<<<<<
341.393	4.28
341.776	4.28
342.16	4.28
342.543	-80.24
342.927	-66.91
343.31	-85.89
343.693	-59
344.077	-55.61
344.46	-69.62
344.843	-63.06
345.226	-44.53
345.61	0.66
345.993	1.79
346.376	-6.12
346.759	0.21
347.142	6.09
347.525	37.95
347.908	52.87
348.291	64.62
348.674	104.16
349.057	115.46
349.44	129.02
349.823	161.56
350.206	159.3
350.588	191.17
350.971	214.44
351.354	224.84
351.737	242.69
352.119	249.7
352.502	267.78
352.884	267.32
353.267	288.57
353.65	291.5
354.032	295.12
354.414	305.06
354.797	324.72
355.179	340.54
355.562	314.1
355.944	349.36
356.326	347.1
356.709	344.84
357.091	341.67
357.473	345.74
357.855	340.32
358.238	345.06
358.62	349.13
359.002	334.44
359.384	345.97
359.766	336.47
360.148	345.97
360.53	316.14
360.912	326.98
361.294	344.38
361.676	335.12
362.057	317.27
362.439	320.43
362.821	315.01
363.203	324.05
363.584	328.56
363.966	333.76
364.348	314.55
364.729	312.29
365.111	325.63
365.493	315.68
365.874	318.4
366.256	330.6
366.637	315.46
367.019	324.05
367.4	304.84
367.781	320.2
368.163	316.59
368.544	315.46
368.925	307.55
369.306	325.18
369.688	308.68
370.069	310.26
370.45	302.35
370.831	320.2
371.212	296.48
371.593	308.45
371.974	307.1
372.355	324.5
372.736	314.78
373.117	322.92
373.498	293.54
373.879	323.59
374.26	332.63
374.641	312.52
375.021	301.45
375.402	327.21
375.783	312.52
376.163	327.66
376.544	332.18
376.925	328.11
377.305	332.41
377.686	313.42
378.066	319.3
378.447	316.14
378.827	341.22
379.208	333.08
379.588	329.02
379.968	340.32
380.349	318.85
380.729	329.24
381.109	326.53
381.489	360.43
381.87	346.19
382.25	351.16
382.63	348.9
383.01	336.02
383.39	354.55
383.77	338.73
384.15	343.71
384.53	359.07
384.91	372.63
385.29	359.75
385.67	351.62
386.049	355.23
386.429	357.94
386.809	362.24
387.189	357.49
387.568	384.61
387.948	371.95
388.328	358.62
388.707	370.15
389.087	365.17
389.466	347.1
389.846	351.39
390.225	373.76
390.605	379.64
390.984	385.96
391.363	359.3
391.743	354.78
392.122	363.82
392.501	380.31
392.881	377.6
393.26	374.89
393.639	370.15
394.018	379.64
394.397	385.96
394.776	379.86
395.155	377.38
395.534	387.09
395.913	414.66
396.292	409.47
396.671	400.88
397.05	386.19
397.429	404.72
397.808	382.35
398.186	396.36
398.565	403.82
398.944	395.23
399.323	403.59
399.701	382.57
400.08	407.43
400.458	451.27
400.837	430.71
401.215	428.9
401.594	428
401.972	414.44
402.351	417.15
402.729	418.05
403.107	407.66
403.486	454.89
403.864	422.57
404.242	424.16
404.62	424.16
404.999	440.65
405.377	439.97
405.755	451.95
406.133	450.37
406.511	443.36
406.889	446.75
407.267	451.5
407.645	465.74
408.023	480.2
408.401	448.11
408.779	477.71
409.156	465.51
409.534	475.91
409.912	479.07
410.29	493.76
410.667	483.36
411.045	491.5
411.422	496.92
411.8	522.46
412.178	527.2
412.555	506.64
412.933	522.68
413.31	524.49
413.687	533.98
414.065	524.72
414.442	550.48
414.819	529.24
415.197	544.6
415.574	543.25
415.951	565.39
416.328	567.88
416.705	579.86
417.082	554.1
417.46	578.5
417.837	599.29
418.214	569.24
418.591	599.29
418.967	609.24
419.344	581.67
419.721	609.01
420.098	615.11
420.475	624.38
420.852	621.89
421.228	620.08
421.605	641.1
421.982	637.26
422.358	646.3
422.735	672.96
423.111	655.79
423.488	680.42
423.864	674.54
424.241	679.97
424.617	676.58
424.994	694.43
425.37	710.7
425.746	726.29
426.123	709.35
426.499	724.49
426.875	743.24
427.251	727.88
427.627	764.71
428.003	762.9
428.379	753.19
428.756	768.33
429.132	758.38
429.507	765.84
429.883	804.26
430.259	819.17
430.635	818.72
431.011	808.1
431.387	832.73
431.763	839.74
432.138	823.92
432.514	859.17
432.89	852.39
433.265	865.73
433.641	887.87
434.016	910.47
434.392	913.18
434.767	929.23
435.143	921.09
435.518	908.21
435.894	942.11
436.269	940.98
436.644	967.42
437.02	991.82
437.395	996.34
437.77	1004.48
438.145	1023.24
438.52	1065.27
438.895	1046.06
439.271	1051.26
439.646	1059.62
440.021	1095.55
440.395	1080.41
440.77	1082.44
441.145	1099.39
441.52	1106.85
441.895	1129
442.27	1126.74
442.645	1129.67
443.019	1147.53
443.394	1152.5
443.769	1167.64
444.143	1169.67
444.518	1184.36
444.892	1184.81
445.267	1220.07
445.641	1241.08
446.016	1199.28
446.39	1231.59
446.764	1237.02
447.139	1221.87
447.513	1277.01
447.887	1263.68
448.262	1257.81
448.636	1288.99
449.01	1295.32
449.384	1325.15
449.758	1322.89
450.132	1317.69
450.506	1328.31
450.88	1344.13
451.254	1346.17
451.628	1394.07
452.002	1376.9
452.376	1415.77
452.75	1409.21
453.123	1430.23
453.497	1427.29
453.871	1419.16
454.244	1494.41
454.618	1466.16
454.992	1518.82
455.365	1501.64
455.739	1579.61
456.112	1588.87
456.486	1584.58
456.859	1613.5
457.232	1633.16
457.606	1619.15
457.979	1646.27
458.352	1678.59
458.725	1706.38
459.099	1740.73
459.472	1736.21
459.845	1771.69
460.218	1786.61
460.591	1780.05
460.964	1786.61
461.337	1876.32
461.71	1899.14
462.083	1930.56
462.456	1931.01
462.829	1944.12
463.201	2003.55
463.574	1986.15
463.947	2019.14
464.32	2035.41
464.692	2068.18
465.065	2111.34
465.438	2124.9
465.81	2177.56
466.183	2206.93
466.555	2294.61
466.928	2235.63
467.3	2258.68
467.672	2307.27
468.045	2409.87
468.417	2422.97
468.789	2420.49
469.161	2469.75
469.534	2507.94
469.906	2547.72
470.278	2598.79
470.65	2618.9
471.022	2675.17
471.394	2763.76
471.766	2823.64
472.138	2856.63
472.51	2894.83
472.882	2960.81
473.253	3025.22
473.625	3086.23
473.997	3167.59
474.369	3204.87
474.74	3230.18
475.112	3320.58
475.484	3396.96
475.855	3450.52
476.227	3495.94
476.598	3646.9
476.97	3704.75
477.341	3780.23
477.713	3854.57
478.084	3935.7
478.455	4048.69
478.827	4069.48
479.198	4218.41
479.569	4272.19
479.94	4389.7
480.311	4508.34
480.682	4613.42
481.053	4765.51
481.424	4840.31
481.795	4923.25
482.166	4978.84
482.537	5119.85
482.908	5272.16
483.279	5310.13
483.65	5488.88
484.021	5613.85
484.391	5730.68
484.762	5861.75
485.133	5939.26
485.503	6021.3
485.874	6245.25
486.244	6295.64
486.615	6453.38
486.985	6553.03
487.356	6740.6
487.726	6853.59
488.097	6987.37
488.467	7094.49
488.837	7266.01
489.207	7410.41
489.578	7503.07
489.948	7634.14
490.318	7777.18
490.688	7895.82
491.058	8088.59
491.428	8183.95
491.798	8298.52
492.168	8517.5
492.538	8607.22
492.908	8724.95
493.278	8776.03
493.648	8916.14
494.017	9106.19
494.387	9169.46
494.757	9256.92
495.126	9358.61
495.496	9484.03
495.866	9569
496.235	9687.64
496.605	9795.66
496.974	9865.04
497.344	10041.98
497.713	10120.17
498.082	10196.33
498.452	10302.09
498.821	10409.88
499.19	10376.21
499.559	10585.7
499.928	10728.97
500.298	10721.29
500.667	10833.15
501.036	10857.1
501.405	10949.53
501.774	10979.13
502.143	11050.54
502.512	11153.14
502.88	11335.96
503.249	11363.3
503.618	11405.56
503.987	11454.15
504.356	11481.04
504.724	11554.03
505.093	11632.9
505.462	11676.29
505.83	11777.53
506.199	11897.75
506.567	12029.95
506.936	11959.22
507.304	12127.35
507.672	12205.31
508.041	12149.04
508.409	12177.29
508.777	12236.5
509.145	12366.67
509.514	12385.87
509.882	12432.43
510.25	12490.28
510.618	12469.26
510.986	12589.94
511.354	12629.03
511.722	12762.59
512.09	12880.1
512.458	12787.9
512.826	12870.61
513.193	12899.08
513.561	12996.03
513.929	13001.23
514.297	13096.36
514.664	13135.01
515.032	13139.75
515.4	13210.26
515.767	13271.28
516.135	13223.82
516.502	13148.57
516.869	13361.22
517.237	13369.13
517.604	13261.56
517.972	13446.86
518.339	13479.86
518.706	13407.54
519.073	13524.6
519.44	13447.99
519.808	13578.61
520.175	13552.85
520.542	13673.3
520.909	13628.78
521.276	13712.85
521.643	13770.47
522.009	13823.13
522.376	13776.35
522.743	13930.92
523.11	13888.89
523.477	14025.61
523.843	14005.49
524.21	14085.72
524.577	14118.03
524.943	14120.97
525.31	14126.62
525.676	14125.94
526.043	14201.19
526.409	14184.7
526.776	14248.42
527.142	14334.75
527.508	14289.33
527.874	14443.45
528.241	14329.55
528.607	14369.33
528.973	14395.77
529.339	14355.54
529.705	14286.39
530.071	14542.2
530.437	14422.66
530.803	14486.61
531.169	14485.93
531.535	14449.78
531.901	14388.08
532.267	14353.51
532.632	14426.27
532.998	14417.23
533.364	14482.32
533.73	14385.14
534.095	14443.45
534.461	14475.54
534.826	14345.6
535.192	14385.14
535.557	14443.9
535.923	14358.03
536.288	14309.67
536.653	14288.2
537.019	14223.34
537.384	14244.58
537.749	14250.01
538.114	14181.99
538.479	14117.13
538.845	14075.32
539.21	14018.15
539.575	14081.2
539.94	13966.4
540.305	14138.6
540.67	13943.8
541.034	14007.3
541.399	14010.24
541.764	13878.27
542.129	13862.9
542.494	13787.42
542.858	13786.29
543.223	13795.1
543.587	13781.54
543.952	13770.47
544.316	13713.75
544.681	13628.55
545.045	13564.6
545.41	13630.14
545.774	13618.16
546.138	13549.01
546.503	13472.4
546.867	13423.36
547.231	13465.39
547.595	13479.41
547.959	13353.08
548.324	13264.72
548.688	13330.48
549.052	13201.45
549.416	13219.3
549.779	13195.8
550.143	13265.63
550.507	13158.28
550.871	13116.93
551.235	13109.92
551.599	13059.3
551.962	13154.67
552.326	13046.65
552.689	13083.48
553.053	12998.51
553.417	12930.95
553.78	13014.56
554.143	12919.42
554.507	12885.3
554.87	12886.65
555.234	12945.41
555.597	12839.42
555.96	12861.12
556.323	12788.58
556.686	12782.93
557.05	12776.6
557.413	12813.21
557.776	12747
558.139	12704.96
558.502	12623.16
558.865	12742.25
559.228	12797.39
559.59	12799.88
559.953	12760.78
560.316	12731.63
560.679	12731.4
561.041	12688.01
561.404	12807.11
561.767	12781.12
562.129	12751.06
562.492	12841.46
562.854	12786.32
563.217	12725.53
563.579	12730.95
563.941	12871.96
564.304	12817.95
564.666	12816.6
565.028	12809.37
565.39	12827.22
565.753	12825.41
566.115	12824.96
566.477	12836.71
566.839	12843.49
567.201	12880.1
567.563	12855.92
567.925	12910.15
568.287	12860.21
568.648	12839.42
569.01	12958.97
569.372	13015.46
569.734	12846.88
570.095	13007.1
570.457	13013.2
570.819	13005.75
571.18	12949.7
571.542	13066.76
571.903	13050.49
572.265	13017.95
572.626	13011.62
572.987	13101.56
573.349	13157.61
573.71	13125.97
574.071	13070.83
574.432	13063.82
574.794	13171.39
575.155	13115.8
575.516	13080.32
575.877	13082.58
576.238	13061.56
576.599	13167.55
576.96	13098.17
577.32	13121.45
577.681	13155.35
578.042	13162.58
578.403	13165.97
578.763	13168.91
579.124	13152.41
579.485	13244.84
579.845	13204.84
580.206	13127.1
580.566	13162.8
580.927	13160.54
581.287	13254.1
581.648	13137.95
582.008	13197.15
582.368	13140.43
582.728	13163.48
583.089	13191.96
583.449	13160.32
583.809	13110.6
584.169	13091.39
584.529	13063.82
584.889	13182.46
585.249	13102.01
585.609	13108.57
585.969	13105.63
586.329	13062.69
586.688	13056.59
587.048	12988.57
587.408	12984.05
587.768	13023.37
588.127	12988.34
588.487	12979.53
588.846	13027.67
589.206	12967.1
589.565	12964.84
589.925	12940.89
590.284	12925.75
590.643	12967.78
591.003	12979.08
591.362	12991.51
591.721	12921
592.08	12859.31
592.44	12998.51
592.799	12955.35
593.158	12825.41
593.517	12942.7
593.876	12935.46
594.235	12828.8
594.593	12910.61
594.952	12934.11
595.311	12893.88
595.67	12878.74
596.029	12924.39
596.387	12942.7
596.746	12901.34
597.104	12920.1
597.463	12828.58
597.822	12903.38
598.18	12818.18
598.538	12831.29
598.897	12883.71
599.255	12796.03
599.613	12928.91
599.972	12828.8
600.33	12819.54
600.688	12782.7
601.046	12810.27
601.404	12941.11
601.762	12883.04
602.12	12899.99
602.478	12850.95
602.836	12834.68
603.194	12804.39
603.552	12834.45
603.91	12755.81
604.268	12897.95
604.625	12714.45
604.983	12804.62
605.341	12844.39
605.698	12851.63
606.056	12862.92
606.413	12883.49
606.771	12824.96
607.128	12877.16
607.485	12813.89
607.843	12893.21
608.2	12966.65
608.557	13004.39
608.914	12932.75
609.272	12925.52
609.629	12896.6
609.986	13002.13
610.343	12952.87
610.7	12983.37
611.057	13017.04
611.414	12967.78
611.771	12920.32
612.127	13006.42
612.484	12978.18
612.841	13137.95
613.198	13002.58
613.554	13023.37
613.911	13059.76
614.267	13107.89
614.624	12973.43
614.98	13011.62
615.337	13097.27
615.693	13079.19
616.05	13057.04
616.406	13162.58
616.762	13083.94
617.118	13061.11
617.475	13078.06
617.831	13180.66
618.187	13080.32
618.543	13176.81
618.899	13214.33
619.255	13162.8
619.611	13205.51
619.967	13158.06
620.323	13202.12
620.678	13158.51
621.034	13030.6
621.39	13120.77
621.746	13064.73
622.101	13253.2
622.457	13120.54
622.812	13080.32
623.168	13199.64
623.523	13205.74
623.879	13332.06
624.234	13183.37
624.589	13130.04
624.945	13224.72
625.3	13200.32
625.655	13222.01
626.01	13202.8
626.365	13111.51
626.72	13230.82
627.075	13092.52
627.43	13129.58
627.785	13138.17
628.14	13113.99
628.495	13182.69
628.85	13195.8
629.205	13162.35
629.559	13160.77
629.914	13087.1
630.269	13162.13
630.623	13058.63
630.978	13093.43
631.332	13086.2
631.687	13117.16
632.041	13057.5
632.396	13085.74
632.75	13013.88
633.104	12968.68
633.459	12995.8
633.813	13007.55
634.167	12934.34
634.521	12872.42
634.875	12933.21
635.229	12960.78
635.583	12891.17
635.937	12848.01
636.291	12825.86
636.645	12900.44
636.999	12759.65
637.352	12835.81
637.706	12761.23
638.06	12749.48
638.413	12684.17
638.767	12661.57
639.121	12772.31
639.474	12597.62
639.828	12700.22
640.181	12786.32
640.534	12698.86
640.888	12667.22
641.241	12649.37
641.594	12648.01
641.947	12642.14
642.301	12582.48
642.654	12621.12
643.007	12666.77
643.36	12634.68
643.713	12628.35
644.066	12607.56
644.419	12457.51
644.771	12404.18
645.124	12379.55
645.477	12404.86
645.83	12253.67
646.182	12194.02
646.535	12193.56
646.888	12304.3
647.24	12094.58
647.593	12266.78
647.945	12195.15
648.298	12148.59
648.65	12160.8
649.002	12043.74
649.355	12194.02
649.707	12151.53
650.059	12258.42
650.411	12344.07
650.763	12370.73
651.115	12405.54
651.467	12478.08
651.819	12472.2
652.171	12521.92
652.523	12394.46
652.875	12409.15
653.227	12332.77
653.578	12446.89
653.93	12334.58
654.282	12407.34
654.633	12384.07
654.985	12439.66
655.337	12432.88
655.688	12465.19
656.039	12509.49
656.391	12396.04
656.742	12318.53
657.094	12412.77
657.445	12474.23
657.796	12400.79
658.147	12480.79
658.498	12409.83
658.849	12418.19
659.2	12438.08
659.551	12468.81
659.902	12424.97
660.253	12408.47
660.604	12469.26
660.955	12431.3
661.306	12439.66
661.656	12405.76
662.007	12474.01
662.358	12510.17
662.708	12498.64
663.059	12442.6
663.409	12362.6
663.76	12486.44
664.11	12543.38
664.461	12504.06
664.811	12445.53
665.161	12442.37
665.511	12434.69
665.862	12510.39
666.212	12460.68
666.562	12457.96
666.912	12503.61
667.262	12445.76
667.612	12535.48
667.962	12514.01
668.312	12537.74
668.662	12491.18
669.011	12412.54
669.361	12439.88
669.711	12500.9
670.06	12462.26
670.41	12400.56
670.76	12411.41
671.109	12496.83
671.459	12464.97
671.808	12409.38
672.157	12440.11
672.507	12278.53
672.856	12347.68
673.205	12345.88
673.554	12415.93
673.904	12380.68
674.253	12425.87
674.602	12349.27
674.951	12202.38
675.3	12118.09
675.649	12300.45
675.998	12344.07
676.346	12304.97
676.695	12300.68
677.044	12245.09
677.393	12289.83
677.741	12305.88
678.09	12244.86
678.438	12156.28
678.787	12252.32
679.135	12181.81
679.484	12090.06
679.832	12161.47
680.181	12090.52
680.529	12081.48
680.877	12042.61
681.225	12042.38
681.573	12155.37
681.922	12057.75
682.27	11995.15
682.618	12005.55
682.966	11953.8
683.314	11998.09
683.661	11930.07
684.009	11944.08
684.357	11926.9
684.705	11890.07
685.053	11884.87
685.4	11893.01
685.748	11753.8
686.095	11756.06
686.443	11670.19
686.79	11748.83
687.138	11708.15
687.485	11763.07
687.832	11656.4
688.18	11556.97
688.527	11575.5
688.874	11572.11
689.221	11521.49
689.568	11498.89
689.915	11413.92
690.262	11410.31
690.609	11380.25
690.956	11309.07
691.303	11379.35
691.65	11253.02
691.997	11308.62
692.344	11229.07
692.69	11179.13
693.037	11152.46
693.383	10973.26
693.73	11149.3
694.077	11019.13
694.423	10989.75
694.769	10949.53
695.116	10957.89
695.462	10972.35
695.808	10885.58
696.155	10886.25
696.501	10766.26
696.847	10791.57
697.193	10685.81
697.539	10722.64
697.885	10642.64
698.231	10517.22
698.577	10541.4
698.923	10483.33
699.269	10501.86
699.614	10407.62
699.96	10354.97
700.306	10376.66
700.651	10366.27
700.997	10378.24
701.342	10262.99
701.688	10294.63
702.033	10190.45
702.379	10169.89
702.724	10213.5
703.069	10116.33
703.415	9973.51
703.76	10030.91
704.105	10049.67
704.45	9951.14
704.795	9956.79
705.14	9890.8
705.485	9883.12
705.83	9816.9
706.175	9796.11
706.52	9819.39
706.865	9704.36
707.209	9718.83
707.554	9720.18
707.899	9709.34
708.243	9639.96
708.588	9564.03
708.932	9606.51
709.277	9460.53
709.621	9595.21
709.966	9546.63
710.31	9508.89
710.654	9373.98
710.998	9428.89
711.342	9434.54
711.687	9257.6
712.031	9333.98
712.375	9279.06
712.719	9293.3
713.063	9371.49
713.407	9291.49
713.75	9227.77
714.094	9246.97
714.438	9213.53
714.782	9217.14
715.125	9189.8
715.469	9260.08
715.812	9197.94
716.156	9091.72
716.499	9122.01
716.843	9204.04
717.186	9035
717.53	9162.68
717.873	9091.05
718.216	9038.39
718.559	9072.74
718.902	9043.82
719.246	9042.46
719.589	9006.53
719.932	8902.12
720.275	8954.55
720.617	8992.97
720.96	8925.4
721.303	8901.22
721.646	8916.81
721.989	8927.66
722.331	8848.57
722.674	8912.75
723.016	8918.85
723.359	8873.42
723.701	8883.59
724.044	8818.74
724.386	8802.01
724.729	8836.36
725.071	8839.75
725.413	8818.51
725.755	8763.6
726.097	8736.25
726.439	8767.66
726.782	8705.52
727.124	8812.86
727.465	8721.56
727.807	8751.85
728.149	8683.83
728.491	8633.88
728.833	8755.24
729.175	8714.78
729.516	8705.97
729.858	8755.01
730.199	8673.88
730.541	8693.54
730.882	8688.8
731.224	8747.33
731.565	8637.05
731.906	8640.44
732.248	8722.92
732.589	8631.17
732.93	8694.45
733.271	8647.67
733.612	8664.39
733.953	8679.08
734.294	8710.72
734.635	8650.15
734.976	8611.06
735.317	8684.5
735.658	8592.75
735.999	8665.75
736.339	8673.66
736.68	8675.46
737.021	8697.16
737.361	8645.63
737.702	8730.6
738.042	8753.65
738.383	8659.19
738.723	8693.99
739.063	8671.17
739.404	8710.49
739.744	8752.98
740.084	8714.11
740.424	8690.38
740.764	8780.77
741.104	8797.95
741.444	8724.5
741.784	8754.11
742.124	8825.97
742.464	8828.68
742.804	8832.97
743.143	8820.77
743.483	8851.05
743.823	8864.61
744.162	8883.14
744.502	8988.68
744.841	8921.56
745.181	8950.48
745.52	9025.06
745.86	9061.22
746.199	9078.39
746.538	9173.08
746.877	9169.91
747.216	9267.54
747.556	9308.44
747.895	9301.44
748.234	9365.62
748.573	9443.81
748.911	9479.96
749.25	9558.38
749.589	9585.95
749.928	9628.21
750.267	9697.36
750.605	9813.51
750.944	9937.8
751.283	9942.1
751.621	10042.43
751.96	10124.92
752.298	10154.07
752.636	10350.67
752.975	10323.78
753.313	10426.6
753.651	10643.1
753.989	10684
754.327	10761.74
754.666	10809.19
755.004	10975.52
755.342	11095.97
755.679	11242.85
756.017	11342.96
756.355	11522.17
756.693	11596.97
757.031	11828.38
757.368	11842.16
757.706	11912.44
758.044	12165.09
758.381	12326.22
