Data from hue_300_FLMS001491_00010.txt Node
Date: Tue Feb 07 15:49:39 GMT 2017
User: dcchb
Spectrometer: FLMS00149
Trigger mode: 0
Integration Time (sec): 2.000000E-2
Scans to average: 10
Electric dark correction enabled: true
Nonlinearity correction enabled: false
Boxcar width: 0
XAxis mode: Wavelengths
Number of Pixels in Spectrum: 2048
>>>>>Begin Spectral Data<<<<<
341.393	-18.14
341.776	-18.14
342.16	-18.14
342.543	-56.33
342.927	-62.65
343.31	-57.68
343.693	-60.62
344.077	-83.67
344.46	-62.2
344.843	-42.99
345.226	-54.97
345.61	-29.43
345.993	-13.84
346.376	-0.73
346.759	2.66
347.142	18.7
347.525	45.37
347.908	52.15
348.291	87.4
348.674	96.66
349.057	103.22
349.44	128.53
349.823	125.36
350.206	147.74
350.588	187.28
350.971	211.92
351.354	208.07
351.737	214.85
352.119	233.61
352.502	235.87
352.884	259.6
353.267	276.77
353.65	281.07
354.032	298.69
354.414	299.14
354.797	301.18
355.179	300.27
355.562	323.32
355.944	297.56
356.326	299.6
356.709	325.13
357.091	327.62
357.473	342.76
357.855	323.78
358.238	325.36
358.62	321.74
359.002	339.14
359.384	317.68
359.766	348.86
360.148	320.61
360.53	346.38
360.912	325.36
361.294	294.85
361.676	319.03
362.057	320.61
362.439	312.25
362.821	331.23
363.203	331.69
363.584	338.92
363.966	305.92
364.348	307.96
364.729	315.87
365.111	299.82
365.493	312.25
365.874	323.55
366.256	274.96
366.637	294.85
367.019	335.3
367.4	285.36
367.781	307.05
368.163	311.12
368.544	298.92
368.925	303.66
369.306	313.38
369.688	288.52
370.069	318.58
370.45	312.25
370.831	305.92
371.212	305.25
371.593	307.28
371.974	301.63
372.355	284.91
372.736	288.3
373.117	323.32
373.498	300.5
373.879	324.91
374.26	315.64
374.641	284
375.021	321.74
375.402	334.62
375.783	317.9
376.163	322.42
376.544	323.55
376.925	319.26
377.305	321.29
377.686	332.36
378.066	308.41
378.447	292.14
378.827	313.16
379.208	314.51
379.588	308.64
379.968	333.27
380.349	324.91
380.729	320.16
381.109	304.34
381.489	307.96
381.87	323.55
382.25	316.55
382.63	329.2
383.01	338.47
383.39	331.91
383.77	320.61
384.15	359.48
384.53	341.18
384.91	331.23
385.29	322.87
385.67	353.38
386.049	343.44
386.429	331.46
386.809	335.3
387.189	336.21
387.568	339.82
387.948	362.42
388.328	349.31
388.707	344.57
389.087	338.47
389.466	362.19
389.846	350.67
390.225	353.38
390.605	366.26
390.984	333.72
391.363	357.67
391.743	360.84
392.122	365.36
392.501	367.39
392.881	386.37
393.26	358.8
393.639	367.62
394.018	366.71
394.397	375.75
394.776	380.27
395.155	378.92
395.534	376.66
395.913	399.48
396.292	382.08
396.671	364
397.05	372.36
397.429	374.85
397.808	405.81
398.186	378.69
398.565	388.41
398.944	398.8
399.323	414.4
399.701	401.74
400.08	409.65
400.458	379.37
400.837	420.72
401.215	393.15
401.594	389.54
401.972	411.23
402.351	393.15
402.729	436.54
403.107	411.46
403.486	423.66
403.864	408.29
404.242	413.49
404.62	422.76
404.999	440.84
405.377	425.47
405.755	453.04
406.133	469.54
406.511	457.56
406.889	465.69
407.267	463.66
407.645	469.31
408.023	459.59
408.401	466.6
408.779	474.96
409.156	472.02
409.534	464.56
409.912	484
410.29	490.1
410.667	504.11
411.045	509.99
411.422	540.49
411.8	523.77
412.178	517.9
412.555	525.58
412.933	534.84
413.31	534.84
413.687	553.15
414.065	561.96
414.442	550.89
414.819	582.3
415.197	616.2
415.574	608.97
415.951	613.03
416.328	620.49
416.705	629.53
417.082	639.47
417.46	648.06
417.837	660.27
418.214	647.38
418.591	659.14
418.967	662.98
419.344	665.69
419.721	684.22
420.098	707.72
420.475	697.78
420.852	681.73
421.228	723.09
421.605	734.39
421.982	741.84
422.358	739.59
422.735	772.35
423.111	762.86
423.488	764.9
423.864	772.8
424.241	776.65
424.617	782.3
424.994	796.31
425.37	827.04
425.746	814.16
426.123	848.06
426.499	809.87
426.875	857.32
427.251	834.05
427.627	874.95
428.003	879.47
428.379	884.21
428.756	901.84
429.132	909.3
429.507	923.99
429.883	939.81
430.259	914.04
430.635	933.7
431.011	967.83
431.387	958.11
431.763	1015.74
432.138	1019.8
432.514	1039.46
432.89	1000.14
433.265	1034.27
433.641	1024.55
434.016	1073.36
434.392	1076.98
434.767	1080.37
435.143	1099.12
435.518	1097.09
435.894	1084.43
436.269	1152.23
436.644	1130.08
437.02	1142.51
437.395	1151.78
437.77	1155.85
438.145	1179.35
438.52	1181.38
438.895	1180.93
439.271	1236.3
439.646	1206.69
440.021	1240.14
440.395	1236.3
440.77	1242.17
441.145	1221.15
441.52	1284.2
441.895	1269.74
442.27	1245.79
442.645	1224.77
443.019	1274.49
443.394	1275.62
443.769	1303.41
444.143	1261.61
444.518	1315.62
444.892	1290.53
445.267	1305.67
445.641	1312.68
446.016	1328.5
446.39	1324.2
446.764	1316.97
447.139	1294.82
447.513	1330.76
447.887	1340.7
448.262	1348.38
448.636	1314.49
449.01	1327.37
449.384	1365.56
449.758	1353.81
450.132	1393.13
450.506	1385.22
450.88	1394.26
451.254	1398.32
451.628	1396.74
452.002	1395.84
452.376	1425.44
452.75	1435.84
453.123	1423.18
453.497	1458.89
453.871	1470.64
454.244	1500.24
454.618	1472.22
454.992	1532.56
455.365	1468.83
455.739	1522.62
456.112	1529.39
456.486	1532.11
456.859	1520.58
457.232	1545.67
457.606	1534.59
457.979	1557.19
458.352	1577.76
458.725	1586.79
459.099	1580.47
459.472	1608.94
459.845	1624.76
460.218	1605.78
460.591	1646.23
460.964	1634.7
461.337	1676.74
461.71	1694.14
462.083	1713.12
462.456	1735.04
462.829	1720.12
463.201	1748.82
463.574	1707.47
463.947	1746.34
464.32	1780.91
464.692	1774.13
465.065	1775.26
465.438	1823.4
465.81	1806.9
466.183	1870.4
466.555	1880.35
466.928	1877.86
467.3	1863.4
467.672	1878.99
468.045	1902.04
468.417	1928.25
468.789	1929.84
469.161	1929.61
469.534	1999.21
469.906	2023.62
470.278	2009.38
470.65	2025.88
471.022	2036.95
471.394	2050.29
471.766	2056.16
472.138	2101.81
472.51	2116.72
472.882	2117.4
473.253	2186.78
473.625	2182.71
473.997	2196.04
474.369	2191.52
474.74	2216.61
475.112	2250.05
475.484	2284.63
475.855	2300.22
476.227	2310.39
476.598	2378.19
476.97	2395.81
477.341	2386.55
477.713	2414.12
478.084	2445.53
478.455	2499.76
478.827	2502.25
479.198	2505.19
479.569	2558.97
479.94	2599.42
480.311	2572.98
480.682	2625.64
481.053	2658.86
481.424	2715.58
481.795	2724.17
482.166	2754.9
482.537	2778.18
482.908	2780.21
483.279	2850.49
483.65	2853.43
484.021	2893.65
484.391	2905.18
484.762	2918.06
485.133	2970.71
485.503	2989.24
485.874	2994.67
486.244	3021.56
486.615	3051.61
486.985	3106.53
487.356	3130.03
487.726	3119.64
488.097	3182.01
488.467	3190.59
488.837	3222.01
489.207	3264.49
489.578	3284.38
489.948	3304.94
490.318	3353.08
490.688	3338.61
491.058	3400.31
491.428	3421.77
491.798	3454.32
492.168	3506.07
492.538	3488.44
492.908	3524.6
493.278	3543.81
493.648	3554.88
494.017	3571.83
494.387	3627.42
494.757	3623.13
495.126	3665.84
495.496	3666.06
495.866	3666.29
496.235	3731.6
496.605	3749.22
496.974	3687.98
497.344	3722.33
497.713	3751.26
498.082	3784.25
498.452	3818.37
498.821	3840.07
499.19	3842.78
499.559	3836
499.928	3888.88
500.298	3886.17
500.667	3948.77
501.036	3898.15
501.405	3923.46
501.774	3914.64
502.143	3971.36
502.512	3965.71
502.88	4036.67
503.249	3983.79
503.618	4022.44
503.987	4026.5
504.356	4031.93
504.724	4057.46
505.093	4117.58
505.462	4097.01
505.83	4091.59
506.199	4085.49
506.567	4165.71
506.936	4189.21
507.304	4210.91
507.672	4174.07
508.041	4197.57
508.409	4185.37
508.777	4197.35
509.145	4284.12
509.514	4230.34
509.882	4275.54
510.25	4255.88
510.618	4294.97
510.986	4295.2
511.354	4319.38
511.722	4323.45
512.09	4352.37
512.458	4322.54
512.826	4361.41
513.193	4392.6
513.561	4348.98
513.929	4409.77
514.297	4447.51
514.664	4410
515.032	4433.5
515.4	4466.27
515.767	4483.44
516.135	4459.94
516.502	4475.76
516.869	4534.97
517.237	4547.17
517.604	4454.06
517.972	4574.06
518.339	4599.14
518.706	4603.44
519.073	4597.79
519.44	4578.81
519.808	4611.57
520.175	4615.87
520.542	4625.58
520.909	4664.91
521.276	4640.05
521.643	4694.51
522.009	4737.67
522.376	4718.01
522.743	4701.06
523.11	4765.02
523.477	4776.32
523.843	4769.99
524.21	4853.15
524.577	4869.65
524.943	4907.61
525.31	4885.01
525.676	4958.23
526.043	4935.41
526.409	4918.01
526.776	5014.5
527.142	5034.84
527.508	4989.87
527.874	5070.77
528.241	5063.54
528.607	5083.65
528.973	5090.66
529.339	5076.87
529.705	5142.86
530.071	5165.23
530.437	5213.82
530.803	5221.05
531.169	5269.86
531.535	5223.08
531.901	5273.48
532.267	5276.87
532.632	5286.58
532.998	5380.59
533.364	5405
533.73	5382.63
534.095	5400.03
534.461	5438.22
534.826	5466.47
535.192	5496.07
535.557	5486.13
535.923	5532.91
536.288	5557.31
536.653	5609.29
537.019	5566.58
537.384	5597.08
537.749	5657.87
538.114	5581.94
538.479	5630.76
538.845	5639.34
539.21	5636.86
539.575	5673.01
539.94	5707.59
540.305	5762.05
540.67	5721.37
541.034	5736.97
541.399	5758.44
541.764	5817.19
542.129	5863.07
542.494	5849.73
542.858	5916.17
543.223	5887.25
543.587	5914.14
543.952	5962.95
544.316	5987.13
544.681	6024.19
545.045	6042.72
545.41	6077.75
545.774	6116.84
546.138	6108.94
546.503	6116.84
546.867	6155.04
547.231	6163.4
547.595	6148.48
547.959	6225.09
548.324	6204.75
548.688	6244.07
549.052	6232.77
549.416	6263.06
549.779	6257.18
550.143	6260.8
550.507	6370.17
550.871	6394.58
551.235	6364.97
551.599	6432.77
551.962	6409.72
552.326	6391.41
552.689	6466.67
553.053	6405.65
553.417	6521.81
553.78	6511.18
554.143	6507.34
554.507	6526.33
554.87	6587.79
555.234	6624.85
555.597	6615.59
555.96	6616.94
556.323	6660.11
556.686	6642.03
557.05	6681.58
557.413	6715.93
557.776	6665.76
558.139	6768.81
558.502	6728.58
558.865	6730.39
559.228	6791.63
559.59	6855.36
559.953	6839.54
560.316	6846.32
560.679	6866.43
561.041	6923.38
561.404	6894.23
561.767	6914.56
562.129	6966.77
562.492	7011.06
562.854	7045.63
563.217	6997.05
563.579	7045.63
563.941	7026.65
564.304	7141.22
564.666	7150.94
565.028	7137.61
565.39	7183.94
565.753	7229.58
566.115	7166.99
566.477	7272.29
566.839	7265.06
567.201	7306.87
567.563	7327.21
567.925	7449.24
568.287	7436.36
568.648	7385.51
569.01	7457.37
569.372	7493.31
569.734	7495.34
570.095	7591.38
570.457	7540.54
570.819	7656.92
571.18	7605.39
571.542	7670.25
571.903	7718.38
572.265	7753.19
572.626	7776.69
572.987	7833.86
573.349	7818.04
573.71	7942.11
574.071	7993.18
574.432	8009.68
574.794	8101.88
575.155	8139.39
575.516	8132.16
575.877	8138.49
576.238	8242.44
576.599	8398.14
576.96	8376.45
577.32	8432.04
577.681	8565.82
578.042	8612.6
578.403	8672.26
578.763	8798.81
579.124	8828.41
579.485	9003.77
579.845	9100.5
580.206	9147.95
580.566	9286.03
580.927	9436.53
581.287	9540.03
581.648	9681.27
582.008	9814.83
582.368	9913.13
582.728	10037.19
583.089	10186.79
583.449	10363.29
583.809	10577.97
584.169	10681.02
584.529	10883.73
584.889	11191.97
585.249	11309.93
585.609	11461.11
585.969	11760.54
586.329	11906.98
586.688	12193.07
587.048	12253.18
587.408	12558.26
587.768	12691.14
588.127	13047.51
588.487	13224.45
588.846	13518.23
589.206	13718
589.565	13960.25
589.925	14250.64
590.284	14503.97
590.643	14807.24
591.003	15028.02
591.362	15391.4
591.721	15602.7
592.08	15824.16
592.44	16249.01
592.799	16537.36
593.158	16727.19
593.517	17139.38
593.876	17373.27
594.235	17613.27
594.593	17958.34
594.952	18249.63
595.311	18422.74
595.67	18782.05
596.029	19260
596.387	19525.08
596.746	19815.69
597.104	19943.83
597.463	20293.87
597.822	20701.77
598.18	20981.31
598.538	21153.06
598.897	21644.8
599.255	21753.04
599.613	22437.55
599.972	22594.6
600.33	22893.8
600.688	22950.98
601.046	23373.11
601.404	23728.81
601.762	23938.3
602.12	24390.71
602.478	24562.24
602.836	24875.9
603.194	25033.64
603.552	25281.09
603.91	25531.02
604.268	25867.96
604.625	25996.77
604.983	26456.87
605.341	26500.26
605.698	26933.02
606.056	27157.65
606.413	27354.93
606.771	27683.74
607.128	27929.6
607.485	28094.35
607.843	28263.61
608.2	28714.44
608.557	28945.85
608.914	28975
609.272	29406.63
609.629	29533.18
609.986	29882.1
610.343	29889.55
610.7	30341.29
611.057	30457.9
611.414	30575.41
611.771	30895.4
612.127	31090.88
612.484	31273.25
612.841	31501.94
613.198	31529.28
613.554	31755.04
613.911	32132.88
614.267	32290.85
614.624	32290.39
614.98	32576.94
615.337	32848.12
615.693	32956.59
616.05	33059.41
616.406	33437.93
616.762	33350.25
617.118	33444.49
617.475	33665.05
617.831	33818.49
618.187	33952.95
618.543	34187.75
618.899	34420.96
619.255	34401.3
619.611	34515.87
619.967	34724.45
620.323	34972.36
620.678	34910.89
621.034	34943.43
621.39	35052.81
621.746	35119.25
622.101	35573.92
622.457	35320.14
622.812	35574.15
623.168	35765.1
623.523	35839.68
623.879	35918.1
624.234	35704.09
624.589	36077.41
624.945	36187.69
625.3	36285.54
625.655	36264.98
626.01	36370.29
626.365	36465.88
626.72	36576.38
627.075	36436.27
627.43	36676.72
627.785	36551.75
628.14	36704.52
628.495	36730.05
628.85	36842.36
629.205	36754.46
629.559	36963.72
629.914	36951.06
630.269	36829.71
630.623	36864.51
630.978	36840.78
631.332	37046.2
631.687	37157.16
632.041	37032.87
632.396	37116.03
632.75	37130.72
633.104	37157.84
633.459	37315.8
633.813	37120.55
634.167	37156.71
634.521	37135.01
634.875	37335.68
635.229	37387.89
635.583	37111.74
635.937	37249.13
636.291	37166.2
636.645	37284.16
636.999	37138.4
637.352	37367.32
637.706	37254.56
638.06	37321.9
638.413	37140.21
638.767	37231.73
639.121	37250.26
639.474	37120.78
639.828	37106.54
640.181	37140.21
640.534	37272.64
640.888	37114.45
641.241	37004.85
641.594	37023.6
641.947	37164.62
642.301	37081.68
642.654	37093.43
643.007	37182.24
643.36	37151.51
643.713	37050.27
644.066	37207.55
644.419	36954
644.771	36541.58
645.124	36459.78
645.477	36456.39
645.83	36220.23
646.182	36191.08
646.535	36173.46
646.888	36320.8
647.24	35905.21
647.593	36195.83
647.945	36063.63
648.298	35875.84
648.65	35986.79
649.002	35734.15
649.355	36041.26
649.707	35926
650.059	36164.64
650.411	36649.38
650.763	36556.95
651.115	36850.5
651.467	36842.36
651.819	36779.32
652.171	36707.9
652.523	36775.02
652.875	36779.09
653.227	36422.71
653.578	36767.56
653.93	36779.99
654.282	36702.03
654.633	36554.46
654.985	36577.96
655.337	36660.67
655.688	36717.4
656.039	36774.34
656.391	36519.21
656.742	36529.38
657.094	36687.11
657.445	36736.6
657.796	36707.68
658.147	36587.91
658.498	36523.95
658.849	36658.41
659.2	36540.23
659.551	36466.56
659.902	36654.8
660.253	36572.77
660.604	36676.95
660.955	36378.87
661.306	36631.3
661.656	36523.95
662.007	36528.93
662.358	36696.38
662.708	36490.06
663.059	36455.48
663.409	36330.74
663.76	36580.68
664.11	36582.71
664.461	36534.8
664.811	36583.61
665.161	36545.65
665.511	36484.86
665.862	36389.5
666.212	36430.62
666.562	36519.44
666.912	36455.03
667.262	36439.44
667.612	36417.29
667.962	36582.26
668.312	36400.79
668.662	36535.03
669.011	36394.47
669.361	36392.21
669.711	36321.47
670.06	36398.31
670.41	36458.87
670.76	36267.92
671.109	36334.13
671.459	36338.42
671.808	36262.49
672.157	36357.41
672.507	36222.72
672.856	36115.83
673.205	36208.26
673.554	36461.81
673.904	36175.72
674.253	36409.83
674.602	36247.35
674.951	35646.92
675.3	35661.15
675.649	36190.18
675.998	35994.93
676.346	36141.37
676.695	36281.48
677.044	36028.6
677.393	36064.53
677.741	36106.56
678.09	36058.2
678.438	35962.84
678.787	35944.08
679.135	36039.67
679.484	35708.61
679.832	35700.25
680.181	35576.64
680.529	35705.22
680.877	35719
681.225	35758.33
681.573	35740.92
681.922	35544.55
682.27	35478.33
682.618	35345.23
682.966	35401.95
683.314	35448.5
683.661	35343.87
684.009	35110.88
684.357	35184.78
684.705	35103.2
685.053	35182.97
685.4	35055.97
685.748	35053.03
686.095	34867.5
686.443	34832.02
686.79	34794.28
687.138	34847.39
687.485	34813.94
687.832	34625.02
688.18	34759.26
688.527	34682.42
688.874	34515.87
689.221	34427.29
689.568	34281.75
689.915	34247.63
690.262	34120.18
690.609	34140.97
690.956	33976.23
691.303	34044.47
691.65	33863.23
691.997	33719.73
692.344	33715.67
692.69	33723.35
693.037	33570.36
693.383	33511.6
693.73	33479.97
694.077	33390.25
694.423	33301.21
694.769	33167.88
695.116	33140.99
695.462	33038.62
695.808	32901.9
696.155	33145.51
696.501	32864.62
696.847	32839.31
697.193	32540.1
697.539	32657.62
697.885	32354.35
698.231	32311.41
698.577	32430.73
698.923	32297.85
699.269	32158.65
699.614	31892.44
699.96	32062.38
700.306	32014.02
700.651	31826
700.997	31778.54
701.342	31623.07
701.688	31673.23
702.033	31576.06
702.379	31547.59
702.724	31552.11
703.069	31334.94
703.415	31102.4
703.76	31204.32
704.105	31200.71
704.45	31082.06
704.795	30962.29
705.14	30844.56
705.485	30877.1
705.83	30736.99
706.175	30683.2
706.52	30637.1
706.865	30537.67
707.209	30479.37
707.554	30396.66
707.899	30583.77
708.243	30350.11
708.588	30174.29
708.932	30162.09
709.277	30114.63
709.621	29955.54
709.966	29805.94
710.31	29950.12
710.654	29672.84
710.998	29724.59
711.342	29781.31
711.687	29716
712.031	29476.46
712.375	29449.11
712.719	29490.47
713.063	29337.48
713.407	29433.29
713.75	29309.68
714.094	29266.74
714.438	29076.02
714.782	29169.57
715.125	28972.06
715.469	28968.45
715.812	28860.43
716.156	28791.73
716.499	28782.24
716.843	28778.17
717.186	28716.25
717.53	28665.63
717.873	28666.08
718.216	28657.72
718.559	28353.32
718.902	28291.18
719.246	28502.7
719.589	28406.65
719.932	28314.45
720.275	28191.07
720.617	28241.01
720.96	28139.99
721.303	28111.07
721.646	28145.19
721.989	27964.41
722.331	27990.39
722.674	27993.56
723.016	27935.71
723.359	27878.76
723.701	27820.45
724.044	27798.31
724.386	27524.42
724.729	27712.89
725.071	27516.73
725.413	27457.07
725.755	27567.13
726.097	27436.28
726.439	27373.24
726.782	27260.02
727.124	27438.54
727.465	27303.18
727.807	27233.58
728.149	27241.26
728.491	27128.04
728.833	27244.2
729.175	27092.79
729.516	27135.95
729.858	27072
730.199	27017.99
730.541	27088.95
730.882	26905.68
731.224	27027.71
731.565	26838.33
731.906	26938.67
732.248	26830.65
732.589	26731.67
732.93	26708.17
733.271	26731.9
733.612	26626.81
733.953	26658.23
734.294	26526.25
734.635	26540.94
734.976	26645.8
735.317	26429.98
735.658	26491
735.999	26471.11
736.339	26396.54
736.68	26461.17
737.021	26382.53
737.361	26226.37
737.702	26390.66
738.042	26235.41
738.383	26258.01
738.723	26304.79
739.063	26124.91
739.404	26258.01
739.744	26217.79
740.084	26051.91
740.424	26043.33
740.764	26008.3
741.104	26125.58
741.444	25866.83
741.784	25919.49
742.124	25938.02
742.464	25808.08
742.804	25792.49
743.143	25676.56
743.483	25762.88
743.823	25669.55
744.162	25655.54
744.502	25759.94
744.841	25554.53
745.181	25679.49
745.52	25587.97
745.86	25522.21
746.199	25624.35
746.538	25532.38
746.877	25591.81
747.216	25546.39
747.556	25427.98
747.895	25483.79
748.234	25338.94
748.573	25354.98
748.911	25344.81
749.25	25244.03
749.589	25200.41
749.928	25294.87
750.267	25226.17
750.605	25214.65
750.944	25203.57
751.283	25096.01
751.621	25162.67
751.96	25035.67
752.298	24969.23
752.636	25037.7
752.975	24834.54
753.313	24854.43
753.651	25036.8
753.989	24790.03
754.327	24821.21
754.666	24691.72
755.004	24770.59
755.342	24731.27
755.679	24733.08
756.017	24565.63
756.355	24654.21
756.693	24532.41
757.031	24611.5
757.368	24409.25
757.706	24437.72
758.044	24320.21
758.381	24305.97
758.719	24287.44
759.056	24388.23
759.394	24207.22
759.731	24025.98
