Data from hue_110_FLMS001491_00042.txt Node
Date: Tue Feb 07 17:01:22 GMT 2017
User: dcchb
Spectrometer: FLMS00149
Trigger mode: 0
Integration Time (sec): 2.000000E-2
Scans to average: 10
Electric dark correction enabled: true
Nonlinearity correction enabled: false
Boxcar width: 0
XAxis mode: Wavelengths
Number of Pixels in Spectrum: 2048
>>>>>Begin Spectral Data<<<<<
341.393	-0.92
341.776	-0.92
342.16	-0.92
342.543	-70.07
342.927	-65.1
343.31	-98.77
343.693	-73.68
344.077	-60.58
344.46	-37.98
344.843	-51.09
345.226	-27.36
345.61	-33.46
345.993	-26.91
346.376	-4.53
346.759	19.87
347.142	17.39
347.525	32.75
347.908	58.74
348.291	77.05
348.674	94.67
349.057	113.88
349.44	121.11
349.823	143.48
350.206	170.83
350.588	192.98
350.971	208.12
351.354	226.65
351.737	216.03
352.119	254.22
352.502	279.53
352.884	275.23
353.267	281.79
353.65	306.87
354.032	302.58
354.414	318.17
354.797	330.37
355.179	332.86
355.562	311.16
355.944	343.48
356.326	354.1
356.709	331.05
357.091	331.05
357.473	336.47
357.855	335.34
358.238	355
358.62	350.49
359.002	341.9
359.384	336.02
359.766	324.5
360.148	345.51
360.53	331.5
360.912	340.54
361.294	347.77
361.676	331.05
362.057	352.07
362.439	334.44
362.821	326.3
363.203	335.57
363.584	326.98
363.966	342.12
364.348	339.64
364.729	342.35
365.111	321.11
365.493	323.14
365.874	323.37
366.256	322.69
366.637	301.22
367.019	313.42
367.4	323.14
367.781	322.92
368.163	327.66
368.544	318.4
368.925	310.71
369.306	317.72
369.688	315.68
370.069	312.97
370.45	311.84
370.831	320.88
371.212	312.75
371.593	321.33
371.974	322.24
372.355	318.85
372.736	320.66
373.117	336.93
373.498	304.16
373.879	326.76
374.26	348.68
374.641	319.53
375.021	335.8
375.402	331.95
375.783	340.09
376.163	347.32
376.544	346.19
376.925	332.63
377.305	314.33
377.686	330.6
378.066	335.57
378.447	339.64
378.827	335.57
379.208	334.44
379.588	344.84
379.968	361.78
380.349	343.71
380.729	343.93
381.109	365.17
381.489	341.22
381.87	348
382.25	356.13
382.63	353.2
383.01	344.61
383.39	356.36
383.77	358.62
384.15	366.53
384.53	350.26
384.91	357.94
385.29	359.75
385.67	366.76
386.049	368.34
386.429	370.6
386.809	372.63
387.189	371.73
387.568	352.07
387.948	361.56
388.328	374.89
388.707	378.73
389.087	373.54
389.466	378.73
389.846	376.93
390.225	382.57
390.605	388
390.984	361.11
391.363	383.7
391.743	387.77
392.122	383.48
392.501	403.59
392.881	374.67
393.26	376.93
393.639	407.43
394.018	391.84
394.397	393.42
394.776	411.05
395.155	416.47
395.534	407.21
395.913	415.12
396.292	421.22
396.671	429.58
397.05	421.9
397.429	413.08
397.808	414.44
398.186	406.98
398.565	415.12
398.944	419.86
399.323	427.77
399.701	432.06
400.08	409.92
400.458	418.51
400.837	433.65
401.215	437.71
401.594	441.56
401.972	433.87
402.351	436.36
402.729	432.97
403.107	435
403.486	431.16
403.864	432.06
404.242	430.48
404.62	442.91
404.999	444.72
405.377	464.83
405.755	446.3
406.133	453.76
406.511	471.61
406.889	465.06
407.267	487.88
407.645	465.74
408.023	468.67
408.401	450.37
408.779	457.83
409.156	460.54
409.534	468.22
409.912	472.97
410.29	486.75
410.667	491.5
411.045	485.62
411.422	480.43
411.8	491.72
412.178	499.18
412.555	501.44
412.933	508.22
413.31	524.94
413.687	505.51
414.065	511.16
414.442	526.75
414.819	529.92
415.197	528.33
415.574	540.99
415.951	540.76
416.328	559.29
416.705	556.58
417.082	517.94
417.46	544.38
417.837	561.33
418.214	546.86
418.591	559.75
418.967	581.21
419.344	580.54
419.721	600.42
420.098	573.08
420.475	590.93
420.852	573.08
421.228	582.57
421.605	589.57
421.982	600.42
422.358	598.84
422.735	626.18
423.111	630.25
423.488	598.61
423.864	625.05
424.241	634.77
424.617	637.71
424.994	628.22
425.37	631.83
425.746	667.76
426.123	642.23
426.499	635.22
426.875	653.75
427.251	676.8
427.627	659.86
428.003	696.24
428.379	679.06
428.756	698.5
429.132	702.79
429.507	682.68
429.883	697.14
430.259	709.57
430.635	730.14
431.011	703.47
431.387	741.89
431.763	736.24
432.138	735.79
432.514	733.3
432.89	750.7
433.265	768.1
433.641	774.2
434.016	774.65
434.392	787.08
434.767	796.8
435.143	806.07
435.518	794.99
435.894	806.29
436.269	820.08
436.644	818.72
437.02	808.1
437.395	824.37
437.77	845.39
438.145	849.91
438.52	871.6
438.895	870.7
439.271	872.96
439.646	886.29
440.021	860.98
440.395	893.97
440.77	917.7
441.145	913.18
441.52	918.38
441.895	932.84
442.27	942.11
442.645	925.39
443.019	943.01
443.394	954.09
443.769	948.21
444.143	942.11
444.518	948.44
444.892	941.88
445.267	951.6
445.641	998.83
446.016	966.06
446.39	993.86
446.764	998.83
447.139	988.21
447.513	1000.86
447.887	1025.5
448.262	1025.5
448.636	1029.11
449.01	1025.5
449.384	1021.43
449.758	1051.03
450.132	1054.42
450.506	1067.3
450.88	1071.6
451.254	1093.29
451.628	1087.41
452.002	1100.97
452.376	1083.12
452.75	1135.32
453.123	1113.85
453.497	1130.13
453.871	1162.44
454.244	1143.01
454.618	1158.37
454.992	1190.24
455.365	1199.28
455.739	1225.26
456.112	1244.47
456.486	1230.24
456.859	1260.52
457.232	1274.75
457.606	1271.59
457.979	1293.51
458.352	1326.73
458.725	1337.35
459.099	1356.33
459.472	1363.34
459.845	1388.88
460.218	1414.41
460.591	1415.99
460.964	1438.37
461.337	1448.54
461.71	1493.51
462.083	1490.34
462.456	1538.02
462.829	1522.21
463.201	1541.19
463.574	1561.07
463.947	1598.36
464.32	1643.56
464.692	1627.97
465.065	1672.03
465.438	1676.55
465.81	1705.7
466.183	1728.08
466.555	1789.54
466.928	1793.39
467.3	1816.21
467.672	1849.65
468.045	1879.94
468.417	1903.21
468.789	1905.92
469.161	1961.06
469.534	1999.48
469.906	2031.12
470.278	2064.34
470.65	2106.82
471.022	2140.95
471.394	2188.85
471.766	2227.05
472.138	2255.29
472.51	2288.29
472.882	2333.71
473.253	2432.24
473.625	2467.04
473.997	2547.04
474.369	2565.57
474.74	2630.2
475.112	2665
475.484	2734.15
475.855	2829.52
476.227	2881.27
476.598	2961.72
476.97	2971.21
477.341	3081.94
477.713	3190.18
478.084	3241.26
478.455	3344.53
478.827	3422.27
479.198	3573
479.569	3595.82
479.94	3727.57
480.311	3803.95
480.682	3894.35
481.053	4072.42
481.424	4113.78
481.795	4267.44
482.166	4380.66
482.537	4436.71
482.908	4645.97
483.279	4723.25
483.65	4850.25
484.021	5006.63
484.391	5103.13
484.762	5301.99
485.133	5318.72
485.503	5477.58
485.874	5679.84
486.244	5793.28
486.615	5916.44
486.985	6079.37
487.356	6281.63
487.726	6414.05
488.097	6587.38
488.467	6674.39
488.837	6871.67
489.207	7091.55
489.578	7228.72
489.948	7375.61
490.318	7607.7
490.688	7725.88
491.058	7890.85
491.428	8080.45
491.798	8280.22
492.168	8447
492.538	8535.35
492.908	8737.84
493.278	8931.28
493.648	9005.4
494.017	9153.87
494.387	9402
494.757	9510.02
495.126	9687.19
495.496	9757.02
495.866	9959.27
496.235	10151.36
496.605	10344.8
496.974	10399.71
497.344	10624.34
497.713	10690.78
498.082	10849.64
498.452	11024.1
498.821	11139.35
499.19	11197.21
499.559	11377.54
499.928	11513.81
500.298	11627.25
500.667	11748.38
501.036	11805.78
501.405	12029.95
501.774	12055.04
502.143	12291.64
502.512	12277.63
502.88	12503.16
503.249	12523.27
503.618	12733.21
503.987	12786.32
504.356	12897.5
504.724	13015.69
505.093	13080.77
505.462	13153.54
505.83	13300.88
506.199	13415.68
506.567	13582
506.936	13596.01
507.304	13736.8
507.672	13871.94
508.041	13836.46
508.409	14035.32
508.777	14135.66
509.145	14200.52
509.514	14177.47
509.882	14421.75
510.25	14379.04
510.618	14464.92
510.986	14476.89
511.354	14574.07
511.722	14736.55
512.09	14876.43
512.458	14745.59
512.826	14982.87
513.193	15003.43
513.561	15101.06
513.929	15167.27
514.297	15193.94
514.664	15293.37
515.032	15344.44
515.4	15461.73
515.767	15522.74
516.135	15634.6
516.502	15478.45
516.869	15700.82
517.237	15644.77
517.604	15645.22
517.972	15781.49
518.339	15856.97
518.706	15878.21
519.073	15881.83
519.44	16018.1
519.808	16100.13
520.175	16031.88
520.542	16291.53
520.909	16261.93
521.276	16256.96
521.643	16319.56
522.009	16380.35
522.376	16465.54
522.743	16447.91
523.11	16638.42
523.477	16658.53
523.843	16729.49
524.21	16866.21
524.577	16866.66
524.943	16928.13
525.31	16968.58
525.676	16977.84
526.043	17100.55
526.409	17104.17
526.776	17284.05
527.142	17188.91
527.508	17120.44
527.874	17317.72
528.241	17290.6
528.607	17234.11
528.973	17310.94
529.339	17382.81
529.705	17402.24
530.071	17409.92
530.437	17548.45
530.803	17472.75
531.169	17476.81
531.535	17492.18
531.901	17429.81
532.267	17485.85
532.632	17498.73
532.998	17422.8
533.364	17486.08
533.73	17439.75
534.095	17624.38
534.461	17505.29
534.826	17547.55
535.192	17452.18
535.557	17619.18
535.923	17559.3
536.288	17523.37
536.653	17517.27
537.019	17431.62
537.384	17456.48
537.749	17332.19
538.114	17458.28
538.479	17305.29
538.845	17373.31
539.21	17232.75
539.575	17281.34
539.94	17175.81
540.305	17220.1
540.67	17119.99
541.034	17246.99
541.399	17222.13
541.764	17115.02
542.129	17135.58
542.494	17058.52
542.858	16955.47
543.223	17040.67
543.587	17058.75
543.952	16977.39
544.316	16969.48
544.681	16885.87
545.045	16823.05
545.41	16953.44
545.774	16858.75
546.138	16789.37
546.503	16782.37
546.867	16783.05
547.231	16764.97
547.595	16828.24
547.959	16670.06
548.324	16496.5
548.688	16563.84
549.052	16550.96
549.416	16517.07
549.779	16402.04
550.143	16437.52
550.507	16543.05
550.871	16399.33
551.235	16389.84
551.599	16408.14
551.962	16364.3
552.326	16306.9
552.689	16373.34
553.053	16267.13
553.417	16250.86
553.78	16374.47
554.143	16204.31
554.507	16197.53
554.87	16198.88
555.234	16347.8
555.597	16137.87
555.96	16174.7
556.323	16179.22
556.686	16110.52
557.05	16210.63
557.413	16141.48
557.776	16100.58
558.139	16101.48
558.502	15997.76
558.865	16115.95
559.228	16077.76
559.59	16054.25
559.953	16202.05
560.316	16168.6
560.679	16106.46
561.041	16078.89
561.404	16228.49
561.767	16180.8
562.129	16079.79
562.492	16170.63
562.854	16139.22
563.217	16129.73
563.579	16159.33
563.941	16273
564.304	16129.96
564.666	16229.62
565.028	16281.14
565.39	16200.24
565.753	16362.27
566.115	16264.87
566.477	16299.44
566.839	16329.27
567.201	16367.92
567.563	16288.6
567.925	16472.77
568.287	16397.52
568.648	16383.28
569.01	16479.55
569.372	16544.64
569.734	16444.75
570.095	16491.08
570.457	16590.06
570.819	16460.34
571.18	16525.2
571.542	16562.49
571.903	16592.77
572.265	16691.07
572.626	16613.79
572.987	16486.56
573.349	16617.4
573.71	16832.54
574.071	16693.11
574.432	16682.49
574.794	16740.56
575.155	16833.67
575.516	16634.35
575.877	16735.82
576.238	16740.79
576.599	16817.62
576.96	16697.63
577.32	16683.39
577.681	16771.75
578.042	16878.64
578.403	16744.86
578.763	16824.85
579.124	16828.92
579.485	16845.42
579.845	16843.16
580.206	16829.6
580.566	16857.4
580.927	16825.53
581.287	16907.34
581.648	16742.82
582.008	16832.31
582.368	16783.5
582.728	16834.35
583.089	16774.46
583.449	16771.97
583.809	16753.9
584.169	16706.89
584.529	16746.66
584.889	16739.88
585.249	16670.96
585.609	16668.93
585.969	16737.17
586.329	16692.2
586.688	16746.66
587.048	16652.43
587.408	16592.09
587.768	16556.39
588.127	16710.51
588.487	16531.53
588.846	16656.95
589.206	16571.53
589.565	16547.35
589.925	16560.68
590.284	16510.51
590.643	16597.06
591.003	16546.22
591.362	16613.79
591.721	16542.15
592.08	16514.81
592.44	16504.64
592.799	16502.83
593.158	16449.27
593.517	16534.47
593.876	16501.02
594.235	16498.31
594.593	16486.11
594.952	16408.14
595.311	16428.93
595.67	16425.09
596.029	16487.24
596.387	16556.16
596.746	16473.68
597.104	16411.31
597.463	16417.86
597.822	16474.35
598.18	16421.47
598.538	16357.3
598.897	16489.27
599.255	16240.91
599.613	16486.78
599.972	16433.45
600.33	16410.85
600.688	16375.37
601.046	16431.87
601.404	16489.27
601.762	16417.86
602.12	16603.39
602.478	16501.92
602.836	16494.92
603.194	16452.43
603.552	16408.82
603.91	16331.99
604.268	16407.24
604.625	16373.34
604.983	16436.39
605.341	16358.65
605.698	16384.64
606.056	16454.69
606.413	16344.19
606.771	16425.99
607.128	16484.07
607.485	16379.22
607.843	16409.5
608.2	16481.59
608.557	16560.91
608.914	16414.47
609.272	16531.08
609.629	16512.77
609.986	16540.57
610.343	16473.9
610.7	16645.42
611.057	16568.36
611.414	16578.31
611.771	16691.52
612.127	16704.41
612.484	16693.78
612.841	16679.55
613.198	16564.52
613.554	16623.5
613.911	16734.46
614.267	16625.76
614.624	16622.83
614.98	16680
615.337	16705.99
615.693	16686.1
616.05	16657.18
616.406	16845.87
616.762	16758.19
617.118	16748.92
617.475	16719.09
617.831	16708.47
618.187	16740.79
618.543	16807.68
618.899	16844.74
619.255	16872.54
619.611	16861.69
619.967	16859.88
620.323	16900.33
620.678	16767.91
621.034	16794.57
621.39	16828.92
621.746	16799.54
622.101	16969.03
622.457	16889.03
622.812	16898.98
623.168	16928.35
623.523	16872.08
623.879	17006.54
624.234	16934.68
624.589	16914.8
624.945	16976.94
625.3	16953.66
625.655	16923.61
626.01	16930.84
626.365	16828.7
626.72	16829.83
627.075	16863.27
627.43	16781.01
627.785	16871.41
628.14	16894
628.495	16871.41
628.85	16818.98
629.205	16865.31
629.559	16881.58
629.914	16850.39
630.269	16817.4
630.623	16712.99
630.978	16764.52
631.332	16784.63
631.687	16720.22
632.041	16708.02
632.396	16767
632.75	16678.87
633.104	16644.75
633.459	16665.76
633.813	16604.52
634.167	16575.82
634.521	16688.36
634.875	16566.78
635.229	16588.48
635.583	16537.18
635.937	16486.56
636.291	16517.29
636.645	16505.09
636.999	16419.89
637.352	16490.4
637.706	16300.12
638.06	16382.61
638.413	16375.37
638.767	16284.53
639.121	16351.19
639.474	16279.56
639.828	16329.27
640.181	16333.34
640.534	16292.44
640.888	16244.76
641.241	16189.16
641.594	16249.95
641.947	16269.84
642.301	16259.22
642.654	16287.02
643.007	16222.61
643.36	16165.44
643.713	16218.32
644.066	16320.91
644.419	16064.87
644.771	16080.92
645.124	15893.35
645.477	15856.74
645.83	15742.4
646.182	15732.45
646.535	15727.48
646.888	15814.26
647.24	15648.16
647.593	15675.73
647.945	15539.46
648.298	15603.19
648.65	15469.18
649.002	15544.21
649.355	15638.67
649.707	15630.76
650.059	15720.48
650.411	15877.31
650.763	15885.22
651.115	16113.91
651.467	15982.16
651.819	16021.71
652.171	16095.83
652.523	15927.48
652.875	15955.5
653.227	15825.11
653.578	16031.88
653.93	16032.78
654.282	15947.82
654.633	15871.88
654.985	15979.68
655.337	15908.72
655.688	15941.04
656.039	16035.27
656.391	15951.43
656.742	16021.71
657.094	16017.19
657.445	16001.37
657.796	16077.53
658.147	15913.92
658.498	15926.12
658.849	15997.31
659.2	15988.94
659.551	15881.38
659.902	15979.9
660.253	16019.23
660.604	15999.57
660.955	15936.06
661.306	16076.63
661.656	15980.36
662.007	15962.96
662.358	15967.25
662.708	15988.27
663.059	16002.73
663.409	15862.85
663.76	16026.46
664.11	16049.28
664.461	16060.58
664.811	16049.06
665.161	15962.96
665.511	16009.96
665.862	15977.42
666.212	16084.53
666.562	16076.4
666.912	16140.35
667.262	16126.34
667.612	16036.63
667.962	16162.5
668.312	16016.29
668.662	16135.38
669.011	16045.89
669.361	16025.33
669.711	15959.79
670.06	15969.06
670.41	15984.2
670.76	15932.9
671.109	16049.06
671.459	15959.79
671.808	15913.92
672.157	15963.86
672.507	15871.43
672.856	15852.45
673.205	15930.64
673.554	15998.66
673.904	15821.72
674.253	15894.94
674.602	15843.19
674.951	15717.09
675.3	15628.28
675.649	15813.13
675.998	15808.84
676.346	15741.94
676.695	15816.75
677.044	15718.22
677.393	15714.83
677.741	15754.37
678.09	15724.54
678.438	15666.01
678.787	15732.68
679.135	15649.07
679.484	15495.4
679.832	15608.62
680.181	15482.52
680.529	15633.25
680.877	15451.33
681.225	15481.61
681.573	15585.79
681.922	15418.56
682.27	15384.67
682.618	15394.38
682.966	15352.12
683.314	15317.1
683.661	15312.35
684.009	15292.24
684.357	15255.4
684.705	15231.22
685.053	15288.85
685.4	15089.98
685.748	15141.96
686.095	15026.26
686.443	14982.87
686.79	15091.34
687.138	15070.32
687.485	15031.46
687.832	15002.53
688.18	14864.45
688.527	14867.17
688.874	14848.18
689.221	14817
689.568	14752.14
689.915	14756.21
690.262	14684.8
690.609	14611.81
690.956	14539.72
691.303	14598.92
691.65	14502.2
691.997	14472.37
692.344	14363.9
692.69	14324.58
693.037	14285.94
693.383	14188.09
693.73	14206.84
694.077	14183.79
694.423	14180.18
694.769	14053.4
695.116	14095.43
695.462	14014.08
695.808	13928.66
696.155	13983.35
696.501	13819.28
696.847	13831.71
697.193	13730.25
697.539	13798.95
697.885	13716.24
698.231	13607.31
698.577	13630.14
698.923	13547.88
699.269	13487.09
699.614	13335
699.96	13372.52
700.306	13266.3
700.651	13265.17
700.997	13251.84
701.342	13145.4
701.688	13157.38
702.033	13154.89
702.379	13112.41
702.724	12986.76
703.069	13008.91
703.415	12851.85
703.76	12875.35
704.105	12858.18
704.45	12876.94
704.795	12778.63
705.14	12667
705.485	12667.22
705.83	12607.34
706.175	12630.16
706.52	12632.42
706.865	12515.14
707.209	12518.3
707.554	12488.92
707.899	12535.25
708.243	12437.62
708.588	12373.67
708.932	12240.12
709.277	12323.73
709.621	12354.92
709.966	12176.16
710.31	12190.85
710.654	12122.38
710.998	12072.89
711.342	12178.65
711.687	12021.82
712.031	11977.07
712.375	11980.46
712.719	11995.38
713.063	12048.26
713.407	12002.61
713.75	11897.53
714.094	11860.69
714.438	11820.47
714.782	11804.87
715.125	11829.28
715.469	11770.98
715.812	11644.43
716.156	11666.35
716.499	11722.39
716.843	11676.74
717.186	11616.86
717.53	11753.35
717.873	11689.4
718.216	11581.6
718.559	11547.7
718.902	11533.02
719.246	11522.39
719.589	11463.41
719.932	11492.57
720.275	11468.61
720.617	11417.09
720.96	11367.6
721.303	11446.92
721.646	11386.58
721.989	11383.87
722.331	11449.85
722.674	11387.71
723.016	11379.12
723.359	11373.92
723.701	11411.66
724.044	11290.08
724.386	11280.59
724.729	11256.19
725.071	11298.67
725.413	11293.02
725.755	11269.97
726.097	11262.29
726.439	11188.62
726.782	11136.64
727.124	11226.81
727.465	11169.86
727.807	11210.76
728.149	11086.7
728.491	11119.69
728.833	11211.22
729.175	11130.09
729.516	11159.24
729.858	11082.63
730.199	11173.48
730.541	11099.36
730.882	11147.49
731.224	11186.36
731.565	11055.29
731.906	11093.93
732.248	11102.74
732.589	11025.46
732.93	11023.42
733.271	11087.15
733.612	11095.29
733.953	11096.42
734.294	11119.02
734.635	11101.16
734.976	11119.69
735.317	11039.92
735.658	11111.33
735.999	11016.42
736.339	11098.68
736.68	11101.84
737.021	11156.75
737.361	11054.16
737.702	11112.69
738.042	11144.1
738.383	11129.64
738.723	11126.02
739.063	11196.53
739.404	11196.53
739.744	11212.57
740.084	11211.67
740.424	11247.37
740.764	11181.61
741.104	11255.28
741.444	11245.79
741.784	11165.34
742.124	11227.94
742.464	11257.99
742.804	11304.77
743.143	11351.55
743.483	11361.5
743.823	11288.5
744.162	11334.6
744.502	11415.28
744.841	11426.58
745.181	11535.73
745.52	11432.68
745.86	11598.55
746.199	11549.51
746.538	11645.56
746.877	11776.63
747.216	11802.16
747.556	11844.19
747.895	11899.79
748.234	11888.94
748.573	11971.2
748.911	12027.69
749.25	12154.02
749.589	12210.29
749.928	12326.67
750.267	12369.38
750.605	12482.37
750.944	12564.85
751.283	12645.76
751.621	12786.99
751.96	12831.51
752.298	12902.25
752.636	13041.68
752.975	13191.96
753.313	13254.33
753.651	13360.09
753.989	13447.99
754.327	13627.88
754.666	13713.75
755.004	13910.13
755.342	14101.76
755.679	14181.99
756.017	14281.87
