Data from hue_220_FLMS001491_00057.txt Node
Date: Tue Feb 07 16:39:39 GMT 2017
User: dcchb
Spectrometer: FLMS00149
Trigger mode: 0
Integration Time (sec): 2.000000E-2
Scans to average: 10
Electric dark correction enabled: true
Nonlinearity correction enabled: false
Boxcar width: 0
XAxis mode: Wavelengths
Number of Pixels in Spectrum: 2048
>>>>>Begin Spectral Data<<<<<
341.393	-11.92
341.776	-11.92
342.16	-11.92
342.543	-43.78
342.927	-77.91
343.31	-80.85
343.693	-78.81
344.077	-67.74
344.46	-56.21
344.843	-56.44
345.226	-50.11
345.61	-34.97
345.993	-24.35
346.376	12.71
346.759	16.55
347.142	37.57
347.525	42.77
347.908	63.11
348.291	94.29
348.674	78.7
349.057	103.78
349.44	122.77
349.823	155.08
350.206	177.68
350.588	187.17
350.971	204.8
351.354	238.02
351.737	222.2
352.119	252.71
352.502	239.6
352.884	268.07
353.267	274.4
353.65	289.99
354.032	301.74
354.414	321.63
354.797	326.15
355.179	310.78
355.562	332.03
355.944	320.95
356.326	340.16
356.709	340.39
357.091	322.31
357.473	338.35
357.855	330.22
358.238	333.83
358.62	331.35
359.002	339.93
359.384	325.25
359.766	336.77
360.148	327.73
360.53	324.79
360.912	336.77
361.294	334.51
361.676	341.52
362.057	338.58
362.439	344.45
362.821	344.45
363.203	334.28
363.584	313.49
363.966	333.83
364.348	322.31
364.729	351.01
365.111	307.39
365.493	318.47
365.874	307.62
366.256	311.91
366.637	308.75
367.019	294.74
367.4	307.39
367.781	302.65
368.163	318.47
368.544	301.29
368.925	314.85
369.306	316.21
369.688	312.14
370.069	301.74
370.45	302.2
370.831	319.82
371.212	306.49
371.593	317.34
371.974	326.83
372.355	296.55
372.736	300.61
373.117	311.23
373.498	307.39
373.879	309.65
374.26	329.31
374.641	327.51
375.021	306.49
375.402	302.42
375.783	321.18
376.163	330.44
376.544	335.41
376.925	308.3
377.305	316.66
377.686	314.4
378.066	324.79
378.447	319.82
378.827	344.68
379.208	309.88
379.588	311.46
379.968	304.68
380.349	315.98
380.729	323.44
381.109	331.12
381.489	326.83
381.87	346.94
382.25	332.03
382.63	327.05
383.01	326.38
383.39	350.1
383.77	357.56
384.15	335.19
384.53	346.49
384.91	337.9
385.29	355.3
385.67	348.52
386.049	333.16
386.429	358.47
386.809	354.17
387.189	369.54
387.568	361.4
387.948	326.83
388.328	347.17
388.707	357.56
389.087	359.37
389.466	366.6
389.846	367.73
390.225	356.88
390.605	352.82
390.984	345.36
391.363	374.74
391.743	356.88
392.122	369.31
392.501	373.83
392.881	388.52
393.26	357.56
393.639	374.74
394.018	370.67
394.397	371.12
394.776	377.22
395.155	365.24
395.534	384.68
395.913	366.15
396.292	401.85
396.671	378.35
397.05	383.32
397.429	403.89
397.808	391.68
398.186	393.72
398.565	398.24
398.944	380.16
399.323	422.64
399.701	388.75
400.08	405.24
400.458	418.35
400.837	426.49
401.215	398.01
401.594	408.86
401.972	403.44
402.351	433.49
402.729	414.73
403.107	433.49
403.486	432.81
403.864	435.98
404.242	449.76
404.62	441.4
404.999	433.72
405.377	431.46
405.755	454.28
406.133	453.83
406.511	431.91
406.889	471
407.267	457.45
407.645	468.07
408.023	472.13
408.401	475.52
408.779	484.11
409.156	488.63
409.534	517.78
409.912	502.87
410.29	507.39
410.667	509.87
411.045	523.21
411.422	537.9
411.8	546.93
412.178	546.26
412.555	535.41
412.933	545.8
413.31	551.23
413.687	568.63
414.065	576.76
414.442	571.34
414.819	601.85
415.197	585.13
415.574	595.07
415.951	615.41
416.328	620.61
416.705	634.84
417.082	648.18
417.46	629.19
417.837	655.86
418.214	660.38
418.591	661.73
418.967	675.74
419.344	666.03
419.721	688.85
420.098	694.95
420.475	700.38
420.852	707.83
421.228	710.55
421.605	747.38
421.982	753.48
422.358	765.69
422.735	752.58
423.111	770.21
423.488	770.21
423.864	801.39
424.241	815.63
424.617	820.83
424.994	801.62
425.37	815.4
425.746	856.76
426.123	880.94
426.499	892.91
426.875	880.71
427.251	910.54
427.627	932.91
428.003	902.41
428.379	941.05
428.756	966.13
429.132	948.96
429.507	967.71
429.883	986.47
430.259	981.95
430.635	966.58
431.011	1002.06
431.387	1009.07
431.763	1057.88
432.138	1066.02
432.514	1076.19
432.89	1085
433.265	1079.8
433.641	1120.93
434.016	1153.47
434.392	1146.69
434.767	1168.84
435.143	1204.77
435.518	1202.74
435.894	1230.76
436.269	1241.83
436.644	1272.79
437.02	1274.15
437.395	1310.53
437.77	1362.05
438.145	1354.82
438.52	1379.68
438.895	1396.18
439.271	1414.71
439.646	1467.81
440.021	1461.94
440.395	1452.67
440.77	1477.53
441.145	1514.37
441.52	1521.37
441.895	1546.46
442.27	1557.08
442.645	1544.2
443.019	1566.79
443.394	1585.1
443.769	1605.66
444.143	1610.18
444.518	1648.15
444.892	1629.62
445.267	1657.19
445.641	1662.16
446.016	1660.13
446.39	1698.54
446.764	1699.22
447.139	1696.28
447.513	1727.92
447.887	1733.12
448.262	1749.62
448.636	1791.87
449.01	1755.49
449.384	1807.69
449.758	1811.31
450.132	1854.02
450.506	1825.55
450.88	1856.73
451.254	1861.93
451.628	1903.06
452.002	1914.36
452.376	1918.88
452.75	1945.32
453.123	1936.05
453.497	1980.34
453.871	1991.19
454.244	2015.37
454.618	2045.2
454.992	2078.87
455.365	2067.12
455.739	2126.78
456.112	2116.39
456.486	2139.44
456.859	2182.6
457.232	2206.1
457.606	2194.35
457.979	2233.9
458.352	2276.83
458.725	2278.41
459.099	2272.09
459.472	2323.16
459.845	2326.77
460.218	2381.01
460.591	2390.73
460.964	2381.46
461.337	2427.79
461.71	2474.34
462.083	2494.45
462.456	2511.18
462.829	2495.81
463.201	2581.46
463.574	2547.79
463.947	2594.79
464.32	2624.85
464.692	2674.11
465.065	2718.63
465.438	2702.36
465.81	2792.3
466.183	2804.05
466.555	2820.77
466.928	2887.44
467.3	2853.77
467.672	2883.14
468.045	2985.06
468.417	2974.67
468.789	2976.25
469.161	3010.82
469.534	3080.65
469.906	3104.83
470.278	3158.17
470.65	3173.76
471.022	3187.32
471.394	3294.89
471.766	3282.91
472.138	3282
472.51	3382.79
472.882	3394.77
473.253	3406.75
473.625	3527.65
473.997	3534.43
474.369	3553.64
474.74	3631.83
475.112	3683.12
475.484	3687.42
475.855	3750.69
476.227	3764.25
476.598	3855.77
476.97	3862.33
477.341	3978.93
477.713	4026.17
478.084	4017.13
478.455	4141.64
478.827	4171.02
479.198	4293.73
479.569	4255.76
479.94	4333.95
480.311	4362.43
480.682	4476.32
481.053	4522.42
481.424	4629.77
481.795	4674.28
482.166	4704.79
482.537	4775.75
482.908	4822.08
483.279	4839.93
483.65	4901.4
484.021	4996.31
484.391	5089.64
484.762	5087.83
485.133	5147.27
485.503	5206.47
485.874	5327.6
486.244	5318.79
486.615	5388.62
486.985	5455.73
487.356	5543.64
487.726	5557.42
488.097	5654.6
488.467	5678.33
488.837	5794.48
489.207	5827.47
489.578	5926.23
489.948	5879.45
490.318	6017.07
490.688	6006.9
491.058	6079.67
491.428	6137.07
491.798	6222.04
492.168	6314.92
492.538	6319.89
492.908	6342.49
493.278	6421.81
493.648	6430.17
494.017	6525.08
494.387	6530.96
494.757	6572.31
495.126	6624.06
495.496	6596.04
495.866	6695.47
496.235	6762.14
496.605	6777.05
496.974	6783.61
497.344	6834.68
497.713	6855.02
498.082	6924.85
498.452	6939.99
498.821	6992.87
499.19	6965.98
499.559	7043.94
499.928	7061.79
500.298	7077.38
500.667	7103.6
501.036	7135.24
501.405	7183.6
501.774	7233.99
502.143	7215.91
502.512	7193.09
502.88	7266.31
503.249	7281.45
503.618	7303.59
503.987	7304.27
504.356	7343.14
504.724	7334.1
505.093	7417.49
505.462	7392.86
505.83	7457.49
506.199	7432.63
506.567	7525.51
506.936	7472.18
507.304	7501.55
507.672	7551.27
508.041	7597.6
508.409	7604.83
508.777	7631.27
509.145	7674.43
509.514	7656.58
509.882	7626.97
510.25	7671.72
510.618	7714.43
510.986	7673.98
511.354	7711.72
511.722	7749.01
512.09	7830.13
512.458	7824.48
512.826	7786.97
513.193	7786.07
513.561	7832.84
513.929	7841.88
514.297	7878.27
514.664	7886.85
515.032	7893.18
515.4	7936.57
515.767	7914.2
516.135	7934.31
516.502	7808.66
516.869	8012.28
517.237	7939.51
517.604	7928.89
517.972	7979.06
518.339	7961.66
518.706	7940.86
519.073	7951.26
519.44	7925.27
519.808	7980.86
520.175	7954.2
520.542	8063.57
520.909	8050.69
521.276	8036
521.643	7999.85
522.009	8064.93
522.376	8056.12
522.743	8080.75
523.11	8163.46
523.477	8165.04
523.843	8129.11
524.21	8137.02
524.577	8216.56
524.943	8193.97
525.31	8116.45
525.676	8251.36
526.043	8172.05
526.409	8181.76
526.776	8258.37
527.142	8243.91
527.508	8198.71
527.874	8229.44
528.241	8310.35
528.607	8224.7
528.973	8253.4
529.339	8264.02
529.705	8247.3
530.071	8299.95
530.437	8252.95
530.803	8296.11
531.169	8205.26
531.535	8142.44
531.901	8189.45
532.267	8187.41
532.632	8172.27
532.998	8216.34
533.364	8252.95
533.73	8230.12
534.095	8240.29
534.461	8203.23
534.826	8204.59
535.192	8175.89
535.557	8238.03
535.923	8133.4
536.288	8157.81
536.653	8163.46
537.019	8138.83
537.384	8123.68
537.749	8039.85
538.114	8076
538.479	8080.3
538.845	8106.28
539.21	7981.32
539.575	8003.91
539.94	7944.48
540.305	7925.72
540.67	7977.47
541.034	7913.97
541.399	7927.76
541.764	7895.22
542.129	7923.24
542.494	7896.12
542.858	7923.46
543.223	7904.03
543.587	7857.25
543.952	7843.92
544.316	7748.78
544.681	7730.25
545.045	7671.04
545.41	7763.47
545.774	7705.16
546.138	7739.29
546.503	7663.36
546.867	7677.82
547.231	7660.87
547.595	7621.33
547.959	7633.08
548.324	7575.68
548.688	7568.67
549.052	7551.04
549.416	7559.18
549.779	7536.81
550.143	7450.26
550.507	7531.84
550.871	7524.38
551.235	7448.9
551.599	7505.62
551.962	7392.63
552.326	7440.76
552.689	7435.57
553.053	7360.77
553.417	7344.95
553.78	7425.85
554.143	7407.09
554.507	7333.65
554.87	7374.78
555.234	7341.78
555.597	7328
555.96	7321.67
556.323	7349.92
556.686	7335
557.05	7287.55
557.413	7286.19
557.776	7274.89
558.139	7334.78
558.502	7316.47
558.865	7267.21
559.228	7291.84
559.59	7310.82
559.953	7316.47
560.316	7301.33
560.679	7294.55
561.041	7300.66
561.404	7319.86
561.767	7331.39
562.129	7280.32
562.492	7317.6
562.854	7314.89
563.217	7264.5
563.579	7356.7
563.941	7331.39
564.304	7352.86
564.666	7378.85
565.028	7390.14
565.39	7359.64
565.753	7405.74
566.115	7398.28
566.477	7458.62
566.839	7386.75
567.201	7453.19
567.563	7491.84
567.925	7528.67
568.287	7501.1
568.648	7499.29
569.01	7518.73
569.372	7537.26
569.734	7488.22
570.095	7546.3
570.457	7571.61
570.819	7570.93
571.18	7507.88
571.542	7595.34
571.903	7581.33
572.265	7575.45
572.626	7619.97
572.987	7617.26
573.349	7749.23
573.71	7711.49
574.071	7610.48
574.432	7699.97
574.794	7783.13
575.155	7700.64
575.516	7760.3
575.877	7789.91
576.238	7757.82
576.599	7840.75
576.96	7825.61
577.32	7798.95
577.681	7881.88
578.042	7852.28
578.403	7840.98
578.763	7861.32
579.124	7899.74
579.485	8002.56
579.845	7954.42
580.206	7956.46
580.566	7907.65
580.927	7940.64
581.287	8070.35
581.648	8002.56
582.008	8016.34
582.368	8077.36
582.728	8050.01
583.089	8044.59
583.449	8059.51
583.809	8028.55
584.169	8058.15
584.529	8081.88
584.889	8184.93
585.249	8098.15
585.609	8137.47
585.969	8185.38
586.329	8179.95
586.688	8139.96
587.048	8181.76
587.408	8167.98
587.768	8130.69
588.127	8145.83
588.487	8203
588.846	8297.24
589.206	8211.59
589.565	8296.56
589.925	8279.16
590.284	8257.47
590.643	8274.87
591.003	8343.79
591.362	8393.51
591.721	8328.88
592.08	8315.54
592.44	8372.27
592.799	8389.67
593.158	8311.7
593.517	8392.38
593.876	8407.29
594.235	8377.46
594.593	8365.49
594.952	8484.58
595.311	8398.48
595.67	8397.58
596.029	8496.56
596.387	8439.16
596.746	8442.32
597.104	8437.35
597.463	8489.1
597.822	8452.94
598.18	8453.62
598.538	8496.33
598.897	8562.77
599.255	8441.64
599.613	8586.95
599.972	8567.51
600.33	8540.62
600.688	8558.02
601.046	8579.72
601.404	8602.77
601.762	8513.96
602.12	8609.1
602.478	8613.62
602.836	8576.78
603.194	8565.71
603.552	8532.04
603.91	8572.49
604.268	8571.81
604.625	8584.01
604.983	8618.36
605.341	8563.9
605.698	8626.27
606.056	8609.32
606.413	8674.86
606.771	8638.7
607.128	8649.77
607.485	8681.41
607.843	8618.59
608.2	8662.2
608.557	8642.32
608.914	8646.83
609.272	8700.39
609.629	8742.88
609.986	8755.76
610.343	8706.95
610.7	8807.73
611.057	8725.93
611.414	8717.12
611.771	8760.5
612.127	8701.3
612.484	8770.67
612.841	8820.62
613.198	8745.59
613.554	8796.21
613.911	8832.14
614.267	8770.45
614.624	8772.71
614.98	8741.97
615.337	8873.04
615.693	8795.31
616.05	8831.01
616.406	8811.12
616.762	8805.25
617.118	8837.79
617.475	8897.45
617.831	8892.7
618.187	8915.53
618.543	8896.09
618.899	8931.57
619.255	8916.88
619.611	8941.29
619.967	8898.81
620.323	8961.63
620.678	8899.03
621.034	8828.07
621.39	8920.5
621.746	8845.02
622.101	8992.59
622.457	8861.52
622.812	8949.88
623.168	8979.03
623.523	8937.9
623.879	8910.78
624.234	8881.86
624.589	8964.57
624.945	8921.63
625.3	8890.9
625.655	8947.62
626.01	8973.15
626.365	8965.47
626.72	8922.99
627.075	8875.98
627.43	8927.51
627.785	8926.38
628.14	8946.49
628.495	8916.43
628.85	8886.6
629.205	8865.59
629.559	8986.94
629.914	8826.27
630.269	8887.96
630.623	8878.69
630.978	8841.18
631.332	8917.56
631.687	8897.45
632.041	8812.71
632.396	8839.37
632.75	8832.59
633.104	8824.91
633.459	8723.89
633.813	8728.64
634.167	8791.46
634.521	8743.33
634.875	8773.84
635.229	8720.05
635.583	8728.87
635.937	8698.36
636.291	8731.58
636.645	8721.86
636.999	8718.7
637.352	8680.73
637.706	8701.75
638.06	8738.36
638.413	8690
638.767	8635.08
639.121	8650.22
639.474	8652.03
639.828	8555.54
640.181	8662.65
640.534	8622.65
640.888	8610.68
641.241	8535.43
641.594	8585.37
641.947	8595.76
642.301	8567.29
642.654	8535.2
643.007	8574.97
643.36	8568.19
643.713	8504.01
644.066	8582.43
644.419	8530.45
644.771	8457.91
645.124	8352.38
645.477	8361.87
645.83	8370.91
646.182	8323
646.535	8299.05
646.888	8272.16
647.24	8245.49
647.593	8245.94
647.945	8254.3
648.298	8217.92
648.65	8203.91
649.002	8204.13
649.355	8247.98
649.707	8224.25
650.059	8294.53
650.411	8322.78
650.763	8353.51
651.115	8508.08
651.467	8494.07
651.819	8445.03
652.171	8384.47
652.523	8396.9
652.875	8457.91
653.227	8382.89
653.578	8478.03
653.93	8454.75
654.282	8380.63
654.633	8417.91
654.985	8437.35
655.337	8412.49
655.688	8408.42
656.039	8467.4
656.391	8333.62
656.742	8341.76
657.094	8407.97
657.445	8463.79
657.796	8442.09
658.147	8381.76
658.498	8412.72
658.849	8412.49
659.2	8414.07
659.551	8420.17
659.902	8435.09
660.253	8432.6
660.604	8506.95
660.955	8400.29
661.306	8464.92
661.656	8445.71
662.007	8464.69
662.358	8471.02
662.708	8440.06
663.059	8428.76
663.409	8382.43
663.76	8443.68
664.11	8432.38
664.461	8426.95
664.811	8477.57
665.161	8463.34
665.511	8478.7
665.862	8518.02
666.212	8460.17
666.562	8478.03
666.912	8464.92
667.262	8401.64
667.612	8462.88
667.962	8483.22
668.312	8460.17
668.662	8466.5
669.011	8482.55
669.361	8472.15
669.711	8417.01
670.06	8476.67
670.41	8395.77
670.76	8420.17
671.109	8414.52
671.459	8413.17
671.808	8443.45
672.157	8445.94
672.507	8388.31
672.856	8415.65
673.205	8374.98
673.554	8459.95
673.904	8376.56
674.253	8418.82
674.602	8388.99
674.951	8269.67
675.3	8210.91
675.649	8350.12
675.998	8348.31
676.346	8355.77
676.695	8391.7
677.044	8300.86
677.393	8318.93
677.741	8374.3
678.09	8245.49
678.438	8265.38
678.787	8252.04
679.135	8311.7
679.484	8239.39
679.832	8233.51
680.181	8214.3
680.529	8221.76
680.877	8186.73
681.225	8210.91
681.573	8264.7
681.922	8183.12
682.27	8085.04
682.618	8075.32
682.966	8141.09
683.314	8131.14
683.661	8084.59
684.009	8085.27
684.357	8018.15
684.705	8024.48
685.053	8035.55
685.4	8040.98
685.748	8038.72
686.095	7987.19
686.443	7933.41
686.79	7942.45
687.138	7981.32
687.485	7905.16
687.832	7885.05
688.18	7898.83
688.527	7890.47
688.874	7837.59
689.221	7816.12
689.568	7812.51
689.915	7719.18
690.262	7790.81
690.609	7738.38
690.956	7700.87
691.303	7726.41
691.65	7554.21
691.997	7661.55
692.344	7595.56
692.69	7525.51
693.037	7575
693.383	7525.73
693.73	7526.86
694.077	7432.4
694.423	7477.15
694.769	7449.13
695.116	7477.83
695.462	7403.03
695.808	7368.45
696.155	7362.12
696.501	7303.59
696.847	7291.39
697.193	7159.19
697.539	7282.35
697.885	7208.23
698.231	7157.16
698.577	7180.88
698.923	7201.22
699.269	7109.47
699.614	7086.65
699.96	6979.31
700.306	7043.49
700.651	7010.04
700.997	6963.49
701.342	6923.49
701.688	6967.1
702.033	6956.26
702.379	6908.58
702.724	6876.71
703.069	6887.33
703.415	6785.41
703.76	6819.54
704.105	6823.61
704.45	6747.45
704.795	6721.46
705.14	6685.76
705.485	6688.02
705.83	6699.99
706.175	6692.31
706.52	6670.62
706.865	6600.56
707.209	6624.97
707.554	6594.91
707.899	6522.6
708.243	6513.78
708.588	6528.47
708.932	6509.72
709.277	6489.15
709.621	6458.87
709.966	6469.26
710.31	6458.87
710.654	6430.17
710.998	6464.52
711.342	6448.7
711.687	6406.89
712.031	6372.54
712.375	6332.77
712.719	6369.83
713.063	6315.82
713.407	6334.81
713.75	6315.37
714.094	6302.72
714.438	6300.23
714.782	6315.14
715.125	6258.42
715.469	6289.16
715.812	6222.49
716.156	6229.72
716.499	6202.83
716.843	6221.36
717.186	6175.49
717.53	6199.67
717.873	6189.95
718.216	6195.15
718.559	6202.38
718.902	6104.75
719.246	6089.84
719.589	6175.71
719.932	6073.12
720.275	6072.89
720.617	6121.03
720.96	6115.6
721.303	6088.48
721.646	6078.77
721.989	6027.47
722.331	6146.79
722.674	6084.64
723.016	6038.77
723.359	6079.67
723.701	6099.78
724.044	6040.35
724.386	6017.98
724.729	6054.36
725.071	6012.33
725.413	6023.85
725.755	6044.64
726.097	6003.29
726.439	5971.42
726.782	6026.79
727.124	5997.86
727.465	5967.13
727.807	6023.85
728.149	5995.61
728.491	6013.23
728.833	5959.67
729.175	5970.07
729.516	5961.26
729.858	6048.49
730.199	6038.09
730.541	5938.66
730.882	5990.86
731.224	6023.85
731.565	5960.58
731.906	5947.47
732.248	6007.13
732.589	5939.56
732.93	5923.29
733.271	5989.96
733.612	5988.83
733.953	6021.82
734.294	5920.8
734.635	5932.78
734.976	6019.79
735.317	5922.16
735.658	5957.64
735.999	5916.96
736.339	5971.2
736.68	5956.96
737.021	6029.95
737.361	5962.39
737.702	6030.18
738.042	6001.93
738.383	5956.51
738.723	6010.29
739.063	5955.15
739.404	6041.25
739.744	6026.79
740.084	6031.08
740.424	6046
740.764	6037.64
741.104	6091.87
741.444	6057.07
741.784	6063.85
742.124	6106.79
742.464	6075.83
742.804	6130.74
743.143	6118.09
743.483	6182.49
743.823	6153.12
744.162	6210.06
744.502	6177.75
744.841	6184.75
745.181	6260.46
745.52	6290.74
745.86	6311.08
746.199	6346.33
746.538	6394.92
746.877	6457.74
747.216	6460
747.556	6445.31
747.895	6536.38
748.234	6576.38
748.573	6577.96
748.911	6644.85
749.25	6706.55
749.589	6721.01
749.928	6789.03
750.267	6847.11
750.605	6914
750.944	6990.83
751.283	6979.31
751.621	7093.66
751.96	7179.98
752.298	7310.37
752.636	7413.19
752.975	7502.91
753.313	7486.41
753.651	7662
753.989	7697.03
754.327	7861.54
754.666	7930.7
755.004	8011.6
755.342	8139.28
755.679	8280.06
756.017	8326.62
756.355	8546.5
756.693	8646.38
757.031	8732.48
757.368	8865.13
757.706	9030.55
758.044	9092.92
758.381	9320.94
758.719	9450.66
759.056	9656.75
759.394	9706.47
759.731	9816.3
760.068	9971.55
760.405	10144.87
760.743	10303.06
761.08	10460.35
761.417	10628.48
761.754	10784.18
762.091	10920
762.428	11138.52
762.765	11240.89
763.102	11471.17
763.438	11599.98
763.775	11717.49
764.112	11929.69
764.449	12214.2
764.785	12324.48
765.122	12392.27
765.458	12582.78
765.795	12680.85
766.131	12912.71
766.467	12994.97
766.804	13135.76
767.14	13334.62
767.476	13442.41
767.812	13617.1
768.148	13812.35
768.485	13835.17
768.821	14026.58
