Data from hue_310_FLMS001491_31.txt Node
Date: Mon Feb 06 15:49:35 GMT 2017
User: dcchb
Spectrometer: FLMS00149
Trigger mode: 0
Integration Time (sec): 2.000000E-2
Scans to average: 10
Electric dark correction enabled: true
Nonlinearity correction enabled: false
Boxcar width: 0
XAxis mode: Wavelengths
Number of Pixels in Spectrum: 2048
>>>>>Begin Spectral Data<<<<<
341.393	-15.71
341.776	-15.71
342.16	-15.71
342.543	-78.53
342.927	-68.13
343.31	-50.51
343.693	-62.03
344.077	-81.92
344.46	-71.98
344.843	-50.06
345.226	-40.11
345.61	-34.69
345.993	-20
346.376	-16.38
346.759	2.6
347.142	45.31
347.525	40.34
347.908	63.61
348.291	67
348.674	76.95
349.057	131.86
349.44	125.31
349.823	133.44
350.206	156.72
350.588	195.81
350.971	215.25
351.354	234.46
351.737	238.75
352.119	235.81
352.502	257.51
352.884	245.3
353.267	271.07
353.65	300.9
354.032	293.66
354.414	295.47
354.797	306.77
355.179	294.57
355.562	315.81
355.944	333.44
356.326	329.14
356.709	341.8
357.091	319.65
357.473	364.85
357.855	337.73
358.238	333.66
358.62	326.43
359.002	342.7
359.384	325.53
359.766	330.95
360.148	346.77
360.53	337.96
360.912	313.78
361.294	342.93
361.676	328.69
362.057	311.07
362.439	328.24
362.821	293.89
363.203	319.65
363.584	304.74
363.966	325.08
364.348	299.77
364.729	330.73
365.111	312.2
365.493	319.88
365.874	305.64
366.256	296.6
366.637	327.79
367.019	290.73
367.4	323.27
367.781	316.49
368.163	314.23
368.544	303.83
368.925	304.51
369.306	306.09
369.688	329.37
370.069	287.79
370.45	316.94
370.831	296.83
371.212	316.04
371.593	310.61
371.974	313.33
372.355	303.38
372.736	322.82
373.117	301.8
373.498	301.35
373.879	301.35
374.26	307.22
374.641	316.26
375.021	280.11
375.402	311.07
375.783	309.26
376.163	301.12
376.544	315.58
376.925	315.58
377.305	303.16
377.686	302.93
378.066	317.17
378.447	309.71
378.827	327.79
379.208	326.88
379.588	314
379.968	322.36
380.349	326.21
380.729	312.87
381.109	317.39
381.489	335.25
381.87	336.15
382.25	328.01
382.63	330.5
383.01	329.6
383.39	361.69
383.77	332.53
384.15	332.53
384.53	341.57
384.91	319.2
385.29	330.95
385.67	357.84
386.049	346.32
386.429	318.07
386.809	336.6
387.189	353.1
387.568	341.12
387.948	332.99
388.328	335.92
388.707	355.58
389.087	332.99
389.466	354
389.846	340.44
390.225	359.65
390.605	348.35
390.984	341.57
391.363	365.98
391.743	385.41
392.122	367.33
392.501	367.79
392.881	381.35
393.26	354.23
393.639	354.68
394.018	352.65
394.397	376.6
394.776	370.05
395.155	378.86
395.534	393.77
395.913	396.03
396.292	372.08
396.671	367.56
397.05	391.52
397.429	363.49
397.808	369.37
398.186	373.21
398.565	388.8
398.944	370.95
399.323	379.09
399.701	385.64
400.08	382.93
400.458	380.67
400.837	381.57
401.215	395.58
401.594	426.77
401.972	413.21
402.351	406.2
402.729	415.7
403.107	396.94
403.486	407.33
403.864	403.27
404.242	419.76
404.62	439.42
404.999	428.58
405.377	435.81
405.755	419.09
406.133	409.14
406.511	436.94
406.889	442.14
407.267	431.51
407.645	416.37
408.023	445.75
408.401	472.64
408.779	457.73
409.156	439.88
409.534	466.09
409.912	465.19
410.29	471.96
410.667	456.37
411.045	491.17
411.422	483.72
411.8	470.38
412.178	483.49
412.555	508.8
412.933	522.13
413.31	516.26
413.687	506.09
414.065	545.64
414.442	536.6
414.819	544.96
415.197	561.45
415.574	545.41
415.951	582.92
416.328	557.39
416.705	588.57
417.082	595.58
417.46	593.54
417.837	608.23
418.214	615.01
418.591	629.25
418.967	625.86
419.344	610.04
419.721	622.92
420.098	630.6
420.475	674.9
420.852	645.29
421.228	657.04
421.605	649.81
421.982	685.29
422.358	673.99
422.735	712.86
423.111	700.21
423.488	736.82
423.864	728.91
424.241	711.51
424.617	735.01
424.994	724.39
425.37	763.48
425.746	716.48
426.123	753.31
426.499	763.93
426.875	765.29
427.251	785.63
427.627	807.32
428.003	796.02
428.379	803.48
428.756	820.66
429.132	825.18
429.507	828.79
429.883	826.98
430.259	836.48
430.635	860.43
431.011	867.66
431.387	888.23
431.763	888.68
432.138	919.18
432.514	898.17
432.89	921.67
433.265	907.66
433.641	946.08
434.016	961.44
434.392	983.59
434.767	971.39
435.143	973.65
435.518	982.46
435.894	1010.71
436.269	1002.57
436.644	1035.34
437.02	1038.5
437.395	1007.77
437.77	1048.67
438.145	1035.57
438.52	1048.22
438.895	1071.72
439.271	1059.52
439.646	1092.74
440.021	1105.39
440.395	1092.51
440.77	1099.29
441.145	1092.06
441.52	1126.19
441.895	1097.03
442.27	1122.8
442.645	1154.43
443.019	1156.69
443.394	1161.21
443.769	1171.38
444.143	1148.56
444.518	1170.7
444.892	1130.93
445.267	1201.66
445.641	1163.7
446.016	1191.27
446.39	1166.86
446.764	1191.27
447.139	1200.99
447.513	1197.37
447.887	1194.43
448.262	1229.69
448.636	1214.54
449.01	1212.51
449.384	1218.84
449.758	1226.97
450.132	1249.8
450.506	1278.72
450.88	1234.2
451.254	1251.61
451.628	1261.55
452.002	1262.23
452.376	1236.69
452.75	1254.77
453.123	1282.57
453.497	1289.8
453.871	1269.91
454.244	1287.54
454.618	1319.4
454.992	1319.4
455.365	1311.94
455.739	1337.25
456.112	1360.98
456.486	1340.42
456.859	1365.05
457.232	1360.08
457.606	1352.39
457.979	1378.83
458.352	1412.73
458.725	1399.17
459.099	1415.22
459.472	1404.37
459.845	1470.81
460.218	1442.79
460.591	1426.52
460.964	1446.4
461.337	1473.97
461.71	1473.29
462.083	1506.74
462.456	1511.94
462.829	1486.85
463.201	1537.47
463.574	1532.73
463.947	1538.83
464.32	1576.12
464.692	1554.87
465.065	1591.71
465.438	1591.48
465.81	1605.27
466.183	1588.09
466.555	1633.74
466.928	1607.53
467.3	1643.23
467.672	1675.78
468.045	1680.29
468.417	1683.68
468.789	1686.85
469.161	1694.98
469.534	1718.49
469.906	1764.81
470.278	1763.46
470.65	1770.91
471.022	1787.18
471.394	1804.36
471.766	1834.19
472.138	1828.77
472.51	1860.63
472.882	1868.54
473.253	1893.4
473.625	1885.26
473.997	1922.55
474.369	1928.65
474.74	1927.97
475.112	1941.3
475.484	1977.91
475.855	2014.07
476.227	2024.01
476.598	2076.22
476.97	2054.07
477.341	2098.36
477.713	2134.75
478.084	2117.35
478.455	2171.13
478.827	2189.89
479.198	2210.45
479.569	2227.63
479.94	2234.18
480.311	2278.47
480.682	2322.09
481.053	2344.46
481.424	2334.06
481.795	2356.89
482.166	2409.77
482.537	2422.65
482.908	2461.74
483.279	2469.43
483.65	2504
484.021	2530.44
484.391	2543.32
484.762	2545.81
485.133	2547.16
485.503	2596.88
485.874	2630.78
486.244	2651.34
486.615	2730.89
486.985	2663.09
487.356	2718.69
487.726	2772.02
488.097	2794.16
488.467	2752.36
488.837	2816.76
489.207	2851.11
489.578	2876.42
489.948	2893.6
490.318	2874.39
490.688	2918.91
491.058	2961.39
491.428	2978.11
491.798	2996.19
492.168	3048.17
492.538	3061.5
492.908	3056.08
493.278	3109.18
493.648	3110.77
494.017	3129.52
494.387	3154.15
494.757	3199.35
495.126	3226.92
495.496	3159.8
495.866	3200.48
496.235	3244.77
496.605	3229.63
496.974	3234.38
497.344	3298.11
497.713	3310.08
498.082	3315.73
498.452	3309.63
498.821	3353.7
499.19	3331.55
499.559	3354.83
499.928	3374.94
500.298	3414.26
500.667	3433.47
501.036	3416.75
501.405	3427.37
501.774	3419.68
502.143	3458.33
502.512	3473.24
502.88	3443.64
503.249	3445.67
503.618	3541.04
503.987	3503.52
504.356	3540.58
504.724	3522.05
505.093	3570.64
505.462	3562.96
505.83	3521.83
506.199	3592.79
506.567	3591.21
506.936	3625.1
507.304	3652.9
507.672	3640.7
508.041	3646.57
508.409	3620.36
508.777	3687.7
509.145	3720.92
509.514	3698.09
509.882	3706.91
510.25	3687.7
510.618	3729.05
510.986	3715.27
511.354	3734.7
511.722	3750.97
512.09	3724.99
512.458	3780.35
512.826	3791.2
513.193	3796.4
513.561	3810.86
513.929	3791.43
514.297	3842.27
514.664	3856.51
515.032	3841.59
515.4	3830.97
515.767	3894.93
516.135	3869.62
516.502	3864.42
516.869	3959.33
517.237	3928.82
517.604	3904.19
517.972	3934.25
518.339	3943.29
518.706	3951.42
519.073	3940.57
519.44	3962.49
519.808	3947.35
520.175	3946.45
520.542	4005.43
520.909	4042.49
521.276	4055.15
521.643	4051.76
522.009	4045.88
522.376	4112.32
522.743	4074.13
523.11	4075.49
523.477	4139.21
523.843	4145.09
524.21	4135.6
524.577	4178.99
524.943	4188.25
525.31	4197.06
525.676	4231.41
526.043	4273.67
526.409	4201.58
526.776	4280.45
527.142	4317.29
527.508	4318.42
527.874	4337.17
528.241	4388.7
528.607	4334.91
528.973	4396.61
529.339	4388.02
529.705	4389.83
530.071	4417.85
530.437	4497.85
530.803	4462.14
531.169	4503.27
531.535	4501.46
531.901	4504.4
532.267	4513.44
532.632	4595.25
532.998	4582.37
533.364	4592.08
533.73	4624.17
534.095	4665.75
534.461	4625.08
534.826	4688.13
535.192	4704.4
535.557	4696.26
535.923	4754.56
536.288	4734
536.653	4800.66
537.019	4755.02
537.384	4855.35
537.749	4783.94
538.114	4823.04
538.479	4876.82
538.845	4897.61
539.21	4899.87
539.575	4920.66
539.94	4901
540.305	4916.82
540.67	4932.64
541.034	4989.59
541.399	5013.31
541.764	5024.61
542.129	5048.34
542.494	5026.87
542.858	5098.51
543.223	5111.17
543.587	5149.58
543.952	5163.37
544.316	5190.26
544.681	5194.55
545.045	5179.19
545.41	5197.49
545.774	5280.88
546.138	5229.58
546.503	5245.85
546.867	5239.52
547.231	5330.59
547.595	5272.74
547.959	5356.58
548.324	5419.41
548.688	5381.89
549.052	5379.41
549.416	5386.41
549.779	5426.64
550.143	5478.84
550.507	5517.71
550.871	5463.7
551.235	5509.57
551.599	5503.02
551.962	5561.32
552.326	5581.89
552.689	5614.65
553.053	5553.87
553.417	5548.44
553.78	5608.1
554.143	5649.46
554.507	5670.92
554.87	5630.02
555.234	5726.74
555.597	5720.41
555.96	5693.52
556.323	5728.1
556.686	5742.56
557.05	5729.45
557.413	5787.08
557.776	5781.66
558.139	5821.88
558.502	5852.84
558.865	5861.2
559.228	5886.06
559.59	5888.55
559.953	5877.92
560.316	5933.52
560.679	5882.44
561.041	5938.71
561.404	5982.78
561.767	5996.11
562.129	5959.05
562.492	6016.68
562.854	6057.58
563.217	6034.76
563.579	6093.29
563.941	6091.93
564.304	6124.7
564.666	6154.53
565.028	6198.59
565.39	6186.84
565.753	6163.79
566.115	6179.61
566.477	6246.95
566.839	6278.37
567.201	6315.88
567.563	6284.24
567.925	6322.66
568.287	6343
568.648	6385.26
569.01	6427.74
569.372	6462.32
569.734	6416.89
570.095	6463.22
570.457	6498.47
570.819	6544.57
571.18	6553.39
571.542	6568.75
571.903	6606.04
572.265	6630.45
572.626	6630.22
572.987	6733.04
573.349	6760.84
573.71	6811.01
574.071	6870.44
574.432	6877.67
574.794	6929.42
575.155	6938.01
575.516	6970.55
575.877	7053.94
576.238	7160.6
576.599	7175.74
576.96	7234.5
577.32	7301.16
577.681	7382.07
578.042	7474.04
578.403	7509.07
578.763	7584.32
579.124	7677.88
579.485	7799.46
579.845	7935.27
580.206	8043.52
580.566	8097.53
580.927	8195.6
581.287	8301.59
581.648	8426.56
582.008	8603.73
582.368	8666.78
582.728	8852.31
583.089	8951.97
583.449	9083.94
583.809	9293.65
584.169	9497.94
584.529	9657.26
584.889	9864.94
585.249	9899.06
585.609	10178.6
585.969	10403.46
586.329	10556.22
586.688	10812.26
587.048	10995.98
587.408	11157.11
587.768	11356.88
588.127	11621.95
588.487	11794.83
588.846	12154.82
589.206	12268.26
589.565	12505.55
589.925	12858.53
590.284	13116.6
590.643	13348.46
591.003	13640.66
591.362	13989.35
591.721	14080.42
592.08	14411.49
592.44	14769.22
592.799	15051.92
593.158	15286.26
593.517	15589.53
593.876	15884.22
594.235	16116.3
594.593	16441.71
594.952	16811.42
595.311	16960.35
595.67	17337.06
596.029	17709.48
596.387	18008.68
596.746	18337.48
597.104	18442.57
597.463	18775.89
597.822	19235.77
598.18	19511.46
598.538	19669.65
598.897	20069.42
599.255	20177.21
599.613	20854.93
599.972	20837.76
600.33	21268.48
600.688	21410.4
601.046	21739.88
601.404	22191.17
601.762	22433.2
602.12	22722.91
602.478	23075.89
602.836	23320.4
603.194	23391.81
603.552	23747.74
603.91	23947.51
604.268	24337.78
604.625	24458.9
604.983	24849.18
605.341	24855.28
605.698	25335.27
606.056	25612.09
606.413	25773.67
606.771	26163.72
607.128	26417.95
607.485	26427.21
607.843	26774.55
608.2	27109.68
608.557	27465.15
608.914	27428.09
609.272	27831.92
609.629	28054.52
609.986	28249.77
610.343	28321.4
610.7	28745.57
611.057	28901.5
611.414	28999.8
611.771	29124.54
612.127	29470.07
612.484	29685.89
612.841	29852.89
613.198	29946.44
613.554	30152.09
613.911	30495.58
614.267	30645.18
614.624	30689.93
614.98	30908.68
615.337	31108.9
615.693	31278.61
616.05	31363.13
616.406	31743.69
616.762	31841.99
617.118	31907.97
617.475	32027.75
617.831	32197.68
618.187	32452.14
618.543	32594.06
618.899	32895.07
619.255	32910.89
619.611	32968.06
619.967	33206.47
620.323	33418.9
620.678	33303.42
621.034	33380.48
621.39	33491.89
621.746	33474.04
622.101	33988.37
622.457	33854.14
622.812	33995.6
623.168	34207.12
623.523	34398.53
623.879	34463.16
624.234	34400.34
624.589	34517.85
624.945	34634
625.3	34723.95
625.655	34667.68
626.01	34914
626.365	34910.38
626.72	34957.39
627.075	34936.14
627.43	35069.7
627.785	35070.83
628.14	35169.81
628.495	35257.04
628.85	35296.36
629.205	35297.04
629.559	35443.93
629.914	35265.63
630.269	35536.58
630.623	35368.67
630.978	35531.38
631.332	35690.7
631.687	35745.39
632.041	35686.18
632.396	35741.09
632.75	35504.72
633.104	35811.15
633.459	35665.39
633.813	35749.46
634.167	35780.64
634.521	35631.27
634.875	35848.21
635.229	35687.54
635.583	35775.44
635.937	35772.28
636.291	35677.59
636.645	35817.02
636.999	35551.49
637.352	35800.08
637.706	35633.53
638.06	35885.72
638.413	35699.29
638.767	35723.02
639.121	35758.27
639.474	35683.92
639.828	35650.02
640.181	35664.03
640.534	35763.47
640.888	35641.44
641.241	35578.16
641.594	35608.44
641.947	35603.02
642.301	35672.17
642.654	35697.48
643.007	35724.82
643.36	35697.25
643.713	35615.45
644.066	35787.65
644.419	35587.43
644.771	35345.85
645.124	34994.9
645.477	35116.93
645.83	34817.05
646.182	34703.38
646.535	34609.82
646.888	34680.33
647.24	34502.26
647.593	34799.42
647.945	34601.01
648.298	34527.57
648.65	34465.65
649.002	34430.39
649.355	34497.29
649.707	34472.43
650.059	34729.6
650.411	35054.56
650.763	35055.69
651.115	35443.02
651.467	35269.47
651.819	35419.29
652.171	35158.96
652.523	35320.09
652.875	35170.71
653.227	35207.77
653.578	35328
653.93	35323.03
654.282	35032.41
654.633	34862.25
654.985	35218.17
655.337	35208
655.688	35168.23
656.039	35280.09
656.391	34999.64
656.742	34897.05
657.094	35146.76
657.445	35227.66
657.796	35153.99
658.147	34998.97
658.498	35010.94
658.849	35085.52
659.2	34995.58
659.551	35020.44
659.902	35130.71
660.253	35014.33
660.604	35050.04
660.955	35015.69
661.306	34945.86
661.656	34932.08
662.007	34987.67
662.358	35097.72
662.708	34875.13
663.059	34938.18
663.409	34696.6
663.76	35123.26
664.11	34994
664.461	34968.69
664.811	34941.12
665.161	34904.73
665.511	34858.18
665.862	34971.4
666.212	34983.37
666.562	35020.89
666.912	34928.69
667.262	34992.19
667.612	34937.95
667.962	34857.73
668.312	34860.89
668.662	35100.88
669.011	34874
669.361	34975.46
669.711	34864.73
670.06	34684.4
670.41	34694.34
670.76	34813.43
671.109	34848.24
671.459	34912.64
671.808	34604.17
672.157	34805.53
672.507	34589.94
672.856	34476.27
673.205	34604.17
673.554	34765.3
673.904	34573.22
674.253	34708.8
674.602	34566.66
674.951	34293.67
675.3	33997.19
675.649	34521.69
675.998	34506.1
676.346	34599.2
676.695	34671.74
677.044	34282.83
677.393	34456.38
677.741	34513.33
678.09	34506.32
678.438	34473.1
678.787	34415.71
679.135	34488.25
679.484	34160.12
679.832	34267.91
680.181	34182.72
680.529	34354.46
680.877	34187.46
681.225	34104.08
681.573	34307.23
681.922	33998.09
682.27	33984.98
682.618	33964.19
682.966	33946.11
683.314	34020.24
683.661	33819.34
684.009	33566.24
684.357	33619.57
684.705	33760.58
685.053	33667.48
685.4	33633.8
685.748	33372.12
686.095	33494.37
686.443	33477.65
686.79	33254.83
687.138	33344.1
687.485	33348.39
687.832	33419.8
688.18	33150.43
688.527	33134.16
688.874	32996.31
689.221	33040.83
689.568	32968.74
689.915	32756.99
690.262	32731.46
690.609	32755.41
690.956	32740.5
691.303	32589.31
691.65	32480.84
691.997	32465.93
692.344	32310.68
692.69	32180.06
693.037	32326.27
693.383	31959.27
693.73	32125.37
694.077	32002.21
694.423	31966.05
694.769	31802.44
695.116	31755.66
695.462	31634.99
695.808	31557.93
696.155	31592.95
696.501	31380.98
696.847	31520.87
697.193	31170.37
697.539	31297.14
697.885	31066.19
698.231	30891.5
698.577	30957.27
698.923	30967.66
699.269	30845.63
699.614	30724.05
699.96	30690.15
700.306	30657.61
700.651	30408.35
700.997	30415.81
701.342	30369.03
701.688	30308.47
702.033	30226.66
702.379	30215.14
702.724	30056.05
703.069	30268.92
703.415	29831.64
703.76	29908.93
704.105	29790.06
704.45	29766.11
704.795	29630.07
705.14	29497.87
705.485	29418.1
705.83	29460.13
706.175	29548.26
706.52	29393.24
706.865	29104.66
707.209	29169.52
707.554	29152.79
707.899	29205.67
708.243	28965.45
708.588	29013.14
708.932	28811.78
709.277	28896.08
709.621	28844.33
709.966	28600.72
710.31	28746.25
710.654	28454.28
710.998	28527.95
711.342	28451.12
711.687	28517.1
712.031	28345.58
712.375	28267.84
712.719	28205.7
713.063	28188.75
713.407	28281.4
713.75	28191.69
714.094	28134.51
714.438	27977.91
714.782	28039.6
715.125	27749.44
715.469	27961.19
715.812	27798.48
716.156	27697.46
716.499	27575.66
716.843	27648.43
717.186	27461.76
717.53	27625.6
717.873	27539.05
718.216	27379.28
718.559	27347.64
718.902	27294.31
719.246	27403.23
719.589	27239.4
719.932	27090.25
720.275	27170.47
720.617	27081.89
720.96	27046.18
721.303	26991.95
721.646	26998.27
721.989	26819.52
722.331	26956.47
722.674	26716.7
723.016	26815.68
723.359	26710.6
723.701	26753.31
724.044	26532.75
724.386	26513.31
724.729	26459.76
725.071	26486.42
725.413	26389.93
725.755	26468.34
726.097	26368.69
726.439	26250.95
726.782	26210.05
727.124	26374.79
727.465	26284.85
727.807	26096.15
728.149	26017.73
728.491	26059.77
728.833	26101.12
729.175	26048.24
729.516	25962.59
729.858	25988.36
730.199	25819.1
730.541	25858.19
730.882	25789.72
731.224	25928.47
731.565	25734.13
731.906	25766.44
732.248	25779.55
732.589	25512.89
732.93	25496.39
733.271	25586.78
733.612	25489.39
733.953	25576.16
734.294	25488.48
734.635	25418.43
734.976	25448.03
735.317	25362.61
735.658	25256.4
735.999	25292.1
736.339	25182.73
736.68	25236.29
737.021	25217.53
737.361	25140.02
737.702	25255.95
738.042	25120.36
738.383	25144.99
738.723	25098.66
739.063	24981.83
739.404	25004.43
739.744	24959.68
740.084	24837.65
740.424	24843.53
740.764	24745.45
741.104	24824.77
741.444	24679.46
741.784	24622.52
742.124	24747.94
742.464	24578.68
742.804	24529.86
743.143	24517.21
743.483	24537.77
743.823	24357.89
744.162	24487.83
744.502	24454.61
744.841	24402.86
745.181	24389.3
745.52	24203.32
745.86	24185.69
746.199	24322.19
746.538	24206.71
746.877	24272.02
747.216	24302.07
747.556	24107.05
747.895	24076.32
748.234	24023.89
748.573	23984.34
748.911	24011.69
749.25	23856.21
749.589	23789.77
749.928	23808.3
750.267	23788.87
750.605	23774.63
750.944	23690.56
751.283	23591.58
751.621	23707.06
751.96	23511.81
752.298	23509.78
752.636	23551.13
752.975	23350.91
753.313	23248.99
753.651	23411.25
753.989	23270.24
754.327	23193.18
754.666	23165.83
755.004	23139.62
755.342	23202.67
755.679	23047.87
756.017	22856.69
756.355	23012.84
756.693	22951.83
757.031	22935.33
757.368	22847.42
757.706	22834.77
758.044	22645.62
758.381	22677.71
758.719	22659.63
759.056	22756.8
759.394	22562.01
759.731	22311.84
760.068	22451.95
