Data from hue_200_FLMS001491_00008.txt Node
Date: Tue Feb 07 16:42:45 GMT 2017
User: dcchb
Spectrometer: FLMS00149
Trigger mode: 0
Integration Time (sec): 2.000000E-2
Scans to average: 10
Electric dark correction enabled: true
Nonlinearity correction enabled: false
Boxcar width: 0
XAxis mode: Wavelengths
Number of Pixels in Spectrum: 2048
>>>>>Begin Spectral Data<<<<<
341.393	-14
341.776	-14
342.16	-14
342.543	-57.39
342.927	-72.3
343.31	-66.88
343.693	-86.09
344.077	-65.52
344.46	-71.17
344.843	-56.03
345.226	-43.83
345.61	-34.34
345.993	-19.65
346.376	-6.09
346.759	38.43
347.142	24.87
347.525	54.48
347.908	52.44
348.291	71.42
348.674	91.09
349.057	116.85
349.44	145.1
349.823	134.02
350.206	164.76
350.588	213.12
350.971	212.21
351.354	200.01
351.737	226
352.119	244.98
352.502	253.79
352.884	261.7
353.267	288.37
353.65	302.61
354.032	287.92
354.414	301.93
354.797	325.88
355.179	316.62
355.562	324.07
355.944	325.2
356.326	337.41
356.709	310.29
357.091	318.88
357.473	334.47
357.855	317.97
358.238	321.59
358.62	321.14
359.002	319.55
359.384	339.67
359.766	335.15
360.148	344.86
360.53	350.29
360.912	324.75
361.294	319.33
361.676	341.93
362.057	308.48
362.439	313.9
362.821	306.67
363.203	314.13
363.584	334.02
363.966	314.81
364.348	313.68
364.729	317.97
365.111	316.84
365.493	295.37
365.874	340.34
366.256	309.84
366.637	293.11
367.019	319.55
367.4	315.94
367.781	297.18
368.163	308.03
368.544	319.78
368.925	305.54
369.306	319.78
369.688	313.23
370.069	295.15
370.45	304.41
370.831	310.74
371.212	289.05
371.593	302.38
371.974	322.27
372.355	312.55
372.736	309.84
373.117	312.77
373.498	306.9
373.879	301.02
374.26	328.14
374.641	317.29
375.021	299.89
375.402	305.77
375.783	310.97
376.163	317.52
376.544	338.99
376.925	332.21
377.305	324.98
377.686	319.33
378.066	330.4
378.447	315.26
378.827	323.4
379.208	343.96
379.588	359.78
379.968	346.22
380.349	338.54
380.729	326.11
381.109	336.73
381.489	358.65
381.87	348.48
382.25	360.23
382.63	359.55
383.01	359.1
383.39	343.96
383.77	343.06
384.15	350.51
384.53	371.76
384.91	331.3
385.29	352.32
385.67	345.77
386.049	356.61
386.429	375.82
386.809	363.39
387.189	363.62
387.568	369.95
387.948	366.56
388.328	350.29
388.707	348.25
389.087	374.24
389.466	379.89
389.846	366.11
390.225	364.3
390.605	378.08
390.984	368.14
391.363	352.1
391.743	377.63
392.122	384.64
392.501	382.6
392.881	385.54
393.26	403.39
393.639	382.6
394.018	371.98
394.397	386.22
394.776	399.33
395.155	395.26
395.534	417.63
395.913	396.16
396.292	397.97
396.671	403.17
397.05	404.3
397.429	423.73
397.808	397.29
398.186	428.03
398.565	422.83
398.944	430.51
399.323	414.01
399.701	425.09
400.08	417.4
400.458	413.11
400.837	423.96
401.215	434.35
401.594	426.67
401.972	429.16
402.351	447.23
402.729	441.81
403.107	436.39
403.486	452.88
403.864	433.45
404.242	477.52
404.62	474.35
404.999	475.26
405.377	482.49
405.755	474.35
406.133	487.46
406.511	489.94
406.889	537.63
407.267	502.15
407.645	489.72
408.023	515.03
408.401	494.24
408.779	548.02
409.156	535.14
409.534	535.14
409.912	555.71
410.29	576.27
410.667	575.82
411.045	586.21
411.422	589.15
411.8	599.77
412.178	609.26
412.555	618.98
412.933	622.37
413.31	646.32
413.687	661.01
414.065	650.17
414.442	667.34
414.819	698.3
415.197	685.42
415.574	705.98
415.951	724.97
416.328	710.73
416.705	715.48
417.082	750.05
417.46	721.35
417.837	768.36
418.214	757.28
418.591	765.87
418.967	761.8
419.344	783.72
419.721	784.17
420.098	789.37
420.475	847.22
420.852	851.74
421.228	844.51
421.605	863.95
421.982	914.11
422.358	896.26
422.735	914.34
423.111	943.27
423.488	942.14
423.864	965.86
424.241	1000.89
424.617	995.02
424.994	1004.96
425.37	1023.26
425.746	1040.44
426.123	1075.92
426.499	1081.34
426.875	1082.92
427.251	1126.31
427.627	1110.04
428.003	1160.21
428.379	1172.64
428.756	1160.66
429.132	1182.36
429.507	1195.69
429.883	1212.86
430.259	1235.46
430.635	1255.57
431.011	1270.04
431.387	1255.57
431.763	1327.89
432.138	1309.13
432.514	1343.26
432.89	1349.81
433.265	1398.85
433.641	1425.97
434.016	1426.42
434.392	1449.69
434.767	1478.85
435.143	1516.58
435.518	1524.04
435.894	1576.47
436.269	1625.96
436.644	1640.65
437.02	1680.65
437.395	1673.87
437.77	1707.31
438.145	1748.67
438.52	1773.98
438.895	1797.03
439.271	1847.65
439.646	1867.08
440.021	1911.6
440.395	1925.39
440.77	1889.91
441.145	1971.94
441.52	1966.06
441.895	2008.32
442.27	2033.86
442.645	2068.21
443.019	2103.24
443.394	2096.23
443.769	2140.97
444.143	2135.33
444.518	2147.98
444.892	2159.73
445.267	2221.42
445.641	2234.31
446.016	2294.64
446.39	2293.29
446.764	2266.62
447.139	2287.86
447.513	2349.56
447.887	2337.81
448.262	2332.61
448.636	2371.25
449.01	2437.01
449.384	2408.99
449.758	2461.64
450.132	2488.31
450.506	2472.94
450.88	2532.15
451.254	2511.36
451.628	2548.87
452.002	2586.39
452.376	2607.63
452.75	2673.84
453.123	2670.68
453.497	2671.58
453.871	2716.1
454.244	2762.43
454.618	2800.17
454.992	2872.71
455.365	2850.33
455.739	2921.52
456.112	2937.79
456.486	2949.32
456.859	2953.83
457.232	3044
457.606	3038.8
457.979	3100.72
458.352	3137.11
458.725	3210.33
459.099	3211
459.472	3237.67
459.845	3276.54
460.218	3280.15
460.591	3357.89
460.964	3378.91
461.337	3452.58
461.71	3497.78
462.083	3533.03
462.456	3514.27
462.829	3576.42
463.201	3599.02
463.574	3619.35
463.947	3707.94
464.32	3765.11
464.692	3845.11
465.065	3848.5
465.438	3868.61
465.81	3956.29
466.183	3966.24
466.555	4069.29
466.928	4108.38
467.3	4053.92
467.672	4156.74
468.045	4275.61
468.417	4253.69
468.789	4294.82
469.161	4382.27
469.534	4414.36
469.906	4563.96
470.278	4500.46
470.65	4578.88
471.022	4647.35
471.394	4758.53
471.766	4806.67
472.138	4806.89
472.51	4930.51
472.882	4998.3
473.253	5115.59
473.625	5142.25
473.997	5264.28
474.369	5259.54
474.74	5284.62
475.112	5407.78
475.484	5501.11
475.855	5578.17
476.227	5629.92
476.598	5735.23
476.97	5798.28
477.341	5902.91
477.713	5965.06
478.084	6072.17
478.455	6137.71
478.827	6220.19
479.198	6399.39
479.569	6382.45
479.94	6569.56
480.311	6611.14
480.682	6745.15
481.053	6851.13
481.424	7002.54
481.795	7038.47
482.166	7115.31
482.537	7151.92
482.908	7324.79
483.279	7400.95
483.65	7546.93
484.021	7630.55
484.391	7736.31
484.762	7763.2
485.133	7940.37
485.503	8013.14
485.874	8181.95
486.244	8142.85
486.615	8368.16
486.985	8424.2
487.356	8583.97
487.726	8627.58
488.097	8763.4
488.467	8728.37
488.837	8923.62
489.207	9099.66
489.578	9211.75
489.948	9194.12
490.318	9419.88
490.688	9333.55
491.058	9494.91
491.428	9562.93
491.798	9659.2
492.168	9848.79
492.538	9933.09
492.908	9923.82
493.278	10010.6
493.648	10074.78
494.017	10190.03
494.387	10278.84
494.757	10340.53
495.126	10347.09
495.496	10471.38
495.866	10474.99
496.235	10625.27
496.605	10612.16
496.974	10724.48
497.344	10813.52
497.713	10795.66
498.082	10803.8
498.452	10889.67
498.821	11013.06
499.19	10940.29
499.559	11027.52
499.928	11143.22
500.298	11171.02
500.667	11276.33
501.036	11150.91
501.405	11305.71
501.774	11296.89
502.143	11434.52
502.512	11381.86
502.88	11537.56
503.249	11475.87
503.618	11552.03
503.987	11558.58
504.356	11606.04
504.724	11692.81
505.093	11720.16
505.462	11713.6
505.83	11772.13
506.199	11863.66
506.567	11973.94
506.936	11918.12
507.304	12032.47
507.672	11948.4
508.041	12076.76
508.409	12076.08
508.777	12300.26
509.145	12261.16
509.514	12151.33
509.882	12165.12
510.25	12232.46
510.618	12270.88
510.986	12283.53
511.354	12307.94
511.722	12451.21
512.09	12413.25
512.458	12397.65
512.826	12464.77
513.193	12442.62
513.561	12429.74
513.929	12552
514.297	12629.74
514.664	12647.59
515.032	12666.12
515.4	12664.09
515.767	12674.48
516.135	12698.21
516.502	12573.69
516.869	12755.84
517.237	12785.89
517.604	12720.58
517.972	12770.07
518.339	12809.62
518.706	12821.82
519.073	12809.39
519.44	12888.94
519.808	12943.18
520.175	12852.33
520.542	12914.48
520.909	13001.48
521.276	12950.86
521.643	13031.31
522.009	13006.45
522.376	13044.42
522.743	13146.11
523.11	13076.28
523.477	13123.51
523.843	13143.17
524.21	13254.13
524.577	13236.5
524.943	13211.19
525.31	13215.71
525.676	13394.69
526.043	13321.25
526.409	13326.22
526.776	13438.98
527.142	13319.21
527.508	13331.19
527.874	13388.59
528.241	13438.08
528.607	13346.1
528.973	13500.45
529.339	13388.36
529.705	13428.81
530.071	13335.93
530.437	13367.12
530.803	13514.91
531.169	13376.39
531.535	13298.87
531.901	13362.37
532.267	13389.49
532.632	13362.15
532.998	13353.34
533.364	13321.02
533.73	13289.38
534.095	13291.87
534.461	13250.29
534.826	13277.18
535.192	13234.47
535.557	13254.13
535.923	13107.92
536.288	13109.95
536.653	13052.55
537.019	13008.49
537.384	13048.48
537.749	13058.43
538.114	13031.31
538.479	12928.26
538.845	12940.69
539.21	12862.5
539.575	12881.71
539.94	12756.29
540.305	12798.55
540.67	12666.57
541.034	12649.85
541.399	12746.35
541.764	12656.18
542.129	12610.08
542.494	12573.69
542.858	12502.96
543.223	12450.99
543.587	12495.05
543.952	12365.79
544.316	12430.42
544.681	12327.15
545.045	12375.51
545.41	12348.39
545.774	12252.57
546.138	12191.33
546.503	12182.07
546.867	12086.02
547.231	12096.42
547.595	12046.48
547.959	12008.96
548.324	11935.07
548.688	11932.13
549.052	11898.46
549.416	11823.43
549.779	11769.42
550.143	11762.64
550.507	11772.13
550.871	11763.09
551.235	11664.57
551.599	11616.66
551.962	11636.77
552.326	11581.63
552.689	11565.81
553.053	11504.8
553.417	11465.48
553.78	11528.98
554.143	11458.24
554.507	11430.45
554.87	11461.41
555.234	11417.34
555.597	11322.43
555.96	11387.29
556.323	11221.64
556.686	11269.1
557.05	11279.72
557.413	11269.1
557.776	11221.19
558.139	11262.54
558.502	11210.57
558.865	11212.6
559.228	11172.83
559.59	11160.62
559.953	11174.41
560.316	11246.72
560.679	11157.23
561.041	11181.42
561.404	11181.42
561.767	11191.13
562.129	11112.26
562.492	11176.22
562.854	11133.28
563.217	11123.34
563.579	11113.17
563.941	11191.36
564.304	11168.31
564.666	11132.15
565.028	11168.76
565.39	11109.1
565.753	11225.71
566.115	11169.21
566.477	11138.7
566.839	11156.1
567.201	11196.1
567.563	11202.43
567.925	11219.15
568.287	11117.01
568.648	11169.89
569.01	11201.08
569.372	11293.73
569.734	11170.57
570.095	11227.52
570.457	11257.57
570.819	11199.49
571.18	11178.93
571.542	11278.81
571.903	11255.76
572.265	11277.01
572.626	11255.99
572.987	11294.41
573.349	11257.35
573.71	11338.7
574.071	11354.97
574.432	11322.65
574.794	11428.19
575.155	11331.24
575.516	11277.23
575.877	11352.03
576.238	11357.23
576.599	11352.71
576.96	11302.99
577.32	11359.94
577.681	11319.04
578.042	11379.6
578.403	11324.24
578.763	11319.26
579.124	11417.12
579.485	11410.11
579.845	11375.08
580.206	11405.59
580.566	11396.78
580.927	11469.09
581.287	11423.89
581.648	11396.55
582.008	11469.32
582.368	11413.95
582.728	11489.2
583.089	11417.57
583.449	11418.02
583.809	11360.17
584.169	11457.79
584.529	11397.45
584.889	11408.53
585.249	11343.22
585.609	11259.38
585.969	11473.16
586.329	11336.89
586.688	11366.04
587.048	11447.17
587.408	11299.38
587.768	11330.34
588.127	11289.66
588.487	11307.29
588.846	11395.19
589.206	11289.66
589.565	11342.54
589.925	11330.34
590.284	11316.1
590.643	11332.82
591.003	11334.86
591.362	11372.6
591.721	11300.06
592.08	11288.98
592.44	11314.07
592.799	11367.62
593.158	11331.69
593.517	11257.57
593.876	11281.75
594.235	11274.52
594.593	11284.46
594.952	11343.9
595.311	11225.71
595.67	11265.03
596.029	11253.05
596.387	11262.54
596.746	11297.34
597.104	11266.38
597.463	11183.67
597.822	11267.97
598.18	11171.25
598.538	11180.29
598.897	11295.31
599.255	11194.97
599.613	11340.28
599.972	11270.23
600.33	11238.14
600.688	11174.41
601.046	11232.26
601.404	11274.07
601.762	11214.41
602.12	11271.58
602.478	11285.14
602.836	11243.11
603.194	11183.22
603.552	11172.38
603.91	11193.17
604.268	11262.09
604.625	11164.47
604.983	11199.27
605.341	11174.86
605.698	11174.64
606.056	11235.88
606.413	11253.05
606.771	11234.97
607.128	11299.6
607.485	11151.59
607.843	11197.46
608.2	11258.48
608.557	11248.76
608.914	11200.4
609.272	11294.63
609.629	11323.11
609.986	11318.36
610.343	11228.65
610.7	11325.37
611.057	11327.63
611.414	11284.24
611.771	11297.8
612.127	11328.53
612.484	11401.3
612.841	11401.75
613.198	11314.29
613.554	11373.27
613.911	11431.35
614.267	11427.74
614.624	11415.76
614.98	11395.65
615.337	11543.21
615.693	11337.34
616.05	11333.73
616.406	11515.87
616.762	11485.81
617.118	11444.91
617.475	11399.04
617.831	11451.69
618.187	11439.49
618.543	11438.58
618.899	11570.33
619.255	11484.68
619.611	11433.61
619.967	11461.18
620.323	11475.19
620.678	11494.18
621.034	11455.98
621.39	11439.49
621.746	11421.63
622.101	11572.37
622.457	11403.78
622.812	11517.68
623.168	11477.68
623.523	11470
623.879	11526.72
624.234	11431.58
624.589	11431.13
624.945	11399.71
625.3	11467.74
625.655	11463.22
626.01	11530.33
626.365	11455.53
626.72	11471.35
627.075	11406.95
627.43	11410.11
627.785	11360.62
628.14	11439.04
628.495	11478.81
628.85	11493.95
629.205	11427.74
629.559	11404.46
629.914	11330.34
630.269	11412.37
630.623	11358.81
630.978	11330.79
631.332	11391.8
631.687	11434.06
632.041	11312.94
632.396	11376.21
632.75	11248.76
633.104	11290.34
633.459	11268.64
633.813	11234.3
634.167	11229.32
634.521	11180.06
634.875	11152.94
635.229	11258.48
635.583	11170.57
635.937	11189.1
636.291	11138.93
636.645	11107.29
636.999	11101.42
637.352	11104.81
637.706	11121.3
638.06	11074.75
638.413	11066.62
638.767	11052.15
639.121	11110.23
639.474	11004.92
639.828	11025.71
640.181	11012.61
640.534	11045.37
640.888	11012.83
641.241	10874.98
641.594	10919.28
641.947	10991.59
642.301	10946.84
642.654	10955.88
643.007	10872.04
643.36	10908.43
643.713	10841.09
644.066	10945.72
644.419	10839.28
644.771	10809
645.124	10692.16
645.477	10639.06
645.83	10568.1
646.182	10696.68
646.535	10509.79
646.888	10482.9
647.24	10557.48
647.593	10537.59
647.945	10545.95
648.298	10422.79
648.65	10376.24
649.002	10426.86
649.355	10511.6
649.707	10526.52
650.059	10528.32
650.411	10704.59
650.763	10762.67
651.115	10733.07
651.467	10698.72
651.819	10797.7
652.171	10759.73
652.523	10757.92
652.875	10776
653.227	10667.98
653.578	10736.23
653.93	10707.3
654.282	10692.84
654.633	10684.93
654.985	10727.64
655.337	10698.49
655.688	10720.64
656.039	10783.23
656.391	10651.71
656.742	10662.78
657.094	10725.16
657.445	10766.28
657.796	10730.13
658.147	10700.07
658.498	10705.27
658.849	10713.18
659.2	10750.24
659.551	10705.72
659.902	10767.41
660.253	10755.66
660.604	10754.76
660.955	10655.78
661.306	10821.65
661.656	10729.45
662.007	10744.82
662.358	10708.89
662.708	10819.84
663.059	10740.52
663.409	10726.74
663.76	10752.95
664.11	10850.8
664.461	10771.93
664.811	10765.83
665.161	10734.65
665.511	10729.45
665.862	10726.06
666.212	10821.65
666.562	10858.49
666.912	10792.72
667.262	10741.2
667.612	10749.79
667.962	10781.43
668.312	10743.69
668.662	10846.51
669.011	10704.14
669.361	10752.05
669.711	10719.51
670.06	10721.99
670.41	10765.61
670.76	10756.79
671.109	10703.91
671.459	10757.02
671.808	10701.43
672.157	10751.14
672.507	10646.97
672.856	10610.58
673.205	10696.91
673.554	10715.44
673.904	10627.53
674.253	10703.46
674.602	10616.68
674.951	10431.15
675.3	10430.93
675.649	10605.16
675.998	10565.16
676.346	10551.38
676.695	10647.19
677.044	10543.01
677.393	10606.51
677.741	10530.36
678.09	10522
678.438	10551.15
678.787	10576.23
679.135	10521.55
679.484	10471.15
679.832	10490.59
680.181	10393.87
680.529	10406.29
680.877	10370.14
681.225	10387.09
681.573	10500.08
681.922	10306.18
682.27	10371.27
682.618	10338.27
682.966	10341.66
683.314	10280.42
683.661	10300.76
684.009	10188.22
684.357	10199.75
684.705	10183.48
685.053	10197.94
685.4	10174.21
685.748	10141.22
686.095	10096.47
686.443	10036.36
686.79	10075.91
687.138	10063.25
687.485	10124.49
687.832	10021.45
688.18	9893.09
688.527	9978.06
688.874	9894.22
689.221	9930.6
689.568	9838.85
689.915	9847.21
690.262	9860.77
690.609	9700.1
690.956	9759.08
691.303	9750.94
691.65	9679.31
691.997	9631.85
692.344	9640.44
692.69	9590.72
693.037	9617.84
693.383	9500.33
693.73	9512.98
694.077	9418.75
694.423	9464.17
694.769	9403.61
695.116	9350.5
695.462	9417.62
695.808	9312.31
696.155	9353.21
696.501	9224.18
696.847	9155.25
697.193	9173.33
697.539	9179.66
697.885	9079.55
698.231	9105.09
698.577	9086.55
698.923	9091.53
699.269	8966.33
699.614	8921.81
699.96	8939.89
700.306	8876.39
700.651	8836.62
700.997	8828.48
701.342	8808.6
701.688	8695.38
702.033	8777.86
702.379	8751.2
702.724	8736.28
703.069	8678.88
703.415	8593.46
703.76	8611.99
704.105	8601.6
704.45	8560.69
704.795	8444.31
705.14	8446.8
705.485	8503.75
705.83	8408.15
706.175	8399.57
706.52	8349.17
706.865	8336.29
707.209	8350.98
707.554	8301.72
707.899	8292.9
708.243	8271.89
708.588	8299
708.932	8179.01
709.277	8208.16
709.621	8202.06
709.966	8100.82
710.31	8120.03
710.654	8045.68
710.998	8008.62
711.342	8063.76
711.687	8026.7
712.031	8057.66
712.375	7976.98
712.719	7992.57
713.063	7996.41
713.407	7979.24
713.75	7955.06
714.094	7995.06
714.438	7925.91
714.782	7890.43
715.125	7859.02
715.469	7890.65
715.812	7831.9
716.156	7755.06
716.499	7761.39
716.843	7836.87
717.186	7733.6
717.53	7797.55
717.873	7854.04
718.216	7764.56
718.559	7720.26
718.902	7701.05
719.246	7646.59
719.589	7628.74
719.932	7625.35
720.275	7697.89
720.617	7650.89
720.96	7585.13
721.303	7671.45
721.646	7613.6
721.989	7519.59
722.331	7656.99
722.674	7564.79
723.016	7603.66
723.359	7536.99
723.701	7610.44
724.044	7550.32
724.386	7482.53
724.729	7553.26
725.071	7577.89
725.413	7503.77
725.755	7487.73
726.097	7465.81
726.439	7419.48
726.782	7445.02
727.124	7521.62
727.465	7432.59
727.807	7461.96
728.149	7431.46
728.491	7492.02
728.833	7447.5
729.175	7444.79
729.516	7447.28
729.858	7434.17
730.199	7468.97
730.541	7401.63
730.882	7438.91
731.224	7445.47
731.565	7429.2
731.906	7428.07
732.248	7461.96
732.589	7443.21
732.93	7409.31
733.271	7401.18
733.612	7443.21
733.953	7438.01
734.294	7409.54
734.635	7379.71
734.976	7409.76
735.317	7393.72
735.658	7484.11
735.999	7409.99
736.339	7464.45
736.68	7464.22
737.021	7445.47
737.361	7424.9
737.702	7506.26
738.042	7423.77
738.383	7455.19
738.723	7466.26
739.063	7446.37
739.404	7484.34
739.744	7506.71
740.084	7472.59
740.424	7499.93
740.764	7501.29
741.104	7586.93
741.444	7526.6
741.784	7573.6
742.124	7529.76
742.464	7598.01
742.804	7556.2
743.143	7570.21
743.483	7669.42
743.823	7647.72
744.162	7666.48
744.502	7709.64
744.841	7734.95
745.181	7777.66
745.52	7783.99
745.86	7830.99
746.199	7834.38
746.538	7913.7
746.877	7960.48
747.216	8022.4
747.556	8001.39
747.895	8071.21
748.234	8119.8
748.573	8162.74
748.911	8238.22
749.25	8296.97
749.589	8299
749.928	8415.39
750.267	8518.66
750.605	8544.42
750.944	8596.17
751.283	8672.33
751.621	8786.9
751.96	8836.17
752.298	8931.98
752.636	9037.29
752.975	9147.8
753.313	9212.43
753.651	9376.04
753.989	9369.03
754.327	9517.05
754.666	9553.89
755.004	9763.6
755.342	9943.48
755.679	10016.02
756.017	10116.13
756.355	10312.96
756.693	10428.44
757.031	10595.44
757.368	10725.38
757.706	10821.42
758.044	10983.91
