Data from hue_140_FLMS001491_00092.txt Node
Date: Tue Feb 07 16:56:40 GMT 2017
User: dcchb
Spectrometer: FLMS00149
Trigger mode: 0
Integration Time (sec): 2.000000E-2
Scans to average: 10
Electric dark correction enabled: true
Nonlinearity correction enabled: false
Boxcar width: 0
XAxis mode: Wavelengths
Number of Pixels in Spectrum: 2048
>>>>>Begin Spectral Data<<<<<
341.393	-9.05
341.776	-9.05
342.16	-9.05
342.543	-40.69
342.927	-64.42
343.31	-85.66
343.693	-70.07
344.077	-68.26
344.46	-56.74
344.843	-33.46
345.226	-40.24
345.61	-24.65
345.993	-21.48
346.376	4.96
346.759	6.77
347.142	28.46
347.525	35.92
347.908	42.7
348.291	84.96
348.674	82.02
349.057	114.79
349.44	84.96
349.823	122.92
350.206	169.25
350.588	186.87
350.971	206.08
351.354	222.13
351.737	232.07
352.119	272.97
352.502	271.39
352.884	283.82
353.267	279.3
353.65	284.72
354.032	291.96
354.414	289.92
354.797	314.1
355.179	320.2
355.562	330.6
355.944	325.63
356.326	332.86
356.709	335.34
357.091	338.06
357.473	332.86
357.855	333.99
358.238	349.58
358.62	342.8
359.002	345.06
359.384	329.92
359.766	343.93
360.148	337.15
360.53	328.11
360.912	347.55
361.294	321.11
361.676	336.7
362.057	331.95
362.439	316.81
362.821	332.86
363.203	327.21
363.584	350.49
363.966	332.63
364.348	326.53
364.729	329.92
365.111	310.71
365.493	312.52
365.874	322.69
366.256	316.81
366.637	304.38
367.019	322.69
367.4	301.22
367.781	319.3
368.163	290.37
368.544	314.33
368.925	314.55
369.306	334.44
369.688	334.21
370.069	322.24
370.45	319.3
370.831	309.36
371.212	300.77
371.593	304.38
371.974	327.89
372.355	310.26
372.736	305.74
373.117	312.07
373.498	320.2
373.879	286.53
374.26	301.45
374.641	298.96
375.021	315.01
375.402	318.62
375.783	302.12
376.163	333.08
376.544	325.18
376.925	317.27
377.305	313.42
377.686	309.81
378.066	331.73
378.447	320.88
378.827	318.4
379.208	338.06
379.588	323.37
379.968	302.35
380.349	312.29
380.729	317.72
381.109	344.84
381.489	340.32
381.87	315.01
382.25	333.31
382.63	334.67
383.01	337.6
383.39	338.06
383.77	353.42
384.15	354.78
384.53	314.1
384.91	332.86
385.29	371.28
385.67	329.24
386.049	325.85
386.429	344.38
386.809	356.81
387.189	356.13
387.568	354.33
387.948	357.72
388.328	362.24
388.707	352.52
389.087	371.28
389.466	371.05
389.846	367.43
390.225	375.12
390.605	344.16
390.984	388
391.363	366.53
391.743	374.89
392.122	381.67
392.501	370.15
392.881	362.91
393.26	364.5
393.639	370.82
394.018	379.41
394.397	364.5
394.776	367.21
395.155	378.73
395.534	394.1
395.913	380.09
396.292	397.26
396.671	398.85
397.05	393.2
397.429	379.18
397.808	394.78
398.186	382.8
398.565	408.79
398.944	374.44
399.323	408.34
399.701	407.66
400.08	411.27
400.458	392.74
400.837	414.89
401.215	408.79
401.594	400.88
401.972	392.97
402.351	411.95
402.729	391.39
403.107	413.08
403.486	407.88
403.864	418.73
404.242	430.03
404.62	418.51
404.999	407.43
405.377	420.31
405.755	423.48
406.133	429.35
406.511	454.66
406.889	433.19
407.267	443.36
407.645	425.51
408.023	427.77
408.401	433.19
408.779	441.78
409.156	456.92
409.534	417.83
409.912	470.48
410.29	458.5
410.667	452.4
411.045	468.22
411.422	463.02
411.8	474.1
412.178	469.8
412.555	470.71
412.933	485.17
413.31	469.58
413.687	497.37
414.065	500.76
414.442	490.59
414.819	480.88
415.197	503.25
415.574	494.89
415.951	498.28
416.328	522.91
416.705	484.27
417.082	500.31
417.46	503.25
417.837	496.24
418.214	509.13
418.591	511.38
418.967	507.32
419.344	521.55
419.721	511.61
420.098	532.85
420.475	520.42
420.852	534.66
421.228	542.57
421.605	539.86
421.982	543.25
422.358	555.68
422.735	562
423.111	557.03
423.488	569.69
423.864	565.62
424.241	585.06
424.617	561.1
424.994	586.86
425.37	583.7
425.746	613.08
426.123	583.7
426.499	581.44
426.875	591.61
427.251	590.03
427.627	608.56
428.003	600.42
428.379	603.13
428.756	619.86
429.132	615.56
429.507	619.86
429.883	627.31
430.259	643.13
430.635	650.36
431.011	646.75
431.387	651.04
431.763	654.43
432.138	674.77
432.514	660.76
432.89	654.43
433.265	684.26
433.641	709.12
434.016	693.75
434.392	710.48
434.767	693.3
435.143	707.09
435.518	732.62
435.894	721.77
436.269	712.06
436.644	734.88
437.02	722.23
437.395	747.76
437.77	746.18
438.145	749.12
438.52	772.39
438.895	768.55
439.271	756.12
439.646	770.81
440.021	798.16
440.395	766.97
440.77	793.41
441.145	794.99
441.52	814.43
441.895	807.65
442.27	812.17
442.645	797.25
443.019	835.22
443.394	821.89
443.769	828.89
444.143	830.25
444.518	855.56
444.892	835.67
445.267	879.96
445.641	850.58
446.016	897.59
446.39	886.06
446.764	869.79
447.139	876.12
447.513	889.23
447.887	881.09
448.262	891.49
448.636	886.29
449.01	876.35
449.384	896.69
449.758	931.03
450.132	918.61
450.506	929.68
450.88	963.12
451.254	945.95
451.628	953.41
452.002	982.56
452.376	959.96
452.75	996.8
453.123	995.21
453.497	1007.42
453.871	1020.98
454.244	1028.66
454.618	1018.49
454.992	1025.27
455.365	1051.94
455.739	1056.23
456.112	1105.95
456.486	1077.92
456.859	1109.34
457.232	1097.58
457.606	1109.34
457.979	1143.01
458.352	1141.88
458.725	1137.58
459.099	1157.02
459.472	1185.27
459.845	1168.09
460.218	1209.45
460.591	1219.39
460.964	1220.29
461.337	1260.07
461.71	1279.05
462.083	1289.67
462.456	1282.21
462.829	1278.82
463.201	1320.86
463.574	1330.8
463.947	1374.19
464.32	1377.8
464.692	1366.05
465.065	1391.36
465.438	1405.82
465.81	1450.12
466.183	1438.37
466.555	1515.43
466.928	1511.58
467.3	1506.84
467.672	1520.85
468.045	1587.51
468.417	1584.13
468.789	1620.51
469.161	1660.73
469.534	1678.59
469.906	1706.61
470.278	1715.87
470.65	1777.57
471.022	1767.4
471.394	1845.36
471.766	1811.24
472.138	1855.76
472.51	1923.1
472.882	1980.5
473.253	1999.93
473.625	2046.94
473.997	2130.55
474.369	2147.73
474.74	2134.39
475.112	2231.34
475.484	2285.35
475.855	2329.42
476.227	2391.79
476.598	2429.3
476.97	2468.85
477.341	2555.4
477.713	2641.72
478.084	2677.2
478.455	2734.83
478.827	2787.71
479.198	2921.26
479.569	2926.24
479.94	3058.66
480.311	3127.81
480.682	3230.18
481.053	3297.75
481.424	3400.12
481.795	3523.96
482.166	3563.73
482.537	3659.1
482.908	3761.92
483.279	3832.2
483.65	3949.03
484.021	4080.1
484.391	4182.47
484.762	4239.65
485.133	4368.46
485.503	4469.02
485.874	4616.36
486.244	4632.18
486.615	4801.67
486.985	4970.25
487.356	5071.49
487.726	5155.78
488.097	5372.73
488.467	5430.8
488.837	5607.75
489.207	5683.45
489.578	5816.56
489.948	5974.07
490.318	6141.97
490.688	6221.29
491.058	6352.14
491.428	6513.71
491.798	6613.37
492.168	6790.32
492.538	6862.63
492.908	7001.84
493.278	7196.18
493.648	7263.52
494.017	7500.13
494.387	7561.59
494.757	7659.9
495.126	7894.02
495.496	7924.75
495.866	8048.81
496.235	8191.18
496.605	8287.23
496.974	8387.56
497.344	8516.15
497.713	8602.47
498.082	8690.15
498.452	8885.4
498.821	8928.34
499.19	9039.52
499.559	9184.15
499.928	9261.89
500.298	9394.77
500.667	9518.83
501.036	9537.59
501.405	9760.18
501.774	9689.67
502.143	9830.01
502.512	9932.15
502.88	10108.65
503.249	10065.94
503.618	10209.21
503.987	10238.59
504.356	10365.59
504.724	10408.75
505.093	10508.86
505.462	10534.4
505.83	10682.42
506.199	10739.82
506.567	10883.32
506.936	10924.44
507.304	11060.94
507.672	11053.25
508.041	11105.68
508.409	11187.04
508.777	11289.41
509.145	11418.44
509.514	11363.08
509.882	11521.94
510.25	11458.22
510.618	11539.8
510.986	11592.45
511.354	11736.63
511.722	11836.06
512.09	11897.75
512.458	11841.48
512.826	11935.72
513.193	11948.15
513.561	12049.61
513.929	12099.33
514.297	12184.98
514.664	12232.88
515.032	12186.11
515.4	12323.05
515.767	12333.22
516.135	12367.12
516.502	12277.18
516.869	12483.05
517.237	12422.26
517.604	12487.57
517.972	12600.11
518.339	12583.61
518.706	12537.96
519.073	12660.9
519.44	12697.05
519.808	12799.88
520.175	12697.73
520.542	12860.66
520.909	12798.97
521.276	12846.88
521.643	12892.08
522.009	12979.08
522.376	12975.01
522.743	13022.69
523.11	13079.87
523.477	13207.1
523.843	13215.91
524.21	13270.82
524.577	13341.78
524.943	13352.63
525.31	13288.68
525.676	13476.02
526.043	13467.2
526.409	13432.85
526.776	13637.37
527.142	13531.16
527.508	13502
527.874	13490.48
528.241	13546.52
528.607	13533.64
528.973	13628.1
529.339	13549.01
529.705	13716.01
530.071	13680.76
530.437	13587.2
530.803	13639.4
531.169	13661.55
531.535	13630.14
531.901	13678.95
532.267	13547.88
532.632	13746.07
532.998	13662.68
533.364	13565.5
533.73	13596.01
534.095	13659.97
534.461	13654.77
534.826	13653.41
535.192	13598.95
535.557	13604.6
535.923	13641.66
536.288	13541.32
536.653	13553.08
537.019	13535.22
537.384	13531.61
537.749	13554.21
538.114	13484.15
538.479	13445.73
538.845	13497.26
539.21	13353.08
539.575	13356.47
539.94	13304.27
540.305	13469.24
540.67	13268.56
541.034	13315.79
541.399	13269.24
541.764	13204.61
542.129	13218.62
542.494	13142.92
542.858	13097.49
543.223	13106.08
543.587	13092.52
543.952	13061.34
544.316	13019.08
544.681	12974.56
545.045	12987.44
545.41	13002.81
545.774	12964.39
546.138	12853.89
546.503	12871.06
546.867	12736.83
547.231	12793.77
547.595	12868.12
547.959	12779.76
548.324	12774.34
548.688	12627.68
549.052	12705.41
549.416	12685.53
549.779	12670.61
550.143	12594.46
550.507	12597.85
550.871	12551.97
551.235	12508.58
551.599	12557.62
551.962	12584.97
552.326	12424.29
552.689	12427.68
553.053	12385.42
553.417	12335.48
553.78	12389.04
554.143	12380.45
554.507	12356.05
554.87	12361.02
555.234	12389.72
555.597	12304.97
555.96	12273.11
556.323	12273.56
556.686	12213
557.05	12344.29
557.413	12206.44
557.776	12273.11
558.139	12314.92
558.502	12241.47
558.865	12192.43
559.228	12246.9
559.59	12221.59
559.953	12212.55
560.316	12308.59
560.679	12252.09
561.041	12274.69
561.404	12274.24
561.767	12283.28
562.129	12204.41
562.492	12267.01
562.854	12278.99
563.217	12226.33
563.579	12277.18
563.941	12292.32
564.304	12269.04
564.666	12279.21
565.028	12317.63
565.39	12312.66
565.753	12296.16
566.115	12354.46
566.477	12335.25
566.839	12380.45
567.201	12458.19
567.563	12418.64
567.925	12422.48
568.287	12404.41
568.648	12439.66
569.01	12467.68
569.372	12498.64
569.734	12448.02
570.095	12548.13
570.457	12492.76
570.819	12506.55
571.18	12465.87
571.542	12549.03
571.903	12532.76
572.265	12547.68
572.626	12532.31
572.987	12590.39
573.349	12573.89
573.71	12549.49
574.071	12596.04
574.432	12680.33
574.794	12728.01
575.155	12699.54
575.516	12654.34
575.877	12622.48
576.238	12698.41
576.599	12664.29
576.96	12692.53
577.32	12683.72
577.681	12754.23
578.042	12748.13
578.403	12625.64
578.763	12651.63
579.124	12645.98
579.485	12690.95
579.845	12755.81
580.206	12634.23
580.566	12689.82
580.927	12604.17
581.287	12764.85
581.648	12627.9
582.008	12745.64
582.368	12708.58
582.728	12635.59
583.089	12649.14
583.449	12610.95
583.809	12573.89
584.169	12627.68
584.529	12604.85
584.889	12663.61
585.249	12619.54
585.609	12583.61
585.969	12636.49
586.329	12582.03
586.688	12682.14
587.048	12611.63
587.408	12568.92
587.768	12630.84
588.127	12565.98
588.487	12567.11
588.846	12636.72
589.206	12518.98
589.565	12448.92
589.925	12611.63
590.284	12660.67
590.643	12628.35
591.003	12641.24
591.362	12589.03
591.721	12532.31
592.08	12487.57
592.44	12564.85
592.799	12559.43
593.158	12535.7
593.517	12454.35
593.876	12486.89
594.235	12471.07
594.593	12457.96
594.952	12422.26
595.311	12352.2
595.67	12417.51
596.029	12513.56
596.387	12426.78
596.746	12468.36
597.104	12380.68
597.463	12514.69
597.822	12445.53
598.18	12450.51
598.538	12393.78
598.897	12507.45
599.255	12318.53
599.613	12526.44
599.972	12467.91
600.33	12412.09
600.688	12456.61
601.046	12413.44
601.404	12508.36
601.762	12500.67
602.12	12479.21
602.478	12419.09
602.836	12411.86
603.194	12375.25
603.552	12414.8
603.91	12414.57
604.268	12426.78
604.625	12356.05
604.983	12425.87
605.341	12347.46
605.698	12520.56
606.056	12459.09
606.413	12442.82
606.771	12493.67
607.128	12446.66
607.485	12387.68
607.843	12393.11
608.2	12449.38
608.557	12537.28
608.914	12512.43
609.272	12528.92
609.629	12532.76
609.986	12560.33
610.343	12489.83
610.7	12583.38
611.057	12561.92
611.414	12539.09
611.771	12563.27
612.127	12550.16
612.484	12514.91
612.841	12670.84
613.198	12618.19
613.554	12639.65
613.911	12643.04
614.267	12546.1
614.624	12647.56
614.98	12587.45
615.337	12717.84
615.693	12706.32
616.05	12612.99
616.406	12733.66
616.762	12682.59
617.118	12687.56
617.475	12660.9
617.831	12760.78
618.187	12675.58
618.543	12680.33
618.899	12736.6
619.255	12819.54
619.611	12731.18
619.967	12819.99
620.323	12814.34
620.678	12681.69
621.034	12764.17
621.39	12820.44
621.746	12700.44
622.101	12852.3
622.457	12804.85
622.812	12786.09
623.168	12824.96
623.523	12861.12
623.879	12814.79
624.234	12741.8
624.589	12795.36
624.945	12801.91
625.3	12844.39
625.655	12767.56
626.01	12806.2
626.365	12768.01
626.72	12856.82
627.075	12843.26
627.43	12753.77
627.785	12712.65
628.14	12766.43
628.495	12793.1
628.85	12865.41
629.205	12715.81
629.559	12794.9
629.914	12678.07
630.269	12786.32
630.623	12676.94
630.978	12650.73
631.332	12819.31
631.687	12807.56
632.041	12790.16
632.396	12693.21
632.75	12602.37
633.104	12659.99
633.459	12612.31
633.813	12591.97
634.167	12585.87
634.521	12620.9
634.875	12606.21
635.229	12549.03
635.583	12457.51
635.937	12548.36
636.291	12488.7
636.645	12525.31
636.999	12467
637.352	12476.49
637.706	12389.04
638.06	12394.69
638.413	12370.28
638.767	12451.86
639.121	12364.86
639.474	12342.26
639.828	12380.45
640.181	12394.69
640.534	12400.56
640.888	12361.69
641.241	12324.18
641.594	12311.53
641.947	12359.89
642.301	12352.66
642.654	12285.99
643.007	12308.59
643.36	12288.25
643.713	12222.94
644.066	12333.45
644.419	12233.34
644.771	12131.64
645.124	12043.06
645.477	12098.42
645.83	11940.01
646.182	11878.09
646.535	11845.1
646.888	11962.61
647.24	11853.23
647.593	11891.65
647.945	11874.02
648.298	11734.82
648.65	11819.11
649.002	11823.86
649.355	11906.57
649.707	11843.29
650.059	11817.08
650.411	11906.34
650.763	12041.93
651.115	12105.2
651.467	12041.93
651.819	12054.36
652.171	11993.12
652.523	11997.41
652.875	12043.29
653.227	11980.46
653.578	12105.43
653.93	12106.79
654.282	12021.59
654.633	11962.16
654.985	12001.48
655.337	12100.91
655.688	12093.23
656.039	12109.95
656.391	12075.83
656.742	12120.35
657.094	12079.67
657.445	12083.06
657.796	12125.77
658.147	12075.37
658.498	12091.65
658.849	12099.78
659.2	12025.43
659.551	12051.87
659.902	12100.46
660.253	12084.41
660.604	12124.19
660.955	12060.23
661.306	12145.66
661.656	12040.57
662.007	12097.75
662.358	12167.8
662.708	12080.12
663.059	12116.96
663.409	12114.02
663.76	12114.47
664.11	12174.36
664.461	12071.98
664.811	12145.66
665.161	12152.43
665.511	12126.22
665.862	12055.04
666.212	12180
666.562	12201.92
666.912	12133.23
667.262	12063.85
667.612	12111.53
667.962	12192.89
668.312	12203.51
668.662	12238.76
669.011	12100.68
669.361	12085.54
669.711	12147.01
670.06	12089.61
670.41	12056.39
670.76	12071.76
671.109	12102.72
671.459	11999.22
671.808	12030.86
672.157	12090.97
672.507	12019.56
672.856	12003.51
673.205	11988.37
673.554	12008.03
673.904	11989.73
674.253	11981.82
674.602	12033.12
674.951	11813.01
675.3	11802.16
675.649	11901.59
675.998	11927.36
676.346	12014.81
676.695	12076.5
677.044	11848.71
677.393	11927.36
677.741	11892.78
678.09	11895.04
678.438	11850.3
678.787	11934.14
679.135	11923.97
679.484	11854.36
679.832	11846.45
680.181	11774.14
680.529	11793.8
680.877	11737.08
681.225	11785.66
681.573	11762.61
681.922	11704.76
682.27	11671.32
682.618	11615.05
682.966	11636.52
683.314	11670.19
683.661	11601.94
684.009	11488.72
684.357	11515.62
684.705	11486.24
685.053	11483.3
685.4	11398.78
685.748	11443.98
686.095	11373.47
686.443	11327.82
686.79	11331.67
687.138	11331.67
687.485	11328.5
687.832	11237.43
688.18	11342.96
688.527	11241.72
688.874	11198.11
689.221	11224.1
689.568	11118.11
689.915	11159.47
690.262	11122.18
690.609	11153.59
690.956	11043.54
691.303	11064.55
691.65	10957.44
691.997	10993.6
692.344	10922.18
692.69	10857.55
693.037	10895.29
693.383	10704.56
693.73	10750.89
694.077	10784.79
694.423	10707.73
694.769	10646.71
695.116	10550.89
695.462	10636.32
695.808	10565.13
696.155	10551.57
696.501	10509.99
696.847	10520.84
697.193	10375.98
697.539	10408.98
697.885	10387.28
698.231	10345.7
698.577	10238.13
698.923	10284.24
699.269	10211.24
699.614	10133.28
699.96	10181.87
700.306	10027.74
700.651	10086.73
700.997	10027.07
701.342	10016.9
701.688	9959.72
702.033	9985.26
702.379	9905.94
702.724	9890.12
703.069	9867.3
703.415	9770.8
703.76	9704.36
704.105	9768.54
704.45	9755.21
704.795	9703.91
705.14	9610.81
705.485	9592.73
705.83	9598.38
706.175	9649.9
706.52	9512.05
706.865	9547.98
707.209	9478.61
707.554	9477.48
707.899	9490.81
708.243	9453.75
708.588	9385.73
708.932	9358.84
709.277	9305.5
709.621	9378.95
709.966	9320.64
710.31	9307.76
710.654	9237.26
710.998	9228.22
711.342	9252.17
711.687	9300.31
712.031	9180.99
712.375	9094.44
712.719	9108.9
713.063	9108.22
713.407	9193.64
713.75	9061.67
714.094	9040.88
714.438	9070.26
714.782	9000.88
715.125	9023.7
715.469	8945.51
715.812	8996.36
716.156	8917.72
716.499	8939.86
716.843	8969.24
717.186	8860.77
717.53	8881.33
717.873	8879.75
718.216	8867.78
718.559	8843.82
718.902	8742.81
719.246	8776.03
719.589	8757.5
719.932	8721.11
720.275	8743.03
720.617	8741
720.96	8765.18
721.303	8763.37
721.646	8764.95
721.989	8670.49
722.331	8726.76
722.674	8669.59
723.016	8673.66
723.359	8611.74
723.701	8705.07
724.044	8638.63
724.386	8549.37
724.729	8708.91
725.071	8589.36
725.413	8594.11
725.755	8577.16
726.097	8539.87
726.439	8576.48
726.782	8518.63
727.124	8527.22
727.465	8488.35
727.807	8567.9
728.149	8550.95
728.491	8525.64
728.833	8522.25
729.175	8521.8
729.516	8487.22
729.858	8454.45
730.199	8474.34
730.541	8466.66
730.882	8558.18
731.224	8523.38
731.565	8429.82
731.906	8452.19
732.248	8442.93
732.589	8498.75
732.93	8459.88
733.271	8468.24
733.612	8425.3
733.953	8418.75
734.294	8431.63
734.635	8406.54
734.976	8433.21
735.317	8375.81
735.658	8442.02
735.999	8436.6
736.339	8441.8
736.68	8496.71
737.021	8476.15
737.361	8488.8
737.702	8519.08
738.042	8466.43
738.383	8461.91
738.723	8470.05
739.063	8413.55
739.404	8464.62
739.744	8463.49
740.084	8529.25
740.424	8573.32
740.764	8555.24
741.104	8544.62
741.444	8640.21
741.784	8536.26
742.124	8561.34
742.464	8608.57
742.804	8640.44
743.143	8609.25
743.483	8596.6
743.823	8651.51
744.162	8628.46
744.502	8735.35
744.841	8706.2
745.181	8793.65
745.52	8773.77
745.86	8818.06
746.199	8805.4
746.538	8906.87
746.877	8913.2
747.216	8950.94
747.556	9032.97
747.895	9070.71
748.234	9112.51
748.573	9168.56
748.911	9266.63
749.25	9277.93
749.589	9301.89
749.928	9400.42
750.267	9447.2
750.605	9452.84
750.944	9567.87
751.283	9651.48
751.621	9755.44
751.96	9823.91
752.298	9864.59
752.636	9930.8
752.975	9973.06
753.313	10133.28
753.651	10299.38
753.989	10315.42
754.327	10375.53
754.666	10529.88
755.004	10662.76
755.342	10731.68
755.679	10902.52
756.017	11085.34
756.355	11159.69
756.693	11305.45
757.031	11380.93
757.368	11492.11
757.706	11702.5
758.044	11780.47
758.381	11914.47
758.719	12038.54
759.056	12292.32
