Data from hue_120_FLMS001491_00034.txt Node
Date: Tue Feb 07 16:59:16 GMT 2017
User: dcchb
Spectrometer: FLMS00149
Trigger mode: 0
Integration Time (sec): 2.000000E-2
Scans to average: 10
Electric dark correction enabled: true
Nonlinearity correction enabled: false
Boxcar width: 0
XAxis mode: Wavelengths
Number of Pixels in Spectrum: 2048
>>>>>Begin Spectral Data<<<<<
341.393	-28.93
341.776	-28.93
342.16	-28.93
342.543	-56.27
342.927	-64.63
343.31	-49.49
343.693	-60.34
344.077	-73.67
344.46	-56.95
344.843	-50.85
345.226	-54.46
345.61	-30.73
345.993	-24.41
346.376	-27.12
346.759	2.26
347.142	28.25
347.525	41.58
347.908	78.64
348.291	61.92
348.674	96.27
349.057	119.09
349.44	115.7
349.823	133.78
350.206	160.9
350.588	191.63
350.971	221.69
351.354	230.73
351.737	234.34
352.119	239.09
352.502	255.81
352.884	266.89
353.267	304.17
353.65	287.22
354.032	296.49
354.414	305.75
354.797	328.8
355.179	311.4
355.562	304.4
355.944	297.39
356.326	319.99
356.709	337.84
357.091	345.75
357.473	352.76
357.855	337.17
358.238	343.49
358.62	351.4
359.002	348.01
359.384	346.43
359.766	352.76
360.148	378.52
360.53	341.91
360.912	308.92
361.294	338.52
361.676	329.48
362.057	339.2
362.439	339.2
362.821	336.04
363.203	318.64
363.584	326.32
363.966	343.04
364.348	338.75
364.729	333.1
365.111	319.54
365.493	329.48
365.874	339.2
366.256	318.41
366.637	292.87
367.019	311.4
367.4	325.87
367.781	320.22
368.163	311.86
368.544	323.83
368.925	332.19
369.306	316.38
369.688	299.88
370.069	308.01
370.45	313.21
370.831	314.79
371.212	336.94
371.593	310.73
371.974	302.14
372.355	308.01
372.736	354.57
373.117	316.83
373.498	323.61
373.879	324.29
374.26	319.77
374.641	324.74
375.021	316.83
375.402	332.42
375.783	316.6
376.163	343.27
376.544	334.45
376.925	345.98
377.305	323.83
377.686	340.78
378.066	329.93
378.447	319.31
378.827	332.65
379.208	326.32
379.588	343.49
379.968	338.3
380.349	333.55
380.729	360.22
381.109	324.06
381.489	331.52
381.87	329.26
382.25	348.92
382.63	343.27
383.01	328.8
383.39	337.84
383.77	358.86
384.15	338.52
384.53	336.49
384.91	356.37
385.29	361.57
385.67	348.47
386.049	368.8
386.429	366.32
386.809	370.61
387.189	379.65
387.568	356.6
387.948	377.62
388.328	383.94
388.707	371.06
389.087	370.61
389.466	378.52
389.846	354.57
390.225	372.19
390.605	383.27
390.984	375.58
391.363	400.44
391.743	369.48
392.122	380.33
392.501	376.26
392.881	392.31
393.26	370.84
393.639	393.66
394.018	402.02
394.397	380.78
394.776	386.66
395.155	407.22
395.534	419.42
395.913	399.76
396.292	417.39
396.671	417.39
397.05	398.63
397.429	388.46
397.808	404.06
398.186	402.02
398.565	419.65
398.944	411.06
399.323	408.8
399.701	392.08
400.08	399.31
400.458	418.75
400.837	425.53
401.215	412.42
401.594	402.7
401.972	426.88
402.351	450.84
402.729	424.85
403.107	450.84
403.486	420.55
403.864	427.33
404.242	449.25
404.62	450.84
404.999	436.82
405.377	460.33
405.755	448.8
406.133	435.92
406.511	444.51
406.889	468.24
407.267	473.89
407.645	456.49
408.023	456.03
408.401	468.69
408.779	460.55
409.156	478.63
409.534	456.94
409.912	485.64
410.29	478.18
410.667	464.62
411.045	487.22
411.422	475.92
411.8	470.5
412.178	492.87
412.555	493.32
412.933	506.65
413.31	512.53
413.687	508.69
414.065	505.07
414.442	531.96
414.819	497.16
415.197	511.17
415.574	535.58
415.951	541.68
416.328	512.53
416.705	543.49
417.082	532.42
417.46	555.47
417.837	548.69
418.214	551.62
418.591	550.04
418.967	541.45
419.344	558.4
419.721	571.74
420.098	555.47
420.475	554.34
420.852	554.34
421.228	581.68
421.605	571.06
421.982	571.74
422.358	594.56
422.735	586.2
423.111	589.14
423.488	582.36
423.864	584.84
424.241	612.19
424.617	628.68
424.994	602.7
425.37	615.35
425.746	597.95
426.123	636.59
426.499	641.11
426.875	629.59
427.251	625.52
427.627	673.88
428.003	631.85
428.379	646.31
428.756	663.03
429.132	662.81
429.507	657.16
429.883	655.35
430.259	662.36
430.635	700.32
431.011	715.24
431.387	726.53
431.763	698.74
432.138	704.61
432.514	724.95
432.89	723.37
433.265	747.32
433.641	731.73
434.016	750.26
434.392	754.33
434.767	773.31
435.143	744.39
435.518	786.19
435.894	778.51
436.269	781.45
436.644	795.91
437.02	823.93
437.395	803.37
437.77	804.05
438.145	830.71
438.52	806.76
438.895	839.07
439.271	838.62
439.646	877.72
440.021	857.15
440.395	863.48
440.77	867.55
441.145	871.62
441.52	873.42
441.895	887.21
442.27	887.43
442.645	869.81
443.019	908.45
443.394	887.66
443.769	896.47
444.143	902.35
444.518	898.51
444.892	925.85
445.267	940.31
445.641	940.31
446.016	949.13
446.39	953.65
446.764	939.41
447.139	940.77
447.513	964.72
447.887	974.44
448.262	963.14
448.636	1002.01
449.01	994.55
449.384	1002.01
449.758	1017.83
450.132	1044.27
450.506	996.13
450.88	1020.09
451.254	1025.06
451.628	1057.83
452.002	1056.7
452.376	1085.85
452.75	1078.84
453.123	1076.58
453.497	1073.87
453.871	1102.12
454.244	1117.03
454.618	1129.24
454.992	1137.6
455.365	1149.57
455.739	1173.98
456.112	1188.44
456.486	1144.15
456.859	1203.81
457.232	1223.24
457.606	1196.8
457.979	1246.07
458.352	1237.48
458.725	1256.01
459.099	1266.41
459.472	1318.16
459.845	1311.83
460.218	1317.03
460.591	1372.85
460.964	1348.44
461.337	1386.18
461.71	1410.36
462.083	1421.21
462.456	1430.24
462.829	1444.26
463.201	1477.7
463.574	1464.82
463.947	1487.87
464.32	1535.1
464.692	1519.96
465.065	1516.34
465.438	1578.26
465.81	1595.21
466.183	1633.18
466.555	1638.15
466.928	1667.75
467.3	1677.7
467.672	1692.84
468.045	1736.68
468.417	1738.71
468.789	1801.08
469.161	1819.16
469.534	1829.1
469.906	1879.27
470.278	1913.17
470.65	1959.04
471.022	1955.65
471.394	2020.29
471.766	2033.17
472.138	2095.09
472.51	2126.95
472.882	2193.39
473.253	2201.07
473.625	2265.48
473.997	2302.09
474.369	2374.85
474.74	2411.46
475.112	2426.38
475.484	2505.02
475.855	2545.47
476.227	2570.1
476.598	2676.54
476.97	2690.78
477.341	2824.56
477.713	2878.57
478.084	2944.1
478.455	3039.47
478.827	3123.31
479.198	3218.45
479.569	3212.57
479.94	3348.61
480.311	3403.07
480.682	3492.79
481.053	3651.2
481.424	3725.33
481.795	3789.05
482.166	3887.58
482.537	4024.07
482.908	4145.88
483.279	4192.88
483.65	4293.22
484.021	4469.26
484.391	4580.67
484.762	4639.65
485.133	4753.55
485.503	4893.43
485.874	5006.87
486.244	5095.23
486.615	5260.2
486.985	5399.41
487.356	5517.14
487.726	5676.69
488.097	5805.27
488.467	5856.8
488.837	6115.55
489.207	6215.66
489.578	6398.02
489.948	6479.6
490.318	6658.81
490.688	6783.1
491.058	6903.1
491.428	7092.47
491.798	7171.11
492.168	7430.09
492.538	7480.48
492.908	7642.51
493.278	7833.01
493.648	7869.17
494.017	8051.09
494.387	8217.64
494.757	8383.73
495.126	8514.35
495.496	8559.55
495.866	8763.39
496.235	8846.32
496.605	9021.91
496.974	9084.51
497.344	9300.55
497.713	9406.53
498.082	9473.88
498.452	9651.5
498.821	9745.73
499.19	9877.25
499.559	9971.94
499.928	10062.79
500.298	10169.68
500.667	10329.45
501.036	10336
501.405	10476.79
501.774	10603.11
502.143	10697.12
502.512	10728.31
502.88	10940.5
503.249	10901.86
503.618	11072.48
503.987	11171.68
504.356	11199.93
504.724	11327.61
505.093	11445.35
505.462	11442.41
505.83	11549.53
506.199	11668.62
506.567	11823.19
506.936	11782.97
507.304	11941.15
507.672	12027.71
508.041	12051.89
508.409	12122.62
508.777	12302.5
509.145	12327.13
509.514	12365.55
509.882	12446.45
510.25	12562.38
510.618	12468.15
510.986	12673.79
511.354	12690.29
511.722	12868.59
512.09	12919.66
512.458	12903.39
512.826	13048.92
513.193	12994.69
513.561	13028.13
513.929	13201.01
514.297	13275.13
514.664	13360.78
515.032	13331.85
515.4	13408.91
515.767	13429.93
516.135	13538.63
516.502	13384.73
516.869	13653.43
517.237	13663.82
517.604	13583.15
517.972	13725.97
518.339	13789.69
518.706	13765.51
519.073	13795.8
519.44	13884.83
519.808	13930.93
520.175	13892.06
520.542	14052.74
520.909	14052.96
521.276	14070.14
521.643	14130.25
522.009	14124.15
522.376	14222.68
522.743	14303.8
523.11	14349.68
523.477	14547.87
523.843	14477.36
524.21	14586.51
524.577	14617.69
524.943	14594.64
525.31	14597.58
525.676	14727.3
526.043	14777.24
526.409	14845.03
526.776	14795.32
527.142	14880.74
527.508	14798.93
527.874	14861.08
528.241	14916.22
528.607	14936.33
528.973	14966.39
529.339	14987.63
529.705	14959.38
530.071	15104.91
530.437	14995.54
530.803	15141.3
531.169	15089.77
531.535	15047.51
531.901	15112.82
532.267	15170.67
532.632	15180.39
532.998	15155.53
533.364	15098.13
533.73	15129.32
534.095	15162.99
534.461	15056.55
534.826	15173.61
535.192	15110.11
535.557	15117.34
535.923	15047.97
536.288	15062.43
536.653	15094.29
537.019	14984.01
537.384	14971.81
537.749	14990.34
538.114	14989.21
538.479	14966.16
538.845	15059.72
539.21	14852.72
539.575	14899.04
539.94	14918.48
540.305	14917.57
540.67	14778.82
541.034	14787.63
541.399	14801.64
541.764	14781.53
542.129	14756.45
542.494	14610.69
542.858	14713.29
543.223	14652.72
543.587	14723.91
543.952	14639.16
544.316	14603.68
544.681	14489.11
545.045	14519.62
545.41	14515.1
545.774	14580.86
546.138	14483.46
546.503	14481.65
546.867	14445.04
547.231	14394.65
547.595	14394.42
547.959	14393.07
548.324	14321.66
548.688	14364.82
549.052	14295.44
549.416	14294.09
549.779	14269.91
550.143	14151.94
550.507	14232.62
550.871	14249.57
551.235	14101.1
551.599	14181.55
551.962	14129.8
552.326	14031.5
552.689	13956.47
553.053	14025.17
553.417	13960.76
553.78	14119.4
554.143	13920.09
554.507	14024.04
554.87	14017.48
555.234	14028.78
555.597	13886.64
555.96	13917.83
556.323	13979.97
556.686	13951.95
557.05	13987.43
557.413	13918.28
557.776	13872.63
558.139	13909.01
558.502	13867.21
558.865	13846.87
559.228	13936.13
559.59	13906.53
559.953	13946.3
560.316	13988.78
560.679	13974.32
561.041	13951.95
561.404	13952.85
561.767	13987.2
562.129	13909.46
562.492	14043.92
562.854	13980.42
563.217	14000.31
563.579	14006.41
563.941	14031.95
564.304	14070.59
564.666	14084.83
565.028	14099.52
565.39	14060.87
565.753	14142.23
566.115	14133.19
566.477	14150.59
566.839	14159.63
567.201	14273.07
567.563	14207.54
567.925	14221.55
568.287	14230.36
568.648	14210.7
569.01	14308.55
569.372	14388.55
569.734	14182
570.095	14370.7
570.457	14346.97
570.819	14334.99
571.18	14343.13
571.542	14437.59
571.903	14511.71
572.265	14387.19
572.626	14522.78
572.987	14447.3
573.349	14445.95
573.71	14469.68
574.071	14532.27
574.432	14518.26
574.794	14619.05
575.155	14581.54
575.516	14522.56
575.877	14514.42
576.238	14527.75
576.599	14576.34
576.96	14549
577.32	14570.92
577.681	14559.39
578.042	14635.32
578.403	14626.96
578.763	14534.53
579.124	14569.56
579.485	14666.06
579.845	14643.68
580.206	14591.48
580.566	14608.2
580.927	14622.21
581.287	14733.62
581.648	14574.76
582.008	14682.55
582.368	14548.32
582.728	14608.2
583.089	14673.06
583.449	14586.51
583.809	14621.76
584.169	14645.04
584.529	14616.56
584.889	14687.3
585.249	14567.98
585.609	14562.55
585.969	14593.06
586.329	14539.73
586.688	14574.98
587.048	14578.83
587.408	14429.23
587.768	14545.83
588.127	14463.57
588.487	14499.51
588.846	14590.58
589.206	14490.24
589.565	14512.16
589.925	14478.49
590.284	14518.04
590.643	14539.28
591.003	14541.99
591.362	14516.91
591.721	14443.46
592.08	14480.07
592.44	14464.03
592.799	14539.28
593.158	14429.68
593.517	14390.81
593.876	14383.12
594.235	14419.73
594.593	14390.36
594.952	14474.87
595.311	14363.69
595.67	14389.9
596.029	14346.74
596.387	14370.92
596.746	14452.95
597.104	14325.5
597.463	14322.34
597.822	14344.93
598.18	14324.82
598.538	14316.01
598.897	14454.99
599.255	14281.88
599.613	14422.67
599.972	14325.5
600.33	14435.78
600.688	14414.99
601.046	14379.96
601.404	14471.03
601.762	14403.01
602.12	14446.17
602.478	14396.91
602.836	14435.78
603.194	14344.93
603.552	14391.03
603.91	14331.15
604.268	14391.03
604.625	14382.67
604.983	14336.35
605.341	14335.22
605.698	14409.11
606.056	14433.29
606.413	14445.72
606.771	14365.5
607.128	14424.03
607.485	14351.26
607.843	14347.42
608.2	14341.54
608.557	14381.99
608.914	14445.04
609.272	14472.39
609.629	14440.52
609.986	14564.36
610.343	14388.77
610.7	14584.7
611.057	14462.44
611.414	14515.32
611.771	14519.62
612.127	14600.29
612.484	14563.46
612.841	14631.71
613.198	14577.02
613.554	14591.03
613.911	14662.44
614.267	14705.83
614.624	14690.91
614.98	14651.14
615.337	14710.57
615.693	14746.28
616.05	14687.3
616.406	14825.82
616.762	14765.71
617.118	14714.42
617.475	14721.19
617.831	14708.77
618.187	14750.8
618.543	14787.86
618.899	14843.68
619.255	14741.76
619.611	14715.09
619.967	14932.94
620.323	14851.81
620.678	14857.01
621.034	14835.54
621.39	14746.28
621.746	14818.14
622.101	14986.72
622.457	14755.77
622.812	14810.46
623.168	14805.26
623.523	14926.84
623.879	14859.27
624.234	14767.07
624.589	14761.19
624.945	14823.57
625.3	14897.91
625.655	14804.58
626.01	14858.59
626.365	14862.66
626.72	14773.62
627.075	14783.34
627.43	14890.46
627.785	14723.91
628.14	14867.63
628.495	14802.32
628.85	14716.22
629.205	14711.7
629.559	14773.4
629.914	14663.34
630.269	14754.41
630.623	14685.26
630.978	14712.16
631.332	14746.5
631.687	14718.26
632.041	14730.23
632.396	14794.87
632.75	14550.13
633.104	14628.09
633.459	14635.55
633.813	14633.06
634.167	14591.71
634.521	14581.09
634.875	14575.21
635.229	14541.76
635.583	14482.78
635.937	14544.02
636.291	14400.07
636.645	14436.23
636.999	14470.58
637.352	14462.44
637.706	14430.36
638.06	14468.55
638.413	14459.73
638.767	14457.02
639.121	14454.99
639.474	14282.56
639.828	14334.54
640.181	14332.28
640.534	14296.12
640.888	14266.29
641.241	14246.18
641.594	14318.49
641.947	14284.6
642.301	14271.49
642.654	14217.48
643.007	14259.29
643.36	14287.76
643.713	14185.84
644.066	14259.74
644.419	14174.99
644.771	14053.19
645.124	13910.14
645.477	13884.83
645.83	13867.43
646.182	13796.25
646.535	13766.87
646.888	13801.67
647.24	13688.23
647.593	13829.24
647.945	13744.95
648.298	13723.48
648.65	13632.18
649.002	13598.06
649.355	13668.57
649.707	13655.01
650.059	13705.4
650.411	13930.71
650.763	13894.32
651.115	14039.4
651.467	14062.91
651.819	14003.25
652.171	14050.03
652.523	13926.19
652.875	14018.84
653.227	13879.86
653.578	13944.04
653.93	14025.39
654.282	13965.73
654.633	13880.54
654.985	13885.74
655.337	13928.67
655.688	13942.01
656.039	13985.17
656.391	13939.52
656.742	13953.08
657.094	13895.45
657.445	14014.77
657.796	13986.3
658.147	13943.14
658.498	13975
658.849	13985.62
659.2	13981.78
659.551	14032.63
659.902	14030.59
660.253	14002.57
660.604	13955.57
660.955	13950.59
661.306	13923.48
661.656	13963.7
662.007	13921.89
662.358	13962.34
662.708	13933.19
663.059	14000.54
663.409	13851.84
663.76	13982.01
664.11	14019.07
664.461	14054.55
664.811	14010.71
665.161	13960.08
665.511	14003.47
665.862	14030.14
666.212	14052.06
666.562	14021.55
666.912	13976.81
667.262	13979.97
667.612	13992.17
667.962	13967.99
668.312	13957.83
668.662	14087.77
669.011	14023.13
669.361	13972.51
669.711	13966.86
670.06	13949.46
670.41	14014.32
670.76	13930.48
671.109	13962.34
671.459	13987.88
671.808	13918.73
672.157	14042.79
672.507	13942.01
672.856	13881.44
673.205	13908.33
673.554	13924.61
673.904	13864.27
674.253	13918.28
674.602	13892.97
674.951	13663.6
675.3	13697.27
675.649	13846.19
675.998	13743.37
676.346	13753.99
676.695	13841.44
677.044	13757.15
677.393	13696.14
677.741	13795.34
678.09	13708.34
678.438	13674.89
678.787	13701.56
679.135	13687.55
679.484	13585.18
679.832	13569.81
680.181	13598.06
680.529	13541.11
680.877	13572.3
681.225	13525.75
681.573	13541.34
681.922	13500.21
682.27	13424.28
682.618	13390.38
682.966	13441
683.314	13454.34
683.661	13382.92
684.009	13302.48
684.357	13330.95
684.705	13323.72
685.053	13347.9
685.4	13237.62
685.748	13195.13
686.095	13111.97
686.443	13186.77
686.79	13051.86
687.138	13109.03
687.485	13121.24
687.832	13114.68
688.18	13070.16
688.527	12986.55
688.874	13001.24
689.221	12911.98
689.568	12914.69
689.915	12916.04
690.262	12836.72
690.609	12809.15
690.956	12734.81
691.303	12701.36
691.65	12600.12
691.997	12668.59
692.344	12562.38
692.69	12542.72
693.037	12582.95
693.383	12446
693.73	12453.01
694.077	12425.21
694.423	12355.83
694.769	12368.71
695.116	12322.84
695.462	12231.09
695.808	12232.45
696.155	12220.7
696.501	12104.09
696.847	12177.76
697.193	11983.41
697.539	11983.19
697.885	11879.24
698.231	11911.33
698.577	11906.13
698.923	11914.04
699.269	11825
699.614	11756.75
699.96	11722.4
700.306	11676.98
700.651	11633.82
700.997	11545.69
701.342	11622.07
701.688	11567.15
702.033	11475.63
702.379	11471.56
702.724	11456.2
703.069	11433.37
703.415	11250.1
703.76	11309.08
704.105	11258.46
704.45	11233.15
704.795	11227.73
705.14	11150.67
705.485	11186.37
705.83	11080.61
706.175	11077.45
706.52	11108.86
706.865	11001.29
707.209	10983.89
707.554	10962.42
707.899	10969.43
708.243	10838.13
708.588	10883.33
708.932	10793.16
709.277	10776.89
709.621	10758.59
709.966	10681.3
710.31	10805.82
710.654	10578.03
710.998	10689.89
711.342	10646.73
711.687	10576.9
712.031	10560.85
712.375	10549.33
712.719	10539.61
713.063	10554.07
713.407	10517.01
713.75	10495.54
714.094	10458.26
714.438	10371.48
714.782	10509.1
715.125	10399.27
715.469	10365.6
715.812	10317.69
716.156	10299.84
716.499	10323.8
716.843	10275.66
717.186	10275.44
717.53	10296.45
717.873	10250.13
718.216	10208.77
718.559	10211.26
718.902	10130.36
719.246	10161.77
719.589	10114.76
719.932	10055.55
720.275	10129.23
720.617	10077.48
720.96	10113.86
721.303	10074.99
721.646	10089.23
721.989	10037.25
722.331	10046.29
722.674	9974.65
723.016	10067.08
723.359	10027.08
723.701	9985.27
724.044	9955.67
724.386	9930.13
724.729	9952.28
725.071	9903.69
725.413	9931.72
725.755	9894.66
726.097	9896.01
726.439	9786.86
726.782	9884.49
727.124	9861.66
727.465	9815.11
727.807	9832.51
728.149	9769.01
728.491	9825.73
728.833	9863.7
729.175	9803.58
729.516	9740.99
729.858	9830.93
730.199	9829.12
730.541	9763.36
730.882	9790.7
731.224	9759.97
731.565	9774.43
731.906	9813.75
732.248	9734.43
732.589	9688.78
732.93	9702.57
733.271	9697.15
733.612	9753.87
733.953	9780.76
734.294	9732.4
734.635	9701.44
734.976	9773.08
735.317	9766.07
735.658	9700.99
735.999	9719.74
736.339	9765.62
736.68	9773.08
737.021	9772.62
737.361	9637.03
737.702	9808.33
738.042	9683.14
738.383	9708.22
738.723	9800.42
739.063	9671.84
739.404	9753.42
739.744	9721.1
740.084	9711.16
740.424	9798.61
740.764	9764.49
741.104	9766.52
741.444	9797.71
741.784	9779.18
742.124	9831.61
742.464	9844.26
742.804	9925.84
743.143	9855.56
743.483	9841.55
743.823	9912.06
744.162	9947.54
744.502	9986.63
744.841	9958.38
745.181	9960.87
745.52	10054.42
745.86	10058.72
746.199	10098.94
746.538	10159.28
746.877	10191.82
747.216	10259.39
747.556	10260.97
747.895	10354.53
748.234	10350.91
748.573	10407.64
748.911	10510.46
749.25	10508.88
749.589	10544.36
749.928	10715.65
750.267	10720.4
750.605	10797.46
750.944	10786.16
751.283	10960.84
751.621	10990.67
751.96	11058.69
752.298	11063.44
752.636	11285.8
752.975	11282.87
753.313	11407.16
753.651	11536.65
753.989	11557.66
754.327	11703.87
754.666	11758.33
755.004	11936.86
755.342	12036.29
755.679	12239.9
756.017	12279.68
756.355	12416.4
756.693	12491.2
757.031	12645.77
