Data from hue_80_FLMS001491_98.txt Node
Date: Mon Feb 06 15:24:05 GMT 2017
User: dcchb
Spectrometer: FLMS00149
Trigger mode: 0
Integration Time (sec): 2.000000E-2
Scans to average: 10
Electric dark correction enabled: true
Nonlinearity correction enabled: false
Boxcar width: 0
XAxis mode: Wavelengths
Number of Pixels in Spectrum: 2048
>>>>>Begin Spectral Data<<<<<
341.393	-13.59
341.776	-13.59
342.16	-13.59
342.543	-66.24
342.927	-68.5
343.31	-68.73
343.693	-58.78
344.077	-64.66
344.46	-68.73
344.843	-68.95
345.226	-51.1
345.61	-42.96
345.993	-31.67
346.376	-9.07
346.759	30.48
347.142	41.33
347.525	69.12
347.908	62.34
348.291	64.6
348.674	80.65
349.057	116.13
349.44	129.91
349.823	141.89
350.206	176.92
350.588	202.68
350.971	205.84
351.354	239.97
351.737	246.97
352.119	241.1
352.502	261.43
352.884	275.22
353.267	294.88
353.65	299.62
354.032	309.12
354.414	300.75
354.797	313.18
355.179	332.39
355.562	338.27
355.944	324.93
356.326	326.97
356.709	342.79
357.091	321.55
357.473	333.52
357.855	355.44
358.238	337.82
358.62	327.87
359.002	340.75
359.384	351.83
359.766	342.79
360.148	346.18
360.53	333.52
360.912	330.58
361.294	324.71
361.676	305.05
362.057	329.23
362.439	343.47
362.821	344.82
363.203	332.17
363.584	308.44
363.966	311.38
364.348	310.02
364.729	293.75
365.111	334.88
365.493	319.29
365.874	326.97
366.256	339.4
366.637	339.4
367.019	330.13
367.4	313.86
367.781	327.65
368.163	315.44
368.544	353.86
368.925	324.71
369.306	314.54
369.688	321.55
370.069	316.35
370.45	301.43
370.831	316.57
371.212	312.73
371.593	306.18
371.974	304.82
372.355	326.74
372.736	323.58
373.117	331.04
373.498	319.96
373.879	320.19
374.26	317.03
374.641	322.22
375.021	336.91
375.402	316.35
375.783	315.67
376.163	340.75
376.544	337.82
376.925	346.4
377.305	350.47
377.686	334.43
378.066	326.06
378.447	347.31
378.827	350.7
379.208	328.55
379.588	343.47
379.968	331.94
380.349	338.95
380.729	332.17
381.109	355.44
381.489	360.64
381.87	347.08
382.25	342.79
382.63	351.15
383.01	373.3
383.39	346.63
383.77	344.14
384.15	341.88
384.53	345.95
384.91	344.6
385.29	345.73
385.67	374.43
386.049	346.4
386.429	361.09
386.809	354.31
387.189	342.56
387.568	350.92
387.948	351.37
388.328	360.87
388.707	362.45
389.087	362.9
389.466	374.65
389.846	362
390.225	348.44
390.605	398.61
390.984	355.67
391.363	362.9
391.743	386.18
392.122	383.46
392.501	354.99
392.881	389.79
393.26	390.02
393.639	365.39
394.018	366.06
394.397	413.52
394.776	407.64
395.155	395.22
395.534	379.4
395.913	375.33
396.292	394.76
396.671	407.87
397.05	391.15
397.429	406.51
397.808	412.39
398.186	381.88
398.565	417.14
398.944	401.77
399.323	401.77
399.701	398.61
400.08	384.37
400.458	397.02
400.837	407.42
401.215	397.25
401.594	413.29
401.972	381.88
402.351	420.53
402.729	427.53
403.107	410.13
403.486	413.29
403.864	436.34
404.242	427.31
404.62	447.87
404.999	428.44
405.377	420.75
405.755	441.54
406.133	429.34
406.511	435.89
406.889	453.97
407.267	440.41
407.645	437.47
408.023	446.51
408.401	458.04
408.779	446.74
409.156	458.94
409.534	462.11
409.912	469.56
410.29	468.43
410.667	464.82
411.045	473.86
411.422	468.89
411.8	470.92
412.178	482.44
412.555	490.35
412.933	492.39
413.31	508.21
413.687	484.7
414.065	481.77
414.442	488.55
414.819	514.08
415.197	500.98
415.574	522.67
415.951	548.88
416.328	522.67
416.705	505.72
417.082	516.34
417.46	533.07
417.837	526.96
418.214	529
418.591	531.03
418.967	532.84
419.344	523.12
419.721	555.89
420.098	562.89
420.475	564.93
420.852	546.17
421.228	558.83
421.605	562.67
421.982	545.27
422.358	561.54
422.735	579.62
423.111	568.54
423.488	555.21
423.864	590.46
424.241	595.66
424.617	581.2
424.994	600.41
425.37	601.54
425.746	591.59
426.123	604.7
426.499	604.25
426.875	632.95
427.251	625.04
427.627	632.27
428.003	630.92
428.379	631.14
428.756	623.91
429.132	640.63
429.507	647.64
429.883	660.29
430.259	674.76
430.635	637.7
431.011	647.41
431.387	677.69
431.763	711.82
432.138	688.77
432.514	686.96
432.89	676.79
433.265	715.43
433.641	706.39
434.016	732.61
434.392	731.03
434.767	733.51
435.143	723.79
435.518	730.35
435.894	763.79
436.269	755.43
436.644	727.86
437.02	749.1
437.395	759.05
437.77	765.83
438.145	785.71
438.52	776.67
438.895	819.39
439.271	813.28
439.646	827.29
440.021	812.15
440.395	821.42
440.77	811.48
441.145	810.12
441.52	829.33
441.895	828.88
442.27	822.32
442.645	844.47
443.019	844.7
443.394	845.37
443.769	840.4
444.143	863.23
444.518	874.53
444.892	904.58
445.267	871.59
445.641	892.15
446.016	891.25
446.39	892.15
446.764	906.61
447.139	891.93
447.513	914.3
447.887	916.56
448.262	926.95
448.636	938.7
449.01	948.2
449.384	949.33
449.758	963.79
450.132	966.5
450.506	973.96
450.88	954.3
451.254	952.72
451.628	989.78
452.002	971.25
452.376	997.01
452.75	999.04
453.123	1011.92
453.497	1037.01
453.871	1058.02
454.244	1025.26
454.618	1058.25
454.992	1049.89
455.365	1080.85
455.739	1110
456.112	1095.99
456.486	1092.15
456.859	1142.09
457.232	1125.82
457.606	1125.14
457.979	1153.61
458.352	1169.43
458.725	1172.14
459.099	1208.53
459.472	1215.53
459.845	1208.08
460.218	1235.42
460.591	1251.01
460.964	1266.61
461.337	1293.95
461.71	1299.15
462.083	1308.19
462.456	1327.62
462.829	1319.26
463.201	1343.21
463.574	1365.81
463.947	1382.31
464.32	1392.03
464.692	1407.84
465.065	1448.52
465.438	1482.87
465.81	1471.57
466.183	1499.82
466.555	1555.86
466.928	1540.27
467.3	1543.21
467.672	1588.18
468.045	1599.7
468.417	1650.32
468.789	1635.41
469.161	1654.84
469.534	1720.38
469.906	1747.04
470.278	1768.51
470.65	1775.52
471.022	1815.74
471.394	1853.26
471.766	1891.22
472.138	1924.21
472.51	1949.75
472.882	2006.25
473.253	2047.15
473.625	2059.58
473.997	2126.92
474.369	2162.4
474.74	2208.05
475.112	2224.09
475.484	2283.3
475.855	2338.22
476.227	2377.54
476.598	2470.87
476.97	2489.17
477.341	2605.1
477.713	2628.6
478.084	2712.22
478.455	2785.21
478.827	2823.85
479.198	2937.3
479.569	2982.72
479.94	3053.9
480.311	3123.96
480.682	3215.93
481.053	3344.74
481.424	3414.12
481.795	3476.94
482.166	3592.65
482.537	3664.96
482.908	3832.41
483.279	3862.02
483.65	3986.53
484.021	4101.56
484.391	4151.05
484.762	4269.24
485.133	4370.93
485.503	4490.02
485.874	4615.44
486.244	4713.29
486.615	4843.91
486.985	5006.85
487.356	5116.22
487.726	5202.55
488.097	5386.95
488.467	5470.56
488.837	5612.48
489.207	5746.94
489.578	5875.07
489.948	6022.19
490.318	6215.63
490.688	6274.16
491.058	6424.44
491.428	6562.51
491.798	6701.94
492.168	6916.63
492.538	6999.34
492.908	7125.43
493.278	7318.65
493.648	7414.92
494.017	7577.63
494.387	7719.77
494.757	7865.08
495.126	8083.83
495.496	8114.79
495.866	8200.21
496.235	8464.83
496.605	8510.93
496.974	8709.8
497.344	8771.04
497.713	8891.04
498.082	9073.41
498.452	9219.62
498.821	9338.03
499.19	9493.06
499.559	9519.5
499.928	9673.16
500.298	9785.03
500.667	9975.98
501.036	9991.12
501.405	10218.69
501.774	10281.96
502.143	10378.23
502.512	10558.56
502.88	10616.19
503.249	10667.26
503.618	10800.14
503.987	10953.13
504.356	10982.28
504.724	11117.19
505.093	11242.84
505.462	11324.65
505.83	11492.1
506.199	11601.7
506.567	11763.96
506.936	11801.7
507.304	12004.4
507.672	12006.21
508.041	12094.79
508.409	12203.94
508.777	12332.3
509.145	12469.02
509.514	12516.03
509.882	12610.26
510.25	12638.96
510.618	12825.85
510.986	12782.23
511.354	12911.04
511.722	13078.72
512.09	13189
512.458	13238.04
512.826	13318.72
513.193	13460.41
513.561	13476.91
513.929	13581.76
514.297	13717.58
514.664	13809.33
515.032	13780.85
515.4	13968.42
515.767	13960.28
516.135	14134.52
516.502	14092.48
516.869	14258.81
517.237	14302.87
517.604	14399.37
517.972	14333.61
518.339	14509.87
518.706	14636.2
519.073	14671.45
519.44	14718.23
519.808	14865.8
520.175	14790.54
520.542	14982.4
520.909	15092
521.276	15072.8
521.643	15225.11
522.009	15277.76
522.376	15375.84
522.743	15395.5
523.11	15505.78
523.477	15609.5
523.843	15593.23
524.21	15815.38
524.577	15878.2
524.943	15974.47
525.31	16011.98
525.676	16133.78
526.043	16208.59
526.409	16307.34
526.776	16326.32
527.142	16346.89
527.508	16368.81
527.874	16432.53
528.241	16632.98
528.607	16524.96
528.973	16731.06
529.339	16701.23
529.705	16760.21
530.071	16828.91
530.437	16882.47
530.803	16945.51
531.169	17050.14
531.535	16901.22
531.901	16916.82
532.267	17056.25
532.632	17060.09
532.998	17071.39
533.364	17191.38
533.73	17231.84
534.095	17387.54
534.461	17250.82
534.826	17337.37
535.192	17307.99
535.557	17461.21
535.923	17371.72
536.288	17389.35
536.653	17509.79
537.019	17399.97
537.384	17437.71
537.749	17477.25
538.114	17509.34
538.479	17432.73
538.845	17433.19
539.21	17420.3
539.575	17426.63
539.94	17451.04
540.305	17469.12
540.67	17345.73
541.034	17505.05
541.399	17510.02
541.764	17555.67
542.129	17496.69
542.494	17608.32
542.858	17464.6
543.223	17466.63
543.587	17591.15
543.952	17528.1
544.316	17479.74
544.681	17498.95
545.045	17531.49
545.41	17548.44
545.774	17463.47
546.138	17553.86
546.503	17538.04
546.867	17503.92
547.231	17550.7
547.595	17560.87
547.959	17499.85
548.324	17514.54
548.688	17525.84
549.052	17579.4
549.416	17584.82
549.779	17578.94
550.143	17454.2
550.507	17573.07
550.871	17488.55
551.235	17462.34
551.599	17588.21
551.962	17612.39
552.326	17529
552.689	17623.46
553.053	17579.4
553.417	17595.89
553.78	17721.31
554.143	17623.69
554.507	17533.52
554.87	17599.28
555.234	17718.38
555.597	17647.64
555.96	17640.64
556.323	17679.05
556.686	17546.4
557.05	17693.97
557.413	17719.96
557.776	17806.28
558.139	17740.07
558.502	17784.36
558.865	17784.81
559.228	17904.13
559.59	17893.96
559.953	17841.76
560.316	18046.73
560.679	17955.21
561.041	18032.04
561.404	18045.15
561.767	18056.22
562.129	18043.79
562.492	18098.93
562.854	18157.69
563.217	18114.98
563.579	18119.95
563.941	18246.95
564.304	18330.34
564.666	18347.51
565.028	18367.4
565.39	18310.22
565.753	18484.46
566.115	18453.72
566.477	18596.32
566.839	18581.4
567.201	18525.59
567.563	18641.06
567.925	18752.92
568.287	18731.46
568.648	18738.24
569.01	18799.03
569.372	18919.47
569.734	18792.47
570.095	18853.26
570.457	18938.68
570.819	18951.11
571.18	18939.36
571.542	19031.56
571.903	18997.66
572.265	19096.64
572.626	19025.23
572.987	19178
573.349	19124.21
573.71	19114.5
574.071	19183.65
574.432	19272.23
574.794	19367.37
575.155	19358.56
575.516	19242.4
575.877	19235.85
576.238	19366.02
576.599	19370.31
576.96	19333.7
577.32	19448.95
577.681	19476.07
578.042	19440.36
578.403	19473.13
578.763	19493.7
579.124	19417.09
579.485	19601.04
579.845	19511.32
580.206	19466.58
580.566	19610.76
580.927	19464.77
581.287	19611.21
581.648	19530.98
582.008	19610.53
582.368	19436.97
582.728	19603.3
583.089	19580.02
583.449	19480.14
583.809	19602.17
584.169	19527.82
584.529	19525.79
584.889	19648.95
585.249	19528.72
585.609	19564.66
585.969	19570.98
586.329	19479.91
586.688	19401.95
587.048	19467.26
587.408	19406.47
587.768	19521.27
588.127	19444.66
588.487	19501.61
588.846	19598.55
589.206	19407.82
589.565	19324.44
589.925	19488.05
590.284	19426.13
590.643	19365.34
591.003	19468.61
591.362	19558.55
591.721	19432
592.08	19476.3
592.44	19488.27
592.799	19411.21
593.158	19396.52
593.517	19417.31
593.876	19417.99
594.235	19349.52
594.593	19380.25
594.952	19359.69
595.311	19300.93
595.67	19379.35
596.029	19454.83
596.387	19403.98
596.746	19488.27
597.104	19346.13
597.463	19383.87
597.822	19431.1
598.18	19390.42
598.538	19335.28
598.897	19428.61
599.255	19352.68
599.613	19575.28
599.972	19490.98
600.33	19441.95
600.688	19380.25
601.046	19460.48
601.404	19391.55
601.762	19447.14
602.12	19586.35
602.478	19602.17
602.836	19471.55
603.194	19418.44
603.552	19449.86
603.91	19414.83
604.268	19472.91
604.625	19348.62
604.983	19504.77
605.341	19490.76
605.698	19472.68
606.056	19532.57
606.413	19526.92
606.771	19576.18
607.128	19503.41
607.485	19470.65
607.843	19552
608.2	19566.24
608.557	19646.23
608.914	19589.29
609.272	19615.5
609.629	19740.02
609.986	19786.8
610.343	19641.94
610.7	19957.41
611.057	19773.24
611.414	19772.56
611.771	19847.81
612.127	19839.68
612.484	19838.55
612.841	19808.72
613.198	19767.36
613.554	19869.96
613.911	19940.01
614.267	19891.88
614.624	19992.21
614.98	19992.44
615.337	19936.4
615.693	19921.03
616.05	19910.41
616.406	20029.5
616.762	19907.47
617.118	20035.15
617.475	20037.64
617.831	20051.42
618.187	20095.04
618.543	20023.4
618.899	20205.99
619.255	20112.89
619.611	20215.26
619.967	20227.69
620.323	20268.37
620.678	20176.39
621.034	20155.37
621.39	20221.13
621.746	20117.63
622.101	20356.27
622.457	20327.35
622.812	20253.45
623.168	20338.19
623.523	20215.71
623.879	20420.9
624.234	20168.48
624.589	20274.24
624.945	20351.53
625.3	20285.09
625.655	20308.82
626.01	20325.54
626.365	20258.2
626.72	20276.95
627.075	20218.42
627.43	20236.05
627.785	20102.49
628.14	20185.2
628.495	20370.06
628.85	20262.49
629.205	20178.2
629.559	20268.37
629.914	20145.66
630.269	20185.66
630.623	20015.04
630.978	20129.61
631.332	20192.44
631.687	20219.78
632.041	20090.97
632.396	20099.1
632.75	20062.95
633.104	20039.67
633.459	20036.28
633.813	20021.82
634.167	19935.49
634.521	20081.03
634.875	20064.98
635.229	19905.44
635.583	19903.63
635.937	19872.67
636.291	19888.49
636.645	19952.44
636.999	19856.4
637.352	19906.79
637.706	19788.6
638.06	19737.98
638.413	19769.17
638.767	19715.39
639.121	19774.82
639.474	19643.3
639.828	19678.78
640.181	19677.87
640.534	19679.91
640.888	19591.1
641.241	19511.78
641.594	19543.41
641.947	19651.66
642.301	19563.75
642.654	19605.56
643.007	19634.03
643.36	19520.59
643.713	19525.11
644.066	19621.83
644.419	19465.22
644.771	19372.57
645.124	19073.59
645.477	19201.95
645.83	19000.6
646.182	18940.72
646.535	18938.68
646.888	18895.97
647.24	18756.77
647.593	18886.25
647.945	18943.43
648.298	18693.72
648.65	18876.31
649.002	18759.48
649.355	18756.99
649.707	18833.83
650.059	18822.98
650.411	19074.05
650.763	19137.55
651.115	19356.07
651.467	19232.01
651.819	19219.35
652.171	19283.76
652.523	19246.25
652.875	19178.68
653.227	19153.59
653.578	19289.41
653.93	19288.05
654.282	19008.51
654.633	19116.08
654.985	19207.15
655.337	19234.72
655.688	19249.18
656.039	19270.2
656.391	19150.2
656.742	19171.9
657.094	19145.23
657.445	19204.89
657.796	19137.32
658.147	19141.39
658.498	19105.91
658.849	19214.16
659.2	19258
659.551	19156.53
659.902	19222.97
660.253	19164.44
660.604	19227.04
660.955	19182.74
661.306	19237.66
661.656	19163.76
662.007	19218.9
662.358	19175.74
662.708	19292.12
663.059	19203.76
663.409	19107.49
663.76	19221.84
664.11	19191.33
664.461	19300.71
664.811	19226.81
665.161	19326.92
665.511	19203.31
665.862	19296.87
666.212	19296.19
666.562	19370.31
666.912	19184.1
667.262	19232.46
667.612	19233.14
667.962	19239.69
668.312	19261.39
668.662	19186.81
669.011	19287.15
669.361	19227.94
669.711	19209.41
670.06	19191.33
670.41	19152.46
670.76	19201.95
671.109	19162.86
671.459	19186.13
671.808	19139.58
672.157	19161.73
672.507	19118.11
672.856	19039.02
673.205	19143.2
673.554	19011.9
673.904	19093.26
674.253	19149.07
674.602	19145.01
674.951	18862.3
675.3	18760.83
675.649	18933.26
675.998	19042.18
676.346	18977.78
676.695	18980.72
677.044	18804.45
677.393	18907.95
677.741	18871.34
678.09	18853.71
678.438	18833.15
678.787	18923.77
679.135	18858.46
679.484	18725.36
679.832	18792.92
680.181	18620.73
680.529	18720.16
680.877	18729.87
681.225	18663.44
681.573	18772.36
681.922	18524.68
682.27	18458.47
682.618	18540.5
682.966	18467.73
683.314	18477.9
683.661	18396.32
684.009	18318.59
684.357	18372.37
684.705	18332.6
685.053	18378.92
685.4	18280.62
685.748	18169.89
686.095	18179.61
686.443	18101.64
686.79	18015.54
687.138	18128.08
687.485	18059.38
687.832	17987.75
688.18	17997.01
688.527	17825.72
688.874	17922.44
689.221	17835.21
689.568	17795.66
689.915	17746.62
690.262	17736.91
690.609	17628.89
690.956	17510.47
691.303	17671.82
691.65	17412.85
691.997	17539.62
692.344	17354.09
692.69	17332.17
693.037	17252.85
693.383	17237.48
693.73	17291.27
694.077	17101.89
694.423	17086.3
694.769	17096.02
695.116	16968.34
695.462	16889.25
695.808	16899.87
696.155	16889.92
696.501	16682.24
696.847	16830.26
697.193	16581
697.539	16686.54
697.885	16442.25
698.231	16494.45
698.577	16415.13
698.923	16340.79
699.269	16200.22
699.614	16210.39
699.96	16163.16
700.306	16145.31
700.651	16037.74
700.997	16023.05
701.342	15983.96
701.688	15935.82
702.033	15905.32
702.379	15840.91
702.724	15675.72
703.069	15811.08
703.415	15643.4
703.76	15711.88
704.105	15575.16
704.45	15563.4
704.795	15423.97
705.14	15414.93
705.485	15423.07
705.83	15331.77
706.175	15322.28
706.52	15309.17
706.865	15209.06
707.209	15239.8
707.554	15133.13
707.899	15189.4
708.243	15048.62
708.588	15129.52
708.932	14909.86
709.277	14921.84
709.621	14866.25
709.966	14798
710.31	14893.82
710.654	14693.14
710.998	14724.56
711.342	14734.95
711.687	14578.12
712.031	14617.89
712.375	14582.64
712.719	14643.43
713.063	14544.9
713.407	14547.39
713.75	14435.75
714.094	14449.31
714.438	14362.76
714.782	14375.41
715.125	14249.31
715.469	14382.64
715.812	14261.74
716.156	14215.19
716.499	14191.91
716.843	14220.39
717.186	14121.86
717.53	14252.03
717.873	14173.61
718.216	14101.75
718.559	14012.94
718.902	14049.09
719.246	14079.83
719.589	14066.95
719.932	13972.94
720.275	13927.06
720.617	13892.71
720.96	13900.62
721.303	13873.28
721.646	13837.57
721.989	13842.55
722.331	13862.88
722.674	13822.66
723.016	13793.06
723.359	13882.77
723.701	13818.59
724.044	13709.89
724.386	13665.83
724.729	13808.65
725.071	13743.34
725.413	13730.91
725.755	13724.13
726.097	13687.75
726.439	13614.76
726.782	13649.56
727.124	13668.99
727.465	13513.51
727.807	13568.88
728.149	13533.4
728.491	13605.49
728.833	13568.88
729.175	13516.45
729.516	13509.45
729.858	13513.74
730.199	13576.56
730.541	13462.44
730.882	13428.32
731.224	13537.24
731.565	13484.36
731.906	13428.77
732.248	13463.57
732.589	13473.97
732.93	13321.66
733.271	13494.76
733.612	13442.78
733.953	13487.53
734.294	13473.97
734.635	13346.74
734.976	13463.57
735.317	13384.7
735.658	13415.21
735.999	13472.39
736.339	13387.64
736.68	13435.78
737.021	13381.99
737.361	13296.35
737.702	13421.99
738.042	13309.45
738.383	13384.03
738.723	13461.76
739.063	13386.96
739.404	13469.45
739.744	13332.5
740.084	13342.9
740.424	13468.09
740.764	13393.52
741.104	13434.19
741.444	13359.62
741.784	13391.71
742.124	13544.7
742.464	13438.26
742.804	13541.99
743.143	13502.22
743.483	13572.72
743.823	13519.39
744.162	13499.96
744.502	13610.91
744.841	13596.45
745.181	13702.89
745.52	13612.5
745.86	13701.31
746.199	13729.78
746.538	13738.14
746.877	13811.13
747.216	13802.55
747.556	13884.13
747.895	13944.01
748.234	13962.09
748.573	14030.79
748.911	14037.57
749.25	14097.23
749.589	14190.56
749.928	14176.32
750.267	14261.07
750.605	14286.15
750.944	14389.88
751.283	14352.14
751.621	14512.58
751.96	14440.04
752.298	14689.98
752.636	14785.57
752.975	14814.72
753.313	14870.99
753.651	15042.97
753.989	15054.04
754.327	15166.58
754.666	15226.24
755.004	15302.62
755.342	15451.77
755.679	15576.06
756.017	15541.03
756.355	15702.16
