Data from hue_40_FLMS001491_72.txt Node
Date: Mon Feb 06 15:08:24 GMT 2017
User: dcchb
Spectrometer: FLMS00149
Trigger mode: 0
Integration Time (sec): 2.000000E-2
Scans to average: 10
Electric dark correction enabled: true
Nonlinearity correction enabled: false
Boxcar width: 0
XAxis mode: Wavelengths
Number of Pixels in Spectrum: 2048
>>>>>Begin Spectral Data<<<<<
341.393	-14.77
341.776	-14.77
342.16	-14.77
342.543	-48.9
342.927	-73.53
343.31	-73.76
343.693	-70.14
344.077	-87.99
344.46	-56.13
344.843	-43.47
345.226	-50.03
345.61	-36.47
345.993	-7.32
346.376	-0.76
346.759	16.64
347.142	27.49
347.525	40.82
347.908	74.49
348.291	68.61
348.674	95.28
349.057	102.74
349.44	117.2
349.823	126.47
350.206	172.57
350.588	199.46
350.971	206.69
351.354	229.74
351.737	233.58
352.119	241.72
352.502	249.85
352.884	268.38
353.267	293.69
353.65	300.47
354.032	272.22
354.414	324.43
354.797	313.58
355.179	319.68
355.562	307.7
355.944	300.92
356.326	332.56
356.709	337.99
357.091	321.04
357.473	330.08
357.855	335.95
358.238	337.53
358.62	345.44
359.002	341.15
359.384	319.68
359.766	341.83
360.148	344.54
360.53	341.38
360.912	334.6
361.294	340.25
361.676	347.93
362.057	319.45
362.439	345.89
362.821	314.94
363.203	311.77
363.584	321.26
363.966	311.32
364.348	325.33
364.729	324.2
365.111	285.11
365.493	324.65
365.874	301.6
366.256	313.35
366.637	319.23
367.019	299.12
367.4	333.69
367.781	320.58
368.163	312.68
368.544	306.57
368.925	322.62
369.306	307.25
369.688	300.7
370.069	323.3
370.45	308.38
370.831	310.64
371.212	324.43
371.593	310.87
371.974	294.82
372.355	320.81
372.736	314.48
373.117	310.19
373.498	321.71
373.879	301.15
374.26	323.97
374.641	309.74
375.021	308.16
375.402	316.07
375.783	306.35
376.163	336.63
376.544	307.7
376.925	323.07
377.305	330.98
377.686	330.3
378.066	309.06
378.447	335.05
378.827	328.27
379.208	332.11
379.588	325.1
379.968	314.71
380.349	320.81
380.729	313.13
381.109	333.01
381.489	338.89
381.87	342.05
382.25	328.72
382.63	332.34
383.01	332.34
383.39	330.08
383.77	319.68
384.15	331.88
384.53	347.02
384.91	367.14
385.29	353.35
385.67	341.83
386.049	352
386.429	331.21
386.809	356.97
387.189	332.34
387.568	342.51
387.948	352.9
388.328	346.12
388.707	333.01
389.087	361.71
389.466	346.35
389.846	347.48
390.225	359.68
390.605	375.27
390.984	370.75
391.363	362.17
391.743	377.31
392.122	368.27
392.501	352.9
392.881	356.29
393.26	327.14
393.639	385.67
394.018	364.43
394.397	355.39
394.776	355.61
395.155	378.89
395.534	352.22
395.913	382.28
396.292	369.62
396.671	381.15
397.05	403.07
397.429	401.94
397.808	368.95
398.186	394.48
398.565	391.09
398.944	386.35
399.323	373.01
399.701	386.12
400.08	378.89
400.458	382.05
400.837	400.58
401.215	385.67
401.594	367.36
401.972	395.61
402.351	388.61
402.729	379.79
403.107	386.57
403.486	393.58
403.864	402.16
404.242	389.51
404.62	397.87
404.999	402.62
405.377	408.49
405.755	424.99
406.133	426.12
406.511	416.63
406.889	430.19
407.267	426.34
407.645	424.99
408.023	400.36
408.401	423.63
408.779	413.92
409.156	427.47
409.534	425.21
409.912	440.81
410.29	437.87
410.667	443.52
411.045	451.65
411.422	451.88
411.8	450.07
412.178	452.56
412.555	450.3
412.933	440.81
413.31	445.1
413.687	445.1
414.065	464.54
414.442	466.34
414.819	447.81
415.197	466.12
415.574	491.88
415.951	449.39
416.328	450.52
416.705	455.95
417.082	508.6
417.46	497.98
417.837	466.12
418.214	471.09
418.591	482.61
418.967	521.71
419.344	493.46
419.721	498.43
420.098	512.67
420.475	498.89
420.852	511.77
421.228	489.62
421.605	508.6
421.982	501.82
422.358	527.13
422.735	515.61
423.111	538.21
423.488	532.1
423.864	528.04
424.241	542.95
424.617	542.05
424.994	548.83
425.37	530.52
425.746	561.26
426.123	545.66
426.499	558.54
426.875	559.45
427.251	565.32
427.627	571.88
428.003	557.19
428.379	560.8
428.756	581.14
429.132	588.6
429.507	568.04
429.883	576.85
430.259	578.88
430.635	596.51
431.011	588.6
431.387	583.63
431.763	616.4
432.138	599.45
432.514	613.46
432.89	605.1
433.265	610.97
433.641	625.21
434.016	626.57
434.392	634.47
434.767	637.19
435.143	647.58
435.518	656.4
435.894	677.64
436.269	653.01
436.644	669.28
437.02	660.91
437.395	685.32
437.77	677.86
438.145	680.35
438.52	690.29
438.895	700.01
439.271	710.86
439.646	715.6
440.021	700.01
440.395	719.9
440.77	714.47
441.145	711.76
441.52	690.29
441.895	722.61
442.27	720.12
442.645	726.68
443.019	734.59
443.394	743.17
443.769	751.76
444.143	766.22
444.518	766.9
444.892	735.04
445.267	746.56
445.641	746.34
446.016	763.29
446.39	774.58
446.764	749.73
447.139	774.13
447.513	781.59
447.887	785.43
448.262	769.61
448.636	798.99
449.01	798.31
449.384	803.06
449.758	819.1
450.132	795.37
450.506	805.54
450.88	828.59
451.254	821.81
451.628	851.42
452.002	830.4
452.376	874.92
452.75	865.66
453.123	870.85
453.497	857.52
453.871	856.16
454.244	873.79
454.618	907.46
454.992	899.55
455.365	904.75
455.739	897.74
456.112	921.02
456.486	928.25
456.859	931.19
457.232	952.88
457.606	965.31
457.979	981.81
458.352	980.45
458.725	964.18
459.099	978.87
459.472	995.37
459.845	1022.94
460.218	1029.94
460.591	1020.23
460.964	1034.69
461.337	1054.58
461.71	1041.92
462.083	1063.39
462.456	1078.08
462.829	1083.5
463.201	1101.36
463.574	1095.25
463.947	1135.03
464.32	1184.29
464.692	1160.56
465.065	1177.74
465.438	1184.29
465.81	1198.08
466.183	1176.83
466.555	1213.44
466.928	1272.42
467.3	1252.99
467.672	1252.31
468.045	1277.62
468.417	1318.75
468.789	1323.72
469.161	1348.13
469.534	1391.29
469.906	1356.26
470.278	1407.56
470.65	1425.87
471.022	1458.41
471.394	1528.46
471.766	1517.16
472.138	1533.89
472.51	1536.82
472.882	1606.43
473.253	1623.6
473.625	1650.95
473.997	1663.15
474.369	1708.8
474.74	1734.78
475.112	1782.24
475.484	1803.94
475.855	1821.79
476.227	1889.81
476.598	1940.43
476.97	1935.23
477.341	2002.57
477.713	2087.32
478.084	2113.31
478.455	2150.14
478.827	2190.82
479.198	2330.25
479.569	2311.94
479.94	2379.97
480.311	2385.39
480.682	2488.21
481.053	2529.34
481.424	2636.46
481.795	2652.73
482.166	2724.59
482.537	2799.62
482.908	2916.67
483.279	2952.38
483.65	3057.69
484.021	3142.66
484.391	3199.83
484.762	3240.51
485.133	3321.41
485.503	3388.07
485.874	3478.24
486.244	3594.85
486.615	3677.33
486.985	3797.33
487.356	3849.76
487.726	3942.41
488.097	4063.31
488.467	4120.94
488.837	4190.99
489.207	4342.17
489.578	4434.37
489.948	4497.42
490.318	4617.65
490.688	4703.97
491.058	4794.37
491.428	4919.11
491.798	4971.54
492.168	5131.53
492.538	5202.26
492.908	5314.35
493.278	5407
493.648	5477.51
494.017	5548.7
494.387	5680.67
494.757	5776.03
495.126	5858.74
495.496	5903.49
495.866	6037.5
496.235	6160.43
496.605	6251.5
496.974	6290.82
497.344	6450.37
497.713	6514.32
498.082	6592.74
498.452	6728.55
498.821	6781.88
499.19	6884.25
499.559	6990.92
499.928	7040.63
500.298	7090.8
500.667	7191.36
501.036	7200.4
501.405	7289.44
501.774	7358.37
502.143	7525.82
502.512	7514.07
502.88	7714.29
503.249	7644.01
503.618	7802.65
503.987	7831.8
504.356	7974.17
504.724	8003.32
505.093	8034.28
505.462	8131
505.83	8243.99
506.199	8279.47
506.567	8456.42
506.936	8446.25
507.304	8567.83
507.672	8676.07
508.041	8705.45
508.409	8737.76
508.777	8858.67
509.145	8927.82
509.514	9003.29
509.882	9015.95
510.25	9070.86
510.618	9217.3
510.986	9202.61
511.354	9327.35
511.722	9406.9
512.09	9473.56
512.458	9436.28
512.826	9667.91
513.193	9634.01
513.561	9724.86
513.929	9740
514.297	9806.89
514.664	9971.18
515.032	9956.04
515.4	10079.2
515.767	10093.21
516.135	10136.37
516.502	10069.71
516.869	10261.79
517.237	10382.47
517.604	10408.46
517.972	10478.74
518.339	10547.66
518.706	10552.18
519.073	10640.99
519.44	10692.29
519.808	10806.18
520.175	10828.78
520.542	10928.44
520.909	11019.06
521.276	11022.45
521.643	11143.8
522.009	11200.75
522.376	11252.73
522.743	11321.65
523.11	11465.83
523.477	11589.89
523.843	11586.05
524.21	11704.01
524.577	11765.48
524.943	11800.28
525.31	11912.14
525.676	12000.73
526.043	12093.16
526.409	12141.29
526.776	12241.85
527.142	12249.08
527.508	12376.09
527.874	12484.56
528.241	12530.89
528.607	12567.04
528.973	12677.55
529.339	12721.61
529.705	12820.14
530.071	12885
530.437	12981.49
530.803	13039.8
531.169	13155.5
531.535	13062.62
531.901	13150.3
532.267	13218.55
532.632	13300.58
532.998	13345.55
533.364	13435.27
533.73	13421.71
534.095	13579.22
534.461	13686.79
534.826	13718.2
535.192	13722.04
535.557	13922.49
535.923	13847.23
536.288	13982.15
536.653	14015.14
537.019	13922.26
537.384	14063.27
537.749	14156.83
538.114	14162.71
538.479	14203.38
538.845	14275.25
539.21	14318.86
539.575	14355.92
539.94	14445.41
540.305	14520.89
540.67	14519.53
541.034	14587.1
541.399	14597.27
541.764	14610.15
542.129	14733.99
542.494	14783.03
542.858	14772.86
543.223	14885.85
543.587	14939.41
543.952	14933.99
544.316	15027.99
544.681	15045.4
545.045	15169.69
545.41	15247.65
545.774	15260.3
546.138	15245.62
546.503	15333.75
546.867	15373.97
547.231	15517.47
547.595	15577.58
547.959	15655.32
548.324	15638.37
548.688	15609.9
549.052	15767.41
549.416	15736.45
549.779	15713.17
550.143	15856.22
550.507	15927.18
550.871	16060.51
551.235	16033.39
551.599	16113.84
551.962	16174.63
552.326	16233.39
552.689	16417.79
553.053	16312.03
553.417	16394.06
553.78	16498.69
554.143	16457.34
554.507	16552.47
554.87	16579.59
555.234	16752.7
555.597	16751.79
555.96	16693.49
556.323	16834.05
556.686	16836.76
557.05	16989.75
557.413	17037.66
557.776	16972.8
558.139	17114.27
558.502	17166.02
558.865	17254.83
559.228	17390.19
559.59	17483.3
559.953	17427.03
560.316	17598.32
560.679	17617.31
561.041	17793.8
561.404	17825.21
561.767	17901.82
562.129	17884.87
562.492	18038.99
562.854	17981.36
563.217	18033.11
563.579	18099.78
563.941	18285.54
564.304	18191.08
564.666	18445.98
565.028	18451.63
565.39	18435.36
565.753	18571.18
566.115	18627.45
566.477	18770.95
566.839	18698.18
567.201	18825.41
567.563	18796.26
567.925	18961.68
568.287	18955.58
568.648	19053.2
569.01	19180.65
569.372	19339.07
569.734	19210.94
570.095	19384.04
570.457	19530.25
570.819	19495.9
571.18	19599.85
571.542	19792.62
571.903	19702.9
572.265	19910.13
572.626	19947.41
572.987	20006.85
573.349	20155.54
573.71	20101.53
574.071	20346.05
574.432	20407.74
574.794	20539.04
575.155	20539.04
575.516	20506.49
575.877	20669.65
576.238	20772.25
576.599	20828.97
576.96	20973.15
577.32	20976.76
577.681	21227.38
578.042	21376.08
578.403	21331.78
578.763	21463.53
579.124	21625.79
579.485	21562.51
579.845	21917.53
580.206	22042.05
580.566	22009.05
580.927	22210.18
581.287	22413.34
581.648	22471.64
582.008	22619.21
582.368	22671.86
582.728	23017.62
583.089	23072.3
583.449	23149.36
583.809	23382.8
584.169	23496.25
584.529	23599.52
584.889	23926.29
585.249	23958.83
585.609	24137.36
585.969	24386.39
586.329	24370.57
586.688	24706.84
587.048	24850.11
587.408	24985.7
587.768	25147.5
588.127	25314.5
588.487	25479.47
588.846	25868.39
589.206	25689.41
589.565	26001.27
589.925	26251.88
590.284	26379.33
590.643	26546.11
591.003	26812.54
591.362	27074.68
591.721	27266.54
592.08	27315.81
592.44	27489.36
592.799	27796.02
593.158	27800.54
593.517	28086.41
593.876	28201.21
594.235	28381.09
594.593	28574.53
594.952	28845.71
595.311	28994.86
595.67	29090.68
596.029	29506.26
596.387	29680.26
596.746	29869.41
597.104	29987.15
597.463	30115.06
597.822	30418.32
598.18	30417.87
598.538	30379.91
598.897	30902.83
599.255	30770.41
599.613	31227.57
599.972	31224.18
600.33	31563.15
600.688	31477.73
601.046	31780.1
601.404	32000.88
601.762	32095.12
602.12	32437.71
602.478	32380.53
602.836	32666.63
603.194	32574.88
603.552	32624.14
603.91	32841.31
604.268	33146.39
604.625	33112.72
604.983	33353.16
605.341	33306.16
605.698	33474.06
606.056	33756.32
606.413	33722.87
606.771	34070.43
607.128	34061.84
607.485	34039.02
607.843	34198.79
608.2	34572.11
608.557	34617.08
608.914	34669.74
609.272	34802.39
609.629	35073.34
609.986	35121.7
610.343	35051.65
610.7	35603.72
611.057	35492.09
611.414	35577.74
611.771	35614.57
612.127	35853.21
612.484	35772.99
612.841	36080.55
613.198	36074.67
613.554	36161
613.911	36468.11
614.267	36349.24
614.624	36371.16
614.98	36586.52
615.337	36818.61
615.693	36860.41
616.05	36772.73
616.406	37015.44
616.762	36881.66
617.118	36999.85
617.475	37066.29
617.831	37203
618.187	37450.46
618.543	37299.95
618.899	37638.02
619.255	37666.27
619.611	37650
619.967	37688.87
620.323	37821.29
620.678	37792.82
621.034	37753.5
621.39	37800.73
621.746	37771.35
622.101	38279.81
622.457	37868.3
622.812	38133.15
623.168	38292.92
623.523	38369.75
623.879	38467.15
624.234	38297.44
624.589	38348.29
624.945	38447.49
625.3	38567.26
625.655	38522.29
626.01	38554.83
626.365	38572.46
626.72	38684.32
627.075	38666.7
627.43	38619.24
627.785	38662.18
628.14	38789.86
628.495	38922.73
628.85	38742.4
629.205	38666.24
629.559	38997.08
629.914	38786.92
630.269	38851.55
630.623	38903.07
630.978	38682.74
631.332	38953.24
631.687	38943.98
632.041	38826.46
632.396	38852.45
632.75	38747.15
633.104	38865.79
633.459	38581.05
633.813	38622.4
634.167	38739.46
634.521	38695.17
634.875	38739.91
635.229	38709.18
635.583	38593.7
635.937	38611.1
636.291	38600.71
636.645	38659.01
636.999	38551.9
637.352	38604.32
637.706	38515.74
638.06	38720.25
638.413	38501.95
638.767	38421.28
639.121	38543.99
639.474	38416.76
639.828	38405.69
640.181	38354.61
640.534	38445.68
640.888	38272.36
641.241	38179.02
641.594	38227.16
641.947	38433.48
642.301	38196.2
642.654	38279.13
643.007	38265.12
643.36	38111.68
643.713	38210.89
644.066	38358.23
644.419	38024
644.771	37880.05
645.124	37558.7
645.477	37535.2
645.83	37257.92
646.182	37072.16
646.535	37056.12
646.888	37001.43
647.24	36916.68
647.593	37148.99
647.945	37021.31
648.298	36823.35
648.65	36809.79
649.002	36843.92
649.355	36845.73
649.707	36791.04
650.059	36807.54
650.411	37391.47
650.763	37364.58
651.115	37849.32
651.467	37557.35
651.819	37660.85
652.171	37560.96
652.523	37577.23
652.875	37508.99
653.227	37329.78
653.578	37746.49
653.93	37422.43
654.282	37525.26
654.633	37263.34
654.985	37437.57
655.337	37430.12
655.688	37308.31
656.039	37562.54
656.391	37170.69
656.742	37325.71
657.094	37192.38
657.445	37424.69
657.796	37272.83
658.147	37212.27
658.498	37171.82
658.849	37399.61
659.2	37264.02
659.551	37117.36
659.902	37275.32
660.253	37218.82
660.604	37322.32
660.955	37034.65
661.306	37257.92
661.656	37101.54
662.007	37124.14
662.358	37107.19
662.708	37005.27
663.059	37189.22
663.409	36936.57
663.76	37046.85
664.11	37094.99
664.461	37068.09
664.811	37107.19
665.161	36936.8
665.511	36981.54
665.862	37033.97
666.212	37092.95
666.562	37007.53
666.912	37088.43
667.262	36944.25
667.612	36986.51
667.962	37026.74
668.312	36826.29
668.662	37113.29
669.011	36892.28
669.361	36969.11
669.711	36890.24
670.06	36984.48
670.41	36887.08
670.76	36748.78
671.109	36882.79
671.459	36844.6
671.808	36736.35
672.157	36867.19
672.507	36652.74
672.856	36729.34
673.205	36738.16
673.554	36770.02
673.904	36761.66
674.253	36909.91
674.602	36758.04
674.951	36158.06
675.3	36113.99
675.649	36654.54
675.998	36553.53
676.346	36615.22
676.695	36740.87
677.044	36387.66
677.393	36422.69
677.741	36418.39
678.09	36405.06
678.438	36289.58
678.787	36447.77
679.135	36506.98
679.484	36260.43
679.832	36341.33
680.181	36170.49
680.529	36232.86
680.877	36065.63
681.225	36121.23
681.573	36354.44
681.922	36131.39
682.27	35974.79
682.618	36063.83
682.966	35920.78
683.314	36040.55
683.661	35894.11
684.009	35617.06
684.357	35641.01
684.705	35502.26
685.053	35644.18
685.4	35578.87
685.748	35380
686.095	35375.03
686.443	35208.03
686.79	35221.81
687.138	35386.33
687.485	35176.17
687.832	35102.5
688.18	35215.71
688.527	34882.61
688.874	34992.89
689.221	34916.06
689.568	34832.67
689.915	34705.9
690.262	34596.97
690.609	34649.4
690.956	34439.91
691.303	34445.34
691.65	34398.11
691.997	34169.86
692.344	34066.36
692.69	34083.54
693.037	34079.25
693.383	33827.95
693.73	33914.73
694.077	33652.14
694.423	33797.9
694.769	33571.01
695.116	33534.17
695.462	33511.35
695.808	33379.6
696.155	33441.52
696.501	33200.17
696.847	33218.93
697.193	32955.21
697.539	33121.76
697.885	32821.65
698.231	32853.06
698.577	32796.12
698.923	32853.51
699.269	32732.61
699.614	32563.35
699.96	32391.61
700.306	32477.71
700.651	32420.98
700.997	32236.58
701.342	32201.78
701.688	31959.75
702.033	31983.48
702.379	31968.11
702.724	31811.51
703.069	31865.29
703.415	31527.9
703.76	31485.19
704.105	31559.54
704.45	31372.88
704.795	31277.28
705.14	31129.72
705.485	31182.37
705.83	31035.94
706.175	31092.21
706.52	31014.92
706.865	30856.73
707.209	30900.8
707.554	30726.34
707.899	30801.82
708.243	30626
708.588	30560.47
708.932	30403.41
709.277	30375.39
709.621	30455.61
709.966	30227.82
710.31	30168.61
710.654	30024.66
710.998	30072.8
711.342	30077.77
711.687	29906.7
712.031	29841.84
712.375	29739.7
712.719	29835.97
713.063	29719.59
713.407	29821.5
713.75	29593.71
714.094	29652.24
714.438	29536.99
714.782	29558.69
715.125	29306.94
715.469	29358.01
715.812	29221.75
716.156	29116.44
716.499	29128.87
716.843	29127.51
717.186	29054.52
717.53	29104.46
717.873	28957.12
718.216	28948.98
718.559	28822.66
718.902	28695.66
719.246	28848.42
719.589	28681.65
719.932	28656.79
720.275	28607.75
720.617	28476.23
720.96	28565.49
721.303	28396.46
721.646	28340.86
721.989	28204.6
722.331	28290.92
722.674	28149.23
723.016	28278.04
723.359	28155.33
723.701	28271.04
724.044	27965.73
724.386	27880.09
724.729	27895.23
725.071	27941.78
725.413	27917.83
725.755	27805.06
726.097	27800.99
726.439	27617.95
726.782	27581.34
727.124	27670.15
727.465	27559.42
727.807	27476.03
728.149	27501.79
728.491	27469.93
728.833	27480.55
729.175	27362.59
729.516	27293.89
729.858	27360.33
730.199	27338.86
730.541	27351.74
730.882	27278.75
731.224	27273.55
731.565	27105.19
731.906	27041.01
732.248	27101.35
732.589	26982.71
732.93	26927.79
733.271	26906.55
733.612	26831.07
733.953	26964.4
734.294	26789.72
734.635	26760.12
734.976	26742.49
735.317	26633.34
735.658	26638.99
735.999	26498.2
736.339	26562.83
736.68	26611.64
737.021	26419.33
737.361	26396.51
737.702	26693.22
738.042	26471.08
738.383	26464.98
738.723	26433.34
739.063	26229.96
739.404	26303.86
739.744	26251.43
740.084	26106.8
740.424	26210.53
740.764	26130.3
741.104	26194.25
741.444	26067.93
741.784	25933.92
742.124	26034.48
742.464	25958.1
742.804	25889.86
743.143	25895.73
743.483	25726.47
743.823	25746.58
744.162	25624.33
744.502	25647.83
744.841	25533.71
745.181	25699.8
745.52	25519.92
745.86	25575.51
746.199	25542.29
746.538	25529.87
746.877	25489.64
747.216	25491.9
747.556	25300.27
747.895	25441.73
748.234	25327.61
748.573	25262.75
748.911	25224.79
749.25	25204
749.589	25171.91
749.928	25067.73
750.267	25172.36
750.605	25005.81
750.944	25040.84
751.283	24999.48
751.621	24834.29
751.96	24712.49
752.298	24762.2
752.636	24792.03
752.975	24600.85
753.313	24599.27
753.651	24798.59
753.989	24506.39
754.327	24502.32
754.666	24399.95
755.004	24456.22
755.342	24398.37
755.679	24283.34
756.017	24220.75
756.355	24260.97
756.693	24079.51
757.031	24120.41
757.368	24011.26
