Data from hue_210_FLMS001491_00006.txt Node
Date: Tue Feb 07 16:40:41 GMT 2017
User: dcchb
Spectrometer: FLMS00149
Trigger mode: 0
Integration Time (sec): 2.000000E-2
Scans to average: 10
Electric dark correction enabled: true
Nonlinearity correction enabled: false
Boxcar width: 0
XAxis mode: Wavelengths
Number of Pixels in Spectrum: 2048
>>>>>Begin Spectral Data<<<<<
341.393	-5.34
341.776	-5.34
342.16	-5.34
342.543	-51.44
342.927	-55.96
343.31	-56.86
343.693	-72
344.077	-69.29
344.46	-75.62
344.843	-51.89
345.226	-46.92
345.61	-19.12
345.993	-29.07
346.376	-15.51
346.759	25.85
347.142	42.34
347.525	27.88
347.908	42.8
348.291	75.11
348.674	106.07
349.057	116.24
349.44	122.12
349.823	144.49
350.206	193.98
350.588	204.15
350.971	212.51
351.354	226.29
351.737	230.14
352.119	241.66
352.502	246.18
352.884	252.06
353.267	299.06
353.65	316.69
354.032	301.55
354.414	298.16
354.797	294.09
355.179	317.59
355.562	315.1
355.944	303.35
356.326	324.37
356.709	325.73
357.091	344.48
357.473	325.73
357.855	343.13
358.238	336.35
358.62	337.25
359.002	321.21
359.384	337.93
359.766	330.7
360.148	335.22
360.53	326.63
360.912	343.13
361.294	330.7
361.676	331.38
362.057	333.64
362.439	318.95
362.821	318.27
363.203	331.38
363.584	319.85
363.966	339.28
364.348	332.96
364.729	315.1
365.111	323.01
365.493	317.36
365.874	312.84
366.256	325.27
366.637	323.24
367.019	309
367.4	290.02
367.781	310.81
368.163	318.49
368.544	307.87
368.925	305.61
369.306	320.3
369.688	317.36
370.069	325.27
370.45	298.38
370.831	313.3
371.212	296.57
371.593	312.39
371.974	306.97
372.355	301.77
372.736	311.26
373.117	333.41
373.498	306.97
373.879	323.01
374.26	334.99
374.641	323.69
375.021	302.45
375.402	314.88
375.783	344.03
376.163	329.79
376.544	354.43
376.925	324.37
377.305	319.4
377.686	314.2
378.066	320.08
378.447	312.62
378.827	333.41
379.208	321.43
379.588	321.66
379.968	325.05
380.349	349.45
380.729	332.51
381.109	322.56
381.489	331.15
381.87	316.23
382.25	349
382.63	346.97
383.01	339.51
383.39	338.38
383.77	337.03
384.15	343.58
384.53	332.96
384.91	323.47
385.29	359.17
385.67	344.03
386.049	358.49
386.429	363.69
386.809	344.03
387.189	349.68
387.568	345.84
387.948	362.56
388.328	362.79
388.707	344.48
389.087	344.03
389.466	360.08
389.846	359.62
390.225	374.76
390.605	349.68
390.984	349.45
391.363	360.08
391.743	392.62
392.122	391.94
392.501	391.03
392.881	375.22
393.26	383.8
393.639	394.42
394.018	378.61
394.397	385.84
394.776	383.35
395.155	389.23
395.534	388.1
395.913	396.68
396.292	403.24
396.671	433.52
397.05	397.81
397.429	385.16
397.808	391.49
398.186	405.72
398.565	408.21
398.944	399.62
399.323	403.92
399.701	410.7
400.08	418.15
400.458	409.57
400.837	437.81
401.215	411.15
401.594	421.32
401.972	431.94
402.351	411.6
402.729	454.99
403.107	436.46
403.486	450.92
403.864	436.23
404.242	439.17
404.62	451.15
404.999	457.25
405.377	444.14
405.755	464.25
406.133	478.72
406.511	462.22
406.889	472.84
407.267	486.85
407.645	482.78
408.023	482.11
408.401	499.51
408.779	490.24
409.156	509
409.534	506.96
409.912	530.69
410.29	534.31
410.667	539.28
411.045	563.91
411.422	571.37
411.8	578.6
412.178	576.57
412.555	581.31
412.933	600.07
413.31	591.93
413.687	595.78
414.065	619.73
414.442	629.45
414.819	625.15
415.197	631.48
415.574	673.51
415.951	668.77
416.328	669.67
416.705	676.23
417.082	685.04
417.46	682.78
417.837	730.24
418.214	698.15
418.591	729.56
418.967	721.65
419.344	732.49
419.721	766.17
420.098	764.81
420.475	762.1
420.852	779.27
421.228	795.77
421.605	821.76
421.982	788.31
422.358	827.41
422.735	857.01
423.111	864.69
423.488	876.45
423.864	874.86
424.241	897.91
424.617	884.36
424.994	928.87
425.37	941.53
425.746	963.22
426.123	977.91
426.499	983.11
426.875	984.69
427.251	1002.09
427.627	1038.25
428.003	1052.26
428.379	1034.41
428.756	1075.99
429.132	1061.75
429.507	1101.75
429.883	1095.2
430.259	1112.82
430.635	1133.16
431.011	1132.26
431.387	1162.99
431.763	1180.84
432.138	1208.41
432.514	1220.17
432.89	1224.69
433.265	1270.79
433.641	1284.34
434.016	1297.45
434.392	1317.79
434.767	1356.89
435.143	1352.59
435.518	1392.82
435.894	1407.05
436.269	1465.13
436.644	1470.1
437.02	1500.84
437.395	1524.11
437.77	1562.53
438.145	1570.44
438.52	1587.39
438.895	1618.8
439.271	1620.83
439.646	1698.57
440.021	1664
440.395	1698.35
440.77	1720.49
441.145	1714.84
441.52	1792.13
441.895	1775.86
442.27	1816.99
442.645	1816.08
443.019	1877.78
443.394	1864.89
443.769	1862.18
444.143	1856.31
444.518	1918.23
444.892	1933.59
445.267	1929.3
445.641	1961.39
446.016	1960.03
446.39	1999.58
446.764	1996.87
447.139	2022.4
447.513	2058.11
447.887	2059.24
448.262	2026.7
448.636	2066.25
449.01	2115.51
449.384	2116.87
449.758	2139.46
450.132	2166.13
450.506	2188.05
450.88	2193.02
451.254	2185.11
451.628	2233.25
452.002	2253.13
452.376	2261.95
452.75	2298.78
453.123	2319.12
453.497	2358.21
453.871	2363.19
454.244	2421.04
454.618	2398.89
454.992	2437.31
455.365	2468.27
455.739	2484.77
456.112	2510.75
456.486	2555.27
456.859	2583.97
457.232	2608.15
457.606	2613.12
457.979	2669.85
458.352	2716.4
458.725	2694.48
459.099	2742.84
459.472	2795.04
459.845	2800.01
460.218	2881.82
460.591	2863.29
460.964	2849.73
461.337	2975.37
461.71	2987.12
462.083	2976.96
462.456	3045.65
462.829	3038.65
463.201	3105.09
463.574	3098.08
463.947	3157.97
464.32	3216.05
464.692	3223.73
465.065	3279.77
465.438	3320.45
465.81	3375.82
466.183	3367.23
466.555	3438.41
466.928	3426.44
467.3	3466.89
467.672	3565.19
468.045	3615.58
468.417	3600.67
468.789	3617.16
469.161	3640.22
469.534	3741.46
469.906	3792.98
470.278	3803.6
470.65	3849.7
471.022	3893.77
471.394	3998.4
471.766	4035.68
472.138	4094.44
472.51	4189.58
472.882	4151.84
473.253	4204.95
473.625	4272.51
473.997	4339.18
474.369	4391.16
474.74	4442.91
475.112	4494.88
475.484	4569.68
475.855	4669.57
476.227	4660.08
476.598	4803.57
476.97	4799.05
477.341	4918.15
477.713	4961.54
478.084	4986.62
478.455	5101.19
478.827	5131.93
479.198	5277.23
479.569	5273.62
479.94	5435.65
480.311	5435.42
480.682	5589.09
481.053	5631.58
481.424	5744.79
481.795	5756.09
482.166	5841.51
482.537	5961.96
482.908	6046.48
483.279	6079.7
483.65	6126.03
484.021	6296.19
484.391	6379.35
484.762	6356.75
485.133	6458.9
485.503	6524.21
485.874	6650.98
486.244	6658.44
486.615	6810.3
486.985	6869.51
487.356	6940.47
487.726	7008.94
488.097	7123.51
488.467	7104.53
488.837	7321.02
489.207	7305.43
489.578	7422.94
489.948	7444.63
490.318	7605.99
490.688	7627.23
491.058	7708.13
491.428	7828.13
491.798	7830.84
492.168	7945.86
492.538	7998.52
492.908	8117.61
493.278	8136.82
493.648	8186.31
494.017	8282.35
494.387	8319.64
494.757	8340.2
495.126	8414.55
495.496	8470.37
495.866	8526.19
496.235	8542.23
496.605	8585.62
496.974	8673.08
497.344	8689.35
497.713	8729.12
498.082	8803.7
498.452	8807.99
498.821	8897.03
499.19	8833.3
499.559	8989
499.928	8997.59
500.298	8994.2
500.667	9072.39
501.036	9073.52
501.405	9132.73
501.774	9164.82
502.143	9193.74
502.512	9298.6
502.88	9294.08
503.249	9277.81
503.618	9276
503.987	9322.1
504.356	9355.54
504.724	9428.99
505.093	9419.5
505.462	9406.17
505.83	9521.87
506.199	9546.95
506.567	9580.62
506.936	9616.33
507.304	9633.96
507.672	9661.98
508.041	9644.35
508.409	9725.03
508.777	9788.08
509.145	9798.7
509.514	9766.83
509.882	9840.96
510.25	9814.06
510.618	9853.84
510.986	9865.14
511.354	9851.13
511.722	9882.31
512.09	9929.77
512.458	9947.39
512.826	9961.18
513.193	10005.47
513.561	9958.69
513.929	10057.45
514.297	10056.32
514.664	10094.73
515.032	10071.68
515.4	10140.61
515.767	10137.22
516.135	10123.21
516.502	10008.18
516.869	10222.64
517.237	10202.08
517.604	10132.47
517.972	10226.26
518.339	10234.84
518.706	10175.86
519.073	10183.09
519.44	10207.27
519.808	10259.7
520.175	10181.51
520.542	10343.77
520.909	10347.61
521.276	10239.14
521.643	10349.19
522.009	10361.39
522.376	10359.36
522.743	10350.1
523.11	10346.71
523.477	10418.12
523.843	10415.18
524.21	10463.54
524.577	10502.41
524.943	10451.79
525.31	10532.46
525.676	10529.07
526.043	10518.68
526.409	10536.08
526.776	10640.71
527.142	10494.5
527.508	10554.38
527.874	10596.64
528.241	10609.75
528.607	10531.79
528.973	10607.04
529.339	10548.73
529.705	10602.29
530.071	10553.71
530.437	10565.23
530.803	10668.73
531.169	10644.55
531.535	10534.05
531.901	10572.46
532.267	10460.15
532.632	10546.47
532.998	10521.39
533.364	10536.08
533.73	10510.99
534.095	10540.82
534.461	10450.43
534.826	10510.99
535.192	10459.7
535.557	10464.22
535.923	10461.5
536.288	10398.91
536.653	10456.31
537.019	10366.37
537.384	10285.01
537.749	10266.48
538.114	10287.72
538.479	10260.38
538.845	10249.31
539.21	10216.31
539.575	10185.13
539.94	10114.17
540.305	10155.75
540.67	10100.38
541.034	10067.16
541.399	10072.59
541.764	10041.63
542.129	10031.01
542.494	10013.15
542.858	9963.21
543.223	9859.03
543.587	9959.82
543.952	9833.27
544.316	9909.2
544.681	9793.95
545.045	9769.09
545.41	9811.8
545.774	9728.64
546.138	9775.19
546.503	9667.85
546.867	9661.75
547.231	9701.52
547.595	9680.96
547.959	9618.81
548.324	9502.21
548.688	9545.82
549.052	9508.54
549.416	9495.88
549.779	9477.8
550.143	9441.64
550.507	9403.91
550.871	9367.75
551.235	9431.93
551.599	9324.13
551.962	9420.63
552.326	9238.26
552.689	9343.12
553.053	9203.01
553.417	9130.01
553.78	9303.12
554.143	9193.29
554.507	9307.18
554.87	9162.78
555.234	9282.55
555.597	9198.49
555.96	9208.88
556.323	9154.19
556.686	9109
557.05	9129.79
557.413	9129.34
557.776	9078.04
558.139	9121.2
558.502	9033.29
558.865	9069.45
559.228	9017.02
559.59	9088.89
559.953	9049.79
560.316	9151.26
560.679	9129.79
561.041	9067.64
561.404	9038.27
561.767	9085.27
562.129	9038.72
562.492	9053.86
562.854	9027.87
563.217	9080.75
563.579	9050.47
563.941	9029.45
564.304	9042.11
564.666	9149.67
565.028	9088.21
565.39	9102.67
565.753	9137.25
566.115	9143.35
566.477	9139.05
566.839	9065.61
567.201	9114.2
567.563	9181.76
567.925	9188.77
568.287	9138.38
568.648	9165.72
569.01	9196
569.372	9181.31
569.734	9183.35
570.095	9164.14
570.457	9277.35
570.819	9266.73
571.18	9261.76
571.542	9285.04
571.903	9331.59
572.265	9295.89
572.626	9266.06
572.987	9249.11
573.349	9276.23
573.71	9288.65
574.071	9278.48
574.432	9348.77
574.794	9362.78
575.155	9355.54
575.516	9334.75
575.877	9373.62
576.238	9290.01
576.599	9407.52
576.96	9422.21
577.32	9445.71
577.681	9456.11
578.042	9428.76
578.403	9416.11
578.763	9432.83
579.124	9452.04
579.485	9480.51
579.845	9525.94
580.206	9489.33
580.566	9447.52
580.927	9558.48
581.287	9558.48
581.648	9507.63
582.008	9661.75
582.368	9578.36
582.728	9558.25
583.089	9592.83
583.449	9571.36
583.809	9589.89
584.169	9650.45
584.529	9560.51
584.889	9655.2
585.249	9531.36
585.609	9577.01
585.969	9672.37
586.329	9622.66
586.688	9686.84
587.048	9673.28
587.408	9597.8
587.768	9627.85
588.127	9629.89
588.487	9671.69
588.846	9697.46
589.206	9668.98
589.565	9673.95
589.925	9720.73
590.284	9709.66
590.643	9741.3
591.003	9708.98
591.362	9736.55
591.721	9719.15
592.08	9748.3
592.44	9805.93
592.799	9739.72
593.158	9779.49
593.517	9780.84
593.876	9707.4
594.235	9779.71
594.593	9755.76
594.952	9824.46
595.311	9691.13
595.67	9749.66
596.029	9841.63
596.387	9848.64
596.746	9876.44
597.104	9817.45
597.463	9709.21
597.822	9839.15
598.18	9744.01
598.538	9813.16
598.897	9838.02
599.255	9739.26
599.613	9861.52
599.972	9811.8
600.33	9806.15
600.688	9846.83
601.046	9847.96
601.404	9840.05
601.762	9850.9
602.12	9890.67
602.478	9810.22
602.836	9877.34
603.194	9813.61
603.552	9897.9
603.91	9814.52
604.268	9878.47
604.625	9845.93
604.983	9867.17
605.341	9893.38
605.698	9881.63
606.056	9929.54
606.413	9880.05
606.771	9938.13
607.128	9884.34
607.485	9878.7
607.843	9908.07
608.2	9898.58
608.557	9960.27
608.914	9938.35
609.272	9942.42
609.629	10021.52
609.986	9995.08
610.343	9964.12
610.7	10099.93
611.057	9966.6
611.414	9969.99
611.771	10003.44
612.127	10022.65
612.484	10054.06
612.841	10029.43
613.198	9979.48
613.554	9986.26
613.911	10027.39
614.267	10028.52
614.624	10087.96
614.98	10058.58
615.337	10134.96
615.693	10131.57
616.05	10079.59
616.406	10123.43
616.762	10093.38
617.118	10055.87
617.475	10060.16
617.831	10118.46
618.187	10127.28
618.543	10103.1
618.899	10149.87
619.255	10118.24
619.611	10102.19
619.967	10195.52
620.323	10168.86
620.678	10238.23
621.034	10145.13
621.39	10149.87
621.746	10165.47
622.101	10242.75
622.457	10115.52
622.812	10208.63
623.168	10206.6
623.523	10194.39
623.879	10225.58
624.234	10124.34
624.589	10226.48
624.945	10127.95
625.3	10159.82
625.655	10166.37
626.01	10125.92
626.365	10200.95
626.72	10206.14
627.075	10141.29
627.43	10162.98
627.785	10182.42
628.14	10167.5
628.495	10182.87
628.85	10113.94
629.205	10116.43
629.559	10113.27
629.914	10068.07
630.269	10086.6
630.623	10110.78
630.978	10049.09
631.332	10088.63
631.687	10077.79
632.041	10019.71
632.396	10053.15
632.75	9983.55
633.104	10066.94
633.459	9974.06
633.813	9940.84
634.167	9921.18
634.521	10031.01
634.875	9980.84
635.229	9954.63
635.583	9932.7
635.937	9959.14
636.291	9940.61
636.645	9909.2
636.999	9816.32
637.352	9834.4
637.706	9858.13
638.06	9892.71
638.413	9868.07
638.767	9758.92
639.121	9802.54
639.474	9778.36
639.828	9805.48
640.181	9734.74
640.534	9766.38
640.888	9796.66
641.241	9674.86
641.594	9722.99
641.947	9703.56
642.301	9667.18
642.654	9715.76
643.007	9715.08
643.36	9696.33
643.713	9674.41
644.066	9645.93
644.419	9727.74
644.771	9584.92
645.124	9541.53
645.477	9575.88
645.83	9475.99
646.182	9393.06
646.535	9372.72
646.888	9399.84
647.24	9319.39
647.593	9372.04
647.945	9300.63
648.298	9311.7
648.65	9299.05
649.002	9306.73
649.355	9407.3
649.707	9309.67
650.059	9414.98
650.411	9489.1
650.763	9445.03
651.115	9559.38
651.467	9557.12
651.819	9563.68
652.171	9482.55
652.523	9513.96
652.875	9515.77
653.227	9443.45
653.578	9545.14
653.93	9539.95
654.282	9500.63
654.633	9456.33
654.985	9508.99
655.337	9455.88
655.688	9525.94
656.039	9540.62
656.391	9488.87
656.742	9572.94
657.094	9581.98
657.445	9547.18
657.796	9561.64
658.147	9575.88
658.498	9507.41
658.849	9498.37
659.2	9552.6
659.551	9539.95
659.902	9561.87
660.253	9572.49
660.604	9544.69
660.955	9545.37
661.306	9595.31
661.656	9567.06
662.007	9672.82
662.358	9619.04
662.708	9546.73
663.059	9590.79
663.409	9489.1
663.76	9549.66
664.11	9631.47
664.461	9631.02
664.811	9595.54
665.161	9572.26
665.511	9561.42
665.862	9617.68
666.212	9590.79
666.562	9593.05
666.912	9543.56
667.262	9592.6
667.612	9700.85
667.962	9565.03
668.312	9584.69
668.662	9630.34
669.011	9589.21
669.361	9565.26
669.711	9534.75
670.06	9612.26
670.41	9558.25
670.76	9541.75
671.109	9586.5
671.459	9505.15
671.808	9515.77
672.157	9545.6
672.507	9396.22
672.856	9437.58
673.205	9485.49
673.554	9505.37
673.904	9505.82
674.253	9512.15
674.602	9466.95
674.951	9379.27
675.3	9320.29
675.649	9558.03
675.998	9494.75
676.346	9452.49
676.695	9507.86
677.044	9377.92
677.393	9378.14
677.741	9446.16
678.09	9390.35
678.438	9450.46
678.787	9402.32
679.135	9403.45
679.484	9287.3
679.832	9330.69
680.181	9267.64
680.529	9343.57
680.877	9225.15
681.225	9220.86
681.573	9275.77
681.922	9248.2
682.27	9234.19
682.618	9192.61
682.966	9150.35
683.314	9144.03
683.661	9174.76
684.009	9130.47
684.357	9105.38
684.705	9061.32
685.053	9008.89
685.4	9141.31
685.748	9025.16
686.095	9009.11
686.443	8972.5
686.79	8942.67
687.138	8937.25
687.485	8984.93
687.832	8958.27
688.18	8963.69
688.527	8808.67
688.874	8831.26
689.221	8756.46
689.568	8743.36
689.915	8695.22
690.262	8776.8
690.609	8698.39
690.956	8721.89
691.303	8702
691.65	8637.6
691.997	8612.06
692.344	8539.97
692.69	8587.88
693.037	8547.88
693.383	8532.29
693.73	8494.1
694.077	8463.82
694.423	8471.95
694.769	8357.83
695.116	8366.19
695.462	8367.55
695.808	8241.9
696.155	8351.5
696.501	8193.77
696.847	8203.48
697.193	8201.23
697.539	8242.58
697.885	8181.56
698.231	8151.51
698.577	8180.66
698.923	8080.1
699.269	8045.3
699.614	8022.02
699.96	7924.62
700.306	7996.71
700.651	7901.35
700.997	7881.91
701.342	7835.13
701.688	7868.35
702.033	7819.77
702.379	7847.79
702.724	7743.61
703.069	7756.26
703.415	7669.26
703.76	7707.23
704.105	7612.77
704.45	7645.08
704.795	7605.99
705.14	7606.21
705.485	7602.37
705.83	7586.33
706.175	7499.55
706.52	7529.6
706.865	7442.6
707.209	7450.74
707.554	7410.06
707.899	7391.75
708.243	7399.66
708.588	7375.48
708.932	7314.02
709.277	7342.26
709.621	7327.58
709.966	7277.63
710.31	7306.11
710.654	7233.11
710.998	7231.08
711.342	7267.01
711.687	7163.06
712.031	7159.9
712.375	7089.62
712.719	7164.42
713.063	7102.95
713.407	7154.02
713.75	7087.81
714.094	7128.94
714.438	7083.74
714.782	7029.96
715.125	7032.89
715.469	7021.14
715.812	6979.34
716.156	6978.66
716.499	6935.04
716.843	6996.96
717.186	6932.78
717.53	7006.23
717.873	6956.74
718.216	6898.43
718.559	6917.42
718.902	6884.2
719.246	6916.51
719.589	6869.28
719.932	6838.1
720.275	6864.54
720.617	6822.96
720.96	6826.8
721.303	6848.49
721.646	6819.57
721.989	6749.06
722.331	6814.82
722.674	6837.65
723.016	6812.79
723.359	6808.04
723.701	6784.54
724.044	6735.5
724.386	6748.38
724.729	6781.6
725.071	6759.91
725.413	6747.48
725.755	6719.91
726.097	6722.39
726.439	6664.54
726.782	6706.8
727.124	6727.82
727.465	6717.2
727.807	6687.37
728.149	6733.69
728.491	6632.23
728.833	6697.08
729.175	6617.09
729.516	6652.57
729.858	6686.24
730.199	6700.47
730.541	6655.28
730.882	6657.54
731.224	6635.62
731.565	6607.37
731.906	6629.51
732.248	6645.56
732.589	6614.6
732.93	6628.16
733.271	6618.44
733.612	6632.68
733.953	6650.98
734.294	6617.76
734.635	6639.46
734.976	6680.81
735.317	6592.45
735.658	6619.12
735.999	6634.94
736.339	6718.33
736.68	6685.11
737.021	6695.5
737.361	6639.01
737.702	6660.93
738.042	6700.93
738.383	6678.55
738.723	6674.49
739.063	6676.07
739.404	6727.14
739.744	6727.59
740.084	6742.51
740.424	6733.02
740.764	6766.46
741.104	6830.19
741.444	6748.61
741.784	6750.87
742.124	6774.6
742.464	6818.44
742.804	6803.97
743.143	6863.63
743.483	6830.41
743.823	6854.37
744.162	6831.54
744.502	6876.74
744.841	6919.45
745.181	6994.93
745.52	6976.62
745.86	7029.73
746.199	7032.22
746.538	7108.6
746.877	7154.02
747.216	7174.81
747.556	7158.77
747.895	7206.67
748.234	7271.31
748.573	7311.98
748.911	7371.87
749.25	7431.53
749.589	7409.16
749.928	7550.39
750.267	7570.28
750.605	7685.31
750.944	7719.88
751.283	7835.58
751.621	7883.72
751.96	7945.41
752.298	8051.85
752.636	8135.24
752.975	8224.95
753.313	8305.86
753.651	8433.54
753.989	8531.84
754.327	8606.86
754.666	8646.86
755.004	8829.23
755.342	9059.51
755.679	9041.43
756.017	9235.1
756.355	9425.6
756.693	9465.82
757.031	9629.66
757.368	9749.88
757.706	9886.38
758.044	10056.77
758.381	10247.5
758.719	10413.82
759.056	10581.95
759.394	10674.61
759.731	10810.87
760.068	11093.8
760.405	11142.16
760.743	11334.93
761.08	11591.19
761.417	11653.11
761.754	11823.5
762.091	12026.89
762.428	12208.13
762.765	12408.12
763.102	12622.58
763.438	12743.25
763.775	12874.32
764.112	13103.02
764.449	13302.79
764.785	13358.15
765.122	13579.16
765.458	13668.88
765.795	13922.43
