Data from hue_140_FLMS001491_00054.txt Node
Date: Tue Feb 07 16:56:06 GMT 2017
User: dcchb
Spectrometer: FLMS00149
Trigger mode: 0
Integration Time (sec): 2.000000E-2
Scans to average: 10
Electric dark correction enabled: true
Nonlinearity correction enabled: false
Boxcar width: 0
XAxis mode: Wavelengths
Number of Pixels in Spectrum: 2048
>>>>>Begin Spectral Data<<<<<
341.393	-5.32
341.776	-5.32
342.16	-5.32
342.543	-64.53
342.927	-69.28
343.31	-65.66
343.693	-61.59
344.077	-77.64
344.46	-77.87
344.843	-53.91
345.226	-56.4
345.61	-18.21
345.993	-16.85
346.376	16.6
346.759	-4.42
347.142	31.28
347.525	60.66
347.908	57.05
348.291	70.83
348.674	93.43
349.057	102.7
349.44	111.96
349.823	135.24
350.206	177.5
350.588	193.99
350.971	224.95
351.354	232.18
351.737	220.21
352.119	279.41
352.502	267.21
352.884	253.88
353.267	278.28
353.65	285.52
354.032	306.31
354.414	315.8
354.797	312.41
355.179	329.58
355.562	325.97
355.944	324.61
356.326	337.49
356.709	334.1
357.091	326.42
357.473	353.76
357.855	337.94
358.238	341.33
358.62	339.52
359.002	350.37
359.384	356.25
359.766	332.07
360.148	340.65
360.53	357.15
360.912	329.13
361.294	324.16
361.676	328.23
362.057	342.24
362.439	326.64
362.821	343.82
363.203	335.01
363.584	327.32
363.966	320.54
364.348	321.22
364.729	311.5
365.111	301.33
365.493	315.8
365.874	325.74
366.256	317.83
366.637	323.03
367.019	328.23
367.4	320.09
367.781	298.17
368.163	320.54
368.544	332.75
368.925	310.83
369.306	322.35
369.688	303.82
370.069	294.55
370.45	305.85
370.831	318.28
371.212	305.18
371.593	331.16
371.974	327.32
372.355	318.73
372.736	331.39
373.117	313.08
373.498	317.38
373.879	313.08
374.26	329.13
374.641	326.42
375.021	314.89
375.402	320.09
375.783	346.98
376.163	327.1
376.544	330.71
376.925	317.6
377.305	348.34
377.686	332.97
378.066	325.74
378.447	332.97
378.827	337.27
379.208	323.03
379.588	343.59
379.968	333.88
380.349	326.64
380.729	347.89
381.109	344.5
381.489	346.76
381.87	352.41
382.25	356.25
382.63	324.16
383.01	335.23
383.39	332.97
383.77	341.56
384.15	351.28
384.53	351.05
384.91	350.82
385.29	343.37
385.67	365.06
386.049	377.72
386.429	371.84
386.809	359.64
387.189	342.69
387.568	349.24
387.948	347.66
388.328	357.15
388.707	373.65
389.087	334.1
389.466	391.05
389.846	364.84
390.225	376.81
390.605	370.03
390.984	363.25
391.363	374.55
391.743	376.59
392.122	369.81
392.501	367.55
392.881	370.03
393.26	379.75
393.639	380.2
394.018	388.56
394.397	395.57
394.776	386.76
395.155	397.15
395.534	376.59
395.913	408.9
396.292	385.63
396.671	409.81
397.05	412.07
397.429	380.43
397.808	394.44
398.186	398.28
398.565	392.4
398.944	413.65
399.323	397.83
399.701	403.48
400.08	407.77
400.458	418.62
400.837	394.66
401.215	405.96
401.594	413.42
401.972	432.86
402.351	412.97
402.729	411.61
403.107	430.37
403.486	425.62
403.864	430.14
404.242	410.26
404.62	406.87
404.999	435.34
405.377	442.8
405.755	447.09
406.133	427.88
406.511	447.54
406.889	446.19
407.267	443.48
407.645	445.06
408.023	448
408.401	470.82
408.779	460.43
409.156	444.38
409.534	450.48
409.912	446.19
410.29	475.57
410.667	462.91
411.045	459.97
411.422	487.32
411.8	473.08
412.178	482.12
412.555	499.52
412.933	494.55
413.31	498.16
413.687	496.13
414.065	513.76
414.442	498.16
414.819	513.98
415.197	505.17
415.574	524.38
415.951	504.04
416.328	531.84
416.705	522.57
417.082	514.66
417.46	552.63
417.837	554.43
418.214	546.53
418.591	533.64
418.967	540.2
419.344	546.98
419.721	538.16
420.098	553.3
420.475	551.72
420.852	573.42
421.228	561.44
421.605	570.48
421.982	565.06
422.358	565.51
422.735	575.68
423.111	556.92
423.488	591.95
423.864	577.48
424.241	596.02
424.617	601.89
424.994	585.17
425.37	590.82
425.746	621.33
426.123	609.35
426.499	603.92
426.875	616.81
427.251	619.29
427.627	643.92
428.003	634.88
428.379	625.85
428.756	654.09
429.132	639.4
429.507	646.64
429.883	655
430.259	673.98
430.635	674.21
431.011	664.04
431.387	644.38
431.763	697.03
432.138	683.7
432.514	691.15
432.89	705.39
433.265	699.06
433.641	728.67
434.016	729.8
434.392	728.67
434.767	755.11
435.143	725.73
435.518	725.73
435.894	762.11
436.269	752.85
436.644	753.07
437.02	771.15
437.395	785.84
437.77	807.54
438.145	807.08
438.52	788.33
438.895	789
439.271	804.37
439.646	812.73
440.021	827.65
440.395	827.65
440.77	846.63
441.145	842.11
441.52	851.83
441.895	842.34
442.27	845.95
442.645	869.68
443.019	873.3
443.394	872.62
443.769	882.34
444.143	889.12
444.518	873.52
444.892	856.57
445.267	872.62
445.641	891.6
446.016	927.98
446.39	910.81
446.764	897.25
447.139	942.22
447.513	923.24
447.887	931.83
448.262	934.31
448.636	966.85
449.01	955.78
449.384	990.13
449.758	950.58
450.132	951.49
450.506	978.6
450.88	991.71
451.254	1012.5
451.628	1020.86
452.002	1009.56
452.376	1015.89
452.75	1019.06
453.123	1026.74
453.497	1048.21
453.871	1059.28
454.244	1069.22
454.618	1081.65
454.992	1083.01
455.365	1094.76
455.739	1120.97
456.112	1143.57
456.486	1123.69
456.859	1120.52
457.232	1180.41
457.606	1144.02
457.979	1185.38
458.352	1184.7
458.725	1217.69
459.099	1183.57
459.472	1211.59
459.845	1247.98
460.218	1259.73
460.591	1272.38
460.964	1281.2
461.337	1326.84
461.71	1357.8
462.083	1348.99
462.456	1348.54
462.829	1347.18
463.201	1379.05
463.574	1396.22
463.947	1445.26
464.32	1425.37
464.692	1473.73
465.065	1475.09
465.438	1503.79
465.81	1532.94
466.183	1544.01
466.555	1567.52
466.928	1605.25
467.3	1593.96
467.672	1612.71
468.045	1672.15
468.417	1667.4
468.789	1706.72
469.161	1723.9
469.534	1737
469.906	1794.63
470.278	1842.08
470.65	1845.25
471.022	1885.25
471.394	1946.26
471.766	1944.91
472.138	1993.94
472.51	2061.97
472.882	2082.76
473.253	2139.93
473.625	2159.59
473.997	2217.22
474.369	2238.23
474.74	2281.85
475.112	2313.03
475.484	2381.51
475.855	2427.38
476.227	2514.61
476.598	2596.64
476.97	2650.65
477.341	2716.41
477.713	2727.03
478.084	2755.73
478.455	2880.48
478.827	2956.86
479.198	3047.25
479.569	3123.18
479.94	3223.97
480.311	3271.43
480.682	3376.51
481.053	3475.49
481.424	3577.18
481.795	3651.75
482.166	3717.06
482.537	3850.85
482.908	3908.7
483.279	4026.89
483.65	4157.96
484.021	4276.82
484.391	4364.05
484.762	4497.83
485.133	4554.78
485.503	4675.68
485.874	4856.92
486.244	4907.09
486.615	5025.28
486.985	5148.44
487.356	5300.98
487.726	5457.81
488.097	5541.87
488.467	5645.83
488.837	5814.64
489.207	5918.59
489.578	6045.14
489.948	6260.5
490.318	6398.12
490.688	6461.85
491.058	6600.15
491.428	6776.87
491.798	6968.96
492.168	7055.73
492.538	7163.98
492.908	7331.66
493.278	7465.44
493.648	7568.26
494.017	7771.19
494.387	7885.09
494.757	7971.87
495.126	8150.17
495.496	8247.11
495.866	8404.62
496.235	8542.7
496.605	8614.34
496.974	8735.69
497.344	8896.59
497.713	9039.41
498.082	9151.95
498.452	9308.1
498.821	9363.24
499.19	9463.8
499.559	9566.63
499.928	9663.35
500.298	9776.79
500.667	9889.1
501.036	9929.78
501.405	10107.4
501.774	10135.43
502.143	10198.7
502.512	10330.22
502.88	10500.39
503.249	10495.64
503.618	10668.07
503.987	10679.59
504.356	10757.78
504.724	10891.56
505.093	10950.77
505.462	11031.45
505.83	11121.16
506.199	11203.65
506.567	11385.11
506.936	11288.84
507.304	11484.77
507.672	11540.36
508.041	11613.13
508.409	11693.35
508.777	11788.26
509.145	11835.27
509.514	11921.14
509.882	12000.01
510.25	12013.57
510.618	12091.76
510.986	12170.17
511.354	12148.25
511.722	12342.83
512.09	12484.74
512.458	12444.29
512.826	12455.36
513.193	12543.72
513.561	12590.95
513.929	12633.66
514.297	12672.76
514.664	12738.3
515.032	12812.64
515.4	12911.17
515.767	12910.49
516.135	12989.59
516.502	12848.12
516.869	13065.52
517.237	13176.25
517.604	13078.4
517.972	13174.89
518.339	13287.43
518.706	13158.17
519.073	13323.59
519.44	13334.66
519.808	13364.27
520.175	13303.48
520.542	13466.19
520.909	13541.21
521.276	13536.01
521.643	13614.66
522.009	13588.89
522.376	13634.09
522.743	13683.58
523.11	13803.35
523.477	13851.49
523.843	13864.37
524.21	14006.96
524.577	13959.96
524.943	14017.13
525.31	14005.83
525.676	14094.64
526.043	14229.56
526.409	14209.67
526.776	14213.51
527.142	14230.01
527.508	14189.56
527.874	14270.23
528.241	14313.39
528.607	14301.87
528.973	14379.83
529.339	14351.36
529.705	14361.76
530.071	14427.74
530.437	14418.93
530.803	14407.4
531.169	14492.37
531.535	14311.81
531.901	14362.43
532.267	14424.13
532.632	14417.57
532.998	14376.44
533.364	14522.2
533.73	14383.68
534.095	14457.35
534.461	14397.69
534.826	14409.89
535.192	14451.47
535.557	14408.76
535.923	14366.73
536.288	14303.45
536.653	14428.19
537.019	14277.24
537.384	14271.59
537.749	14357.24
538.114	14243.57
538.479	14250.57
538.845	14324.02
539.21	14213.28
539.575	14162.21
539.94	14227.52
540.305	14226.84
540.67	14124.25
541.034	14144.59
541.399	14116.11
541.764	14089.45
542.129	14188.88
542.494	14008.32
542.858	14092.16
543.223	14024.81
543.587	14017.81
543.952	13975.78
544.316	13977.13
544.681	13891.03
545.045	13872.5
545.41	13877.7
545.774	13790.24
546.138	13831.15
546.503	13768.78
546.867	13677.03
547.231	13802.9
547.595	13752.51
547.959	13672.96
548.324	13677.71
548.688	13532.62
549.052	13674.32
549.416	13581.89
549.779	13545.73
550.143	13545.73
550.507	13512.06
550.871	13512.74
551.235	13402.46
551.599	13445.85
551.962	13459.63
552.326	13430.25
552.689	13465.96
553.053	13333.99
553.417	13269.13
553.78	13409.69
554.143	13285.63
554.507	13213.08
554.87	13272.97
555.234	13295.12
555.597	13178.74
555.96	13264.61
556.323	13303.48
556.686	13271.61
557.05	13296.7
557.413	13332.86
557.776	13218.51
558.139	13264.83
558.502	13211.05
558.865	13251.05
559.228	13212.63
559.59	13243.14
559.953	13183.03
560.316	13301.9
560.679	13318.17
561.041	13290.82
561.404	13319.97
561.767	13338.05
562.129	13289.47
562.492	13303.93
562.854	13229.58
563.217	13275.46
563.579	13355
563.941	13319.97
564.304	13372.4
564.666	13503.92
565.028	13362.69
565.39	13367.21
565.753	13397.26
566.115	13427.99
566.477	13466.41
566.839	13487.43
567.201	13579.85
567.563	13463.47
567.925	13566.3
568.287	13582.57
568.648	13560.19
569.01	13564.49
569.372	13714.31
569.734	13488.78
570.095	13647.42
570.457	13708.66
570.819	13640.19
571.18	13670.02
571.542	13698.95
571.903	13681.32
572.265	13697.82
572.626	13802.22
572.987	13737.59
573.349	13775.1
573.71	13786.63
574.071	13860.98
574.432	13859.62
574.794	13929.22
575.155	13839.96
575.516	13875.44
575.877	13862.79
576.238	13803.8
576.599	13911.82
576.96	13908.21
577.32	13847.87
577.681	13894.65
578.042	13825.27
578.403	13862.33
578.763	13879.28
579.124	13891.03
579.485	13864.59
579.845	13928.09
580.206	13876.8
580.566	13847.87
580.927	13920.18
581.287	13895.55
581.648	13876.8
582.008	13942.11
582.368	13938.04
582.728	13870.47
583.089	13951.82
583.449	13866.17
583.809	13871.15
584.169	13966.96
584.529	13884.03
584.889	13965.83
585.249	13809.91
585.609	13847.64
585.969	13881.77
586.329	13816.01
586.688	13800.64
587.048	13815.33
587.408	13758.16
587.768	13795.67
588.127	13793.18
588.487	13690.81
588.846	13873.63
589.206	13751.6
589.565	13782.11
589.925	13804.93
590.284	13766.74
590.643	13707.99
591.003	13794.54
591.362	13800.19
591.721	13717.7
592.08	13718.61
592.44	13744.82
592.799	13750.25
593.158	13675.22
593.517	13685.16
593.876	13797.02
594.235	13707.31
594.593	13639.29
594.952	13703.02
595.311	13615.33
595.67	13668.67
596.029	13837.7
596.387	13734.65
596.746	13784.14
597.104	13671.83
597.463	13662.79
597.822	13735.1
598.18	13694.65
598.538	13677.25
598.897	13670.02
599.255	13635.22
599.613	13866.4
599.972	13748.21
600.33	13709.57
600.688	13621.21
601.046	13740.53
601.404	13754.54
601.762	13683.35
602.12	13735.1
602.478	13686.97
602.836	13715.67
603.194	13648.1
603.552	13656.01
603.91	13645.62
604.268	13670.47
604.625	13646.75
604.983	13736.01
605.341	13614.88
605.698	13674.32
606.056	13712.73
606.413	13660.53
606.771	13811.94
607.128	13738.04
607.485	13652.62
607.843	13642
608.2	13688.33
608.557	13752.51
608.914	13720.19
609.272	13761.54
609.629	13723.13
609.986	13802
610.343	13831.15
610.7	13915.21
611.057	13844.71
611.414	13861.88
611.771	13904.14
612.127	13992.95
612.484	13880.86
612.841	13924.48
613.198	13815.1
613.554	13912.73
613.911	13941.88
614.267	13962.44
614.624	13913.41
614.98	13928.55
615.337	14054.42
615.693	13995.44
616.05	14034.31
616.406	14053.74
616.762	13969.22
617.118	13952.05
617.475	14028.43
617.831	14056
618.187	14043.35
618.543	14036.57
618.899	14188.2
619.255	14067.75
619.611	14052.61
619.967	14186.62
620.323	14184.81
620.678	14007.64
621.034	14037.7
621.39	14073.85
621.746	14085.15
622.101	14123.34
622.457	14111.82
622.812	14091.48
623.168	14213.96
623.523	14155.66
623.879	14233.17
624.234	14011.03
624.589	14175.77
624.945	14105.26
625.3	14186.62
625.655	14123.34
626.01	14145.49
626.365	14129.22
626.72	14114.08
627.075	14150.01
627.43	14157.01
627.785	14097.36
628.14	14137.35
628.495	14169.67
628.85	14096.9
629.205	14056.68
629.559	14141.2
629.914	14089.22
630.269	14044.25
630.623	14008.54
630.978	14008.77
631.332	14077.24
631.687	14121.76
632.041	14038.37
632.396	14053.06
632.75	13951.6
633.104	14016.91
633.459	13975.1
633.813	13867.98
634.167	13950.24
634.521	13865.5
634.875	13980.97
635.229	13858.72
635.583	13820.07
635.937	13785.27
636.291	13824.59
636.645	13827.31
636.999	13753.86
637.352	13793.41
637.706	13713.86
638.06	13774.65
638.413	13739.4
638.767	13715.22
639.121	13688.1
639.474	13583.02
639.828	13658.04
640.181	13654.43
640.534	13666.63
640.888	13585.28
641.241	13587.54
641.594	13600.42
641.947	13585.28
642.301	13611.49
642.654	13608.1
643.007	13655.33
643.36	13624.6
643.713	13560.19
644.066	13611.94
644.419	13515
644.771	13335.79
645.124	13352.74
645.477	13237.04
645.83	13216.25
646.182	13166.76
646.535	13165.18
646.888	13090.38
647.24	12935.13
647.593	13128.34
647.945	13128.34
648.298	13002.02
648.65	12986.2
649.002	12975.8
649.355	13081.79
649.707	13010.6
650.059	13143.48
650.411	13287.21
650.763	13309.35
651.115	13407.88
651.467	13322.46
651.819	13313.42
652.171	13348.9
652.523	13297.38
652.875	13405.4
653.227	13344.15
653.578	13400.88
653.93	13374.21
654.282	13263.25
654.633	13273.87
654.985	13356.13
655.337	13227.77
655.688	13333.76
656.039	13293.08
656.391	13257.15
656.742	13299.64
657.094	13333.99
657.445	13323.36
657.796	13322.46
658.147	13318.62
658.498	13303.48
658.849	13364.49
659.2	13263.7
659.551	13267.77
659.902	13293.31
660.253	13272.07
660.604	13313.65
660.955	13230.94
661.306	13291.27
661.656	13326.08
662.007	13397.94
662.358	13317.49
662.708	13319.75
663.059	13312.74
663.409	13288.79
663.76	13414.44
664.11	13349.58
664.461	13343.02
664.811	13321.33
665.161	13371.95
665.511	13282.46
665.862	13375.79
666.212	13340.99
666.562	13322.91
666.912	13424.83
667.262	13329.24
667.612	13383.25
667.962	13368.33
668.312	13351.16
668.662	13354.1
669.011	13346.64
669.361	13348
669.711	13264.83
670.06	13291.27
670.41	13340.99
670.76	13308.68
671.109	13311.84
671.459	13268.9
671.808	13286.08
672.157	13301.67
672.507	13258.73
672.856	13173.99
673.205	13274.1
673.554	13207.89
673.904	13243.59
674.253	13246.76
674.602	13197.94
674.951	13031.85
675.3	12991.4
675.649	13147.55
675.998	13155.46
676.346	13138.74
676.695	13153.88
677.044	13050.83
677.393	13130.6
677.741	13076.82
678.09	13131.51
678.438	12965.41
678.787	13063.71
679.135	13046.08
679.484	13058.51
679.832	13006.31
680.181	12974.22
680.529	12982.58
680.877	12947.33
681.225	12934.9
681.573	13003.82
681.922	12923.15
682.27	12846.54
682.618	12810.61
682.966	12799.08
683.314	12774.45
683.661	12726.09
684.009	12639.54
684.357	12673.89
684.705	12624.85
685.053	12645.87
685.4	12614.91
685.748	12629.37
686.095	12573.78
686.443	12528.81
686.79	12497.17
687.138	12545.98
687.485	12426.21
687.832	12488.58
688.18	12401.81
688.527	12359.1
688.874	12335.37
689.221	12305.54
689.568	12279.1
689.915	12289.49
690.262	12222.15
690.609	12191.87
690.956	12188.25
691.303	12066.9
691.65	12096.73
691.997	12017.41
692.344	11891.99
692.69	11934.02
693.037	11919.79
693.383	11870.3
693.73	11823.52
694.077	11824.42
694.423	11725.44
694.769	11687.48
695.116	11697.64
695.462	11688.15
695.808	11626.23
696.155	11688.83
696.501	11498.33
696.847	11505.56
697.193	11454.03
697.539	11495.39
697.885	11423.98
698.231	11408.39
698.577	11336.52
698.923	11284.77
699.269	11329.07
699.614	11195.06
699.96	11184.21
700.306	11138.56
700.651	11145.34
700.997	11059.47
701.342	10981.51
701.688	10977.21
702.033	10980.6
702.379	10998
702.724	10939.47
703.069	10897.44
703.415	10797.56
703.76	10770.89
704.105	10782.41
704.45	10732.25
704.795	10610.89
705.14	10755.07
705.485	10628.97
705.83	10586.26
706.175	10636.2
706.52	10537
706.865	10443.21
707.209	10554.17
707.554	10409.32
707.899	10463.1
708.243	10405.47
708.588	10345.36
708.932	10258.36
709.277	10290.68
709.621	10273.28
709.966	10259.72
710.31	10167.06
710.654	10131.58
710.998	10125.03
711.342	10045.26
711.687	10030.12
712.031	10054.98
712.375	10008.2
712.719	10056.78
713.063	9983.11
713.407	10007.52
713.75	10020.85
714.094	9970.46
714.438	9924.81
714.782	9949.22
715.125	9860.63
715.469	9914.64
715.812	9883.45
716.156	9777.92
716.499	9820.18
716.843	9756
717.186	9786.96
717.53	9826.51
717.873	9863.79
718.216	9809.56
718.559	9665.16
718.902	9661.31
719.246	9675.32
719.589	9657.92
719.932	9646.17
720.275	9594.2
720.617	9596.91
720.96	9585.38
721.303	9576.34
721.646	9647.08
721.989	9526.85
722.331	9614.31
722.674	9576.12
723.016	9578.6
723.359	9580.41
723.701	9567.98
724.044	9496.57
724.386	9477.59
724.729	9475.33
725.071	9515.1
725.413	9434.88
725.755	9459.06
726.097	9415.22
726.439	9382.23
726.782	9434.65
727.124	9462.22
727.465	9382.9
727.807	9424.03
728.149	9359.17
728.491	9351.72
728.833	9428.1
729.175	9360.08
729.516	9360.3
729.858	9321.21
730.199	9442.79
730.541	9314.2
730.882	9341.1
731.224	9352.4
731.565	9292.51
731.906	9328.67
732.248	9272.85
732.589	9291.38
732.93	9266.3
733.271	9249.35
733.612	9360.98
733.953	9313.3
734.294	9288.67
734.635	9273.75
734.976	9393.75
735.317	9347.65
735.658	9284.6
735.999	9309.01
736.339	9335.22
736.68	9354.2
737.021	9318.5
737.361	9311.49
737.702	9366.86
738.042	9343.81
738.383	9306.75
738.723	9310.36
739.063	9337.93
739.404	9372.51
739.744	9381.77
740.084	9377.03
740.424	9372.73
740.764	9386.74
741.104	9407.99
741.444	9330.7
741.784	9371.38
742.124	9429.68
742.464	9368.67
742.804	9451.15
743.143	9440.53
743.483	9462.45
743.823	9421.32
744.162	9473.07
744.502	9544.93
744.841	9552.39
745.181	9605.95
745.52	9594.2
745.86	9555.1
746.199	9641.2
746.538	9637.59
746.877	9662.22
747.216	9779.95
747.556	9768.43
747.895	9789.67
748.234	9845.49
748.573	9922.1
748.911	9954.87
749.25	10066.05
749.589	10055.65
749.928	10160.06
750.267	10268.76
750.605	10265.37
750.944	10341.52
751.283	10349.43
751.621	10549.65
751.96	10525.47
752.298	10660.84
752.636	10702.42
752.975	10700.16
753.313	10800.49
753.651	10994.39
753.989	11007.04
754.327	11205.45
754.666	11218.56
755.004	11397.31
755.342	11459.91
755.679	11661.04
756.017	11673.24
756.355	11855.15
756.693	12002.72
757.031	12035.04
757.368	12224.18
757.706	12369.49
758.044	12486.32
758.381	12680.44
