Data from hue_180_FLMS001491_00011.txt Node
Date: Tue Feb 07 16:46:36 GMT 2017
User: dcchb
Spectrometer: FLMS00149
Trigger mode: 0
Integration Time (sec): 2.000000E-2
Scans to average: 10
Electric dark correction enabled: true
Nonlinearity correction enabled: false
Boxcar width: 0
XAxis mode: Wavelengths
Number of Pixels in Spectrum: 2048
>>>>>Begin Spectral Data<<<<<
341.393	-15.42
341.776	-15.42
342.16	-15.42
342.543	-55.2
342.927	-78.47
343.31	-68.3
343.693	-64.46
344.077	-61.3
344.46	-55.2
344.843	-37.8
345.226	-26.5
345.61	-32.6
345.993	-33.5
346.376	0.62
346.759	-6.61
347.142	33.84
347.525	39.94
347.908	45.14
348.291	88.75
348.674	81.75
349.057	96.21
349.44	119.49
349.823	149.32
350.206	172.59
350.588	196.32
350.971	179.15
351.354	236.77
351.737	200.16
352.119	240.39
352.502	274.96
352.884	262.76
353.267	261.41
353.65	278.13
354.032	289.88
354.414	291.01
354.797	309.77
355.179	320.84
355.562	331.46
355.944	310.67
356.326	336.66
356.709	345.7
357.091	342.53
357.473	334.62
357.855	346.38
358.238	335.75
358.62	330.1
359.002	337.79
359.384	313.83
359.766	334.17
360.148	336.66
360.53	344.34
360.912	328.97
361.294	336.66
361.676	342.53
362.057	321.07
362.439	318.81
362.821	328.07
363.203	341.86
363.584	326.26
363.966	318.58
364.348	319.26
364.729	309.31
365.111	299.14
365.493	321.29
365.874	295.53
366.256	294.63
366.637	331.46
367.019	323.78
367.4	326.49
367.781	280.61
368.163	321.52
368.544	311.35
368.925	295.08
369.306	306.83
369.688	297.56
370.069	300.27
370.45	317.68
370.831	308.18
371.212	317.9
371.593	307.05
371.974	319.03
372.355	301.18
372.736	333.72
373.117	316.32
373.498	313.83
373.879	304.57
374.26	310.9
374.641	319.26
375.021	311.8
375.402	314.06
375.783	336.66
376.163	311.35
376.544	345.47
376.925	316.77
377.305	325.13
377.686	318.13
378.066	316.77
378.447	333.49
378.827	325.13
379.208	332.59
379.588	323.78
379.968	322.19
380.349	335.08
380.729	322.87
381.109	334.62
381.489	323.78
381.87	330.56
382.25	336.21
382.63	335.53
383.01	331.91
383.39	336.43
383.77	343.66
384.15	346.6
384.53	344.57
384.91	319.94
385.29	355.41
385.67	351.12
386.049	362.42
386.429	348.18
386.809	326.71
387.189	337.56
387.568	349.09
387.948	332.14
388.328	352.93
388.707	356.54
389.087	357.67
389.466	358.35
389.846	366.71
390.225	356.77
390.605	342.99
390.984	355.41
391.363	340.5
391.743	355.64
392.122	386.6
392.501	350.22
392.881	376.66
393.26	378.24
393.639	375.07
394.018	365.13
394.397	374.4
394.776	386.6
395.155	373.94
395.534	386.15
395.913	388.86
396.292	395.64
396.671	368.52
397.05	389.54
397.429	394.06
397.808	380.72
398.186	383.66
398.565	395.64
398.944	404.23
399.323	392.02
399.701	409.2
400.08	406.49
400.458	420.5
400.837	416.2
401.215	402.64
401.594	432.02
401.972	407.39
402.351	425.24
402.729	418.01
403.107	445.13
403.486	437.9
403.864	425.92
404.242	447.16
404.62	432.25
404.999	434.96
405.377	452.81
405.755	428.86
406.133	442.64
406.511	458.46
406.889	486.71
407.267	451.23
407.645	480.83
408.023	467.05
408.401	467.5
408.779	463.43
409.156	498.01
409.534	495.75
409.912	491.23
410.29	521.06
410.667	498.24
411.045	525.35
411.422	527.39
411.8	531.23
412.178	553.15
412.555	551.34
412.933	545.47
413.31	547.5
413.687	568.52
414.065	569.42
414.442	579.14
414.819	588.85
415.197	585.92
415.574	599.93
415.951	615.52
416.328	592.02
416.705	627.95
417.082	622.3
417.46	655.75
417.837	644.45
418.214	633.6
418.591	660.49
418.967	676.54
419.344	675.63
419.721	691.68
420.098	690.77
420.475	686.48
420.852	721.96
421.228	710.43
421.605	700.49
421.982	716.53
422.358	743.2
422.735	758.57
423.111	759.92
423.488	771
423.864	792.92
424.241	797.44
424.617	814.84
424.994	816.42
425.37	823.65
425.746	829.07
426.123	814.84
426.499	853.48
426.875	836.98
427.251	883.76
427.627	890.54
428.003	877.43
428.379	915.17
428.756	903.65
429.132	922.18
429.507	900.26
429.883	943.87
430.259	980.93
430.635	965.34
431.011	975.74
431.387	993.14
431.763	1029.07
432.138	1018.45
432.514	1014.38
432.89	1060.03
433.265	1050.99
433.641	1059.12
434.016	1075.17
434.392	1085.56
434.767	1139.57
435.143	1139.35
435.518	1171.89
435.894	1173.92
436.269	1185
436.644	1200.82
437.02	1206.01
437.395	1229.06
437.77	1256.18
438.145	1276.07
438.52	1290.08
438.895	1311.77
439.271	1334.15
439.646	1340.25
440.021	1371.43
440.395	1395.61
440.77	1369.63
441.145	1409.17
441.52	1453.69
441.895	1434.71
442.27	1461.15
442.645	1452.56
443.019	1502.5
443.394	1492.56
443.769	1490.3
444.143	1516.51
444.518	1515.16
444.892	1571.65
445.267	1578.43
445.641	1571.88
446.016	1572.78
446.39	1599.68
446.764	1630.86
447.139	1609.17
447.513	1649.17
447.887	1658.88
448.262	1639
448.636	1672.44
449.01	1681.93
449.384	1692.55
449.758	1720.12
450.132	1738.88
450.506	1755.15
450.88	1720.58
451.254	1791.76
451.628	1800.12
452.002	1813.68
452.376	1816.17
452.75	1844.64
453.123	1857.3
453.497	1888.03
453.871	1878.76
454.244	1944.75
454.618	1969.84
454.992	1968.71
455.365	1978.65
455.739	2063.62
456.112	2035.82
456.486	2062.04
456.859	2071.3
457.232	2153.79
457.606	2114.24
457.979	2168.93
458.352	2182.71
458.725	2234.91
459.099	2245.08
459.472	2282.14
459.845	2302.26
460.218	2330.96
460.591	2373.89
460.964	2377.73
461.337	2402.59
461.71	2475.58
462.083	2525.07
462.456	2497.96
462.829	2538.86
463.201	2548.35
463.574	2562.36
463.947	2620.89
464.32	2647.56
464.692	2710.83
465.065	2678.52
465.438	2785.18
465.81	2814.78
466.183	2842.13
466.555	2907.21
466.928	2951.5
467.3	2944.95
467.672	3002.58
468.045	3070.82
468.417	3049.13
468.789	3127.32
469.161	3169.35
469.534	3215.23
469.906	3279.63
470.278	3318.95
470.65	3345.17
471.022	3428.78
471.394	3511.26
471.766	3572.73
472.138	3595.78
472.51	3670.36
472.882	3748.09
473.253	3742.22
473.625	3833.52
473.997	3933.17
474.369	3942.66
474.74	4014.08
475.112	4102.43
475.484	4171.13
475.855	4245.48
476.227	4292.94
476.598	4424.69
476.97	4448.41
477.341	4578.58
477.713	4666.49
478.084	4723.66
478.455	4867.39
478.827	4913.26
479.198	5037.78
479.569	5056.08
479.94	5244.1
480.311	5293.36
480.682	5386.24
481.053	5542.62
481.424	5617.65
481.795	5697.19
482.166	5790.07
482.537	5880.92
482.908	6044.08
483.279	6100.12
483.65	6247.01
484.021	6339.44
484.391	6438.64
484.762	6574.91
485.133	6520.68
485.503	6752.08
485.874	6906.65
486.244	6999.76
486.615	7111.39
486.985	7248.79
487.356	7338.73
487.726	7390.03
488.097	7562
488.467	7592.06
488.837	7838.38
489.207	7940.98
489.578	8035.89
489.948	8098.49
490.318	8270.46
490.688	8266.39
491.058	8424.13
491.428	8546.84
491.798	8594.75
492.168	8838.58
492.538	8777.79
492.908	8947.96
493.278	9072.02
493.648	9058.24
494.017	9222.53
494.387	9257.78
494.757	9377.1
495.126	9484.67
495.496	9561.95
495.866	9610.99
496.235	9676.75
496.605	9800.36
496.974	9779.8
497.344	9943.64
497.713	9964.65
498.082	10032.67
498.452	10154.93
498.821	10194.7
499.19	10189.51
499.559	10326.9
499.928	10363.51
500.298	10440.57
500.667	10469.5
501.036	10470.18
501.405	10580.91
501.774	10542.94
502.143	10576.84
502.512	10687.35
502.88	10730.96
503.249	10735.71
503.618	10829.72
503.987	10870.62
504.356	10938.64
504.724	10959.2
505.093	10978.64
505.462	11096.6
505.83	11110.16
506.199	11155.36
506.567	11197.39
506.936	11199.88
507.304	11297.95
507.672	11352.87
508.041	11371.85
508.409	11397.16
508.777	11447.33
509.145	11554.22
509.514	11559.41
509.882	11587.44
510.25	11493.2
510.618	11600.54
510.986	11642.35
511.354	11725.74
511.722	11703.36
512.09	11749.92
512.458	11781.55
512.826	11831.5
513.193	11821.78
513.561	11848.22
513.929	11821.33
514.297	11925.28
514.664	11999.85
515.032	11944.04
515.4	12035.33
515.767	12051.38
516.135	12047.54
516.502	11962.57
516.869	12187.87
517.237	12173.63
517.604	12088.89
517.972	12156.23
518.339	12200.07
518.706	12083.92
519.073	12174.54
519.44	12274.87
519.808	12281.2
520.175	12286.85
520.542	12385.15
520.909	12429
521.276	12314.87
521.643	12355.32
522.009	12397.81
522.376	12429.67
522.743	12457.92
523.11	12556
523.477	12523.91
523.843	12537.24
524.21	12606.84
524.577	12568.43
524.943	12631.25
525.31	12590.57
525.676	12680.29
526.043	12680.06
526.409	12678.03
526.776	12740.63
527.142	12680.74
527.508	12733.62
527.874	12784.69
528.241	12683.45
528.607	12774.07
528.973	12765.48
529.339	12678.25
529.705	12668.76
530.071	12814.3
530.437	12753.73
530.803	12776.78
531.169	12768.65
531.535	12638.71
531.901	12656.79
532.267	12657.24
532.632	12678.93
532.998	12628.54
533.364	12615.43
533.73	12546.96
534.095	12677.35
534.461	12560.07
534.826	12638.71
535.192	12596.22
535.557	12549.9
535.923	12382.44
536.288	12455.89
536.653	12415.89
537.019	12329.56
537.384	12319.17
537.749	12346.96
538.114	12232.62
538.479	12263.8
538.845	12270.58
539.21	12218.15
539.575	12127.99
539.94	12070.59
540.305	12174.54
540.67	12074.43
541.034	11982.45
541.399	12024.49
541.764	11967.31
542.129	11896.81
542.494	11860.87
542.858	11859.74
543.223	11739.3
543.587	11758.73
543.952	11656.81
544.316	11670.6
544.681	11564.39
545.045	11556.93
545.41	11549.92
545.774	11549.92
546.138	11412.07
546.503	11432.86
546.867	11314.22
547.231	11395.58
547.595	11309.02
547.959	11303.15
548.324	11214.56
548.688	11187.45
549.052	11211.17
549.416	11077.84
549.779	11038.52
550.143	11037.85
550.507	10964.4
550.871	11033.55
551.235	10910.39
551.599	10974.34
551.962	10912.88
552.326	10892.09
552.689	10835.14
553.053	10685.54
553.417	10685.99
553.78	10797.17
554.143	10705.65
554.507	10710.4
554.87	10723.73
555.234	10775.25
555.597	10577.07
555.96	10596.73
556.323	10592.21
556.686	10488.93
557.05	10509.95
557.413	10469.72
557.776	10537.07
558.139	10545.2
558.502	10469.95
558.865	10425.66
559.228	10394.47
559.59	10512.44
559.953	10401.25
560.316	10483.74
560.679	10403.96
561.041	10391.31
561.404	10414.81
561.767	10431.53
562.129	10346.34
562.492	10456.84
562.854	10387.92
563.217	10371.42
563.579	10358.77
563.941	10368.71
564.304	10380.01
564.666	10345.21
565.028	10310.86
565.39	10393.12
565.753	10344.08
566.115	10400.8
566.477	10404.19
566.839	10410.07
567.201	10398.77
567.563	10369.16
567.925	10388.14
568.287	10340.46
568.648	10379.56
569.01	10427.47
569.372	10429.05
569.734	10382.27
570.095	10445.32
570.457	10416.62
570.819	10399.22
571.18	10417.3
571.542	10470.85
571.903	10414.58
572.265	10474.92
572.626	10461.82
572.987	10476.28
573.349	10451.87
573.71	10542.04
574.071	10451.87
574.432	10487.8
574.794	10500.23
575.155	10498.65
575.516	10448.93
575.877	10469.72
576.238	10505.66
576.599	10509.72
576.96	10500.23
577.32	10405.32
577.681	10499.33
578.042	10512.66
578.403	10466.56
578.763	10480.57
579.124	10435.15
579.485	10526.45
579.845	10511.98
580.206	10431.76
580.566	10511.08
580.927	10522.6
581.287	10535.94
581.648	10439.44
582.008	10478.54
582.368	10570.06
582.728	10503.17
583.089	10456.62
583.449	10469.5
583.809	10438.99
584.169	10423.17
584.529	10344.08
584.889	10446.67
585.249	10381.82
585.609	10349.73
585.969	10427.69
586.329	10341.37
586.688	10403.29
587.048	10354.47
587.408	10327.36
587.768	10323.29
588.127	10337.3
588.487	10243.52
588.846	10360.35
589.206	10295.27
589.565	10207.58
589.925	10260.92
590.284	10345.89
590.643	10270.63
591.003	10283.06
591.362	10357.19
591.721	10275.15
592.08	10267.47
592.44	10242.84
592.799	10239
593.158	10243.74
593.517	10213.91
593.876	10175.27
594.235	10177.75
594.593	10152.9
594.952	10271.09
595.311	10162.61
595.67	10132.33
596.029	10162.61
596.387	10231.09
596.746	10179.79
597.104	10184.76
597.463	10102.28
597.822	10159
598.18	10114.25
598.538	10105.89
598.897	10174.82
599.255	10032
599.613	10149.96
599.972	10093.69
600.33	10125.1
600.688	10063.18
601.046	10137.98
601.404	10137.76
601.762	10141.37
602.12	10211.88
602.478	10121.03
602.836	10091.2
603.194	10193.12
603.552	10123.52
603.91	10054.14
604.268	10096.85
604.625	10145.44
604.983	10115.61
605.341	10084.42
605.698	10107.47
606.056	10144.08
606.413	10107.93
606.771	10145.44
607.128	10203.74
607.485	10075.16
607.843	10099.11
608.2	10153.57
608.557	10125.55
608.914	10159
609.272	10155.83
609.629	10194.7
609.986	10236.96
610.343	10182.5
610.7	10184.76
611.057	10130.75
611.414	10170.52
611.771	10191.09
612.127	10198.77
612.484	10235.15
612.841	10226.79
613.198	10140.69
613.554	10149.06
613.911	10272.44
614.267	10218.66
614.624	10187.92
614.98	10250.3
615.337	10281.26
615.693	10299.33
616.05	10285.55
616.406	10403.74
616.762	10244.19
617.118	10201.94
617.475	10297.3
617.831	10375.26
618.187	10299.11
618.543	10320.35
618.899	10299.56
619.255	10312.44
619.611	10314.47
619.967	10436.28
620.323	10306.34
620.678	10337.07
621.034	10349.95
621.39	10340.01
621.746	10272.44
622.101	10402.38
622.457	10323.97
622.812	10350.63
623.168	10379.33
623.523	10357.19
623.879	10400.35
624.234	10345.21
624.589	10407.58
624.945	10364.64
625.3	10399.22
625.655	10335.72
626.01	10333.46
626.365	10382.27
626.72	10309.73
627.075	10361.7
627.43	10283.29
627.785	10302.05
628.14	10314.25
628.495	10276.96
628.85	10275.61
629.205	10287.13
629.559	10239.45
629.914	10211.88
630.269	10255.95
630.623	10229.05
630.978	10263.85
631.332	10281.71
631.687	10276.96
632.041	10235.61
632.396	10236.51
632.75	10118.77
633.104	10241.93
633.459	10163.97
633.813	10165.33
634.167	10119.45
634.521	10096.85
634.875	10128.49
635.229	10116.51
635.583	10032
635.937	10078.55
636.291	10038.32
636.645	10008.27
636.999	10050.07
637.352	10009.4
637.706	9964.2
638.06	10033.35
638.413	10003.07
638.767	9974.14
639.121	9988.61
639.474	9939.34
639.828	9942.28
640.181	9979.12
640.534	9960.59
640.888	9876.52
641.241	9852.34
641.594	9871.1
641.947	9934.37
642.301	9899.8
642.654	9861.38
643.007	9812.11
643.36	9808.95
643.713	9810.31
644.066	9844.43
644.419	9776.86
644.771	9741.38
645.124	9654.6
645.477	9610.09
645.83	9599.01
646.182	9539.81
646.535	9532.12
646.888	9511.33
647.24	9452.58
647.593	9477.66
647.945	9434.5
648.298	9445.34
648.65	9521.5
649.002	9404.44
649.355	9488.73
649.707	9442.63
650.059	9557.43
650.411	9626.81
650.763	9668.39
651.115	9722.4
651.467	9685.79
651.819	9780.48
652.171	9705.23
652.523	9649.86
652.875	9745
653.227	9687.15
653.578	9746.35
653.93	9683.08
654.282	9586.13
654.633	9712.46
654.985	9730.99
655.337	9701.84
655.688	9664.1
656.039	9711.1
656.391	9651.89
656.742	9657.09
657.094	9665.9
657.445	9774.6
657.796	9705.9
658.147	9625
658.498	9721.72
658.849	9672.68
659.2	9693.7
659.551	9685.79
659.902	9691.67
660.253	9764.21
660.604	9715.39
660.955	9753.59
661.306	9761.95
661.656	9787.93
662.007	9786.8
662.358	9746.35
662.708	9726.92
663.059	9703.87
663.409	9637.88
663.76	9798.33
664.11	9759.69
664.461	9746.58
664.811	9777.09
665.161	9785.9
665.511	9741.83
665.862	9735.73
666.212	9848.95
666.562	9796.75
666.912	9726.92
667.262	9697.32
667.612	9792.45
667.962	9774.38
668.312	9721.27
668.662	9797.88
669.011	9726.47
669.361	9697.77
669.711	9742.06
670.06	9747.03
670.41	9778.44
670.76	9746.13
671.109	9746.81
671.459	9751.33
671.808	9625.45
672.157	9700.93
672.507	9669.52
672.856	9648.73
673.205	9660.25
673.554	9704.55
673.904	9656.19
674.253	9667.94
674.602	9716.75
674.951	9545.91
675.3	9532.35
675.649	9653.7
675.998	9619.35
676.346	9585
676.695	9620.71
677.044	9611.22
677.393	9550.88
677.741	9535.96
678.09	9625
678.438	9514.95
678.787	9527.38
679.135	9475.17
679.484	9469.3
679.832	9445.57
680.181	9410.54
680.529	9421.16
680.877	9447.6
681.225	9379.13
681.573	9472.24
681.922	9373.03
682.27	9356.31
682.618	9406.93
682.966	9306.14
683.314	9303.65
683.661	9325.35
684.009	9267.95
684.357	9246.48
684.705	9253.26
685.053	9253.49
685.4	9220.94
685.748	9170.78
686.095	9160.83
686.443	9189.08
686.79	9126.48
687.138	9152.02
687.485	9086.48
687.832	9098.24
688.18	9073.15
688.527	9048.75
688.874	8951.57
689.221	8945.92
689.568	8943.21
689.915	8919.48
690.262	8928.97
690.609	8909.31
690.956	8804.68
691.303	8857.11
691.65	8804.23
691.997	8780.73
692.344	8816.43
692.69	8714.06
693.037	8672.71
693.383	8598.59
693.73	8636.33
694.077	8602.66
694.423	8580.28
694.769	8545.71
695.116	8517.46
695.462	8521.3
695.808	8401.08
696.155	8471.59
696.501	8373.51
696.847	8446.28
697.193	8311.59
697.539	8349.78
697.885	8236.11
698.231	8234.98
698.577	8215.09
698.923	8196.56
699.269	8170.12
699.614	8217.35
699.96	8143.68
700.306	8076.12
700.651	8117.92
700.997	7994.99
701.342	7983.24
701.688	8018.94
702.033	7981.2
702.379	7914.76
702.724	7946.85
703.069	7969
703.415	7833.18
703.76	7842.9
704.105	7795.22
704.45	7765.39
704.795	7707.09
705.14	7683.81
705.485	7714.32
705.83	7650.36
706.175	7681.32
706.52	7597.48
706.865	7626.86
707.209	7610.82
707.554	7548.45
707.899	7536.69
708.243	7555.23
708.588	7416.47
708.932	7422.12
709.277	7444.95
709.621	7422.12
709.966	7351.16
710.31	7363.82
710.654	7267.78
710.998	7373.31
711.342	7297.15
711.687	7288.34
712.031	7270.94
712.375	7197.04
712.719	7178.51
713.063	7229.81
713.407	7251.73
713.75	7194.78
714.094	7136.93
714.438	7152.98
714.782	7193.2
715.125	7168.57
715.469	7129.25
715.812	7023.71
716.156	7108.68
716.499	7057.39
716.843	7045.41
717.186	7049.7
717.53	7047.67
717.873	7068.68
718.216	7022.13
718.559	7013.77
718.902	7046.54
719.246	7043.83
719.589	6905.07
719.932	6964.73
720.275	6934.68
720.617	6960.89
720.96	6915.69
721.303	6942.36
721.646	6963.83
721.989	6887.9
722.331	6901.91
722.674	6889.48
723.016	6883.38
723.359	6899.88
723.701	6889.25
724.044	6857.84
724.386	6839.76
724.729	6872.08
725.071	6882.93
725.413	6886.54
725.755	6871.4
726.097	6848.35
726.439	6817.17
726.782	6774.68
727.124	6779.43
727.465	6834.34
727.807	6811.52
728.149	6763.16
728.491	6781.69
728.833	6801.8
729.175	6794.79
729.516	6747.34
729.858	6782.14
730.199	6783.49
730.541	6748.92
730.882	6732.87
731.224	6815.58
731.565	6696.72
731.906	6724.51
732.248	6749.37
732.589	6746.43
732.93	6707.56
733.271	6716.15
733.612	6757.73
733.953	6774.45
734.294	6800.89
734.635	6706.21
734.976	6751.18
735.317	6785.75
735.658	6716.83
735.999	6766.32
736.339	6764.96
736.68	6794.57
737.021	6771.97
737.361	6731.52
737.702	6768.81
738.042	6754.57
738.383	6780.56
738.723	6804.96
739.063	6807
739.404	6821.01
739.744	6796.15
740.084	6815.81
740.424	6882.02
740.764	6809.71
741.104	6896.71
741.444	6821.69
741.784	6894.23
742.124	6920.21
742.464	6912.3
742.804	6958.86
743.143	6925.86
743.483	6996.82
743.823	6947.78
744.162	6983.04
744.502	7053.77
744.841	7094.67
745.181	7067.1
745.52	7108.01
745.86	7163.6
746.199	7124.05
746.538	7278.62
746.877	7317.72
747.216	7316.36
747.556	7306.87
747.895	7432.74
748.234	7409.69
748.573	7501.44
748.911	7523.36
749.25	7599.52
749.589	7566.52
749.928	7700.08
750.267	7785.28
750.605	7866.86
750.944	7918.15
751.283	7871.83
751.621	8034.08
751.96	8140.52
752.298	8219.16
752.636	8259.39
752.975	8378.71
753.313	8429.55
753.651	8584.35
753.989	8670.9
754.327	8824.34
754.666	8828.19
755.004	8954.74
755.342	9144.11
755.679	9232.7
756.017	9324.9
756.355	9517.89
756.693	9613.02
757.031	9781.16
757.368	9853.92
757.706	9992.68
758.044	10093.24
758.381	10308.82
758.719	10396.51
759.056	10604.18
759.394	10771.41
759.731	10850.28
760.068	11035.59
760.405	11167.33
760.743	11311.74
761.08	11490.94
761.417	11632.63
761.754	11799.41
