Data from hue_280_FLMS001491_00049.txt Node
Date: Tue Feb 07 15:55:20 GMT 2017
User: dcchb
Spectrometer: FLMS00149
Trigger mode: 0
Integration Time (sec): 2.000000E-2
Scans to average: 10
Electric dark correction enabled: true
Nonlinearity correction enabled: false
Boxcar width: 0
XAxis mode: Wavelengths
Number of Pixels in Spectrum: 2048
>>>>>Begin Spectral Data<<<<<
341.393	-36.91
341.776	-36.91
342.16	-36.91
342.543	-58.37
342.927	-61.54
343.31	-59.5
343.693	-74.42
344.077	-71.93
344.46	-73.74
344.843	-39.39
345.226	-45.49
345.61	-25.61
345.993	-10.92
346.376	5.58
346.759	6.03
347.142	37.22
347.525	37.89
347.908	65.24
348.291	73.15
348.674	82.19
349.057	93.71
349.44	128.06
349.823	133.49
350.206	157.21
350.588	163.99
350.971	200.6
351.354	198.57
351.737	214.84
352.119	225.91
352.502	255.97
352.884	256.19
353.267	274.27
353.65	273.82
354.032	286.48
354.414	276.31
354.797	308.85
355.179	302.07
355.562	317.21
355.944	315.4
356.326	308.4
356.709	305.46
357.091	306.14
357.473	324.21
357.855	331.67
358.238	321.73
358.62	329.86
359.002	323.08
359.384	337.1
359.766	308.17
360.148	315.85
360.53	326.47
360.912	314.27
361.294	319.02
361.676	312.92
362.057	343.42
362.439	305.23
362.821	318.11
363.203	334.84
363.584	326.7
363.966	300.94
364.348	287.83
364.729	316.08
365.111	303.42
365.493	305.01
365.874	311.11
366.256	305.23
366.637	324.89
367.019	293.71
367.4	285.8
367.781	284.44
368.163	297.1
368.544	295.74
368.925	297.32
369.306	286.48
369.688	294.38
370.069	307.49
370.45	272.01
370.831	285.57
371.212	300.03
371.593	286.25
371.974	286.48
372.355	308.85
372.736	320.15
373.117	330.77
373.498	323.99
373.879	303.42
374.26	312.01
374.641	300.26
375.021	292.58
375.402	299.13
375.783	316.53
376.163	319.47
376.544	326.25
376.925	302.07
377.305	330.32
377.686	321.73
378.066	306.14
378.447	314.5
378.827	326.47
379.208	335.74
379.588	322.18
379.968	329.86
380.349	311.56
380.729	328.51
381.109	335.51
381.489	325.57
381.87	328.51
382.25	332.35
382.63	309.53
383.01	308.17
383.39	344.1
383.77	338
384.15	326.02
384.53	326.25
384.91	336.42
385.29	330.54
385.67	341.84
386.049	322.41
386.429	342.75
386.809	332.8
387.189	346.13
387.568	349.3
387.948	344.1
388.328	328.96
388.707	353.82
389.087	349.98
389.466	340.71
389.846	381.16
390.225	352.69
390.605	344.55
390.984	345.23
391.363	349.98
391.743	342.29
392.122	347.72
392.501	354.72
392.881	340.26
393.26	349.75
393.639	359.47
394.018	371.45
394.397	381.16
394.776	377.09
395.155	345.91
395.534	361.5
395.913	379.13
396.292	372.57
396.671	382.97
397.05	357.21
397.429	397.89
397.808	387.49
398.186	370.54
398.565	388.85
398.944	397.66
399.323	394.04
399.701	406.02
400.08	389.75
400.458	413.48
400.837	401.73
401.215	392.69
401.594	381.84
401.972	408.05
402.351	413.25
402.729	422.52
403.107	421.39
403.486	391.33
403.864	415.74
404.242	425.23
404.62	434.95
404.999	407.15
405.377	425.68
405.755	454.83
406.133	432.23
406.511	440.6
406.889	447.6
407.267	442.86
407.645	463.87
408.023	454.83
408.401	456.41
408.779	466.13
409.156	465
409.534	498.9
409.912	489.63
410.29	484.66
410.667	484.89
411.045	491.89
411.422	536.41
411.8	506.13
412.178	497.77
412.555	513.81
412.933	521.05
413.31	530.31
413.687	549.29
414.065	520.37
414.442	545
414.819	537.99
415.197	560.14
415.574	571.67
415.951	563.98
416.328	586.81
416.705	573.7
417.082	603.08
417.46	590.65
417.837	591.33
418.214	617.99
418.591	627.26
418.967	612.12
419.344	615.73
419.721	650.31
420.098	647.82
420.475	643.3
420.852	671.78
421.228	663.64
421.605	660.93
421.982	687.82
422.358	710.42
422.735	704.09
423.111	709.74
423.488	721.49
423.864	737.76
424.241	742.51
424.617	744.99
424.994	742.96
425.37	757.42
425.746	764.66
426.123	767.14
426.499	786.58
426.875	803.75
427.251	809.63
427.627	822.28
428.003	832.22
428.379	858.89
428.756	829.06
429.132	857.31
429.507	860.25
429.883	855.27
430.259	888.49
430.635	892.56
431.011	914.26
431.387	915.16
431.763	965.78
432.138	945.44
432.514	940.47
432.89	978.66
433.265	966.23
433.641	959.23
434.016	947.7
434.392	1015.04
434.767	1025.44
435.143	1049.85
435.518	1041.03
435.894	1045.1
436.269	1072.67
436.644	1077.19
437.02	1104.76
437.395	1122.61
437.77	1130.07
438.145	1160.8
438.52	1131.88
438.895	1189.05
439.271	1167.36
439.646	1180.24
440.021	1193.8
440.395	1193.8
440.77	1200.58
441.145	1236.96
441.52	1240.35
441.895	1239.67
442.27	1268.14
442.645	1249.84
443.019	1303.85
443.394	1314.47
443.769	1303.4
444.143	1299.33
444.518	1310.63
444.892	1308.14
445.267	1324.41
445.641	1353.57
446.016	1358.76
446.39	1314.92
446.764	1354.92
447.139	1354.92
447.513	1346.33
447.887	1371.42
448.262	1377.97
448.636	1377.52
449.01	1386.79
449.384	1411.42
449.758	1392.66
450.132	1430.4
450.506	1434.69
450.88	1436.05
451.254	1451.42
451.628	1467.01
452.002	1480.12
452.376	1480.34
452.75	1476.5
453.123	1488.25
453.497	1488.25
453.871	1499.78
454.244	1553.11
454.618	1576.61
454.992	1559.89
455.365	1583.16
455.739	1605.76
456.112	1592.2
456.486	1631.75
456.859	1604.63
457.232	1632.2
457.606	1612.32
457.979	1653.67
458.352	1670.39
458.725	1655.48
459.099	1684.18
459.472	1724.18
459.845	1760.34
460.218	1773.89
460.591	1800.79
460.964	1756.49
461.337	1773.22
461.71	1848.92
462.083	1833.1
462.456	1832.2
462.829	1810.5
463.201	1845.98
463.574	1871.52
463.947	1899.54
464.32	1927.11
464.692	1919.43
465.065	1953.32
465.438	1984.51
465.81	1958.07
466.183	1996.71
466.555	2064.06
466.928	2035.13
467.3	2042.81
467.672	2079.65
468.045	2136.14
468.417	2137.27
468.789	2125.52
469.161	2135.92
469.534	2156.26
469.906	2196.03
470.278	2189.7
470.65	2221.79
471.022	2244.16
471.394	2312.18
471.766	2293.88
472.138	2318.74
472.51	2361.45
472.882	2412.75
473.253	2397.38
473.625	2426.76
473.997	2474.89
474.369	2473.76
474.74	2509.02
475.112	2510.15
475.484	2558.73
475.855	2587.43
476.227	2627.2
476.598	2685.73
476.97	2674.21
477.341	2727.99
477.713	2766.64
478.084	2742.23
478.455	2824.49
478.827	2812.28
479.198	2870.81
479.569	2906.29
479.94	2930.93
480.311	2926.63
480.682	3016.57
481.053	3081.66
481.424	3110.58
481.795	3120.3
482.166	3176.34
482.537	3168.43
482.908	3213.18
483.279	3273.74
483.65	3301.31
484.021	3381.08
484.391	3369.56
484.762	3375.89
485.133	3409.78
485.503	3503.79
485.874	3522.77
486.244	3489.56
486.615	3490.46
486.985	3550.8
487.356	3652.26
487.726	3670.57
488.097	3734.07
488.467	3712.83
488.837	3794.86
489.207	3783.78
489.578	3878.92
489.948	3914.4
490.318	3903.1
490.688	3892.03
491.058	3965.02
491.428	4055.87
491.798	4079.14
492.168	4106.04
492.538	4121.63
492.908	4154.17
493.278	4238.01
493.648	4212.93
494.017	4244.56
494.387	4301.29
494.757	4299.03
495.126	4292.92
495.496	4372.47
495.866	4348.74
496.235	4366.82
496.605	4433.94
496.974	4420.83
497.344	4441.17
497.713	4493.82
498.082	4459.02
498.452	4547.83
498.821	4580.83
499.19	4528.4
499.559	4567.72
499.928	4618.34
500.298	4607.49
500.667	4650.2
501.036	4634.16
501.405	4646.36
501.774	4674.83
502.143	4708.73
502.512	4730.88
502.88	4752.35
503.249	4754.38
503.618	4802.51
503.987	4803.19
504.356	4781.72
504.724	4787.37
505.093	4835.96
505.462	4867.15
505.83	4884.32
506.199	4873.47
506.567	4927.48
506.936	4900.14
507.304	4981.95
507.672	4977.65
508.041	4940.14
508.409	4994.37
508.777	5028.5
509.145	5050.42
509.514	5039.57
509.882	5104.88
510.25	5061.27
510.618	5110.53
510.986	5094.48
511.354	5144.43
511.722	5160.02
512.09	5181.71
512.458	5147.82
512.826	5235.5
513.193	5218.78
513.561	5192.79
513.929	5182.62
514.297	5279.56
514.664	5310.98
515.032	5234.82
515.4	5292.22
515.767	5355.04
516.135	5326.79
516.502	5307.81
516.869	5342.16
517.237	5342.39
517.604	5366.34
517.972	5388.49
518.339	5352.78
518.706	5411.09
519.073	5377.19
519.44	5431.42
519.808	5462.84
520.175	5429.17
520.542	5522.5
520.909	5504.64
521.276	5561.14
521.643	5530.18
522.009	5514.59
522.376	5600.69
522.743	5586.68
523.11	5637.3
523.477	5656.5
523.843	5658.09
524.21	5679.33
524.577	5729.95
524.943	5718.2
525.31	5757.52
525.676	5767.46
526.043	5764.75
526.409	5796.16
526.776	5840.45
527.142	5918.64
527.508	5794.81
527.874	5935.14
528.241	5947.57
528.607	5886.78
528.973	5929.27
529.339	5938.08
529.705	5974.24
530.071	6027.12
530.437	6081.13
530.803	6069.6
531.169	6073.89
531.535	6071.18
531.901	6081.35
532.267	6124.29
532.632	6132.65
532.998	6136.49
533.364	6166.32
533.73	6191.18
534.095	6196.15
534.461	6234.34
534.826	6249.71
535.192	6309.82
535.557	6298.29
535.923	6279.09
536.288	6303.27
536.653	6327.45
537.019	6254.45
537.384	6250.84
537.749	6394.79
538.114	6363.15
538.479	6380.78
538.845	6421.23
539.21	6327.9
539.575	6389.59
539.94	6453.32
540.305	6452.64
540.67	6395.47
541.034	6499.42
541.399	6462.81
541.764	6480.21
542.129	6517.95
542.494	6477.05
542.858	6517.27
543.223	6493.32
543.587	6531.28
543.952	6535.58
544.316	6571.96
544.681	6581
545.045	6589.59
545.41	6625.97
545.774	6590.72
546.138	6655.57
546.503	6639.75
546.867	6594.56
547.231	6748.45
547.595	6684.5
547.959	6689.25
548.324	6699.19
548.688	6692.41
549.052	6679.3
549.416	6703.03
549.779	6730.15
550.143	6712.3
550.507	6766.31
550.871	6809.92
551.235	6737.83
551.599	6809.92
551.962	6788.45
552.326	6848.34
552.689	6849.24
553.053	6800.2
553.417	6778.06
553.78	6933.53
554.143	6873.19
554.507	6866.19
554.87	6868.45
555.234	6967.88
555.597	6932.85
555.96	6904.15
556.323	6948.22
556.686	6966.07
557.05	6985.28
557.413	6993.64
557.776	6970.14
558.139	7044.04
558.502	7041.33
558.865	7066.41
559.228	7051.95
559.59	7067.31
559.953	7140.08
560.316	7200.64
560.679	7140.76
561.041	7196.8
561.404	7224.15
561.767	7217.82
562.129	7244.94
562.492	7298.49
562.854	7223.02
563.217	7314.54
563.579	7326.29
563.941	7364.48
564.304	7363.8
564.666	7433.41
565.028	7416.23
565.39	7440.64
565.753	7449
566.115	7438.15
566.477	7476.34
566.839	7565.61
567.201	7565.38
567.563	7584.36
567.925	7627.53
568.287	7605.83
568.648	7690.57
569.01	7677.47
569.372	7740.52
569.734	7709.56
570.095	7769.67
570.457	7840.18
570.819	7837.46
571.18	7791.14
571.542	7871.81
571.903	7820.97
572.265	7928.08
572.626	7961.08
572.987	7918.37
573.349	8008.53
573.71	8044.46
574.071	8007.4
574.432	8068.19
574.794	8158.13
575.155	8135.31
575.516	8130.11
575.877	8203.33
576.238	8183.22
576.599	8227.28
576.96	8246.49
577.32	8290.11
577.681	8399.93
578.042	8459.59
578.403	8341.86
578.763	8448.29
579.124	8470.67
579.485	8544.11
579.845	8640.61
580.206	8633.6
580.566	8592.25
580.927	8645.13
581.287	8704.11
581.648	8802.86
582.008	8851.9
582.368	8818.91
582.728	8923.54
583.089	8942.29
583.449	9037.66
583.809	9075.17
584.169	9064.78
584.529	9103.64
584.889	9210.99
585.249	9248.5
585.609	9255.96
585.969	9323.98
586.329	9360.14
586.688	9469.28
587.048	9414.82
587.408	9521.49
587.768	9521.94
588.127	9578.89
588.487	9643.07
588.846	9827.24
589.206	9811.42
589.565	9809.61
589.925	9928.71
590.284	9960.57
590.643	10055.94
591.003	10173.45
591.362	10204.63
591.721	10262.71
592.08	10277.85
592.44	10376.83
592.799	10413.21
593.158	10440.33
593.517	10558.07
593.876	10634.9
594.235	10657.05
594.593	10682.81
594.952	10772.75
595.311	10809.36
595.67	10918.96
596.029	11034.89
596.387	11058.85
596.746	11143.14
597.104	11103.82
597.463	11139.98
597.822	11357.82
598.18	11278.5
598.538	11282.57
598.897	11444.6
599.255	11355.34
599.613	11516.91
599.972	11479.18
600.33	11570.47
600.688	11509.46
601.046	11661.09
601.404	11711.49
601.762	11780.86
602.12	11798.94
602.478	11836.23
602.836	11899.96
603.194	11861.99
603.552	11882.55
603.91	11931.59
604.268	12000.74
604.625	11992.16
604.983	12094.07
605.341	12080.52
605.698	12185.6
606.056	12218.82
606.413	12253.17
606.771	12272.38
607.128	12263.79
607.485	12188.99
607.843	12280.28
608.2	12386.72
608.557	12457.91
608.914	12419.94
609.272	12536.77
609.629	12542.88
609.986	12562.08
610.343	12449.09
610.7	12678.92
611.057	12688.41
611.414	12681.18
611.771	12716.21
612.127	12815.19
612.484	12800.5
612.841	12839.37
613.198	12773.38
613.554	12813.83
613.911	12865.35
614.267	12915.07
614.624	12929.53
614.98	13068.06
615.337	12999.59
615.693	13000.27
616.05	13088.62
616.406	13079.59
616.762	13067.38
617.118	13059.7
617.475	13118.91
617.831	13214.05
618.187	13136.53
618.543	13151.45
618.899	13222.63
619.255	13214.95
619.611	13190.54
619.967	13307.15
620.323	13263.08
620.678	13293.14
621.034	13254.72
621.39	13347.38
621.746	13271.9
622.101	13414.27
622.457	13396.41
622.812	13355.96
623.168	13435.28
623.523	13492.46
623.879	13436.86
624.234	13411.78
624.589	13333.82
624.945	13472.8
625.3	13430.31
625.655	13382.63
626.01	13431.67
626.365	13416.75
626.72	13434.38
627.075	13465.79
627.43	13527.71
627.785	13348.5
628.14	13455.39
628.495	13487.71
628.85	13546.01
629.205	13471.67
629.559	13430.31
629.914	13433.93
630.269	13371.78
630.623	13427.15
630.978	13343.76
631.332	13395.74
631.687	13417.2
632.041	13363.87
632.396	13403.19
632.75	13406.13
633.104	13389.63
633.459	13317.77
633.813	13338.11
634.167	13360.26
634.521	13287.26
634.875	13352.35
635.229	13329.75
635.583	13254.5
635.937	13207.49
636.291	13250.65
636.645	13224.21
636.999	13211.11
637.352	13266.7
637.706	13186.25
638.06	13231.9
638.413	13157.78
638.767	13175.18
639.121	13234.16
639.474	13111.68
639.828	13075.29
640.181	13064.9
640.534	13162.52
640.888	13091.79
641.241	13061.96
641.594	13005.24
641.947	13115.74
642.301	13139.92
642.654	13112.8
643.007	13039.13
643.36	13057.67
643.713	12986.25
644.066	13074.61
644.419	13070.09
644.771	13044.33
645.124	12940.15
645.477	12787.62
645.83	12796.66
646.182	12702.19
646.535	12664
646.888	12660.16
647.24	12655.64
647.593	12675.98
647.945	12633.27
648.298	12623.78
648.65	12660.84
649.002	12607.96
649.355	12672.36
649.707	12652.48
650.059	12785.13
650.411	12861.74
650.763	12928.4
651.115	13092.69
651.467	12983.32
651.819	13011.11
652.171	13009.76
652.523	12987.61
652.875	12930.66
653.227	12980.15
653.578	12991.45
653.93	13040.04
654.282	12963.2
654.633	12917.78
654.985	12912.36
655.337	12940.61
655.688	12953.71
656.039	13024.22
656.391	12934.73
656.742	12938.57
657.094	12928.85
657.445	12987.16
657.796	12954.84
658.147	12989.64
658.498	12965.01
658.849	13049.53
659.2	13033.48
659.551	12985.12
659.902	13046.82
660.253	12946.03
660.604	13059.25
660.955	13017.89
661.306	13031.9
661.656	13014.95
662.007	13076.2
662.358	12992.36
662.708	13049.98
663.059	13011.79
663.409	12981.73
663.76	13121.39
664.11	13076.87
664.461	13001.62
664.811	13061.96
665.161	13051.56
665.511	13082.75
665.862	13092.01
666.212	13079.13
666.562	13126.36
666.912	13088.17
667.262	13033.26
667.612	13071.45
667.962	13084.33
668.312	13066.03
668.662	13181.28
669.011	13071
669.361	13046.59
669.711	13085.91
670.06	13133.6
670.41	13131.79
670.76	13078
671.109	13066.7
671.459	13032.13
671.808	13048.4
672.157	13085.01
672.507	12995.75
672.856	12966.14
673.205	13029.19
673.554	13050.43
673.904	12983.32
674.253	13002.98
674.602	12941.06
674.951	12719.59
675.3	12728.18
675.649	12938.35
675.998	12881.85
676.346	12838.24
676.695	12939.25
677.044	12893.38
677.393	12953.49
677.741	12833.49
678.09	12833.04
678.438	12772.47
678.787	12841.85
679.135	12781.97
679.484	12725.92
679.832	12702.42
680.181	12659.03
680.529	12714.4
680.877	12720.05
681.225	12686.38
681.573	12750.55
681.922	12680.5
682.27	12558.02
682.618	12652.7
682.966	12625.81
683.314	12547.17
683.661	12568.41
684.009	12486.83
684.357	12466.27
684.705	12443.44
685.053	12388.98
685.4	12441.86
685.748	12392.82
686.095	12343.56
686.443	12328.19
686.79	12314.86
687.138	12308.53
687.485	12281.19
687.832	12237.57
688.18	12267.18
688.527	12121.42
688.874	12184.92
689.221	12099.27
689.568	12092.27
689.915	11983.12
690.262	11961.2
690.609	11948.77
690.956	12004.81
691.303	11955.77
691.65	11831.03
691.997	11848.88
692.344	11751.03
692.69	11785.38
693.037	11737.25
693.383	11588.55
693.73	11612.73
694.077	11632.62
694.423	11534.54
694.769	11530.02
695.116	11503.58
695.462	11476.01
695.808	11385.84
696.155	11494.77
696.501	11374.09
696.847	11309.01
697.193	11232.18
697.539	11196.47
697.885	11141.33
698.231	11069.02
698.577	11087.77
698.923	11102.69
699.269	11012.52
699.614	10924.61
699.96	10894.78
700.306	10885.29
700.651	10896.14
700.997	10804.17
701.342	10793.09
701.688	10744.05
702.033	10712.42
702.379	10735.24
702.724	10671.74
703.069	10658.63
703.415	10539.99
703.76	10584.06
704.105	10479.65
704.45	10488.02
704.795	10455.47
705.14	10398.53
705.485	10311.3
705.83	10311.3
706.175	10333.22
706.52	10358.08
706.865	10248.02
707.209	10173
707.554	10179.77
707.899	10241.92
708.243	10074.01
708.588	10155.14
708.932	10060.91
709.277	10049.83
709.621	10037.41
709.966	9970.97
710.31	9985.43
710.654	9903.62
710.998	9913.12
711.342	9935.26
711.687	9898.2
712.031	9785.21
712.375	9831.99
712.719	9791.76
713.063	9782.5
713.407	9818.2
713.75	9786.34
714.094	9740.24
714.438	9733.68
714.782	9659.79
715.125	9663.86
715.469	9626.79
715.812	9566.91
716.156	9559
716.499	9535.5
716.843	9577.98
717.186	9564.88
717.53	9541.6
717.873	9518.32
718.216	9497.31
718.559	9478.78
718.902	9400.59
719.246	9454.82
719.589	9412.79
719.932	9384.99
720.275	9428.83
720.617	9366.69
720.96	9362.85
721.303	9354.49
721.646	9324.88
721.989	9310.65
722.331	9336.86
722.674	9337.31
723.016	9287.82
723.359	9311.32
723.701	9237.43
724.044	9197.2
724.386	9210.99
724.729	9228.84
725.071	9196.07
725.413	9232.91
725.755	9309.52
726.097	9217.54
726.439	9169.86
726.782	9203.98
727.124	9264.09
727.465	9240.82
727.807	9214.6
728.149	9216.64
728.491	9168.73
728.833	9226.35
729.175	9178.45
729.516	9180.7
729.858	9159.69
730.199	9143.19
730.541	9201.04
730.882	9084.44
731.224	9208.05
731.565	9077.2
731.906	9144.77
732.248	9156.07
732.589	9101.61
732.93	9162.63
733.271	9187.03
733.612	9135.96
733.953	9171.21
734.294	9148.16
734.635	9124.44
734.976	9167.82
735.317	9159.46
735.658	9125.79
735.999	9098.45
736.339	9142.06
736.68	9195.62
737.021	9097.09
737.361	9143.64
737.702	9134.83
738.042	9087.37
738.383	9159.46
738.723	9198.78
739.063	9191.78
739.404	9198.78
739.744	9250.99
740.084	9219.8
740.424	9256.64
740.764	9243.98
741.104	9287.14
741.444	9230.65
741.784	9273.13
742.124	9333.92
742.464	9325.33
742.804	9322.85
743.143	9282.62
743.483	9422.96
743.823	9357.42
744.162	9369.63
744.502	9462.05
744.841	9427.93
745.181	9520.13
745.52	9536.85
745.86	9620.69
746.199	9593.8
746.538	9648.26
746.877	9683.06
747.216	9754.7
747.556	9776.17
747.895	9808.71
748.234	9796.73
748.573	9834.93
748.911	9892.1
749.25	10010.97
749.589	10034.02
749.928	10146.1
750.267	10327.12
750.605	10286.66
750.944	10276.04
751.283	10383.39
751.621	10473.78
751.96	10554.68
752.298	10695.02
752.636	10782.7
752.975	10933.88
753.313	10959.19
753.651	11085.51
753.989	11119.64
754.327	11209.8
754.666	11292.06
755.004	11449.35
755.342	11593.07
755.679	11765.72
756.017	11778.83
756.355	11987.41
756.693	12017.92
757.031	12263.11
757.368	12323.45
757.706	12470.11
758.044	12507.4
758.381	12706.04
758.719	12775.19
759.056	12981.06
759.394	13085.24
759.731	13088.4
760.068	13342.86
760.405	13449.75
760.743	13546.24
761.08	13866.01
761.417	13941.03
761.754	14038.43
762.091	14224.41
