Data from hue_330_FLMS001491_57.txt Node
Date: Mon Feb 06 15:45:35 GMT 2017
User: dcchb
Spectrometer: FLMS00149
Trigger mode: 0
Integration Time (sec): 2.000000E-2
Scans to average: 10
Electric dark correction enabled: true
Nonlinearity correction enabled: false
Boxcar width: 0
XAxis mode: Wavelengths
Number of Pixels in Spectrum: 2048
>>>>>Begin Spectral Data<<<<<
341.393	-26.51
341.776	-26.51
342.16	-26.51
342.543	-80.97
342.927	-68.77
343.31	-82.55
343.693	-71.48
344.077	-71.71
344.46	-49.11
344.843	-41.43
345.226	-48.66
345.61	-13.86
345.993	-1.2
346.376	-2.78
346.759	8.74
347.142	27.73
347.525	31.12
347.908	45.58
348.291	63.2
348.674	84.9
349.057	121.51
349.44	113.82
349.823	135.97
350.206	164.44
350.588	192.47
350.971	193.14
351.354	229.53
351.737	213.94
352.119	233.14
352.502	280.37
352.884	269.75
353.267	280.83
353.65	291.45
354.032	282.41
354.414	309.07
354.797	325.57
355.179	315.4
355.562	312.24
355.944	327.15
356.326	326.93
356.709	342.29
357.091	328.06
357.473	341.16
357.855	321.73
358.238	320.82
358.62	330.77
359.002	309.07
359.384	327.38
359.766	347.94
360.148	348.17
360.53	333.71
360.912	331.9
361.294	326.93
361.676	329.19
362.057	321.05
362.439	319.92
362.821	339.58
363.203	313.82
363.584	338.9
363.966	316.31
364.348	330.09
364.729	307.94
365.111	302.07
365.493	318.11
365.874	312.92
366.256	308.85
366.637	303.2
367.019	311.33
367.4	309.07
367.781	311.11
368.163	315.4
368.544	298.45
368.925	297.77
369.306	326.02
369.688	321.28
370.069	323.54
370.45	316.31
370.831	307.49
371.212	298.23
371.593	290.54
371.974	308.62
372.355	311.11
372.736	299.58
373.117	274.5
373.498	319.24
373.879	335.06
374.26	301.39
374.641	333.48
375.021	297.77
375.402	312.92
375.783	311.11
376.163	282.63
376.544	315.85
376.925	327.83
377.305	322.86
377.686	313.82
378.066	325.12
378.447	340.26
378.827	316.08
379.208	317.44
379.588	336.19
379.968	327.15
380.349	326.47
380.729	317.44
381.109	319.92
381.489	319.24
381.87	328.96
382.25	326.47
382.63	310.66
383.01	330.99
383.39	338.68
383.77	321.5
384.15	340.03
384.53	356.3
384.91	354.5
385.29	349.75
385.67	350.65
386.049	359.47
386.429	338.9
386.809	354.04
387.189	348.85
387.568	353.37
387.948	344.33
388.328	342.75
388.707	352.91
389.087	336.87
389.466	344.78
389.846	367.83
390.225	366.7
390.605	367.6
390.984	371.45
391.363	368.96
391.743	365.57
392.122	374.16
392.501	372.35
392.881	368.28
393.26	366.93
393.639	370.32
394.018	361.28
394.397	364.21
394.776	371.45
395.155	397.43
395.534	368.96
395.913	360.6
396.292	397.89
396.671	382.97
397.05	389.98
397.429	390.65
397.808	378.9
398.186	383.65
398.565	384.1
398.944	375.74
399.323	382.29
399.701	388.62
400.08	399.24
400.458	402.63
400.837	402.4
401.215	386.36
401.594	418.45
401.972	404.66
402.351	410.99
402.729	412.57
403.107	389.3
403.486	411.67
403.864	423.65
404.242	434.72
404.62	417.09
404.999	415.29
405.377	425.68
405.755	432.01
406.133	434.72
406.511	410.31
406.889	431.33
407.267	443.31
407.645	460.93
408.023	450.99
408.401	444.66
408.779	444.21
409.156	462.52
409.534	470.65
409.912	461.39
410.29	485.34
410.667	482.85
411.045	480.82
411.422	483.53
411.8	498.67
412.178	503.64
412.555	506.81
412.933	507.49
413.31	490.54
413.687	507.03
414.065	513.81
414.442	540.93
414.819	543.64
415.197	526.24
415.574	537.32
415.951	552.68
416.328	535.28
416.705	543.19
417.082	554.04
417.46	590.42
417.837	566.47
418.214	580.25
418.591	572.34
418.967	575.73
419.344	591.1
419.721	605.56
420.098	613.25
420.475	622.51
420.852	624.32
421.228	629.29
421.605	625.45
421.982	635.62
422.358	642.62
422.735	650.08
423.111	654.83
423.488	686.69
423.864	668.39
424.241	656.18
424.617	658.44
424.994	709.97
425.37	696.41
425.746	695.5
426.123	706.58
426.499	708.16
426.875	709.97
427.251	737.31
427.627	736.18
428.003	750.42
428.379	760.59
428.756	738.22
429.132	758.55
429.507	798.78
429.883	765.33
430.259	799.46
430.635	768.95
431.011	800.13
431.387	808.72
431.763	817.76
432.138	852.56
432.514	832
432.89	850.75
433.265	857.76
433.641	835.16
434.016	880.81
434.392	883.75
434.767	910.64
435.143	903.41
435.518	907.93
435.894	913.35
436.269	898.66
436.644	934.37
437.02	932.56
437.395	955.38
437.77	948.38
438.145	972.56
438.52	978.21
438.895	972.56
439.271	981.6
439.646	1008.49
440.021	1008.72
440.395	1017.76
440.77	1013.91
441.145	1022.28
441.52	1036.51
441.895	1046.23
442.27	1051.88
442.645	1045.1
443.019	1035.38
443.394	1073.8
443.769	1056.85
444.143	1080.58
444.518	1053.69
444.892	1078.09
445.267	1074.93
445.641	1081.71
446.016	1083.74
446.39	1087.13
446.764	1102.05
447.139	1100.69
447.513	1083.74
447.887	1124.87
448.262	1108.15
448.636	1115.38
449.01	1132.1
449.384	1115.38
449.758	1134.14
450.132	1154.93
450.506	1143.63
450.88	1156.51
451.254	1181.37
451.628	1174.36
452.002	1204.42
452.376	1176.85
452.75	1178.88
453.123	1194.02
453.497	1206.45
453.871	1221.14
454.244	1233.12
454.618	1228.37
454.992	1241.93
455.365	1262.95
455.739	1259.78
456.112	1285.09
456.486	1287.35
456.859	1315.15
457.232	1320.12
457.606	1276.73
457.979	1293.68
458.352	1342.49
458.725	1364.19
459.099	1356.5
459.472	1366.9
459.845	1373.9
460.218	1387.46
460.591	1387.01
460.964	1418.65
461.337	1440.34
461.71	1465.88
462.083	1437.86
462.456	1461.81
462.829	1429.72
463.201	1470.63
463.574	1457.97
463.947	1503.84
464.32	1533.67
464.692	1562.37
465.065	1536.39
465.438	1568.48
465.81	1573.9
466.183	1587.91
466.555	1644.41
466.928	1601.47
467.3	1635.14
467.672	1627.01
468.045	1681.02
468.417	1705.42
468.789	1732.54
469.161	1736.83
469.534	1741.35
469.906	1761.01
470.278	1758.75
470.65	1808.92
471.022	1810.05
471.394	1841.01
471.766	1841.01
472.138	1863.84
472.51	1935.47
472.882	1927.11
473.253	1959.65
473.625	1966.43
473.997	1976.6
474.369	1979.54
474.74	2032.87
475.112	2070.84
475.484	2068.8
475.855	2108.57
476.227	2114.68
476.598	2168.69
476.97	2158.74
477.341	2273.09
477.713	2266.76
478.084	2250.72
478.455	2320.09
478.827	2335.91
479.198	2364.39
479.569	2368.23
479.94	2450.94
480.311	2459.98
480.682	2474.44
481.053	2529.35
481.424	2588.79
481.795	2578.62
482.166	2627.43
482.537	2652.06
482.908	2707.65
483.279	2757.6
483.65	2765.73
484.021	2808.67
484.391	2829.69
484.762	2840.98
485.133	2880.76
485.503	2937.03
485.874	2965.73
486.244	2967.76
486.615	3031.71
486.985	3049.79
487.356	3107.87
487.726	3116.91
488.097	3194.2
488.467	3177.02
488.837	3264.93
489.207	3275.55
489.578	3288.43
489.948	3342.44
490.318	3387.41
490.688	3396.45
491.058	3428.77
491.428	3463.34
491.798	3529.1
492.168	3540.85
492.538	3582.89
492.908	3592.38
493.278	3648.87
493.648	3680.96
494.017	3655.43
494.387	3698.14
494.757	3733.84
495.126	3786.04
495.496	3810.45
495.866	3812.03
496.235	3846.38
496.605	3871.01
496.974	3882.09
497.344	3894.52
497.713	3907.4
498.082	3957.11
498.452	3955.31
498.821	4016.09
499.19	4004.34
499.559	4007.96
499.928	4044.34
500.298	4071.23
500.667	4090.44
501.036	4118.69
501.405	4130.89
501.774	4126.37
502.143	4209.31
502.512	4198.69
502.88	4235.75
503.249	4217.22
503.618	4273.49
503.987	4269.65
504.356	4274.39
504.724	4311.23
505.093	4336.09
505.462	4312.36
505.83	4392.81
506.199	4414.28
506.567	4428.97
506.936	4418.57
507.304	4473.26
507.672	4455.18
508.041	4487.72
508.409	4471.68
508.777	4515.74
509.145	4559.58
509.514	4547.61
509.882	4549.19
510.25	4570.88
510.618	4614.95
510.986	4600.49
511.354	4632.8
511.722	4627.83
512.09	4664.67
512.458	4652.24
512.826	4698.34
513.193	4746.92
513.561	4770.88
513.929	4750.31
514.297	4792.12
514.664	4831.89
515.032	4836.86
515.4	4850.65
515.767	4877.54
516.135	4863.53
516.502	4814.94
516.869	4917.77
517.237	4887.48
517.604	4910.08
517.972	4961.15
518.339	4953.47
518.706	4994.6
519.073	4930.2
519.44	4948.95
519.808	5000.25
520.175	4997.31
520.542	5031.21
520.909	5108.95
521.276	5093.58
521.643	5147.59
522.009	5108.04
522.376	5104.43
522.743	5149.17
523.11	5190.08
523.477	5234.37
523.843	5226.01
524.21	5288.83
524.577	5337.19
524.943	5392.33
525.31	5328.6
525.676	5370.41
526.043	5400.01
526.409	5456.06
526.776	5461.93
527.142	5491.99
527.508	5508.49
527.874	5553
528.241	5585.09
528.607	5580.8
528.973	5595.94
529.339	5661.7
529.705	5700.34
530.071	5729.04
530.437	5735.37
530.803	5771.3
531.169	5806.56
531.535	5811.53
531.901	5823.51
532.267	5876.16
532.632	5910.96
532.998	5885.42
533.364	5974.01
533.73	5976.95
534.095	5992.54
534.461	5990.73
534.826	6075.48
535.192	6047.45
535.557	6120.45
535.923	6116.15
536.288	6167
536.653	6166.55
537.019	6215.36
537.384	6191.18
537.749	6227.79
538.114	6225.53
538.479	6276.83
538.845	6290.39
539.21	6311.4
539.575	6310.5
539.94	6315.02
540.305	6380.33
540.67	6379.87
541.034	6470.27
541.399	6493.09
541.764	6500.1
542.129	6518.63
542.494	6549.36
542.858	6581.45
543.223	6518.4
543.587	6602.24
543.952	6634.78
544.316	6665.29
544.681	6676.82
545.045	6729.02
545.41	6755.68
545.774	6709.58
546.138	6788.23
546.503	6770.15
546.867	6801.78
547.231	6900.09
547.595	6883.59
547.959	6968.11
548.324	6931.05
548.688	6966.75
549.052	6963.59
549.416	6974.89
549.779	7022.12
550.143	7027.09
550.507	7136.69
550.871	7129.23
551.235	7116.8
551.599	7146.41
551.962	7162.68
552.326	7152.74
552.689	7235.45
553.053	7241.09
553.417	7239.51
553.78	7256.01
554.143	7249.46
554.507	7306.86
554.87	7322.22
555.234	7369
555.597	7393.63
555.96	7394.54
556.323	7452.16
556.686	7480.86
557.05	7505.72
557.413	7524.25
557.776	7494.2
558.139	7630.69
558.502	7563.12
558.865	7588.88
559.228	7649.22
559.59	7671.37
559.953	7619.16
560.316	7776.22
560.679	7754.3
561.041	7764.47
561.404	7733.06
561.767	7859.84
562.129	7877.46
562.492	7913.85
562.854	7865.26
563.217	7880.63
563.579	7918.37
563.941	7979.83
564.304	8024.13
564.666	8011.02
565.028	8051.7
565.39	8087.63
565.753	8108.87
566.115	8098.93
566.477	8157
566.839	8230.9
567.201	8284.46
567.563	8219.6
567.925	8278.58
568.287	8326.04
568.648	8322.2
569.01	8367.84
569.372	8422.08
569.734	8414.85
570.095	8476.54
570.457	8542.53
570.819	8556.99
571.18	8610.32
571.542	8673.6
571.903	8695.07
572.265	8730.32
572.626	8752.69
572.987	8758.57
573.349	8873.14
573.71	8881.73
574.071	8957.66
574.432	8994.72
574.794	9066.36
575.155	9088.28
575.516	9161.04
575.877	9247.82
576.238	9261.15
576.599	9290.08
576.96	9421.83
577.32	9511.77
577.681	9568.04
578.042	9642.39
578.403	9724.19
578.763	9730.97
579.124	9845.55
579.485	10053.9
579.845	10143.17
580.206	10154.01
580.566	10334.57
580.927	10514.23
581.287	10537.96
581.648	10668.8
582.008	10831.96
582.368	10938.85
582.728	11100.88
583.089	11259.75
583.449	11441.44
583.809	11594.43
584.169	11711.49
584.529	11892.27
584.889	12103.57
585.249	12276.44
585.609	12394.18
585.969	12678.01
586.329	12880.49
586.688	13097.66
587.048	13364.78
587.408	13440.71
587.768	13743.3
588.127	13975.83
588.487	14094.47
588.846	14562.71
589.206	14655.59
589.565	14883.83
589.925	15154.33
590.284	15413.76
590.643	15773.53
591.003	15935.56
591.362	16279.73
591.721	16554.07
592.08	16836.32
592.44	17104.79
592.799	17480.37
593.158	17660.48
593.517	17949.06
593.876	18231.77
594.235	18484.19
594.593	18707.91
594.952	19175.24
595.311	19424.73
595.67	19759.18
596.029	20164.82
596.387	20430.8
596.746	20725.26
597.104	20858.59
597.463	21196.89
597.822	21560.04
598.18	21696.76
598.538	22093.59
598.897	22491.32
599.255	22606.34
599.613	23120.68
599.972	23322.71
600.33	23621.23
600.688	23744.16
601.046	24296.47
601.404	24578.27
601.762	24735.32
602.12	25082.89
602.478	25379.15
602.836	25732.36
603.194	25927.84
603.552	26087.83
603.91	26326.24
604.268	26660.02
604.625	26823.86
604.983	27307.23
605.341	27283.73
605.698	27776.37
606.056	28050.49
606.413	28146.99
606.771	28443.25
607.128	28793.07
607.485	28793.52
607.843	29134.3
608.2	29382.89
608.557	29753.5
608.914	29795.08
609.272	30125.46
609.629	30469.64
609.986	30715.96
610.343	30810.42
610.7	31216.28
611.057	31253.57
611.414	31494.69
611.771	31739.21
612.127	31945.3
612.484	32156.6
612.841	32355.91
613.198	32540.09
613.554	32646.53
613.911	32966.52
614.267	33116.8
614.624	33314.99
614.98	33594.53
615.337	33725.82
615.693	33866.16
616.05	33966.04
616.406	34158.13
616.762	34251.23
617.118	34526.48
617.475	34498.23
617.831	34721.5
618.187	35060.93
618.543	35155.62
618.899	35397.19
619.255	35453.46
619.611	35627.02
619.967	35676.51
620.323	35985.2
620.678	35981.58
621.034	35977.74
621.39	36050.05
621.746	36129.15
622.101	36509.25
622.457	36503.83
622.812	36612.07
623.168	36788.79
623.523	36854.33
623.879	37056.13
624.234	36797.83
624.589	37080.08
624.945	37224.71
625.3	37431.04
625.655	37194.66
626.01	37547.19
626.365	37591.48
626.72	37600.75
627.075	37614.99
627.43	37786.05
627.785	37634.19
628.14	37881.65
628.495	37912.38
628.85	37890.68
629.205	37836.45
629.559	38166.84
629.914	38054.07
630.269	38115.09
630.623	38246.83
630.978	38142.88
631.332	38452.48
631.687	38367.06
632.041	38242.99
632.396	38386.04
632.75	38196.44
633.104	38319.37
633.459	38234.63
633.813	38206.61
634.167	38398.47
634.521	38447.96
634.875	38487.05
635.229	38344.46
635.583	38239.38
635.937	38449.99
636.291	38310.11
636.645	38347.17
636.999	38379.94
637.352	38587.39
637.706	38294.29
638.06	38458.81
638.413	38429.65
638.767	38436.21
639.121	38307.85
639.474	38276.89
639.828	38225.14
640.181	38424.68
640.534	38345.36
640.888	38294.52
641.241	38243.44
641.594	38297.91
641.947	38457.22
642.301	38322.54
642.654	38427.17
643.007	38301.97
643.36	38358.02
643.713	38285.48
644.066	38412.93
644.419	38225.14
644.771	37923.45
645.124	37724.81
645.477	37547.87
645.83	37450.02
646.182	37348.1
646.535	37311.49
646.888	37301.55
647.24	36980.2
647.593	37276.69
647.945	37261.55
648.298	37014.78
648.65	37031.05
649.002	36976.58
649.355	37076.02
649.707	37120.76
650.059	37206.63
650.411	37644.14
650.763	37644.36
651.115	38115.31
651.467	37936.33
651.819	37989.66
652.171	37773.4
652.523	37829.9
652.875	37761.42
653.227	37687.75
653.578	37991.02
653.93	37808.88
654.282	37647.3
654.633	37741.54
654.985	37722.78
655.337	37561.88
655.688	37701.76
656.039	37764.13
656.391	37382.68
656.742	37653.4
657.094	37729.78
657.445	37672.39
657.796	37535.67
658.147	37574.99
658.498	37486.18
658.849	37606.4
659.2	37526.85
659.551	37454.31
659.902	37723.01
660.253	37557.59
660.604	37582.67
660.955	37428.32
661.306	37628.09
661.656	37425.39
662.007	37480.75
662.358	37438.49
662.708	37432.84
663.059	37508.1
663.409	37312.39
663.76	37550.81
664.11	37597.36
664.461	37486.4
664.811	37421.32
665.161	37601.65
665.511	37371.38
665.862	37490.24
666.212	37564.14
666.562	37523.69
666.912	37425.61
667.262	37487.98
667.612	37404.14
667.962	37404.6
668.312	37316.46
668.662	37542.9
669.011	37340.87
669.361	37255.9
669.711	37394.2
670.06	37227.65
670.41	37249.8
670.76	37168.44
671.109	37405.5
671.459	37217.93
671.808	37244.83
672.157	37391.04
672.507	37243.02
672.856	37120.08
673.205	37150.82
673.554	37288.21
673.904	37212.06
674.253	37375.22
674.602	37202.57
674.951	36557.39
675.3	36594
675.649	37120.08
675.998	36987.21
676.346	37098.16
676.695	37237.37
677.044	36916.47
677.393	37071.5
677.741	37036.02
678.09	36824.05
678.438	36932.07
678.787	37008
679.135	36906.76
679.484	36749.7
679.832	36829.7
680.181	36655.46
680.529	36828.34
680.877	36613.88
681.225	36566.2
681.573	36807.32
681.922	36538.4
682.27	36394.23
682.618	36464.28
682.966	36401.01
683.314	36525.3
683.661	36456.37
684.009	36104.97
684.357	36022.26
684.705	36174.57
685.053	36245.3
685.4	36115.82
685.748	35895.26
686.095	35954.01
686.443	35802.38
686.79	35793.79
687.138	35634.92
687.485	35795.82
687.832	35711.98
688.18	35655.04
688.527	35551.76
688.874	35474.93
689.221	35475.38
689.568	35443.52
689.915	35221.38
690.262	35258.21
690.609	35099.12
690.956	35037.2
691.303	34879.24
691.65	34836.53
691.997	34863.19
692.344	34562.41
692.69	34625.69
693.037	34592.47
693.383	34484.45
693.73	34524.9
694.077	34431.79
694.423	34343.66
694.769	34147.73
695.116	34253.27
695.462	34062.31
695.808	33935.08
696.155	34019.37
696.501	33720.85
696.847	33839.72
697.193	33466.85
697.539	33680.4
697.885	33383.23
698.231	33331.03
698.577	33323.12
698.923	33198.38
699.269	33086.97
699.614	32993.41
699.96	32924.71
700.306	32971.94
700.651	32822.12
700.997	32623.48
701.342	32775.56
701.688	32651.05
702.033	32499.64
702.379	32430.94
702.724	32460.09
703.069	32455.8
703.415	32052.19
703.76	32114.11
704.105	32121.34
704.45	31964.29
704.795	31975.81
705.14	31854.23
705.485	31789.38
705.83	31614.24
706.175	31695.59
706.52	31581.02
706.865	31491.08
707.209	31549.61
707.554	31353
707.899	31384.64
708.243	31258.77
708.588	31191.2
708.932	31048.83
709.277	31080.02
709.621	30895.84
709.966	30794.83
710.31	30864.88
710.654	30670.31
710.998	30629.63
711.342	30641.61
711.687	30568.17
712.031	30459.02
712.375	30428.51
712.719	30331.34
713.063	30287.95
713.407	30364.33
713.75	30246.37
714.094	30119.36
714.438	30063.09
714.782	30038.46
715.125	29863.32
715.469	29939.71
715.812	29782.42
716.156	29572.94
716.499	29649.77
716.843	29680.73
717.186	29581.75
717.53	29529.55
717.873	29561.19
718.216	29506.95
718.559	29364.81
718.902	29170.69
719.246	29369.55
719.589	29137.02
719.932	29151.48
720.275	29107.41
720.617	29105.38
720.96	29035.1
721.303	28951.03
721.646	28844.37
721.989	28769.57
722.331	28974.08
722.674	28834.65
723.016	28920.75
723.359	28723.02
723.701	28832.39
724.044	28594.21
724.386	28546.07
724.729	28475.34
725.071	28499.52
725.413	28471.27
725.755	28415.68
726.097	28322.12
726.439	28081.9
726.782	28273.99
727.124	28324.16
727.465	28004.84
727.807	28080.55
728.149	27947.22
728.491	28007.55
728.833	28068.8
729.175	27890.95
729.516	27854.79
729.858	27819.76
730.199	27860.67
730.541	27742.25
730.882	27756.26
731.224	27763.72
731.565	27591.75
731.906	27562.82
732.248	27653.44
732.589	27518.08
732.93	27478.75
733.271	27314.01
733.612	27446.67
733.953	27451.64
734.294	27270.4
734.635	27232.89
734.976	27258.2
735.317	27179.33
735.658	27036.51
735.999	27198.31
736.339	26964.64
736.68	27142.04
737.021	26994.47
737.361	26975.49
737.702	26942.05
738.042	26821.82
738.383	26831.54
738.723	26842.84
739.063	26626.12
739.404	26701.6
739.744	26702.05
740.084	26659.12
740.424	26605.33
740.764	26572.34
741.104	26619.34
741.444	26520.36
741.784	26465.45
742.124	26398.33
742.464	26447.14
742.804	26342.51
743.143	26280.59
743.483	26355.62
743.823	26124.89
744.162	26176.64
744.502	26255.96
744.841	26114.5
745.181	26187.04
745.52	26089.19
745.86	26211.44
746.199	26060.04
746.538	25952.69
746.877	26079.47
747.216	25956.08
747.556	25889.87
747.895	25925.12
748.234	25785.92
748.573	25702.3
748.911	25771
749.25	25654.62
749.589	25518.81
749.928	25493.95
750.267	25592.93
750.605	25486.49
750.944	25422.31
751.283	25287.17
751.621	25389.54
751.96	25217.12
752.298	25251.24
752.636	25215.09
752.975	25096.67
753.313	25044.92
753.651	25131.92
753.989	25015.32
754.327	25032.04
754.666	24852.16
755.004	24800.63
755.342	24938.26
755.679	24839.28
756.017	24719.28
756.355	24677.7
756.693	24603.8
757.031	24664.14
757.368	24496.01
757.706	24506.18
758.044	24451.04
758.381	24411.72
758.719	24269.35
759.056	24147.32
759.394	24196.36
759.731	24086.3
