Data from hue_260_FLMS001491_00054.txt Node
Date: Tue Feb 07 15:59:12 GMT 2017
User: dcchb
Spectrometer: FLMS00149
Trigger mode: 0
Integration Time (sec): 2.000000E-2
Scans to average: 10
Electric dark correction enabled: true
Nonlinearity correction enabled: false
Boxcar width: 0
XAxis mode: Wavelengths
Number of Pixels in Spectrum: 2048
>>>>>Begin Spectral Data<<<<<
341.393	-28.33
341.776	-28.33
342.16	-28.33
342.543	-56.13
342.927	-55.68
343.31	-63.59
343.693	-65.85
344.077	-65.62
344.46	-68.33
344.843	-43.02
345.226	-38.05
345.61	-36.24
345.993	-23.81
346.376	-7.99
346.759	-2.8
347.142	32.91
347.525	40.59
347.908	46.02
348.291	65.45
348.674	121.95
349.057	108.39
349.44	130.31
349.823	124.66
350.206	160.81
350.588	191.77
350.971	215.5
351.354	200.81
351.737	223.41
352.119	231.32
352.502	236.97
352.884	273.81
353.267	264.32
353.65	282.62
354.032	288.95
354.414	290.53
354.797	313.58
355.179	294.82
355.562	311.77
355.944	295.05
356.326	317.87
356.709	334.6
357.091	324.2
357.473	322.39
357.855	329.85
358.238	336.4
358.62	312.45
359.002	315.16
359.384	333.24
359.766	315.84
360.148	330.98
360.53	332.79
360.912	325.1
361.294	330.3
361.676	326.91
362.057	312.45
362.439	318.55
362.821	306.12
363.203	320.36
363.584	319.23
363.966	311.55
364.348	310.64
364.729	311.55
365.111	305.44
365.493	300.47
365.874	311.09
366.256	306.8
366.637	300.7
367.019	302.51
367.4	306.8
367.781	305.22
368.163	304.99
368.544	326.46
368.925	316.07
369.306	291.43
369.688	290.98
370.069	297.53
370.45	301.6
370.831	307.03
371.212	312.45
371.593	324.88
371.974	312.22
372.355	301.15
372.736	297.31
373.117	291.21
373.498	304.99
373.879	296.86
374.26	307.93
374.641	299.79
375.021	326.23
375.402	302.05
375.783	312.45
376.163	318.32
376.544	323.07
376.925	319.91
377.305	314.26
377.686	302.51
378.066	327.59
378.447	331.88
378.827	308.61
379.208	329.4
379.588	316.97
379.968	337.99
380.349	323.97
380.729	317.42
381.109	310.19
381.489	331.66
381.87	311.77
382.25	311.09
382.63	322.39
383.01	324.43
383.39	324.65
383.77	335.5
384.15	337.31
384.53	360.13
384.91	339.34
385.29	319.45
385.67	322.84
386.049	325.33
386.429	342.28
386.809	330.53
387.189	344.31
387.568	366.23
387.948	344.99
388.328	342.28
388.707	357.19
389.087	368.04
389.466	359.68
389.846	339.12
390.225	341.15
390.605	348.61
390.984	346.12
391.363	346.8
391.743	344.99
392.122	387.93
392.501	368.72
392.881	365.56
393.26	368.72
393.639	379.57
394.018	374.14
394.397	381.6
394.776	352
395.155	367.14
395.534	353.58
395.913	377.08
396.292	398.77
396.671	390.87
397.05	384.76
397.429	386.12
397.808	370.53
398.186	381.6
398.565	376.4
398.944	393.13
399.323	395.84
399.701	370.53
400.08	388.38
400.458	413.01
400.837	399
401.215	388.61
401.594	399.45
401.972	396.51
402.351	410.53
402.729	407.14
403.107	431.77
403.486	414.37
403.864	408.27
404.242	417.53
404.62	453.01
404.999	431.54
405.377	443.07
405.755	453.91
406.133	439.9
406.511	444.42
406.889	463.63
407.267	466.57
407.645	457.3
408.023	482.84
408.401	483.52
408.779	487.81
409.156	471.99
409.534	486.68
409.912	475.61
410.29	491.65
410.667	482.61
411.045	513.12
411.422	509.51
411.8	510.18
412.178	537.75
412.555	551.77
412.933	566.23
413.31	540.47
413.687	574.82
414.065	580.46
414.442	557.64
414.819	579.56
415.197	605.1
415.574	595.83
415.951	612.78
416.328	603.74
416.705	611.42
417.082	599.22
417.46	630.63
417.837	619.33
418.214	618.43
418.591	644.87
418.967	645.55
419.344	646
419.721	635.83
420.098	660.01
420.475	687.81
420.852	705.43
421.228	675.83
421.605	696.62
421.982	690.29
422.358	736.62
422.735	721.93
423.111	749.73
423.488	749.27
423.864	784.08
424.241	776.84
424.617	796.96
424.994	796.73
425.37	809.61
425.746	829.27
426.123	813
426.499	822.04
426.875	806.22
427.251	860.23
427.627	865.2
428.003	869.72
428.379	871.08
428.756	898.87
429.132	911.3
429.507	895.03
429.883	927.35
430.259	929.16
430.635	932.77
431.011	940.68
431.387	963.05
431.763	970.51
432.138	987.01
432.514	1016.16
432.89	1013.67
433.265	1038.31
433.641	1060.23
434.016	1056.16
434.392	1083.05
434.767	1100.45
435.143	1104.29
435.518	1128.02
435.894	1179.55
436.269	1186.78
436.644	1167.57
437.02	1188.13
437.395	1194.23
437.77	1241.69
438.145	1239.88
438.52	1253.22
438.895	1261.35
439.271	1296.15
439.646	1333.89
440.021	1349.48
440.395	1357.17
440.77	1337.28
441.145	1367.11
441.52	1381.57
441.895	1400.1
442.27	1428.35
442.645	1409.82
443.019	1439.2
443.394	1416.38
443.769	1462.93
444.143	1459.54
444.518	1488.69
444.892	1483.27
445.267	1482.59
445.641	1496.83
446.016	1531.85
446.39	1513.55
446.764	1551.51
447.139	1524.85
447.513	1552.87
447.887	1560.1
448.262	1552.19
448.636	1575.24
449.01	1622.02
449.384	1605.52
449.758	1628.57
450.132	1663.37
450.506	1662.24
450.88	1674.9
451.254	1660.89
451.628	1688.46
452.002	1684.84
452.376	1689.59
452.75	1725.75
453.123	1733.43
453.497	1778.17
453.871	1768.23
454.244	1809.13
454.618	1820.88
454.992	1830.6
455.365	1840.32
455.739	1882.13
456.112	1878.96
456.486	1908.11
456.859	1943.37
457.232	1941.79
457.606	1964.84
457.979	1989.24
458.352	2022.46
458.725	2030.14
459.099	2060.43
459.472	2080.31
459.845	2104.49
460.218	2107.66
460.591	2136.81
460.964	2138.16
461.337	2203.25
461.71	2206.18
462.083	2252.74
462.456	2251.16
462.829	2256.13
463.201	2311.49
463.574	2269.01
463.947	2356.01
464.32	2383.81
464.692	2409.12
465.065	2438.72
465.438	2427.65
465.81	2497.02
466.183	2487.08
466.555	2516.46
466.928	2540.41
467.3	2528.66
467.672	2606.63
468.045	2632.61
468.417	2681.88
468.789	2626.96
469.161	2717.58
469.534	2727.53
469.906	2759.16
470.278	2806.17
470.65	2812.27
471.022	2854.08
471.394	2937.92
471.766	2959.84
472.138	2941.98
472.51	3029.67
472.882	3057.69
473.253	3059.5
473.625	3153.5
473.997	3196.67
474.369	3171.58
474.74	3227.85
475.112	3261.07
475.484	3300.85
475.855	3347.17
476.227	3376.78
476.598	3479.82
476.97	3478.02
477.341	3607.73
477.713	3562.08
478.084	3612.93
478.455	3698.58
478.827	3733.15
479.198	3811.57
479.569	3832.58
479.94	3908.51
480.311	3952.35
480.682	3998.23
481.053	4100.6
481.424	4104.89
481.795	4142.86
482.166	4249.3
482.537	4252.68
482.908	4358.22
483.279	4388.95
483.65	4434.37
484.021	4500.36
484.391	4534.71
484.762	4593.01
485.133	4628.49
485.503	4682.5
485.874	4771.09
486.244	4738.77
486.615	4857.41
486.985	4897.87
487.356	4968.37
487.726	5013.57
488.097	5115.03
488.467	5125.66
488.837	5205.65
489.207	5234.35
489.578	5351.64
489.948	5357.29
490.318	5445.87
490.688	5467.12
491.058	5496.27
491.428	5511.86
491.798	5624.4
492.168	5643.16
492.538	5698.75
492.908	5783.49
493.278	5771.51
493.648	5824.17
494.017	5897.84
494.387	5889.25
494.757	5995.01
495.126	6023.71
495.496	5997.72
495.866	6036.82
496.235	6117.72
496.605	6092.18
496.974	6188.45
497.344	6230.03
497.713	6239.98
498.082	6342.35
498.452	6306.87
498.821	6383.02
499.19	6305.29
499.559	6432.06
499.928	6460.99
500.298	6450.14
500.667	6496.47
501.036	6513.87
501.405	6547.31
501.774	6494.21
502.143	6569.91
502.512	6570.59
502.88	6642.23
503.249	6665.05
503.618	6671.15
503.987	6752.73
504.356	6753.86
504.724	6718.61
505.093	6814.65
505.462	6815.56
505.83	6813.07
506.199	6884.71
506.567	6900.3
506.936	6875.67
507.304	6926.51
507.672	6960.86
508.041	6961.54
508.409	6990.92
508.777	7088.09
509.145	7066.62
509.514	7086.96
509.882	7132.16
510.25	7087.41
510.618	7146.39
510.986	7183.91
511.354	7248.54
511.722	7222.32
512.09	7254.87
512.458	7237.24
512.826	7275.88
513.193	7241.08
513.561	7242.66
513.929	7352.26
514.297	7378.93
514.664	7415.31
515.032	7423.9
515.4	7404.47
515.767	7438.14
516.135	7534.41
516.502	7399.04
516.869	7451.92
517.237	7554.97
517.604	7470.45
517.972	7555.87
518.339	7526.27
518.706	7601.52
519.073	7592.48
519.44	7602.88
519.808	7673.61
520.175	7652.82
520.542	7669.54
520.909	7740.28
521.276	7663.89
521.643	7650.56
522.009	7781.18
522.376	7744.57
522.743	7761.29
523.11	7787.73
523.477	7860.05
523.843	7897.56
524.21	7903.44
524.577	7905.92
524.943	7919.71
525.31	7918.35
525.676	7978.69
526.043	8011.68
526.409	8039.48
526.776	8105.69
527.142	8050.1
527.508	8069.31
527.874	8184.56
528.241	8149.31
528.607	8101.4
528.973	8132.58
529.339	8128.97
529.705	8135.52
530.071	8104.56
530.437	8188.63
530.803	8185.69
531.169	8229.76
531.535	8183.2
531.901	8198.57
532.267	8187.04
532.632	8237.44
532.998	8213.71
533.364	8234.5
533.73	8285.57
534.095	8190.89
534.461	8271.56
534.826	8203.77
535.192	8262.07
535.557	8282.41
535.923	8242.41
536.288	8307.49
536.653	8295.97
537.019	8246.7
537.384	8299.58
537.749	8272.24
538.114	8208.29
538.479	8223.65
538.845	8248.51
539.21	8208.29
539.575	8265.23
539.94	8182.3
540.305	8264.1
540.67	8245.8
541.034	8246.93
541.399	8263.43
541.764	8221.62
542.129	8131.23
542.494	8210.55
542.858	8237.66
543.223	8227.95
543.587	8238.57
543.952	8194.5
544.316	8225.24
544.681	8183.43
545.045	8252.81
545.41	8229.3
545.774	8250.55
546.138	8221.39
546.503	8239.02
546.867	8161.96
547.231	8168.06
547.595	8198.34
547.959	8202.64
548.324	8180.49
548.688	8198.8
549.052	8131
549.416	8190.43
549.779	8154.73
550.143	8145.92
550.507	8173.03
550.871	8134.39
551.235	8146.37
551.599	8161.73
551.962	8134.39
552.326	8147.72
552.689	8191.56
553.053	8122.87
553.417	8097.1
553.78	8192.24
554.143	8155.63
554.507	8156.99
554.87	8140.49
555.234	8178.01
555.597	8145.01
555.96	8112.92
556.323	8207.61
556.686	8149.08
557.05	8190.89
557.413	8126.93
557.776	8168.29
558.139	8200.15
558.502	8175.52
558.865	8245.8
559.228	8250.32
559.59	8210.55
559.953	8287.83
560.316	8269.75
560.679	8324.44
561.041	8319.7
561.404	8349.3
561.767	8388.4
562.129	8335.52
562.492	8395.17
562.854	8387.49
563.217	8349.98
563.579	8409.64
563.941	8421.16
564.304	8395.17
564.666	8459.58
565.028	8454.38
565.39	8471.1
565.753	8472.91
566.115	8512.23
566.477	8507.71
566.839	8516.3
567.201	8665.22
567.563	8598.56
567.925	8696.41
568.287	8659.35
568.648	8640.82
569.01	8659.57
569.372	8747.03
569.734	8687.6
570.095	8782.28
570.457	8796.07
570.819	8813.92
571.18	8785.45
571.542	8770.08
571.903	8895.05
572.265	8929.62
572.626	8848.04
572.987	8928.49
573.349	8935.95
573.71	8922.17
574.071	8926.91
574.432	8991.09
574.794	9083.29
575.155	8978.66
575.516	9038.55
575.877	9040.13
576.238	9104.99
576.599	9095.72
576.96	9065.89
577.32	9136.62
577.681	9182.05
578.042	9152.67
578.403	9201.03
578.763	9251.65
579.124	9246
579.485	9234.47
579.845	9297.75
580.206	9291.2
580.566	9251.65
580.927	9315.15
581.287	9354.92
581.648	9329.61
582.008	9426.56
582.368	9397.86
582.728	9431.08
583.089	9438.76
583.449	9437.63
583.809	9488.03
584.169	9500.68
584.529	9442.83
584.889	9597.63
585.249	9495.03
585.609	9489.61
585.969	9529.83
586.329	9555.37
586.688	9466.11
587.048	9600.57
587.408	9561.02
587.768	9637.4
588.127	9615.26
588.487	9642.37
588.846	9716.72
589.206	9669.49
589.565	9694.12
589.925	9745.65
590.284	9675.82
590.643	9726.67
591.003	9769.83
591.362	9774.35
591.721	9792.88
592.08	9775.7
592.44	9846.89
592.799	9788.13
593.158	9825.19
593.517	9887.56
593.876	9844.4
594.235	9823.39
594.593	9859.32
594.952	9859.54
595.311	9822.48
595.67	9932.08
596.029	9917.85
596.387	9918.07
596.746	9913.78
597.104	9846.21
597.463	9891.63
597.822	9949.26
598.18	9913.55
598.538	9886.89
598.897	9988.81
599.255	9957.85
599.613	10044.4
599.972	9981.35
600.33	10015.02
600.688	9988.35
601.046	10002.36
601.404	10109.25
601.762	10034.45
602.12	10080.78
602.478	10114.9
602.836	10072.87
603.194	10056.37
603.552	10102.47
603.91	10058.63
604.268	10049.37
604.625	10019.54
604.983	10040.78
605.341	10073.77
605.698	10080.1
606.056	10070.38
606.413	10047.11
606.771	10134.34
607.128	10069.48
607.485	10117.16
607.843	10131.63
608.2	10189.48
608.557	10146.77
608.914	10171.4
609.272	10189.93
609.629	10238.06
609.986	10235.58
610.343	10212.08
610.7	10287.33
611.057	10285.07
611.414	10286.65
611.771	10221.12
612.127	10286.2
612.484	10297.5
612.841	10292.98
613.198	10271.06
613.554	10284.16
613.911	10330.04
614.267	10348.8
614.624	10355.12
614.98	10292.3
615.337	10305.86
615.693	10330.27
616.05	10374.78
616.406	10480.09
616.762	10355.12
617.118	10401.68
617.475	10341.11
617.831	10520.99
618.187	10410.26
618.543	10391.28
618.899	10469.7
619.255	10415.23
619.611	10402.81
619.967	10490.49
620.323	10498.85
620.678	10495.23
621.034	10432.18
621.39	10442.13
621.746	10463.59
622.101	10569.81
622.457	10427.89
622.812	10475.57
623.168	10433.77
623.523	10480.77
623.879	10482.8
624.234	10433.99
624.589	10539.07
624.945	10512.63
625.3	10448
625.655	10471.28
626.01	10508.79
626.365	10523.25
626.72	10442.13
627.075	10462.24
627.43	10459.3
627.785	10431.51
628.14	10439.19
628.495	10529.36
628.85	10428.34
629.205	10369.81
629.559	10433.77
629.914	10409.13
630.269	10360.32
630.623	10383.37
630.978	10403.94
631.332	10366.87
631.687	10455.01
632.041	10413.65
632.396	10317.16
632.75	10287.78
633.104	10342.92
633.459	10284.16
633.813	10282.58
634.167	10226.54
634.521	10253.2
634.875	10219.08
635.229	10248.23
635.583	10232.87
635.937	10249.36
636.291	10195.58
636.645	10281
636.999	10181.34
637.352	10132.08
637.706	10137.95
638.06	10157.61
638.413	10095.02
638.767	10043.04
639.121	10115.81
639.474	10085.07
639.828	10070.16
640.181	10101.12
640.534	10034.23
640.888	10071.51
641.241	9970.05
641.594	9979.31
641.947	10081.46
642.301	10022.25
642.654	10034.91
643.007	10009.82
643.36	9998.52
643.713	9947.9
644.066	10017.73
644.419	9989.26
644.771	9911.97
645.124	9831.07
645.477	9855.48
645.83	9756.49
646.182	9703.84
646.535	9623.84
646.888	9698.19
647.24	9589.49
647.593	9629.72
647.945	9617.74
648.298	9590.17
648.65	9548.36
649.002	9604.86
649.355	9634.92
649.707	9698.87
650.059	9667.91
650.411	9744.52
650.763	9739.77
651.115	9872.2
651.467	9795.82
651.819	9848.7
652.171	9822.03
652.523	9815.7
652.875	9849.37
653.227	9861.12
653.578	9870.62
653.93	9811.63
654.282	9759.21
654.633	9789.26
654.985	9803.73
655.337	9821.8
655.688	9806.44
656.039	9845.08
656.391	9781.58
656.742	9706.33
657.094	9727.8
657.445	9762.6
657.796	9783.16
658.147	9820.67
658.498	9822.03
658.849	9767.57
659.2	9798.08
659.551	9796.04
659.902	9838.98
660.253	9880.11
660.604	9793.56
660.955	9760.11
661.306	9847.79
661.656	9732.54
662.007	9772.31
662.358	9789.26
662.708	9734.35
663.059	9818.87
663.409	9734.57
663.76	9841.46
664.11	9844.85
664.461	9831.97
664.811	9856.83
665.161	9841.69
665.511	9817.28
665.862	9761.47
666.212	9731.18
666.562	9811.18
666.912	9831.3
667.262	9768.25
667.612	9726.44
667.962	9808.02
668.312	9783.16
668.662	9816.61
669.011	9766.44
669.361	9737.74
669.711	9790.62
670.06	9738.87
670.41	9708.81
670.76	9748.59
671.109	9783.39
671.459	9778.87
671.808	9742.94
672.157	9800.34
672.507	9639.66
672.856	9668.14
673.205	9635.82
673.554	9781.13
673.904	9703.61
674.253	9746.55
674.602	9687.34
674.951	9522.15
675.3	9497.52
675.649	9700
675.998	9632.88
676.346	9646.67
676.695	9554.24
677.044	9596.05
677.393	9574.35
677.741	9621.58
678.09	9613.9
678.438	9509.5
678.787	9523.73
679.135	9598.53
679.484	9486.67
679.832	9597.85
680.181	9521.25
680.529	9530.96
680.877	9469.72
681.225	9471.53
681.573	9496.61
681.922	9450.74
682.27	9453.23
682.618	9420.68
682.966	9408.71
683.314	9378.43
683.661	9388.37
684.009	9335.49
684.357	9336.17
684.705	9281.03
685.053	9308.82
685.4	9246.9
685.748	9220.01
686.095	9260.69
686.443	9162.16
686.79	9192.67
687.138	9167.58
687.485	9185.89
687.832	9136.17
688.18	9128.94
688.527	9088.04
688.874	9047.59
689.221	9006.46
689.568	8995.16
689.915	9019.34
690.262	8968.49
690.609	8923.75
690.956	8826.35
691.303	8857.99
691.65	8785.45
691.997	8853.47
692.344	8789.29
692.69	8755.62
693.037	8739.57
693.383	8654.83
693.73	8701.16
694.077	8606.24
694.423	8621.16
694.769	8606.92
695.116	8593.59
695.462	8602.4
695.808	8532.12
696.155	8489.64
696.501	8501.61
696.847	8417.55
697.193	8396.98
697.539	8412.8
697.885	8397.66
698.231	8349.75
698.577	8309.98
698.923	8268.17
699.269	8273.82
699.614	8157.21
699.96	8206.48
700.306	8174.39
700.651	8140.04
700.997	8134.39
701.342	8127.16
701.688	8065.92
702.033	8020.5
702.379	8097.33
702.724	8060.04
703.069	8019.14
703.415	7941.4
703.76	7907.73
704.105	7923.1
704.45	7864.57
704.795	7809.2
705.14	7804.46
705.485	7830.44
705.83	7804
706.175	7742.54
706.52	7778.24
706.865	7741.86
707.209	7744.57
707.554	7620.96
707.899	7632.93
708.243	7580.96
708.588	7605.59
708.932	7543.22
709.277	7545.25
709.621	7545.71
709.966	7491.92
710.31	7544.8
710.654	7448.53
710.998	7455.31
711.342	7440.4
711.687	7469.55
712.031	7383.9
712.375	7427.29
712.719	7405.37
713.063	7343.9
713.407	7352.04
713.75	7352.72
714.094	7301.87
714.438	7212.38
714.782	7284.7
715.125	7181.42
715.469	7264.13
715.812	7240.18
716.156	7189.56
716.499	7159.05
716.843	7213.51
717.186	7150.46
717.53	7256.22
717.873	7180.07
718.216	7159.28
718.559	7133.06
718.902	7090.12
719.246	7115.66
719.589	7072.5
719.932	7017.81
720.275	7026.4
720.617	7025.72
720.96	7073.63
721.303	7065.94
721.646	7046.28
721.989	7000.64
722.331	7007.64
722.674	7008.54
723.016	7018.04
723.359	6951.14
723.701	7089.22
724.044	6941.65
724.386	6911.15
724.729	7010.8
725.071	6977.13
725.413	6949.11
725.755	6943.46
726.097	6927.64
726.439	6896.68
726.782	6911.82
727.124	6950.92
727.465	6889
727.807	6952.5
728.149	6810.13
728.491	6844.93
728.833	6910.02
729.175	6879.28
729.516	6876.12
729.858	6867.31
730.199	6858.04
730.541	6910.47
730.882	6880.86
731.224	6894.2
731.565	6895.33
731.906	6885.61
732.248	6866.63
732.589	6858.94
732.93	6807.65
733.271	6850.58
733.612	6844.03
733.953	6860.98
734.294	6785.5
734.635	6783.92
734.976	6776.46
735.317	6794.54
735.658	6759.96
735.999	6801.09
736.339	6786.4
736.68	6818.49
737.021	6760.64
737.361	6787.08
737.702	6805.84
738.042	6812.62
738.383	6751.15
738.723	6804.48
739.063	6820.53
739.404	6840.87
739.744	6848.32
740.084	6814.65
740.424	6895.1
740.764	6880.64
741.104	6853.75
741.444	6883.12
741.784	6808.55
742.124	6825.72
742.464	6817.14
742.804	6907.98
743.143	6959.96
743.483	6938.04
743.823	6931.03
744.162	6957.47
744.502	6946.17
744.841	6994.53
745.181	6989.34
745.52	7005.61
745.86	7045.15
746.199	7162.89
746.538	7071.82
746.877	7118.37
747.216	7174.19
747.556	7212.61
747.895	7220.29
748.234	7249.44
748.573	7305.94
748.911	7320.4
749.25	7384.58
749.589	7381.64
749.928	7465.71
750.267	7564.69
750.605	7566.04
750.944	7554.07
751.283	7629.77
751.621	7728.53
751.96	7753.61
752.298	7875.41
752.636	7869.99
752.975	7925.58
753.313	8002.64
753.651	8163.09
753.989	8165.58
754.327	8299.13
754.666	8355.18
755.004	8385.68
755.342	8569.18
755.679	8587.71
756.017	8655.05
756.355	8810.53
756.693	8830.19
757.031	8994.48
757.368	9070.41
757.706	9231.31
758.044	9306.11
758.381	9414.36
758.719	9520.34
759.056	9685.08
759.394	9787.68
759.731	9825.65
760.068	10018.41
760.405	10082.36
760.743	10224.73
761.08	10378.4
761.417	10398.06
761.754	10612.74
762.091	10751.5
762.428	10880.31
762.765	10911.27
763.102	11064.03
763.438	11243.24
763.775	11305.61
764.112	11403.91
764.449	11538.37
764.785	11629.21
765.122	11720.74
765.458	11854.52
765.795	11957.34
766.131	12028.98
766.467	12274.39
766.804	12303.09
