Data from hue_40_FLMS001491_86.txt Node
Date: Mon Feb 06 15:08:41 GMT 2017
User: dcchb
Spectrometer: FLMS00149
Trigger mode: 0
Integration Time (sec): 2.000000E-2
Scans to average: 10
Electric dark correction enabled: true
Nonlinearity correction enabled: false
Boxcar width: 0
XAxis mode: Wavelengths
Number of Pixels in Spectrum: 2048
>>>>>Begin Spectral Data<<<<<
341.393	-28.45
341.776	-28.45
342.16	-28.45
342.543	-72.06
342.927	-66.18
343.31	-73.19
343.693	-70.93
344.077	-64.38
344.46	-52.85
344.843	-48.56
345.226	-42.68
345.61	-19.63
345.993	-38.61
346.376	2.51
346.759	-2.01
347.142	19.46
347.525	46.13
347.908	80.48
348.291	76.41
348.674	84.77
349.057	103.08
349.44	114.15
349.823	139.01
350.206	159.57
350.588	194.37
350.971	199.35
351.354	219.23
351.737	231.66
352.119	242.73
352.502	259.23
352.884	269.63
353.267	276.63
353.65	305.78
354.032	292
354.414	316.63
354.797	311.21
355.179	340.13
355.562	322.73
355.944	314.14
356.326	316.4
356.709	345.56
357.091	350.3
357.473	337.42
357.855	335.39
358.238	332
358.62	332.45
359.002	348.04
359.384	321.83
359.766	364.54
360.148	327.7
360.53	337.87
360.912	350.3
361.294	340.58
361.676	345.1
362.057	347.82
362.439	344.88
362.821	328.16
363.203	320.7
363.584	329.51
363.966	346.69
364.348	324.54
364.729	333.58
365.111	305.56
365.493	334.71
365.874	315.95
366.256	319.12
366.637	308.27
367.019	311.66
367.4	319.79
367.781	299.68
368.163	324.77
368.544	314.37
368.925	321.38
369.306	324.09
369.688	317.76
370.069	318.44
370.45	299.68
370.831	329.51
371.212	331.77
371.593	314.37
371.974	329.74
372.355	327.93
372.736	315.95
373.117	322.96
373.498	326.12
373.879	316.4
374.26	314.82
374.641	325.67
375.021	318.66
375.402	329.51
375.783	332.22
376.163	318.44
376.544	321.6
376.925	356.86
377.305	318.44
377.686	306.91
378.066	329.51
378.447	329.96
378.827	335.61
379.208	341.49
379.588	324.99
379.968	335.84
380.349	348.95
380.729	329.06
381.109	326.35
381.489	349.62
381.87	320.7
382.25	349.17
382.63	332.45
383.01	353.69
383.39	336.52
383.77	348.95
384.15	352.56
384.53	336.74
384.91	345.78
385.29	365.22
385.67	354.14
386.049	369.28
386.429	367.02
386.809	361.15
387.189	365.67
387.568	366.12
387.948	364.54
388.328	366.12
388.707	352.11
389.087	369.51
389.466	364.99
389.846	360.24
390.225	349.85
390.605	354.82
390.984	373.13
391.363	376.74
391.743	356.86
392.122	384.2
392.501	392.79
392.881	375.61
393.26	369.06
393.639	379.45
394.018	366.57
394.397	397.53
394.776	401.6
395.155	386.91
395.534	369.06
395.913	376.74
396.292	391.88
396.671	390.75
397.05	391.66
397.429	372.67
397.808	404.99
398.186	388.04
398.565	406.8
398.944	392.33
399.323	396.4
399.701	395.5
400.08	395.95
400.458	406.35
400.837	410.86
401.215	428.94
401.594	391.88
401.972	402.73
402.351	411.09
402.729	429.62
403.107	419.23
403.486	414.25
403.864	399.79
404.242	424.65
404.62	414.25
404.999	430.98
405.377	427.81
405.755	425.33
406.133	438.89
406.511	430.07
406.889	430.3
407.267	430.98
407.645	437.08
408.023	426.46
408.401	461.26
408.779	439.56
409.156	453.58
409.534	454.03
409.912	469.85
410.29	448.15
410.667	459.68
411.045	468.26
411.422	463.74
411.8	469.39
412.178	476.17
412.555	464.42
412.933	478.89
413.31	491.99
413.687	487.93
414.065	489.51
414.442	498.55
414.819	499.68
415.197	483.41
415.574	513.91
415.951	491.77
416.328	512.11
416.705	527.7
417.082	485.44
417.46	521.37
417.837	497.42
418.214	505.1
418.591	517.75
418.967	531.99
419.344	531.54
419.721	550.07
420.098	528.83
420.475	544.65
420.852	524.31
421.228	561.14
421.605	552.56
421.982	535.38
422.358	555.04
422.735	569.96
423.111	548.04
423.488	578.54
423.864	557.98
424.241	568.15
424.617	586.23
424.994	574.93
425.37	589.62
425.746	590.3
426.123	578.32
426.499	601.14
426.875	571.54
427.251	585.78
427.627	588.04
428.003	608.37
428.379	619
428.756	629.39
429.132	614.48
429.507	623.74
429.883	633.68
430.259	600.24
430.635	646.79
431.011	642.72
431.387	666.45
431.763	655.6
432.138	658.99
432.514	639.56
432.89	670.52
433.265	686.11
433.641	667.58
434.016	700.8
434.392	701.48
434.767	700.12
435.143	699.22
435.518	698.77
435.894	720.24
436.269	728.6
436.644	720.91
437.02	742.61
437.395	732.21
437.77	734.92
438.145	752.55
438.52	759.78
438.895	758.2
439.271	759.1
439.646	772.44
440.021	788.71
440.395	765.88
440.77	778.31
441.145	771.76
441.52	823.74
441.895	775.83
442.27	797.97
442.645	788.93
443.019	787.13
443.394	832.55
443.769	804.3
444.143	806.79
444.518	839.1
444.892	841.36
445.267	836.62
445.641	836.84
446.016	849.5
446.39	857.63
446.764	869.38
447.139	847.01
447.513	861.93
447.887	891.98
448.262	871.42
448.636	887.46
449.01	895.6
449.384	869.61
449.758	908.7
450.132	888.14
450.506	892.43
450.88	907.8
451.254	924.07
451.628	914.81
452.002	949.38
452.376	939.66
452.75	941.02
453.123	951.19
453.497	971.08
453.871	955.26
454.244	995.03
454.618	1019.66
454.992	1015.82
455.365	1003.39
455.739	1031.87
456.112	1033
456.486	1051.07
456.859	1053.11
457.232	1085.88
457.606	1061.92
457.979	1083.16
458.352	1105.99
458.725	1105.08
459.099	1119.32
459.472	1111.86
459.845	1122.26
460.218	1124.74
460.591	1177.85
460.964	1189.83
461.337	1172.65
461.71	1229.37
462.083	1223.05
462.456	1227.34
462.829	1230.73
463.201	1243.16
463.574	1246.55
463.947	1258.98
464.32	1319.54
464.692	1307.56
465.065	1319.99
465.438	1356.15
465.81	1356.15
466.183	1388.01
466.555	1387.56
466.928	1415.58
467.3	1405.87
467.672	1437.5
468.045	1465.53
468.417	1483.61
468.789	1494.9
469.161	1527.67
469.534	1544.17
469.906	1573.55
470.278	1594.56
470.65	1614.22
471.022	1667.56
471.394	1682.7
471.766	1714.79
472.138	1769.93
472.51	1766.08
472.882	1817.61
473.253	1837.95
473.625	1837.95
473.997	1929.47
474.369	1905.51
474.74	1948
475.112	1993.65
475.484	2045.17
475.855	2081.78
476.227	2108.9
476.598	2193.19
476.97	2220.76
477.341	2269.35
477.713	2330.59
478.084	2363.13
478.455	2429.12
478.827	2476.12
479.198	2537.59
479.569	2573.29
479.94	2632.73
480.311	2734.87
480.682	2801.76
481.053	2888.09
481.424	2945.04
481.795	3017.58
482.166	3070.23
482.537	3110
482.908	3189.1
483.279	3294.63
483.65	3375.98
484.021	3474.51
484.391	3554.96
484.762	3584.11
485.133	3653.27
485.503	3733.94
485.874	3868.63
486.244	3953.6
486.615	4062.75
486.985	4156.98
487.356	4228.39
487.726	4316.98
488.097	4474.03
488.467	4480.36
488.837	4649.85
489.207	4740.92
489.578	4838.55
489.948	4894.81
490.318	5041.03
490.688	5135.49
491.058	5247.8
491.428	5330.51
491.798	5418.64
492.168	5623.84
492.538	5654.34
492.908	5730.5
493.278	5840.78
493.648	5938.63
494.017	6072.64
494.387	6186.08
494.757	6242.12
495.126	6398.73
495.496	6480.99
495.866	6584.26
496.235	6647.99
496.605	6773.18
496.974	6845.05
497.344	6948.55
497.713	7014.08
498.082	7138.6
498.452	7266.5
498.821	7362.32
499.19	7417.01
499.559	7469.21
499.928	7585.82
500.298	7671.92
500.667	7734.97
501.036	7849.09
501.405	7934.06
501.774	8041.17
502.143	8080.49
502.512	8166.82
502.88	8298.12
503.249	8388.06
503.618	8433.25
503.987	8549.63
504.356	8604.1
504.724	8708.05
505.093	8741.72
505.462	8786.92
505.83	8859.68
506.199	9002.73
506.567	9144.65
506.936	9240.92
507.304	9236.62
507.672	9345.77
508.041	9429.84
508.409	9464.86
508.777	9543.96
509.145	9645.88
509.514	9671.41
509.882	9720.9
510.25	9819.66
510.618	9983.27
510.986	9961.8
511.354	10088.35
511.722	10157.95
512.09	10252.87
512.458	10228.23
512.826	10363.37
513.193	10451.96
513.561	10507.77
513.929	10628
514.297	10669.58
514.664	10829.57
515.032	10846.75
515.4	10857.14
515.767	10923.81
516.135	10987.99
516.502	10935.56
516.869	11220.52
517.237	11221.65
517.604	11130.81
517.972	11381.42
518.339	11415.32
518.706	11435.43
519.073	11429.11
519.44	11615.99
519.808	11748.87
520.175	11747.29
520.542	11875.87
520.909	11978.02
521.276	12006.04
521.643	12129.43
522.009	12133.49
522.376	12260.5
522.743	12244
523.11	12463.66
523.477	12573.03
523.843	12593.14
524.21	12741.39
524.577	12804.66
524.943	12887.82
525.31	12988.39
525.676	13026.8
526.043	13180.47
526.409	13159.91
526.776	13257.76
527.142	13350.19
527.508	13402.84
527.874	13522.38
528.241	13614.36
528.607	13525.32
528.973	13741.81
529.339	13756.95
529.705	13960.11
530.071	14017.96
530.437	14049.15
530.803	14210.73
531.169	14281.23
531.535	14194.01
531.901	14337.73
532.267	14421.8
532.632	14462.47
532.998	14568.46
533.364	14619.76
533.73	14666.76
534.095	14818.17
534.461	14865.63
534.826	14915.12
535.192	14901.33
535.557	15042.8
535.923	15073.08
536.288	15203.24
536.653	15180.87
537.019	15111.95
537.384	15317.59
537.749	15418.61
538.114	15437.59
538.479	15455.89
538.845	15571.14
539.21	15507.87
539.575	15596.91
539.94	15693.4
540.305	15775.66
540.67	15752.61
541.034	15867.18
541.399	15965.03
541.764	15955.99
542.129	16034.86
542.494	16121.86
542.858	16157.8
543.223	16175.2
543.587	16304.01
543.952	16368.86
544.316	16333.38
544.681	16362.99
545.045	16460.84
545.41	16566.15
545.774	16553.04
546.138	16698.8
546.503	16716.65
546.867	16739.02
547.231	16888.17
547.595	16949.41
547.959	16972.24
548.324	17060.82
548.688	17140.82
549.052	17123.65
549.416	17178.11
549.779	17266.24
550.143	17249.52
550.507	17433.47
550.871	17491.09
551.235	17493.35
551.599	17563.63
551.962	17677.53
552.326	17625.55
552.689	17787.58
553.053	17681.37
553.417	17739
553.78	17907.81
554.143	17907.35
554.507	18036.84
554.87	18044.75
555.234	18183.73
555.597	18125.43
555.96	18185.09
556.323	18361.35
556.686	18461.46
557.05	18458.53
557.413	18513.44
557.776	18552.31
558.139	18703.72
558.502	18773.09
558.865	18759.76
559.228	18933.32
559.59	18952.52
559.953	18956.82
560.316	19274.1
560.679	19208.56
561.041	19270.93
561.404	19370.14
561.767	19467.76
562.129	19419.4
562.492	19706.85
562.854	19650.81
563.217	19626.18
563.579	19706.4
563.941	19820.98
564.304	19840.64
564.666	20021.2
565.028	20000.63
565.39	20000.86
565.753	20086.96
566.115	20311.36
566.477	20392.26
566.839	20422.32
567.201	20532.14
567.563	20522.2
567.925	20763.55
568.287	20749.09
568.648	20795.41
569.01	20952.47
569.372	21079.7
569.734	20927.39
570.095	21133.03
570.457	21227.72
570.819	21320.37
571.18	21349.52
571.542	21464.1
571.903	21492.8
572.265	21635.17
572.626	21613.02
572.987	21719.23
573.349	21920.36
573.71	21870.64
574.071	22063.63
574.432	22149.73
574.794	22341.81
575.155	22346.11
575.516	22338.88
575.877	22480.12
576.238	22622.94
576.599	22648.92
576.96	22775.7
577.32	22909.71
577.681	23027.9
578.042	23107.22
578.403	23201.23
578.763	23284.39
579.124	23381.33
579.485	23602.8
579.845	23794.66
580.206	23830.59
580.566	23968.21
580.927	24148.32
581.287	24374.75
581.648	24410.91
582.008	24568.65
582.368	24702.66
582.728	24922.31
583.089	25060.39
583.449	25089.54
583.809	25274.62
584.169	25375.63
584.529	25633.48
584.889	25978.33
585.249	25991.66
585.609	26019.23
585.969	26370.86
586.329	26445.66
586.688	26547.13
587.048	26757.29
587.408	26839.1
587.768	27106.89
588.127	27314.79
588.487	27333.55
588.846	27778.28
589.206	27750.03
589.565	27943.7
589.925	28225.95
590.284	28271.83
590.643	28531.71
591.003	28786.84
591.362	28885.37
591.721	29089.43
592.08	29315.87
592.44	29488.52
592.799	29728.29
593.158	29782.97
593.517	30030.88
593.876	30141.61
594.235	30274.03
594.593	30396.29
594.952	30757.86
595.311	30720.12
595.67	31092.09
596.029	31409.82
596.387	31448.47
596.746	31599.65
597.104	31611.17
597.463	31806.88
597.822	32085.96
598.18	32198.05
598.538	32209.58
598.897	32600.98
599.255	32495.9
599.613	33132.04
599.972	32998.03
600.33	33210.45
600.688	33191.92
601.046	33562.54
601.404	33693.83
601.762	33730.67
602.12	34019.02
602.478	34144.22
602.836	34213.82
603.194	34274.16
603.552	34424.89
603.91	34314.61
604.268	34695.16
604.625	34738.32
604.983	34983.52
605.341	34961.59
605.698	35182.61
606.056	35440.9
606.413	35486.78
606.771	35735.13
607.128	35764.29
607.485	35595.7
607.843	35911.4
608.2	36114.56
608.557	36225.52
608.914	36198.17
609.272	36589.35
609.629	36640.19
609.986	36764.49
610.343	36779.63
610.7	37125.61
611.057	37056.23
611.414	37063.69
611.771	37232.72
612.127	37329.22
612.484	37626.61
612.841	37615.54
613.198	37604.46
613.554	37686.04
613.911	37966.71
614.267	37876.77
614.624	37992.25
614.98	38147.73
615.337	38251.45
615.693	38216.2
616.05	38286.71
616.406	38632.23
616.762	38688.28
617.118	38592.91
617.475	38618.22
617.831	38824.54
618.187	38859.8
618.543	39025.67
618.899	39349.5
619.255	39253.23
619.611	39257.53
619.967	39389.5
620.323	39387.92
620.678	39313.57
621.034	39323.06
621.39	39313.34
621.746	39314.93
622.101	39842.14
622.457	39560.12
622.812	39687.57
623.168	39768.25
623.523	39851.18
623.879	39954.68
624.234	39734.12
624.589	39947
624.945	39950.62
625.3	39957.17
625.655	39977.73
626.01	39981.35
626.365	40119.2
626.72	40043.27
627.075	40048.69
627.43	39912.88
627.785	39981.35
628.14	40137.96
628.495	40156.03
628.85	40167.79
629.205	40078.3
629.559	40328.69
629.914	40151.29
630.269	40158.29
630.623	40059.54
630.978	40183.38
631.332	40296.6
631.687	40335.92
632.041	40243.04
632.396	40300.21
632.75	39949.94
633.104	40097.05
633.459	40115.36
633.813	40079.2
634.167	40072.65
634.521	39889.37
634.875	40114
635.229	40009.82
635.583	39825.2
635.937	39902.71
636.291	39962.14
636.645	39951.07
636.999	39966.66
637.352	39930.05
637.706	39798.3
638.06	39876.27
638.413	39746.33
638.767	39781.36
639.121	39884.86
639.474	39533.45
639.828	39627.23
640.181	39804.41
640.534	39798.53
640.888	39565.32
641.241	39445.54
641.594	39707.23
641.947	39808.02
642.301	39503.4
642.654	39634.92
643.007	39456.39
643.36	39496.62
643.713	39536.62
644.066	39587.24
644.419	39332.78
644.771	39149.73
645.124	38837.2
645.477	38732.8
645.83	38626.58
646.182	38354.27
646.535	38181.17
646.888	38321.05
647.24	38097.33
647.593	38336.42
647.945	38331.45
648.298	38074.06
648.65	38032.7
649.002	37977.11
649.355	38023.66
649.707	37925.13
650.059	38124.9
650.411	38595.85
650.763	38588.62
651.115	39058.21
651.467	38908.38
651.819	38876.29
652.171	38777.31
652.523	38726.02
652.875	38761.49
653.227	38485.34
653.578	38884.43
653.93	38732.57
654.282	38509.75
654.633	38514.95
654.985	38696.41
655.337	38555.85
655.688	38499.58
656.039	38794.49
656.391	38307.5
656.742	38597.66
657.094	38463.2
657.445	38557.88
657.796	38314.73
658.147	38357.21
658.498	38317.89
658.849	38544.33
659.2	38476.76
659.551	38436.53
659.902	38497.55
660.253	38417.55
660.604	38413.71
660.955	38212.13
661.306	38493.93
661.656	38213.94
662.007	38335.52
662.358	38377.78
662.708	38326.48
663.059	38292.13
663.409	38059.82
663.76	38349.98
664.11	38232.24
664.461	38286.71
664.811	38236.54
665.161	38377.55
665.511	38108.63
665.862	38236.31
666.212	38315.18
666.562	38277.67
666.912	37975.07
667.262	38164.9
667.612	38079.93
667.962	38103.21
668.312	38080.38
668.662	38343.88
669.011	38190.89
669.361	38115.41
669.711	38004.68
670.06	38056.2
670.41	37998.8
670.76	37839.26
671.109	38091.68
671.459	38034.06
671.808	37924
672.157	37978.46
672.507	37855.98
672.856	37838.13
673.205	37987.05
673.554	37853.04
673.904	37718.13
674.253	38050.33
674.602	37828.86
674.951	37354.53
675.3	37033.18
675.649	37818.69
675.998	37678.81
676.346	37726.27
676.695	37777.79
677.044	37474.3
677.393	37668.64
677.741	37580.28
678.09	37601.53
678.438	37314.53
678.787	37500.51
679.135	37618.7
679.484	37200.41
679.832	37396.11
680.181	37177.58
680.529	37498.93
680.877	37297.8
681.225	37108.66
681.573	37409.21
681.922	37095.78
682.27	36955.44
682.618	37109.56
682.966	36861.88
683.314	37063.46
683.661	36874.09
684.009	36562.68
684.357	36603.36
684.705	36593.42
685.053	36663.47
685.4	36573.76
685.748	36404.95
686.095	36442.01
686.443	36202.47
686.79	36245.18
687.138	36308.68
687.485	36199.53
687.832	36194.56
688.18	36152.3
688.527	35978.74
688.874	36011.74
689.221	35829.14
689.568	35899.88
689.915	35754.34
690.262	35842.93
690.609	35682.25
690.956	35628.24
691.303	35408.14
691.65	35280.68
691.997	35338.08
692.344	35207.92
692.69	35049.28
693.037	35205.88
693.383	34936.28
693.73	34988.26
694.077	34754.82
694.423	34671.66
694.769	34717.99
695.116	34513.92
695.462	34615.84
695.808	34485.68
696.155	34533.81
696.501	34207.49
696.847	34156.64
697.193	33749.2
697.539	34068.74
697.885	33886.59
698.231	33697.67
698.577	33727.73
698.923	33678.92
699.269	33489.77
699.614	33366.61
699.96	33404.12
700.306	33316.89
700.651	33311.69
700.997	32918.26
701.342	32999.61
701.688	33031.7
702.033	32882.33
702.379	32892.95
702.724	32710.35
703.069	32785.61
703.415	32463.13
703.76	32506.97
704.105	32366.63
704.45	32504.26
704.795	32280.08
705.14	32105.17
705.485	32042.12
705.83	31999.86
706.175	31963.03
706.52	31881.22
706.865	31799.64
707.209	31748.12
707.554	31561.46
707.899	31719.87
708.243	31588.8
708.588	31514.45
708.932	31268.58
709.277	31302.71
709.621	31234.46
709.966	31082.83
710.31	31170.06
710.654	30844.64
710.998	30989.72
711.342	31017.74
711.687	30827.92
712.031	30827.01
712.375	30602.39
712.719	30584.99
713.063	30605.78
713.407	30618.66
713.75	30445.78
714.094	30354.71
714.438	30333.92
714.782	30323.75
715.125	30159.24
715.469	30256.41
715.812	30068.39
716.156	29999.92
716.499	29881.73
716.843	30047.37
717.186	29842.41
717.53	29925.8
717.873	29868.17
718.216	29826.14
718.559	29681.28
718.902	29530.33
719.246	29541.17
719.589	29520.38
719.932	29364.91
720.275	29410.78
720.617	29490.78
720.96	29312.93
721.303	29140.28
721.646	29305.47
721.989	28950.45
722.331	29113.61
722.674	29017.12
723.016	29134.63
723.359	28914.3
723.701	29013.05
724.044	28796.33
724.386	28747.29
724.729	28869.78
725.071	28734.64
725.413	28712.04
725.755	28673.4
726.097	28507.53
726.439	28364.93
726.782	28443.57
727.124	28577.58
727.465	28288.32
727.807	28334.65
728.149	28305.27
728.491	28161.77
728.833	28340.98
729.175	28243.58
729.516	28211.94
729.858	28158.16
730.199	28022.57
730.541	28050.36
730.882	27968.78
731.224	28034.77
731.565	27827.09
731.906	27863.7
732.248	27909.12
732.589	27715.91
732.93	27699.41
733.271	27598.4
733.612	27691.05
733.953	27705.29
734.294	27563.6
734.635	27485.63
734.976	27536.03
735.317	27340.55
735.658	27415.8
735.999	27325.64
736.339	27330.61
736.68	27294.68
737.021	27307.56
737.361	27070.05
737.702	27152.08
738.042	27185.3
738.383	27087.45
738.723	27086.1
739.063	27008.81
739.404	26918.19
739.744	26930.17
740.084	26841.13
740.424	26877.06
740.764	26759.1
741.104	26897.17
741.444	26587.13
741.784	26618.31
742.124	26600.01
742.464	26597.3
742.804	26640.23
743.143	26498.77
743.483	26534.47
743.823	26422.16
744.162	26426.23
744.502	26288.38
744.841	26175.61
745.181	26418.77
745.52	26290.86
745.86	26393.46
746.199	26194.37
746.538	26250.19
746.877	26147.14
747.216	26323.63
747.556	26124.31
747.895	26125.22
748.234	25901.27
748.573	25888.84
748.911	25959.12
749.25	25995.73
749.589	25760.25
749.928	25767.94
750.267	25839.8
750.605	25638
750.944	25611.78
751.283	25568.62
751.621	25598.45
751.96	25507.15
752.298	25511.67
752.636	25526.14
752.975	25240.49
753.313	25229.42
753.651	25277.1
753.989	25217.67
754.327	25219.93
754.666	25017
755.004	25201.63
755.342	25060.16
755.679	25013.16
756.017	24819.49
756.355	24915.98
756.693	24749.89
757.031	24792.6
757.368	24651.36
