Data from hue_280_FLMS001491_00036.txt Node
Date: Tue Feb 07 15:55:11 GMT 2017
User: dcchb
Spectrometer: FLMS00149
Trigger mode: 0
Integration Time (sec): 2.000000E-2
Scans to average: 10
Electric dark correction enabled: true
Nonlinearity correction enabled: false
Boxcar width: 0
XAxis mode: Wavelengths
Number of Pixels in Spectrum: 2048
>>>>>Begin Spectral Data<<<<<
341.393	-19.39
341.776	-19.39
342.16	-19.39
342.543	-47.64
342.927	-59.17
343.31	-74.53
343.693	-81.76
344.077	-48.54
344.46	-43.35
344.843	-31.82
345.226	-42.67
345.61	-36.11
345.993	-15.1
346.376	-32.05
346.759	2.08
347.142	22.64
347.525	52.24
347.908	47.72
348.291	81.4
348.674	82.07
349.057	117.78
349.44	123.65
349.823	139.47
350.206	158.68
350.588	196.42
350.971	206.14
351.354	206.59
351.737	221.73
352.119	234.16
352.502	258.11
352.884	254.27
353.267	267.61
353.65	282.29
354.032	289.07
354.414	294.95
354.797	285.23
355.179	330.88
355.562	312.35
355.944	299.7
356.326	323.88
356.709	320.71
357.091	334.27
357.473	339.69
357.855	328.62
358.238	314.84
358.62	334.95
359.002	329.3
359.384	334.95
359.766	334.27
360.148	341.05
360.53	341.5
360.912	320.26
361.294	316.19
361.676	339.69
362.057	314.61
362.439	326.14
362.821	341.28
363.203	321.84
363.584	312.35
363.966	311.9
364.348	327.04
364.729	334.04
365.111	298.79
365.493	314.61
365.874	275.06
366.256	309.19
366.637	291.79
367.019	305.12
367.4	312.35
367.781	320.49
368.163	327.72
368.544	311.22
368.925	308.73
369.306	295.85
369.688	312.58
370.069	321.16
370.45	304.22
370.831	310.77
371.212	297.44
371.593	290.43
371.974	299.24
372.355	318.45
372.736	291.56
373.117	298.11
373.498	309.86
373.879	288.4
374.26	306.02
374.641	304.44
375.021	293.82
375.402	318.23
375.783	311.22
376.163	311.45
376.544	313.03
376.925	334.95
377.305	326.59
377.686	317.77
378.066	328.85
378.447	340.82
378.827	328.62
379.208	333.37
379.588	317.77
379.968	334.04
380.349	307.83
380.729	323.2
381.109	349.86
381.489	336.76
381.87	328.85
382.25	306.7
382.63	319.58
383.01	330.66
383.39	338.79
383.77	340.15
384.15	337.89
384.53	335.63
384.91	331.79
385.29	351.67
385.67	360.26
386.049	356.64
386.429	352.12
386.809	353.93
387.189	350.54
387.568	337.43
387.948	354.61
388.328	350.09
388.707	350.32
389.087	365.46
389.466	356.87
389.846	371.78
390.225	374.72
390.605	367.04
390.984	361.84
391.363	374.5
391.743	376.3
392.122	373.82
392.501	375.85
392.881	373.59
393.26	386.47
393.639	376.53
394.018	379.24
394.397	412.46
394.776	393.48
395.155	375.4
395.534	388.28
395.913	367.49
396.292	384.67
396.671	385.34
397.05	393.25
397.429	394.83
397.808	412.01
398.186	405.46
398.565	410.43
398.944	394.16
399.323	399.35
399.701	390.99
400.08	405
400.458	422.18
400.837	416.53
401.215	441.39
401.594	424.21
401.972	435.74
402.351	451.1
402.729	409.98
403.107	427.6
403.486	429.86
403.864	437.54
404.242	440.26
404.62	423.08
404.999	435.74
405.377	437.77
405.755	464.66
406.133	451.78
406.511	454.49
406.889	472.8
407.267	465.11
407.645	488.62
408.023	462.18
408.401	498.79
408.779	480.48
409.156	490.88
409.534	500.82
409.912	491.78
410.29	505.34
410.667	526.13
411.045	525.68
411.422	534.04
411.8	534.94
412.178	543.98
412.555	538.11
412.933	541.72
413.31	569.74
413.687	582.63
414.065	570.2
414.442	592.57
414.819	574.26
415.197	592.8
415.574	582.63
415.951	586.24
416.328	606.58
416.705	618.78
417.082	618.11
417.46	630.08
417.837	663.08
418.214	615.85
418.591	632.12
418.967	680.02
419.344	677.31
419.721	683.87
420.098	674.37
420.475	701.94
420.852	706.24
421.228	690.87
421.605	702.62
421.982	713.24
422.358	736.97
422.735	753.92
423.111	757.99
423.488	750.98
423.864	770.87
424.241	763.86
424.617	793.69
424.994	797.99
425.37	782.85
425.746	791.21
426.123	822.85
426.499	835.5
426.875	819.91
427.251	856.52
427.627	856.29
428.003	871.88
428.379	884.54
428.756	888.61
429.132	910.3
429.507	925.22
429.883	946.46
430.259	924.31
430.635	952.11
431.011	951.43
431.387	973.35
431.763	976.51
432.138	996.63
432.514	992.78
432.89	1021.03
433.265	1035.27
433.641	1048.38
434.016	1044.53
434.392	1086.79
434.767	1069.39
435.143	1088.38
435.518	1119.56
435.894	1115.27
436.269	1130.18
436.644	1179.9
437.02	1149.84
437.395	1183.51
437.77	1191.65
438.145	1219.22
438.52	1226.9
438.895	1215.38
439.271	1232.78
439.646	1280.46
440.021	1280.23
440.395	1274.81
440.77	1281.14
441.145	1282.27
441.52	1295.38
441.895	1290.18
442.27	1330.4
442.645	1340.35
443.019	1357.29
443.394	1339.89
443.769	1381.25
444.143	1374.47
444.518	1384.41
444.892	1411.53
445.267	1392.1
445.641	1373.79
446.016	1426.22
446.39	1404.75
446.764	1435.26
447.139	1409.72
447.513	1443.85
447.887	1435.48
448.262	1474.35
448.636	1454.24
449.01	1491.08
449.384	1491.08
449.758	1494.24
450.132	1509.38
450.506	1509.16
450.88	1504.64
451.254	1526.33
451.628	1533.34
452.002	1580.11
452.376	1540.11
452.75	1593.22
453.123	1527.91
453.497	1578.53
453.871	1621.24
454.244	1633.45
454.618	1630.51
454.992	1663.95
455.365	1692.65
455.739	1704.86
456.112	1663.28
456.486	1711.41
456.859	1736.72
457.232	1734.01
457.606	1755.25
457.979	1801.12
458.352	1808.36
458.725	1770.17
459.099	1814.91
459.472	1846.32
459.845	1835.47
460.218	1851.52
460.591	1886.09
460.964	1875.7
461.337	1951.18
461.71	1901.24
462.083	1931.52
462.456	1955.25
462.829	1963.61
463.201	1977.84
463.574	2011.51
463.947	2021.23
464.32	2046.09
464.692	2075.47
465.065	2056.94
465.438	2115.24
465.81	2144.84
466.183	2114.34
466.555	2152.3
466.928	2176.93
467.3	2197.05
467.672	2172.41
468.045	2258.97
468.417	2261
468.789	2260.55
469.161	2316.14
469.534	2345.74
469.906	2383.26
470.278	2353.88
470.65	2360.88
471.022	2400.21
471.394	2493.99
471.766	2444.27
472.138	2480.88
472.51	2502.8
472.882	2531.95
473.253	2566.53
473.625	2576.92
473.997	2641.78
474.369	2644.72
474.74	2665.06
475.112	2715.23
475.484	2717.49
475.855	2771.95
476.227	2787.31
476.598	2867.31
476.97	2868.89
477.341	2952.73
477.713	2926.52
478.084	2982.56
478.455	3034.09
478.827	3038.61
479.198	3121.32
479.569	3108.89
479.94	3218.94
480.311	3170.13
480.682	3230.69
481.053	3310.01
481.424	3378.48
481.795	3364.7
482.166	3396.79
482.537	3431.14
482.908	3495.32
483.279	3481.98
483.65	3535.09
484.021	3594.07
484.391	3655.99
484.762	3666.39
485.133	3687.63
485.503	3741.64
485.874	3782.77
486.244	3786.61
486.615	3853.73
486.985	3915.65
487.356	3983.89
487.726	3952.03
488.097	4028.19
488.467	4038.13
488.837	4137.33
489.207	4106.15
489.578	4204
489.948	4202.87
490.318	4242.42
490.688	4239.03
491.058	4313.83
491.428	4355.18
491.798	4408.29
492.168	4464.11
492.538	4479.25
492.908	4506.59
493.278	4567.38
493.648	4526.93
494.017	4597.44
494.387	4669.07
494.757	4654.61
495.126	4729.18
495.496	4715.85
495.866	4739.35
496.235	4760.82
496.605	4821.38
496.974	4793.36
497.344	4858.22
497.713	4889.63
498.082	4908.61
498.452	4894.38
498.821	4929.63
499.19	4962.62
499.559	4987.03
499.928	5028.61
500.298	5030.87
500.667	5104.09
501.036	5058.44
501.405	5058.89
501.774	5075.16
502.143	5130.98
502.512	5146.35
502.88	5185.89
503.249	5245.55
503.618	5242.39
503.987	5202.62
504.356	5237.64
504.724	5251.43
505.093	5232.9
505.462	5298.89
505.83	5279.23
506.199	5346.57
506.567	5418.43
506.936	5414.59
507.304	5447.58
507.672	5410.75
508.041	5431.54
508.409	5475.83
508.777	5501.59
509.145	5536.85
509.514	5476.28
509.882	5539.11
510.25	5547.02
510.618	5561.48
510.986	5594.25
511.354	5664.07
511.722	5615.26
512.09	5655.71
512.458	5678.99
512.826	5710.85
513.193	5742.49
513.561	5753.11
513.929	5677.63
514.297	5792.43
514.664	5793.79
515.032	5810.06
515.4	5857.52
515.767	5805.31
516.135	5888.7
516.502	5826.78
516.869	5862.71
517.237	5912.43
517.604	5885.76
517.972	5881.7
518.339	5919.89
518.706	5996.72
519.073	5986.1
519.44	6041.24
519.808	6048.47
520.175	6024.06
520.542	6068.81
520.909	6031.07
521.276	6057.06
521.643	6118.98
522.009	6137.73
522.376	6138.19
522.743	6156.49
523.11	6259.54
523.477	6224.74
523.843	6248.47
524.21	6294.79
524.577	6302.48
524.943	6386.09
525.31	6410.27
525.676	6393.55
526.043	6403.72
526.409	6454.11
526.776	6470.38
527.142	6506.76
527.508	6570.27
527.874	6548.12
528.241	6567.33
528.607	6575.46
528.973	6621.79
529.339	6623.82
529.705	6674.44
530.071	6714.22
530.437	6708.57
530.803	6791.5
531.169	6743.37
531.535	6743.37
531.901	6785.4
532.267	6811.39
532.632	6809.13
532.998	6841.44
533.364	6869.92
533.73	6941.33
534.095	6929.8
534.461	6940.65
534.826	6942.46
535.192	7008.9
535.557	7003.47
535.923	7027.43
536.288	7016.58
536.653	7004.6
537.019	6989.92
537.384	7094.77
537.749	7117.82
538.114	7134.77
538.479	7059.29
538.845	7098.39
539.21	7107.65
539.575	7146.75
539.94	7136.13
540.305	7138.84
540.67	7148.78
541.034	7140.42
541.399	7216.58
541.764	7259.06
542.129	7260.42
542.494	7264.48
542.858	7265.39
543.223	7339.28
543.587	7316.23
543.952	7263.81
544.316	7371.83
544.681	7310.58
545.045	7296.8
545.41	7371.83
545.774	7423.12
546.138	7429.9
546.503	7419.51
546.867	7388.1
547.231	7455.44
547.595	7473.74
547.959	7481.88
548.324	7475.78
548.688	7485.5
549.052	7489.56
549.416	7516.91
549.779	7540.86
550.143	7573.18
550.507	7549.45
550.871	7601.88
551.235	7623.8
551.599	7659.05
551.962	7544.7
552.326	7613.18
552.689	7673.06
553.053	7678.26
553.417	7669.22
553.78	7796.22
554.143	7709.67
554.507	7706.05
554.87	7796
555.234	7775.66
555.597	7756
555.96	7756.67
556.323	7828.76
556.686	7833.73
557.05	7887.97
557.413	7911.47
557.776	7893.62
558.139	7921.42
558.502	7895.2
558.865	7965.71
559.228	7981.08
559.59	7996.67
559.953	8065.82
560.316	8061.3
560.679	8059.72
561.041	8111.47
561.404	8118.02
561.767	8096.1
562.129	8154.4
562.492	8197.34
562.854	8197.34
563.217	8225.59
563.579	8256.1
563.941	8275.31
564.304	8353.72
564.666	8370.22
565.028	8315.3
565.39	8449.76
565.753	8428.3
566.115	8442.98
566.477	8519.37
566.839	8437.33
567.201	8523.43
567.563	8554.39
567.925	8587.39
568.287	8650.21
568.648	8593.71
569.01	8621.06
569.372	8735.63
569.734	8685.01
570.095	8718.23
570.457	8785.35
570.819	8820.38
571.18	8825.12
571.542	8863.76
571.903	8882.52
572.265	8941.28
572.626	8955.29
572.987	8931.78
573.349	9059.24
573.71	8994.61
574.071	9042.97
574.432	9058.56
574.794	9153.47
575.155	9132.68
575.516	9196.18
575.877	9195.96
576.238	9272.57
576.599	9256.52
576.96	9354.37
577.32	9369.51
577.681	9392.56
578.042	9416.07
578.403	9446.35
578.763	9563.63
579.124	9568.15
579.485	9682.05
579.845	9659
580.206	9695.83
580.566	9655.83
580.927	9786.68
581.287	9843.17
581.648	9882.49
582.008	9904.19
582.368	9999.33
582.728	9962.72
583.089	10027.35
583.449	10120.45
583.809	10148.7
584.169	10227.12
584.529	10257.4
584.889	10432.76
585.249	10399.32
585.609	10395.93
585.969	10493.78
586.329	10517.96
586.688	10615.81
587.048	10604.96
587.408	10698.97
587.768	10712.3
588.127	10760.89
588.487	10796.37
588.846	10983.71
589.206	10941.45
589.565	11000.43
589.925	11071.16
590.284	11175.34
590.643	11238.16
591.003	11344.38
591.362	11437.71
591.721	11429.35
592.08	11514.54
592.44	11615.33
592.799	11641.77
593.158	11704.82
593.517	11807.19
593.876	11869.33
594.235	11794.08
594.593	11983.46
594.952	11989.56
595.311	12013.74
595.67	12098.71
596.029	12272.94
596.387	12312.04
596.746	12328.31
597.104	12330.11
597.463	12400.62
597.822	12498.7
598.18	12536.21
598.538	12567.17
598.897	12644.68
599.255	12624.34
599.613	12903.43
599.972	12857.11
600.33	12884.45
600.688	12888.97
601.046	13028.17
601.404	13098
601.762	13065.46
602.12	13232.24
602.478	13187.27
602.836	13212.12
603.194	13265.46
603.552	13303.87
603.91	13236.98
604.268	13421.84
604.625	13358.56
604.983	13547.71
605.341	13467.03
605.698	13662.73
606.056	13615.28
606.413	13668.38
606.771	13799.23
607.128	13730.53
607.485	13774.82
607.843	13690.76
608.2	13930.07
608.557	14055.94
608.914	13913.35
609.272	13954.03
609.629	13968.94
609.986	14098.2
610.343	14075.15
610.7	14153.34
611.057	14189.05
611.414	14262.04
611.771	14217.3
612.127	14220.46
612.484	14292.32
612.841	14341.81
613.198	14306.33
613.554	14384.97
613.911	14396.05
614.267	14446.22
614.624	14486.22
614.98	14495.25
615.337	14570.96
615.693	14492.99
616.05	14592.65
616.406	14662.48
616.762	14576.38
617.118	14690.5
617.475	14628.36
617.831	14655.7
618.187	14756.04
618.543	14727.56
618.899	14852.31
619.255	14795.59
619.611	14794.68
619.967	14846.66
620.323	14850.05
620.678	14861.57
621.034	14772.76
621.39	14896.6
621.746	14863.61
622.101	14995.81
622.457	14909.25
622.812	14928.92
623.168	14903.83
623.523	14988.35
623.879	14966.43
624.234	14869.26
624.589	14956.03
624.945	14997.61
625.3	15059.99
625.655	15000.78
626.01	15020.89
626.365	15069.02
626.72	14980.67
627.075	15058.63
627.43	15026.99
627.785	15036.48
628.14	15062.25
628.495	15038.52
628.85	15119.19
629.205	14935.92
629.559	15034.22
629.914	14959.65
630.269	15063.83
630.623	14989.48
630.978	14988.57
631.332	15034.9
631.687	14987.44
632.041	14907.22
632.396	14955.13
632.75	14891.18
633.104	14980.67
633.459	14868.58
633.813	14782.48
634.167	14876.71
634.521	14848.92
634.875	14815.02
635.229	14880.33
635.583	14765.3
635.937	14835.58
636.291	14741.35
636.645	14829.26
636.999	14734.57
637.352	14802.37
637.706	14746.55
638.06	14758.75
638.413	14717.62
638.767	14803.95
639.121	14748.81
639.474	14744.97
639.828	14689.15
640.181	14649.6
640.534	14668.81
640.888	14603.05
641.241	14555.59
641.594	14569.6
641.947	14726.66
642.301	14645.98
642.654	14675.59
643.007	14662.93
643.36	14667
643.713	14559.21
644.066	14699.77
644.419	14467.46
644.771	14419.1
645.124	14326.22
645.477	14303.62
645.83	14336.84
646.182	14223.4
646.535	14202.38
646.888	14136.85
647.24	14104.08
647.593	14214.58
647.945	14141.59
648.298	14055.27
648.65	14096.85
649.002	14042.84
649.355	14126.22
649.707	14129.39
650.059	14146.79
650.411	14259.55
650.763	14422.04
651.115	14492.77
651.467	14463.39
651.819	14513.11
652.171	14450.28
652.523	14335.71
652.875	14476.5
653.227	14403.73
653.578	14593.33
653.93	14461.13
654.282	14397.18
654.633	14340.91
654.985	14416.61
655.337	14464.97
655.688	14419.55
656.039	14485.76
656.391	14328.71
656.742	14404.18
657.094	14379.55
657.445	14422.04
657.796	14475.82
658.147	14377.74
658.498	14442.15
658.849	14450.28
659.2	14462.26
659.551	14420.45
659.902	14500.68
660.253	14451.19
660.604	14475.82
660.955	14410.28
661.306	14548.59
661.656	14467.23
662.007	14476.05
662.358	14469.27
662.708	14480.57
663.059	14422.04
663.409	14394.01
663.76	14411.64
664.11	14490.96
664.461	14629.04
664.811	14599.66
665.161	14610.28
665.511	14499.55
665.862	14553.11
666.212	14562.82
666.562	14560.56
666.912	14563.95
667.262	14498.87
667.612	14485.09
667.962	14636.49
668.312	14489.6
668.662	14549.94
669.011	14532.99
669.361	14521.47
669.711	14574.57
670.06	14446.22
670.41	14472.43
670.76	14472.88
671.109	14511.3
671.459	14484.63
671.808	14404.64
672.157	14524.18
672.507	14353.79
672.856	14400.79
673.205	14346.78
673.554	14433.34
673.904	14398.99
674.253	14465.88
674.602	14388.59
674.951	14278.99
675.3	14114.7
675.649	14247.35
675.998	14364.41
676.346	14324.19
676.695	14318.54
677.044	14175.49
677.393	14271.31
677.741	14282.38
678.09	14228.82
678.438	14167.13
678.787	14248.93
679.135	14236.73
679.484	14069.95
679.832	14167.81
680.181	14104.08
680.529	14152.89
680.877	14078.77
681.225	14145.43
681.573	14131.42
681.922	14070.18
682.27	14017.07
682.618	13973.91
682.966	13972.33
683.314	13981.14
683.661	13936.17
684.009	13899.34
684.357	13853.24
684.705	13813.69
685.053	13803.3
685.4	13853.01
685.748	13715.61
686.095	13664.32
686.443	13626.12
686.79	13618.67
687.138	13714.71
687.485	13596.07
687.832	13626.35
688.18	13606.92
688.527	13546.13
688.874	13520.14
689.221	13513.36
689.568	13447.15
689.915	13386.13
690.262	13356.53
690.609	13321.27
690.956	13242.18
691.303	13275.63
691.65	13144.1
691.997	13178.23
692.344	13118.57
692.69	13083.99
693.037	13060.04
693.383	12936.88
693.73	12993.15
694.077	12858.69
694.423	12956.54
694.769	12792.93
695.116	12808.29
695.462	12742.98
695.808	12796.54
696.155	12773.94
696.501	12570.79
696.847	12582.99
697.193	12540.5
697.539	12572.82
697.885	12526.04
698.231	12457.57
698.577	12463.9
698.923	12410.34
699.269	12364.24
699.614	12224.35
699.96	12128.54
700.306	12145.94
700.651	12033.62
700.997	12091.25
701.342	12021.2
701.688	11972.61
702.033	11869.56
702.379	11928.54
702.724	11869.56
703.069	11897.58
703.415	11757.25
703.76	11716.12
704.105	11744.14
704.45	11713.63
704.795	11647.19
705.14	11559.51
705.485	11538.5
705.83	11549.57
706.175	11510.02
706.52	11523.13
706.865	11399.52
707.209	11487.88
707.554	11300.54
707.899	11366.3
708.243	11324.72
708.588	11301.89
708.932	11292.17
709.277	11239.75
709.621	11230.48
709.966	11188.22
710.31	11180.99
710.654	11056.7
710.998	11043.14
711.342	11138.28
711.687	11005.85
712.031	10924.95
712.375	10902.35
712.719	10906.42
713.063	10913.2
713.407	10916.14
713.75	10887.89
714.094	10873.2
714.438	10777.84
714.782	10771.51
715.125	10696.26
715.469	10763.15
715.812	10763.38
716.156	10692.42
716.499	10615.13
716.843	10677.5
717.186	10621.91
717.53	10634.57
717.873	10682.02
718.216	10698.97
718.559	10547.79
718.902	10416.49
719.246	10547.56
719.589	10548.01
719.932	10443.84
720.275	10481.8
720.617	10446.55
720.96	10476.15
721.303	10506.21
721.646	10454.91
721.989	10430.28
722.331	10410.16
722.674	10394.8
723.016	10460.33
723.359	10340.79
723.701	10437.28
724.044	10314.35
724.386	10256.72
724.729	10387.79
725.071	10308.25
725.413	10302.37
725.755	10317.51
726.097	10235.93
726.439	10227.57
726.782	10201.13
727.124	10285.87
727.465	10303.05
727.807	10224.41
728.149	10245.65
728.491	10170.17
728.833	10234.58
729.175	10226.21
729.516	10117.29
729.858	10192.32
730.199	10183.5
730.541	10191.41
730.882	10194.12
731.224	10224.63
731.565	10128.36
731.906	10145.09
732.248	10169.27
732.589	10107.35
732.93	10196.61
733.271	10156.61
733.612	10186.22
733.953	10190.06
734.294	10143.5
734.635	10130.85
734.976	10172.66
735.317	10086.1
735.658	10133.34
735.999	10174.01
736.339	10134.47
736.68	10192.09
737.021	10150.06
737.361	10129.95
737.702	10148.48
738.042	10111.64
738.383	10149.15
738.723	10187.12
739.063	10240.23
739.404	10257.85
739.744	10242.03
740.084	10232.54
740.424	10244.07
740.764	10203.84
741.104	10250.62
741.444	10287.68
741.784	10240.45
742.124	10247
742.464	10311.18
742.804	10260.34
743.143	10298.08
743.483	10385.98
743.823	10314.12
744.162	10267.57
744.502	10427.11
744.841	10396.38
745.181	10430.95
745.52	10478.64
745.86	10553.89
746.199	10636.6
746.538	10599.09
746.877	10723.83
747.216	10757.73
747.556	10718.63
747.895	10792.53
748.234	10759.53
748.573	10852.86
748.911	10980.54
749.25	11019.64
749.589	11054.44
749.928	11174.66
750.267	11275.9
750.605	11336.47
750.944	11274.32
751.283	11351.83
751.621	11457.37
751.96	11509.12
752.298	11665.95
752.636	11790.01
752.975	11850.8
753.313	11867.3
753.651	12038.37
753.989	12014.64
754.327	12190.23
754.666	12254.86
755.004	12426.38
755.342	12447.85
755.679	12737.56
756.017	12584.34
756.355	12884.9
756.693	12871.12
757.031	13131.67
757.368	13187.04
757.706	13350.43
758.044	13386.13
758.381	13605.56
758.719	13722.39
759.056	13917.87
