Data from hue_340_FLMS001491_92.txt Node
Date: Mon Feb 06 15:43:53 GMT 2017
User: dcchb
Spectrometer: FLMS00149
Trigger mode: 0
Integration Time (sec): 2.000000E-2
Scans to average: 10
Electric dark correction enabled: true
Nonlinearity correction enabled: false
Boxcar width: 0
XAxis mode: Wavelengths
Number of Pixels in Spectrum: 2048
>>>>>Begin Spectral Data<<<<<
341.393	-9.6
341.776	-9.6
342.16	-9.6
342.543	-67.91
342.927	-69.72
343.31	-66.78
343.693	-62.48
344.077	-53.22
344.46	-57.51
344.843	-60
345.226	-44.63
345.61	-41.47
345.993	-12.32
346.376	-7.12
346.759	-12.32
347.142	29.04
347.525	42.15
347.908	53.22
348.291	71.75
348.674	90.73
349.057	130.96
349.44	134.8
349.823	152.43
350.206	187
350.588	177.28
350.971	192.42
351.354	234.23
351.737	238.07
352.119	258.41
352.502	281.69
352.884	284.85
353.267	281.24
353.65	314.91
354.032	308.81
354.414	304.29
354.797	313.1
355.179	325.98
355.562	330.95
355.944	320.33
356.326	334.79
356.709	340.89
357.091	358.07
357.473	341.12
357.855	341.35
358.238	338.18
358.62	323.49
359.002	330.27
359.384	345.41
359.766	347.22
360.148	332.76
360.53	337.96
360.912	320.78
361.294	342.25
361.676	322.82
362.057	335.02
362.439	351.52
362.821	296.83
363.203	333.44
363.584	320.78
363.966	320.78
364.348	314
364.729	310.16
365.111	295.92
365.493	325.98
365.874	340.22
366.256	328.01
366.637	312.65
367.019	304.06
367.4	316.04
367.781	306.77
368.163	327.79
368.544	305.19
368.925	314.23
369.306	321.01
369.688	309.94
370.069	320.1
370.45	342.25
370.831	296.15
371.212	314.23
371.593	315.13
371.974	310.84
372.355	312.2
372.736	324.85
373.117	308.35
373.498	318.52
373.879	312.42
374.26	322.36
374.641	314.91
375.021	293.89
375.402	319.43
375.783	326.88
376.163	313.1
376.544	304.74
376.925	332.53
377.305	322.82
377.686	321.69
378.066	323.27
378.447	314.46
378.827	342.48
379.208	313.78
379.588	338.41
379.968	321.69
380.349	320.56
380.729	304.29
381.109	339.09
381.489	330.05
381.87	340.22
382.25	354.91
382.63	340.22
383.01	335.7
383.39	328.47
383.77	374.79
384.15	316.49
384.53	334.12
384.91	343.15
385.29	352.65
385.67	363.04
386.049	347.67
386.429	350.84
386.809	346.77
387.189	356.04
387.568	355.58
387.948	341.57
388.328	363.72
388.707	319.88
389.087	338.18
389.466	342.7
389.846	355.13
390.225	349.03
390.605	350.61
390.984	361.69
391.363	344.74
391.743	348.58
392.122	357.17
392.501	374.79
392.881	382.93
393.26	384.96
393.639	386.32
394.018	357.39
394.397	394
394.776	365.53
395.155	375.47
395.534	401.91
395.913	379.31
396.292	392.42
396.671	382.7
397.05	374.11
397.429	364.85
397.808	372.98
398.186	359.2
398.565	375.92
398.944	383.83
399.323	377.96
399.701	370.72
400.08	373.89
400.458	376.37
400.837	391.06
401.215	388.13
401.594	388.35
401.972	412.76
402.351	390.16
402.729	394
403.107	377.73
403.486	382.7
403.864	385.64
404.242	392.87
404.62	391.52
404.999	405.98
405.377	410.95
405.755	404.4
406.133	407.33
406.511	405.75
406.889	421.8
407.267	402.14
407.645	417.73
408.023	411.85
408.401	407.11
408.779	429.93
409.156	432.87
409.534	415.02
409.912	440.78
410.29	433.32
410.667	451.17
411.045	454.79
411.422	424.96
411.8	470.16
412.178	445.3
412.555	456.15
412.933	452.98
413.31	440.55
413.687	452.3
414.065	462.47
414.442	480.78
414.819	495.02
415.197	499.99
415.574	490.95
415.951	493.66
416.328	497.05
416.705	487.11
417.082	489.37
417.46	507.22
417.837	506.31
418.214	518.29
418.591	537.27
418.967	517.84
419.344	525.97
419.721	540.21
420.098	516.94
420.475	523.72
420.852	542.7
421.228	533.66
421.605	536.14
421.982	551.06
422.358	581.57
422.735	572.98
423.111	556.93
423.488	560.32
423.864	569.59
424.241	544.05
424.617	581.79
424.994	576.82
425.37	596.71
425.746	597.16
426.123	598.06
426.499	606.42
426.875	608.01
427.251	592.64
427.627	607.33
428.003	623.37
428.379	619.98
428.756	647.1
429.132	606.2
429.507	647.1
429.883	638.29
430.259	638.29
430.635	625.86
431.011	666.76
431.387	664.73
431.763	683.26
432.138	668.12
432.514	683.03
432.89	681.23
433.265	692.3
433.641	709.7
434.016	700.89
434.392	693.2
434.767	712.41
435.143	727.55
435.518	755.57
435.894	740.66
436.269	729.36
436.644	731.85
437.02	764.61
437.395	766.42
437.77	766.87
438.145	764.39
438.52	791.73
438.895	787.21
439.271	774.56
439.646	804.61
440.021	801.67
440.395	808.91
440.77	793.31
441.145	809.13
441.52	813.65
441.895	798.06
442.27	820.43
442.645	835.57
443.019	824.72
443.394	816.14
443.769	831.5
444.143	833.99
444.518	836.48
444.892	827.21
445.267	852.29
445.641	851.84
446.016	853.42
446.39	856.59
446.764	874.44
447.139	860.88
447.513	859.3
447.887	866.53
448.262	851.39
448.636	858.62
449.01	894.33
449.384	891.39
449.758	899.07
450.132	894.1
450.506	919.64
450.88	904.5
451.254	892.97
451.628	886.87
452.002	903.37
452.376	924.83
452.75	944.04
453.123	938.85
453.497	963.25
453.871	943.14
454.244	937.72
454.618	939.75
454.992	974.78
455.365	970.93
455.739	994.21
456.112	1008.9
456.486	974.78
456.859	995.79
457.232	998.05
457.606	1012.52
457.979	997.15
458.352	1009.35
458.725	1039.63
459.099	1040.31
459.472	1027.43
459.845	1048.67
460.218	1071.72
460.591	1077.6
460.964	1079.41
461.337	1073.08
461.71	1089.58
462.083	1103.13
462.456	1108.33
462.829	1121.67
463.201	1119.86
463.574	1129.57
463.947	1147.65
464.32	1169.35
464.692	1170.25
465.065	1176.58
465.438	1180.87
465.81	1186.97
466.183	1184.49
466.555	1239.63
466.928	1215.67
467.3	1206.41
467.672	1238.27
468.045	1259.06
468.417	1251.61
468.789	1271.72
469.161	1269.01
469.534	1305.62
469.906	1305.39
470.278	1331.6
470.65	1360.3
471.022	1365.73
471.394	1385.61
471.766	1380.64
472.138	1431.49
472.51	1444.14
472.882	1432.62
473.253	1462.45
473.625	1511.49
473.997	1499.51
474.369	1519.62
474.74	1534.31
475.112	1547.19
475.484	1571.15
475.855	1586.29
476.227	1632.39
476.598	1635.55
476.97	1654.08
477.341	1660.41
477.713	1671.48
478.084	1728.88
478.455	1745.15
478.827	1748.54
479.198	1804.36
479.569	1801.65
479.94	1868.31
480.311	1868.99
480.682	1902.44
481.053	1942.89
481.424	1916.9
481.795	1974.07
482.166	1976.78
482.537	1998.25
482.908	2026.73
483.279	2089.1
483.65	2106.95
484.021	2174.75
484.391	2165.03
484.762	2172.26
485.133	2188.3
485.503	2236.21
485.874	2250.45
486.244	2283.44
486.615	2337.23
486.985	2365.7
487.356	2396.21
487.726	2401.63
488.097	2449.99
488.467	2444.57
488.837	2457.22
489.207	2501.06
489.578	2544
489.948	2604.79
490.318	2591.91
490.688	2614.51
491.058	2617.45
491.428	2660.38
491.798	2704.22
492.168	2740.83
492.538	2774.05
492.908	2758.46
493.278	2852.69
493.648	2825.35
494.017	2859.92
494.387	2894.05
494.757	2878.23
495.126	2969.75
495.496	2976.76
495.866	2973.59
496.235	3002.52
496.605	3021.73
496.974	3030.32
497.344	3042.97
497.713	3042.52
498.082	3101.05
498.452	3112.12
498.821	3104.89
499.19	3115.29
499.559	3159.8
499.928	3158
500.298	3210.65
500.667	3253.36
501.036	3238.67
501.405	3276.41
501.774	3247.03
502.143	3299.01
502.512	3249.29
502.88	3306.01
503.249	3309.18
503.618	3311.89
503.987	3343.08
504.356	3313.02
504.724	3349.18
505.093	3409.29
505.462	3393.47
505.83	3387.82
506.199	3453.58
506.567	3454.26
506.936	3482.28
507.304	3499.68
507.672	3503.3
508.041	3516.4
508.409	3567.25
508.777	3509.85
509.145	3579.23
509.514	3559.79
509.882	3550.98
510.25	3583.3
510.618	3625.55
510.986	3596.4
511.354	3638.89
511.722	3629.4
512.09	3670.3
512.458	3678.21
512.826	3670.98
513.193	3704.87
513.561	3726.79
513.929	3716.17
514.297	3776.06
514.664	3752.78
515.032	3768.38
515.4	3813.57
515.767	3783.52
516.135	3770.86
516.502	3792.56
516.869	3836.4
517.237	3845.66
517.604	3792.1
517.972	3865.55
518.339	3865.1
518.706	3890.18
519.073	3882.5
519.44	3903.97
519.808	3911.42
520.175	3894.25
520.542	3940.57
520.909	3922.5
521.276	3919.56
521.643	3959.78
522.009	4047.69
522.376	3981.03
522.743	4015.83
523.11	4075.03
523.477	4035.94
523.843	4079.78
524.21	4108.03
524.577	4117.52
524.943	4178.31
525.31	4188.48
525.676	4168.82
526.043	4174.47
526.409	4223.96
526.776	4293.11
527.142	4221.02
527.508	4248.81
527.874	4271.87
528.241	4346.44
528.607	4337.4
528.973	4406.32
529.339	4350.51
529.705	4366.55
530.071	4441.8
530.437	4434.57
530.803	4432.31
531.169	4503.05
531.535	4479.54
531.901	4491.29
532.267	4548.02
532.632	4536.94
532.998	4548.47
533.364	4611.29
533.73	4587.56
534.095	4647.22
534.461	4607
534.826	4653.32
535.192	4708.92
535.557	4706.2
535.923	4699.42
536.288	4711.4
536.653	4794.34
537.019	4762.47
537.384	4755.02
537.749	4780.55
538.114	4803.15
538.479	4807.44
538.845	4866.43
539.21	4869.14
539.575	4895.35
539.94	4854.22
540.305	4954.11
540.67	4930.83
541.034	4980.32
541.399	4992.75
541.764	5039.3
542.129	5036.82
542.494	5030.94
542.858	5058.51
543.223	5082.01
543.587	5076.59
543.952	5097.61
544.316	5119.53
544.681	5136.93
545.045	5112.75
545.41	5152.52
545.774	5175.12
546.138	5150.94
546.503	5202.46
546.867	5222.35
547.231	5319.52
547.595	5317.94
547.959	5342.57
548.324	5339.86
548.688	5350.03
549.052	5379.63
549.416	5380.31
549.779	5375.11
550.143	5423.47
550.507	5457.6
550.871	5492.85
551.235	5483.13
551.599	5473.19
551.962	5508.67
552.326	5515.67
552.689	5550.7
553.053	5553.87
553.417	5564.94
553.78	5691.26
554.143	5618.04
554.507	5621.21
554.87	5640.19
555.234	5682.45
555.597	5682.22
555.96	5710.92
556.323	5728.55
556.686	5737.59
557.05	5728.1
557.413	5781.2
557.776	5714.31
558.139	5778.72
558.502	5837.47
558.865	5829.11
559.228	5853.29
559.59	5841.32
559.953	5875.89
560.316	5903.01
560.679	5886.96
561.041	5968.09
561.404	5961.76
561.767	6055.77
562.129	6012.38
562.492	6004.47
562.854	6067.98
563.217	6023.46
563.579	6072.04
563.941	6154.53
564.304	6189.1
564.666	6208.76
565.028	6221.64
565.39	6176.22
565.753	6217.35
566.115	6240.17
566.477	6232.72
566.839	6298.03
567.201	6322.43
567.563	6278.82
567.925	6310.91
568.287	6368.99
568.648	6419.15
569.01	6350.91
569.372	6426.84
569.734	6463.22
570.095	6481.52
570.457	6519.26
570.819	6537.57
571.18	6558.58
571.542	6556.32
571.903	6605.14
572.265	6700.05
572.626	6610.11
572.987	6725.81
573.349	6806.26
573.71	6816.43
574.071	6880.61
574.432	6898.24
574.794	6948.18
575.155	7026.14
575.516	6994.96
575.877	7102.75
576.238	7113.37
576.599	7199.92
576.96	7208.96
577.32	7269.75
577.681	7381.61
578.042	7427.49
578.403	7516.75
578.763	7584.09
579.124	7669.06
579.485	7709.97
579.845	7802.39
580.206	7993.8
580.566	8006.91
580.927	8136.17
581.287	8238.31
581.648	8312.21
582.008	8429.72
582.368	8561.24
582.728	8664.74
583.089	8861.57
583.449	8979.09
583.809	9074.45
584.169	9300.89
584.529	9402.8
584.889	9600.54
585.249	9720.31
585.609	9887.99
585.969	10099.73
586.329	10129.11
586.688	10484.58
587.048	10561.64
587.408	10788.98
587.768	11043.21
588.127	11223.77
588.487	11398.01
588.846	11782.85
589.206	11816.53
589.565	12034.15
589.925	12359.11
590.284	12536.28
590.643	12809.49
591.003	13044.74
591.362	13345.3
591.721	13548.68
592.08	13775.8
592.44	14162.9
592.799	14317.7
593.158	14600.18
593.517	14790.68
593.876	15161.3
594.235	15415.75
594.593	15683.99
594.952	15928.96
595.311	16165.79
595.67	16522.84
596.029	16857.3
596.387	17097.52
596.746	17393.1
597.104	17656.15
597.463	17898.85
597.822	18262.01
598.18	18352.17
598.538	18685.72
598.897	19052.95
599.255	19209.78
599.613	19648.86
599.972	19733.83
600.33	20172.92
600.688	20285.23
601.046	20669.17
601.404	20916.85
601.762	21192.78
602.12	21539.43
602.478	21890.16
602.836	22104.84
603.194	22206.99
603.552	22562.01
603.91	22602.68
604.268	23032.28
604.625	23174.19
604.983	23493.73
605.341	23630.45
605.698	23964.68
606.056	24263.2
606.413	24344.11
606.771	24666.81
607.128	24856.41
607.485	25011.21
607.843	25194.93
608.2	25610.06
608.557	25966.66
608.914	25910.84
609.272	26319.19
609.629	26529.36
609.986	26749.24
610.343	26803.93
610.7	27276.46
611.057	27385.38
611.414	27588.99
611.771	27769.78
612.127	27957.12
612.484	28052.26
612.841	28384.9
613.198	28466.71
613.554	28588.06
613.911	28922.29
614.267	29091.55
614.624	29200.25
614.98	29334.03
615.337	29567.92
615.693	29670.29
616.05	29750.74
616.406	30089.04
616.762	30111.64
617.118	30192.54
617.475	30350.28
617.831	30599.76
618.187	30822.81
618.543	30825.74
618.899	31126.53
619.255	31143.47
619.611	31181.21
619.967	31436.8
620.323	31616.68
620.678	31544.37
621.034	31585.27
621.39	31855.55
621.746	31834.98
622.101	32251.47
622.457	31972.61
622.812	32270.22
623.168	32334.4
623.523	32426.15
623.879	32652.59
624.234	32422.54
624.589	32703.89
624.945	32824.56
625.3	32956.76
625.655	32873.15
626.01	32954.73
626.365	33185.91
626.72	33145.91
627.075	33133.25
627.43	33298.22
627.785	33225
628.14	33300.71
628.495	33497.09
628.85	33461.83
629.205	33395.85
629.559	33644.65
629.914	33582.28
630.269	33733.24
630.623	33569.17
630.978	33624.09
631.332	33888.49
631.687	33767.59
632.041	33699.34
632.396	33902.5
632.75	33745.21
633.104	33917.19
633.459	33734.82
633.813	33819.11
634.167	33829.51
634.521	33817.53
634.875	33883.74
635.229	33816.62
635.583	33735.5
635.937	33873.57
636.291	33859.79
636.645	33998.09
636.999	33813.46
637.352	33966.23
637.706	33800.81
638.06	33913.8
638.413	33945.66
638.767	33873.12
639.121	33985.21
639.474	33817.3
639.828	33799
640.181	33864.76
640.534	33941.82
640.888	33804.65
641.241	33772.11
641.594	33829.28
641.947	33949.28
642.301	33869.73
642.654	33955.15
643.007	33881.71
643.36	33945.89
643.713	33799.9
644.066	33970.75
644.419	33726.01
644.771	33633.8
645.124	33206.47
645.477	33221.39
645.83	33135.74
646.182	32892.36
646.535	32906.59
646.888	32882.64
647.24	32793.15
647.593	32899.81
647.945	32879.25
648.298	32719.7
648.65	32825.46
649.002	32616.43
649.355	32928.29
649.707	32722.19
650.059	32841.51
650.411	33298.67
650.763	33350.2
651.115	33723.07
651.467	33606.01
651.819	33554.71
652.171	33484.43
652.523	33515.62
652.875	33464.32
653.227	33220.48
653.578	33448.95
653.93	33454.83
654.282	33292.8
654.633	33248.28
654.985	33374.6
655.337	33404.21
655.688	33396.3
656.039	33560.81
656.391	33131.45
656.742	33172.57
657.094	33320.37
657.445	33319.01
657.796	33221.16
658.147	33178.9
658.498	33220.03
658.849	33251.22
659.2	33204.89
659.551	33171.67
659.902	33185.91
660.253	33066.59
660.604	33236.53
660.955	32964.44
661.306	33270.2
661.656	33225.68
662.007	33167.38
662.358	33090.09
662.708	33148.62
663.059	33128.28
663.409	33002.64
663.76	33275.85
664.11	33252.12
664.461	33199.01
664.811	33170.09
665.161	33143.87
665.511	33132.35
665.862	33223.87
666.212	33242.4
666.562	33184.33
666.912	33106.59
667.262	33082.41
667.612	33124.67
667.962	33149.3
668.312	33047.83
668.662	33283.53
669.011	33156.3
669.361	32994.73
669.711	33121.28
670.06	32861.17
670.41	32943.43
670.76	33054.61
671.109	33028.4
671.459	32997.21
671.808	32906.59
672.157	33115.63
672.507	32786.37
672.856	32968.29
673.205	32828.18
673.554	32995.63
673.904	32891.23
674.253	32999.7
674.602	32940.26
674.951	32497.11
675.3	32126.5
675.649	32839.93
675.998	32704.34
676.346	32829.98
676.695	32860.72
677.044	32501.86
677.393	32799.02
677.741	32697.33
678.09	32710.67
678.438	32556.55
678.787	32606.94
679.135	32639.48
679.484	32283.11
679.832	32529.2
680.181	32406.94
680.529	32555.64
680.877	32487.62
681.225	32357.45
681.573	32566.49
681.922	32280.85
682.27	32230.23
682.618	32291.02
682.966	32230
683.314	32294.63
683.661	32137.12
684.009	31918.82
684.357	31875.66
684.705	31853.06
685.053	31874.08
685.4	31908.88
685.748	31701.65
686.095	31734.87
686.443	31640.19
686.79	31647.19
687.138	31654.2
687.485	31741.88
687.832	31479.06
688.18	31541.66
688.527	31320.19
688.874	31339.85
689.221	31366.29
689.568	31246.75
689.915	31128.33
690.262	31138.28
690.609	31160.88
690.956	30924.05
691.303	30910.94
691.65	30779.42
691.997	30797.72
692.344	30723.37
692.69	30700.55
693.037	30569.25
693.383	30368.35
693.73	30581.68
694.077	30256.04
694.423	30208.13
694.769	30141.24
695.116	30132.88
695.462	30120.68
695.808	30044.75
696.155	30090.85
696.501	29804.3
696.847	29877.52
697.193	29705.55
697.539	29860.8
697.885	29474.59
698.231	29413.35
698.577	29405.67
698.923	29462.16
699.269	29189.18
699.614	29182.17
699.96	29071.21
700.306	29224.66
700.651	29023.08
700.997	28850.43
701.342	28908.05
701.688	28692.92
702.033	28655.63
702.379	28668.29
702.724	28689.08
703.069	28840.48
703.415	28255.19
703.76	28409.08
704.105	28343.1
704.45	28214.29
704.795	28187.85
705.14	28188.98
705.485	28013.39
705.83	27959.15
706.175	28031.24
706.52	27886.39
706.865	27751.02
707.209	27790.57
707.554	27686.39
707.899	27782.43
708.243	27605.49
708.588	27505.38
708.932	27371.6
709.277	27330.92
709.621	27382.67
709.966	27206.63
710.31	27221.54
710.654	27009.35
710.998	27038.72
711.342	27035.33
711.687	27048.44
712.031	26901.1
712.375	26733.42
712.719	26787.43
713.063	26784.95
713.407	26835.34
713.75	26636.93
714.094	26640.09
714.438	26497.95
714.782	26555.8
715.125	26429.25
715.469	26461.79
715.812	26353.32
716.156	26270.61
716.499	26125.75
716.843	26279.2
717.186	26134.12
717.53	26134.34
717.873	26090.95
718.216	26046.66
718.559	25849.83
718.902	25770.51
719.246	25903.61
719.589	25782.94
719.932	25731.64
720.275	25610.74
720.617	25674.24
720.96	25611.19
721.303	25460.46
721.646	25577.29
721.989	25326
722.331	25507.69
722.674	25376.62
723.016	25410.29
723.359	25324.42
723.701	25388.15
724.044	25123.52
724.386	25168.04
724.729	25175.27
725.071	25141.82
725.413	25089.17
725.755	25081.49
726.097	24889.4
726.439	24880.14
726.782	24924.66
727.124	25058.21
727.465	24770.76
727.807	24890.08
728.149	24728.5
728.491	24724.89
728.833	24846.01
729.175	24672.01
729.516	24615.74
729.858	24533.25
730.199	24587.26
730.541	24606.92
730.882	24445.12
731.224	24569.86
731.565	24351.56
731.906	24394.73
732.248	24475.18
732.589	24212.81
732.93	24223.66
733.271	24258.91
733.612	24245.8
733.953	24289.19
734.294	24078.35
734.635	24066.82
734.976	24095.98
735.317	24038.35
735.658	23954.74
735.999	24067.73
736.339	23858.47
736.68	23893.04
737.021	23939.37
737.361	23760.62
737.702	23858.92
738.042	23718.36
738.383	23799.49
738.723	23781.63
739.063	23695.54
739.404	23737.34
739.744	23543.9
740.084	23564.92
740.424	23575.99
740.764	23494.18
741.104	23536.44
741.444	23518.36
741.784	23349.1
742.124	23367.41
742.464	23397.46
742.804	23355.88
743.143	23285.6
743.483	23337.8
743.823	23199.28
744.162	23169.22
744.502	23228.2
744.841	23059.85
745.181	23154.76
745.52	23059.17
745.86	23082.67
746.199	23067.3
746.538	22988.89
746.877	23015.1
747.216	22951.15
747.556	22882
747.895	22836.35
748.234	22804.71
748.573	22797.03
748.911	22759.74
749.25	22817.37
749.589	22667.31
749.928	22626.41
750.267	22629.35
750.605	22693.53
750.944	22686.75
751.283	22407.66
751.621	22608.33
751.96	22405.4
752.298	22419.86
752.636	22362.24
752.975	22288.11
753.313	22151.85
753.651	22312.75
753.989	22155.46
754.327	22176.25
754.666	22097.84
755.004	21992.3
755.342	21988.24
755.679	22002.02
756.017	21859.2
756.355	21875.24
756.693	21821.23
757.031	21827.11
757.368	21766.55
757.706	21687
758.044	21611.97
758.381	21564.29
758.719	21563.84
759.056	21554.8
759.394	21387.57
759.731	21390.96
760.068	21320.23
760.405	21258.76
760.743	21204.3
761.08	21270.51
761.417	21079.33
