Data from hue_24_FLMS001491_00042.txt Node
Date: Tue Feb 07 17:12:19 GMT 2017
User: dcchb
Spectrometer: FLMS00149
Trigger mode: 0
Integration Time (sec): 2.000000E-2
Scans to average: 10
Electric dark correction enabled: true
Nonlinearity correction enabled: false
Boxcar width: 0
XAxis mode: Wavelengths
Number of Pixels in Spectrum: 2048
>>>>>Begin Spectral Data<<<<<
341.393	-2.58
341.776	-2.58
342.16	-2.58
342.543	-70.15
342.927	-66.76
343.31	-73.09
343.693	-79.42
344.077	-42.36
344.46	-88.91
344.843	-51.62
345.226	-45.97
345.61	-29.93
345.993	-9.14
346.376	8.04
346.759	20.01
347.142	25.21
347.525	41.71
347.908	44.87
348.291	97.07
348.674	99.79
349.057	83.74
349.44	117.19
349.823	136.39
350.206	185.66
350.588	208.03
350.971	222.49
351.354	227.92
351.737	253.23
352.119	244.19
352.502	265.2
352.884	267.01
353.267	301.14
353.65	308.14
354.032	291.19
354.414	300.46
354.797	324.19
355.179	344.52
355.562	340.23
355.944	332.77
356.326	343.85
356.709	350.63
357.091	330.97
357.473	340.23
357.855	346.33
358.238	354.24
358.62	354.47
359.002	311.76
359.384	360.8
359.766	352.21
360.148	352.89
360.53	337.07
360.912	341.81
361.294	359.89
361.676	347.01
362.057	342.49
362.439	328.25
362.821	331.42
363.203	339.55
363.584	351.98
363.966	320.8
364.348	333.45
364.729	330.97
365.111	328.03
365.493	323.51
365.874	332.1
366.256	317.41
366.637	316.95
367.019	296.62
367.4	324.19
367.781	318.76
368.163	335.71
368.544	316.73
368.925	306.11
369.306	334.81
369.688	314.24
370.069	304.53
370.45	332.77
370.831	319.44
371.212	320.12
371.593	318.76
371.974	332.32
372.355	333.68
372.736	333.23
373.117	314.7
373.498	334.81
373.879	318.08
374.26	322.83
374.641	333.68
375.021	317.86
375.402	332.77
375.783	338.88
376.163	351.08
376.544	329.61
376.925	319.21
377.305	333.45
377.686	342.49
378.066	325.99
378.447	337.29
378.827	335.94
379.208	325.99
379.588	337.75
379.968	342.49
380.349	332.32
380.729	321.25
381.109	335.26
381.489	333.45
381.87	334.58
382.25	358.99
382.63	355.15
383.01	355.37
383.39	331.42
383.77	354.24
384.15	355.37
384.53	340.46
384.91	347.91
385.29	339.55
385.67	368.25
386.049	372.55
386.429	368.25
386.809	368.48
387.189	346.78
387.568	367.8
387.948	374.13
388.328	367.12
388.707	374.13
389.087	379.33
389.466	408.03
389.846	379.78
390.225	379.33
390.605	363.96
390.984	370.51
391.363	396.73
391.743	365.99
392.122	407.12
392.501	391.76
392.881	393.56
393.26	398.53
393.639	385.43
394.018	395.14
394.397	382.49
394.776	403.73
395.155	379.33
395.534	394.92
395.913	394.47
396.292	403.28
396.671	404.41
397.05	422.04
397.429	383.85
397.808	388.82
398.186	384.3
398.565	410.74
398.944	412.32
399.323	418.2
399.701	420
400.08	404.18
400.458	400.34
400.837	422.94
401.215	397.63
401.594	403.96
401.972	412.55
402.351	410.06
402.729	429.95
403.107	427.69
403.486	417.97
403.864	408.25
404.242	437.18
404.62	414.35
404.999	437.86
405.377	412.09
405.755	427.46
406.133	450.28
406.511	431.75
406.889	435.82
407.267	437.4
407.645	455.03
408.023	450.28
408.401	454.13
408.779	455.71
409.156	438.08
409.534	448.02
409.912	463.62
410.29	484.41
410.667	446.22
411.045	478.31
411.422	460.23
411.8	482.83
412.178	475.37
412.555	479.44
412.933	487.57
413.31	473.34
413.687	488.7
414.065	487.57
414.442	520.79
414.819	509.49
415.197	509.94
415.574	518.53
415.951	499.55
416.328	500.68
416.705	509.27
417.082	491.87
417.46	522.83
417.837	526.21
418.214	535.25
418.591	544.29
418.967	526.89
419.344	514.92
419.721	520.79
420.098	530.51
420.475	565.54
420.852	559.21
421.228	567.34
421.605	569.15
421.982	534.8
422.358	548.14
422.735	575.25
423.111	554.46
423.488	565.54
423.864	586.55
424.241	566.67
424.617	593.11
424.994	586.33
425.37	603.28
425.746	575.71
426.123	579.09
426.499	579.77
426.875	607.57
427.251	608.92
427.627	620
428.003	614.57
428.379	632.65
428.756	621.81
429.132	630.39
429.507	623.39
429.883	645.76
430.259	639.88
430.635	647.34
431.011	652.77
431.387	654.12
431.763	679.43
432.138	666.55
432.514	673.33
432.89	676.95
433.265	691.63
433.641	710.39
434.016	699.32
434.392	711.29
434.767	714.91
435.143	716.49
435.518	710.84
435.894	721.24
436.269	726.44
436.644	743.16
437.02	749.71
437.395	740.22
437.77	732.76
438.145	739.77
438.52	731.18
438.895	743.84
439.271	773.44
439.646	794.68
440.021	762.37
440.395	798.75
440.77	773.89
441.145	805.98
441.52	809.15
441.895	806.66
442.27	816.38
442.645	841.23
443.019	810.73
443.394	803.04
443.769	842.36
444.143	836.94
444.518	824.29
444.892	830.84
445.267	831.52
445.641	837.17
446.016	849.14
446.39	852.31
446.764	853.66
447.139	820.44
447.513	857.05
447.887	855.7
448.262	863.61
448.636	855.47
449.01	876.26
449.384	867.45
449.758	894.34
450.132	923.04
450.506	925.98
450.88	893.44
451.254	933.21
451.628	912.19
452.002	921.68
452.376	930.05
452.75	939.54
453.123	932.53
453.497	952.19
453.871	959.2
454.244	982.7
454.618	1004.62
454.992	988.58
455.365	995.36
455.739	1045.52
456.112	1028.8
456.486	1022.93
456.859	1067.67
457.232	1052.3
457.606	1026.54
457.979	1065.64
458.352	1086.65
458.725	1115.58
459.099	1097.27
459.472	1120.1
459.845	1150.38
460.218	1144.05
460.591	1158.29
460.964	1168.01
461.337	1192.64
461.71	1191.73
462.083	1210.04
462.456	1216.14
462.829	1228.34
463.201	1263.14
463.574	1252.75
463.947	1301.34
464.32	1285.29
464.692	1312.41
465.065	1289.36
465.438	1292.52
465.81	1340.88
466.183	1351.96
466.555	1374.33
466.928	1384.27
467.3	1369.36
467.672	1401.45
468.045	1443.03
468.417	1467.66
468.789	1457.26
469.161	1490.03
469.534	1478.05
469.906	1530.26
470.278	1565.51
470.65	1556.02
471.022	1606.64
471.394	1588.33
471.766	1626.07
472.138	1659.29
472.51	1683.47
472.882	1690.7
473.253	1712.17
473.625	1742.68
473.997	1781.55
474.369	1787.65
474.74	1809.12
475.112	1842.56
475.484	1858.61
475.855	1909.91
476.227	1954.2
476.598	2001.43
476.97	2023.58
477.341	2070.36
477.713	2082.11
478.084	2118.94
478.455	2144.93
478.827	2208.43
479.198	2286.39
479.569	2260.41
479.94	2298.6
480.311	2383.79
480.682	2437.13
481.053	2444.58
481.424	2532.72
481.795	2545.82
482.166	2608.19
482.537	2633.5
482.908	2685.93
483.279	2705.37
483.65	2782.2
484.021	2827.85
484.391	2882.99
484.762	2907.4
485.133	2968.64
485.503	3003.66
485.874	3077.11
486.244	3110.33
486.615	3184.45
486.985	3209.99
487.356	3319.81
487.726	3282.3
488.097	3383.54
488.467	3415.18
488.837	3478.68
489.207	3561.84
489.578	3583.76
489.948	3632.57
490.318	3645.91
490.688	3747.15
491.058	3762.97
491.428	3881.38
491.798	3867.37
492.168	3960.93
492.538	4001.6
492.908	4052.22
493.278	4109.4
493.648	4158.89
494.017	4191.2
494.387	4186.23
494.757	4244.31
495.126	4308.49
495.496	4365.21
495.866	4395.94
496.235	4382.16
496.605	4451.31
496.974	4491.76
497.344	4567.24
497.713	4612.21
498.082	4601.14
498.452	4646.11
498.821	4693.79
499.19	4715.03
499.559	4764.07
499.928	4786.67
500.298	4776.72
500.667	4865.31
501.036	4863.95
501.405	4952.77
501.774	4929.04
502.143	4974.01
502.512	5018.07
502.88	5005.42
503.249	5051.75
503.618	5054.23
503.987	5093.33
504.356	5163.61
504.724	5124.96
505.093	5202.02
505.462	5213.1
505.83	5313.66
506.199	5231.4
506.567	5314.79
506.936	5326.09
507.304	5393.66
507.672	5411.28
508.041	5484.28
508.409	5455.35
508.777	5499.87
509.145	5521.11
509.514	5538.51
509.882	5583.94
510.25	5566.99
510.618	5636.59
510.986	5635.91
511.354	5677.94
511.722	5703.71
512.09	5782.12
512.458	5735.57
512.826	5834.55
513.193	5843.14
513.561	5903.25
513.929	5870.71
514.297	5925.17
514.664	5996.58
515.032	5988.67
515.4	6015.56
515.767	6108.44
516.135	6058.05
516.502	6045.17
516.869	6123.13
517.237	6126.97
517.604	6106.86
517.972	6130.36
518.339	6183.02
518.706	6196.35
519.073	6249.68
519.44	6279.28
519.808	6325.84
520.175	6331.71
520.542	6350.69
520.909	6418.49
521.276	6420.52
521.643	6445.83
522.009	6496.45
522.376	6534.64
522.743	6559.05
523.11	6631.14
523.477	6640.63
523.843	6642.66
524.21	6685.15
524.577	6760.18
524.943	6777.8
525.31	6808.08
525.676	6900.28
526.043	6921.3
526.409	6933.5
526.776	7030.22
527.142	7074.97
527.508	7063.67
527.874	7071.58
528.241	7129.88
528.607	7152.71
528.973	7246.72
529.339	7231.58
529.705	7315.64
530.071	7340.5
530.437	7398.35
530.803	7394.28
531.169	7411.23
531.535	7405.13
531.901	7442.87
532.267	7540.72
532.632	7515.86
532.998	7581.17
533.364	7611
533.73	7667.5
534.095	7699.81
534.461	7667.72
534.826	7797.89
535.192	7814.84
535.557	7882.63
535.923	7880.6
536.288	7938.9
536.653	7978
537.019	7950.65
537.384	7987.49
537.749	8018.9
538.114	8013.93
538.479	8081.95
538.845	8126.24
539.21	8076.75
539.575	8103.64
539.94	8162.17
540.305	8243.53
540.67	8192.68
541.034	8257.76
541.399	8309.06
541.764	8274.26
542.129	8348.83
542.494	8367.36
542.858	8403.52
543.223	8426.57
543.587	8516.51
543.952	8457.08
544.316	8601.03
544.681	8568.26
545.045	8603.97
545.41	8614.14
545.774	8712.67
546.138	8696.62
546.503	8702.05
546.867	8799.9
547.231	8868.82
547.595	8836.28
547.959	8903.85
548.324	8858.88
548.688	8917.18
549.052	8963.96
549.416	8959.67
549.779	9046.67
550.143	9059.78
550.507	9092.09
550.871	9107.91
551.235	9093
551.599	9160.34
551.962	9186.33
552.326	9257.96
552.689	9296.15
553.053	9203.27
553.417	9283.72
553.78	9393.33
554.143	9308.58
554.507	9372.99
554.87	9469.03
555.234	9512.87
555.597	9431.52
555.96	9502.48
556.323	9621.8
556.686	9632.19
557.05	9659.31
557.413	9647.11
557.776	9697.95
558.139	9786.31
558.502	9809.81
558.865	9791.96
559.228	9888.23
559.59	9825.63
559.953	9905.4
560.316	9946.31
560.679	9996.7
561.041	10043.25
561.404	10128
561.767	10129.35
562.129	10052.97
562.492	10228.11
562.854	10194.66
563.217	10209.35
563.579	10268.33
563.941	10234.21
564.304	10335
564.666	10367.99
565.028	10416.35
565.39	10481.43
565.753	10514.2
566.115	10565.5
566.477	10513.07
566.839	10526.18
567.201	10647.08
567.563	10638.27
567.925	10748.09
568.287	10774.53
568.648	10827.41
569.01	10814.08
569.372	10906.28
569.734	10892.04
570.095	10926.85
570.457	11066.95
570.819	11013.62
571.18	11103.79
571.542	11116.9
571.903	11212.49
572.265	11262.43
572.626	11311.92
572.987	11258.36
573.349	11364.57
573.71	11485.93
574.071	11472.59
574.432	11570.67
574.794	11627.84
575.155	11660.39
575.516	11720.27
575.877	11742.42
576.238	11875.75
576.599	11965.46
576.96	11925.01
577.32	12016.99
577.681	12158.23
578.042	12324.77
578.403	12412.46
578.763	12373.36
579.124	12506.01
579.485	12604.09
579.845	12784.65
580.206	12866.91
580.566	12961.14
580.927	13078.2
581.287	13250.17
581.648	13334.24
582.008	13566.1
582.368	13631.63
582.728	13803.38
583.089	13943.26
583.449	14144.61
583.809	14233.43
584.169	14509.12
584.529	14574.21
584.889	14842.45
585.249	14943.46
585.609	15117.92
585.969	15433.85
586.329	15556.1
586.688	15772.14
587.048	15985.92
587.408	16196.54
587.768	16390.43
588.127	16615.74
588.487	16832.9
588.846	17227.7
589.206	17429.05
589.565	17582.94
589.925	17966.21
590.284	18203.26
590.643	18469.02
591.003	18736.36
591.362	19106.29
591.721	19322.56
592.08	19617.92
592.44	19862.66
592.799	20245.02
593.158	20470.78
593.517	20740.6
593.876	21082.96
594.235	21345.1
594.593	21686.79
594.952	22003.62
595.311	22214.46
595.67	22557.05
596.029	22998.39
596.387	23306.41
596.746	23524.48
597.104	23679.96
597.463	24014.41
597.822	24494.17
598.18	24669.08
598.538	25028.17
598.897	25360.14
599.255	25518.78
599.613	26166.22
599.972	26317.63
600.33	26633.55
600.688	26743.15
601.046	27232.63
601.404	27523.92
601.762	27806.18
602.12	28170.23
602.478	28430.57
602.836	28720.95
603.194	28875.75
603.552	29329.98
603.91	29404.33
604.268	29857.2
604.625	30036.85
604.983	30363.4
605.341	30515.48
605.698	30981.46
606.056	31194.34
606.413	31354.1
606.771	31803.36
607.128	32017.59
607.485	32159.96
607.843	32398.82
608.2	32769.43
608.557	33134.17
608.914	33228.18
609.272	33621.16
609.629	33754.04
609.986	34296.63
610.343	34253.92
610.7	34601.03
611.057	34581.14
611.414	34930.96
611.771	35189.94
612.127	35458.63
612.484	35507.22
612.841	35857.04
613.198	35973.87
613.554	36201.89
613.911	36494.53
614.267	36476.91
614.624	36736.34
614.98	36834.41
615.337	37127.51
615.693	37301.75
616.05	37442.76
616.406	37777.66
616.762	37802.75
617.118	37943.54
617.475	38289.74
617.831	38492.9
618.187	38598.21
618.543	38708.94
618.899	39030.51
619.255	39154.58
619.611	39157.29
619.967	39477.96
620.323	39680.21
620.678	39519.31
621.034	39592.98
621.39	39766.09
621.746	39782.13
622.101	40388.9
622.457	40113.87
622.812	40082.46
623.168	40490.81
623.523	40585.95
623.879	40731.94
624.234	40550.47
624.589	40729
624.945	40902.78
625.3	40952.04
625.655	41103
626.01	41203.56
626.365	41250.12
626.72	41250.57
627.075	41312.71
627.43	41338.48
627.785	41377.34
628.14	41510.22
628.495	41546.38
628.85	41594.51
629.205	41589.32
629.559	41913.6
629.914	41677
630.269	42012.58
630.623	41707.51
630.978	41647.85
631.332	41907.27
631.687	42006.93
632.041	41874.96
632.396	42134.61
632.75	42092.35
633.104	42044.22
633.459	42055.97
633.813	42114.27
634.167	42064.11
634.521	42050.09
634.875	42292.35
635.229	42164.89
635.583	41999.47
635.937	42019.14
636.291	41954.96
636.645	42139.58
636.999	42153.37
637.352	42113.37
637.706	42023.43
638.06	42189.75
638.413	42081.51
638.767	41990.89
639.121	42227.94
639.474	41881.51
639.828	41984.11
640.181	41988.85
640.534	42089.19
640.888	42068.17
641.241	41803.55
641.594	42108.4
641.947	42173.71
642.301	41930.1
642.654	41879.48
643.007	41975.75
643.36	41961.28
643.713	42068.17
644.066	42062.3
644.419	41806.71
644.771	41679.71
645.124	41359.94
645.477	41185.71
645.83	41022.78
646.182	41010.12
646.535	40791.6
646.888	40978.48
647.24	40712.73
647.593	40991.82
647.945	40928.99
648.298	40713.18
648.65	40593.18
649.002	40603.13
649.355	40702.33
649.707	40845.15
650.059	40940.29
650.411	41416.89
650.763	41342.09
651.115	41663.89
651.467	41686.26
651.819	41608.07
652.171	41615.08
652.523	41580.05
652.875	41475.42
653.227	41421.64
653.578	41681.29
653.93	41480.84
654.282	41287.86
654.633	41390.9
654.985	41508.41
655.337	41555.87
655.688	41401.07
656.039	41637.68
656.391	41183.45
656.742	41425.25
657.094	41402.65
657.445	41581.86
657.796	41386.84
658.147	41334.41
658.498	41416.44
658.849	41453.73
659.2	41372.37
659.551	41340.96
659.902	41507.96
660.253	41344.8
660.604	41448.98
660.955	41197.01
661.306	41417.57
661.656	41273.39
662.007	41315.42
662.358	41238.82
662.708	41354.29
663.059	41249.89
663.409	41029.56
663.76	41356.1
664.11	41260.74
664.461	41453.5
664.811	41351.58
665.161	41210.34
665.511	41163.11
665.862	41222.77
666.212	41176.22
666.562	41265.26
666.912	41128.31
667.262	41135.99
667.612	41203.34
667.962	41152.72
668.312	41205.15
668.662	41181.19
669.011	41292.37
669.361	41150.68
669.711	40938.94
670.06	41074.3
670.41	41065.04
670.76	40878.83
671.109	41080.4
671.459	41025.72
671.808	41065.04
672.157	41094.87
672.507	40905.49
672.856	40890.8
673.205	40883.12
673.554	41125.15
673.904	40952.27
674.253	41007.18
674.602	40880.18
674.951	40378.95
675.3	40286.75
675.649	40877.92
675.998	40860.75
676.346	40991.37
676.695	40960.63
677.044	40663.92
677.393	40724.25
677.741	40881.31
678.09	40757.47
678.438	40557.48
678.787	40785.5
679.135	40665.95
679.484	40420.99
679.832	40546.18
680.181	40278.62
680.529	40545.95
680.877	40308.67
681.225	40241.1
681.573	40405.17
681.922	40302.8
682.27	40095.57
682.618	40101.67
682.966	39982.13
683.314	40200.88
683.661	39957.72
684.009	39821.68
684.357	39807.22
684.705	39831.4
685.053	39785.07
685.4	39762.7
685.748	39510.27
686.095	39624.62
686.443	39494.46
686.79	39433.67
687.138	39554.12
687.485	39591.4
687.832	39367.91
688.18	39363.61
688.527	39198.19
688.874	39107.12
689.221	39068.48
689.568	38853.12
689.915	39022.15
690.262	38958.2
690.609	38731.76
690.956	38597.76
691.303	38451.55
691.65	38415.61
691.997	38454.94
692.344	38181.72
692.69	38242.51
693.037	38208.39
693.383	37953.03
693.73	38004.33
694.077	37840.94
694.423	37729.76
694.769	37683.88
695.116	37588.74
695.462	37636.65
695.808	37464.9
696.155	37587.61
696.501	37310.56
696.847	37299.71
697.193	37114.18
697.539	37163.22
697.885	36935.88
698.231	36948.76
698.577	36924.13
698.923	36878.93
699.269	36589.45
699.614	36408.89
699.96	36426.06
700.306	36356.01
700.651	36347.65
700.997	36202.34
701.342	36046.41
701.688	36074.88
702.033	35874.21
702.379	35880.09
702.724	35790.6
703.069	35903.14
703.415	35542.7
703.76	35429.7
704.105	35593.77
704.45	35545.41
704.795	35136.83
705.14	35127.11
705.485	35104.06
705.83	34999.21
706.175	35062.48
706.52	34888.93
706.865	34851.41
707.209	34719.44
707.554	34696.39
707.899	34758.08
708.243	34432.22
708.588	34463.18
708.932	34150.42
709.277	34217.98
709.621	34326.68
709.966	34047.82
710.31	34051.44
710.654	33722.86
710.998	33853.7
711.342	33795.85
711.687	33734.83
712.031	33682.18
712.375	33509.53
712.719	33710.88
713.063	33645.8
713.407	33554.05
713.75	33408.29
714.094	33443.99
714.438	33253.72
714.782	33336.88
715.125	33006.94
715.469	33165.36
715.812	33003.55
716.156	32761.53
716.499	32832.26
716.843	32844.69
717.186	32648.08
717.53	32966.27
717.873	32783.45
718.216	32745.25
718.559	32520.4
718.902	32297.13
719.246	32461.19
719.589	32243.35
719.932	32217.13
720.275	32174.87
720.617	32184.14
720.96	32204.03
721.303	32158.83
721.646	32127.64
721.989	31818.95
722.331	32122.45
722.674	31861.66
723.016	31945.05
723.359	31924.26
723.701	31791.61
724.044	31544.83
724.386	31505.29
724.729	31658.73
725.071	31507.55
725.413	31573.53
725.755	31446.31
726.097	31377.83
726.439	31222.13
726.782	31196.14
727.124	31313.43
727.465	31132.64
727.807	31130.61
728.149	31049.93
728.491	31039.08
728.833	31014.9
729.175	30925.64
729.516	30939.2
729.858	30828.7
730.199	30878.41
730.541	30653.56
730.882	30757.74
731.224	30772.88
731.565	30524.97
731.906	30599.32
732.248	30742.14
732.589	30372.66
732.93	30396.84
733.271	30437.97
733.612	30339.44
733.953	30430.51
734.294	30277.3
734.635	30138.09
734.976	30373.34
735.317	30096.28
735.658	30066.91
735.999	30075.95
736.339	30099.45
736.68	30129.73
737.021	30120.24
737.361	29962.5
737.702	29937.42
738.042	29921.83
738.383	29797.54
738.723	29967.7
739.063	29800.02
739.404	29932.45
739.744	29731.55
740.084	29680.93
740.424	29689.52
740.764	29470.76
741.104	29707.82
741.444	29475.51
741.784	29417.21
742.124	29475.96
742.464	29376.08
742.804	29370.2
743.143	29242.3
743.483	29414.27
743.823	29118.23
744.162	29176.99
744.502	29360.03
744.841	29000.27
745.181	29252.24
745.52	28988.97
745.86	29003.88
746.199	28942.42
746.538	28975.64
746.877	29136.99
747.216	29021.28
747.556	28856.77
747.895	28921.85
748.234	28776.09
748.573	28752.82
748.911	28811.57
749.25	28768.64
749.589	28657.68
749.928	28569.09
750.267	28741.29
750.605	28537.46
750.944	28509.21
751.283	28363.22
751.621	28497.91
751.96	28257.24
752.298	28401.41
752.636	28378.59
752.975	28119.84
753.313	28007.3
753.651	28306.73
753.989	28040.52
754.327	27962.33
754.666	27926.17
755.004	28040.29
755.342	27993.74
755.679	27890.02
756.017	27717.14
756.355	27845.5
756.693	27696.57
757.031	27688.89
757.368	27538.84
757.706	27527.99
758.044	27420.65
758.381	27438.95
758.719	27442.57
759.056	27333.19
759.394	27227.43
