Data from hue_120_FLMS001491_00089.txt Node
Date: Tue Feb 07 17:00:09 GMT 2017
User: dcchb
Spectrometer: FLMS00149
Trigger mode: 0
Integration Time (sec): 2.000000E-2
Scans to average: 10
Electric dark correction enabled: true
Nonlinearity correction enabled: false
Boxcar width: 0
XAxis mode: Wavelengths
Number of Pixels in Spectrum: 2048
>>>>>Begin Spectral Data<<<<<
341.393	-11.51
341.776	-11.51
342.16	-11.51
342.543	-61.23
342.927	-73.88
343.31	-57.16
343.693	-75.46
344.077	-63.04
344.46	-56.48
344.843	-56.93
345.226	-49.48
345.61	-29.59
345.993	-12.87
346.376	-2.92
346.759	16.28
347.142	9.73
347.525	54.7
347.908	52.89
348.291	65.32
348.674	86.79
349.057	118.2
349.44	140.35
349.823	143.74
350.206	157.98
350.588	182.16
350.971	200.91
351.354	205.88
351.737	259.89
352.119	254.02
352.502	285.88
352.884	267.58
353.267	275.04
353.65	309.38
354.032	308.25
354.414	288.82
354.797	312.1
355.179	339.89
355.562	320.68
355.944	322.72
356.326	343.73
356.709	346.9
357.091	341.93
357.473	335.37
357.855	325.66
358.238	338.76
358.62	332.89
359.002	349.38
359.384	349.38
359.766	323.4
360.148	362.72
360.53	333.11
360.912	329.27
361.294	327.46
361.676	331.3
362.057	332.89
362.439	341.02
362.821	321.36
363.203	333.34
363.584	316.62
363.966	326.33
364.348	328.14
364.729	324.07
365.111	339.67
365.493	323.62
365.874	318.65
366.256	308.93
366.637	322.49
367.019	315.49
367.4	322.72
367.781	333.56
368.163	318.88
368.544	312.77
368.925	304.86
369.306	321.14
369.688	315.26
370.069	309.84
370.45	318.88
370.831	327.46
371.212	322.94
371.593	319.33
371.974	309.84
372.355	316.16
372.736	333.11
373.117	319.1
373.498	323.17
373.879	320.68
374.26	310.74
374.641	312.55
375.021	304.19
375.402	337.86
375.783	327.69
376.163	334.47
376.544	315.94
376.925	341.47
377.305	329.05
377.686	352.77
378.066	314.13
378.447	352.77
378.827	348.25
379.208	307.12
379.588	357.74
379.968	352.77
380.349	346.9
380.729	343.73
381.109	339.44
381.489	368.82
381.87	347.12
382.25	346.22
382.63	342.15
383.01	355.71
383.39	374.24
383.77	354.13
384.15	349.38
384.53	358.65
384.91	346.67
385.29	354.81
385.67	368.14
386.049	368.37
386.429	355.71
386.809	384.18
387.189	374.92
387.568	376.95
387.948	367.69
388.328	357.29
388.707	369.5
389.087	390.29
389.466	388.25
389.846	389.16
390.225	382.38
390.605	393
390.984	390.29
391.363	386.67
391.743	378.54
392.122	394.58
392.501	360.46
392.881	384.64
393.26	397.29
393.639	382.15
394.018	401.13
394.397	386.22
394.776	398.87
395.155	397.29
395.534	399.55
395.913	408.36
396.292	433.9
396.671	399.78
397.05	426.22
397.429	430.51
397.808	420.34
398.186	409.49
398.565	398.2
398.944	420.79
399.323	422.15
399.701	423.51
400.08	423.73
400.458	409.49
400.837	417.4
401.215	420.79
401.594	425.99
401.972	440.91
402.351	425.77
402.729	456.95
403.107	433.68
403.486	446.1
403.864	439.78
404.242	437.74
404.62	446.78
404.999	440.23
405.377	447.01
405.755	454.24
406.133	464.63
406.511	438.65
406.889	469.61
407.267	499.21
407.645	461.7
408.023	468.02
408.401	450.17
408.779	480.23
409.156	490.4
409.534	507.12
409.912	486.33
410.29	501.02
410.667	455.82
411.045	488.59
411.422	498.76
411.8	532.66
412.178	505.09
412.555	518.64
412.933	518.42
413.31	518.19
413.687	528.36
414.065	540.11
414.442	530.4
414.819	537.85
415.197	537.18
415.574	545.99
415.951	557.06
416.328	563.16
416.705	537.85
417.082	560.23
417.46	560.45
417.837	557.51
418.214	562.26
418.591	564.52
418.967	583.05
419.344	579.66
419.721	585.08
420.098	577.85
420.475	582.6
420.852	604.52
421.228	594.35
421.605	603.16
421.982	613.78
422.358	609.04
422.735	607.23
423.111	618.08
423.488	623.27
423.864	602.48
424.241	644.06
424.617	631.41
424.994	667.79
425.37	636.16
425.746	639.32
426.123	655.82
426.499	660.34
426.875	675.48
427.251	657.62
427.627	691.97
428.003	670.28
428.379	683.84
428.756	668.47
429.132	687.23
429.507	708.24
429.883	722.26
430.259	680.67
430.635	724.51
431.011	734.68
431.387	728.13
431.763	734.91
432.138	719.09
432.514	739.88
432.89	752.76
433.265	771.07
433.641	760.22
434.016	756.15
434.392	767.9
434.767	809.94
435.143	781.69
435.518	807.45
435.894	814.23
436.269	831.63
436.644	853.55
437.02	843.61
437.395	827.11
437.77	835.47
438.145	858.07
438.52	881.8
438.895	875.25
439.271	869.6
439.646	885.64
440.021	902.82
440.395	893.1
440.77	898.75
441.145	895.36
441.52	900.1
441.895	926.32
442.27	953.21
442.645	911.4
443.019	942.59
443.394	923.38
443.769	951.4
444.143	928.35
444.518	968.58
444.892	978.75
445.267	989.14
445.641	971.51
446.016	989.59
446.39	990.95
446.764	1018.97
447.139	969.71
447.513	996.6
447.887	1012.87
448.262	1038.86
448.636	1011.74
449.01	1036.15
449.384	1066.2
449.758	1060.33
450.132	1044.73
450.506	1079.53
450.88	1058.29
451.254	1101.68
451.628	1092.64
452.002	1117.72
452.376	1116.82
452.75	1116.59
453.123	1157.5
453.497	1155.24
453.871	1129.02
454.244	1197.04
454.618	1188.91
454.992	1192.53
455.365	1191.62
455.739	1216.71
456.112	1247.89
456.486	1225.97
456.859	1235.69
457.232	1292.18
457.606	1284.05
457.979	1315.69
458.352	1360.2
458.725	1346.87
459.099	1380.77
459.472	1378.73
459.845	1368.34
460.218	1411.95
460.591	1420.54
460.964	1418.96
461.337	1454.67
461.71	1463.7
462.083	1482.46
462.456	1495.57
462.829	1526.3
463.201	1542.57
463.574	1519.3
463.947	1577.37
464.32	1608.56
464.692	1611.5
465.065	1636.36
465.438	1680.2
465.81	1686.75
466.183	1692.85
466.555	1749.12
466.928	1758.39
467.3	1778.27
467.672	1771.04
468.045	1814.66
468.417	1829.34
468.789	1894.65
469.161	1921.09
469.534	1952.96
469.906	1967.42
470.278	1997.7
470.65	2057.36
471.022	2115.21
471.394	2118.6
471.766	2140.07
472.138	2180.07
472.51	2239.73
472.882	2318.82
473.253	2338.94
473.625	2380.06
473.997	2409.44
474.369	2457.12
474.74	2523.34
475.112	2584.8
475.484	2585.48
475.855	2687.4
476.227	2712.26
476.598	2778.02
476.97	2864.57
477.341	2962.2
477.713	3058.92
478.084	3048.75
478.455	3180.5
478.827	3233.6
479.198	3338.46
479.569	3337.78
479.94	3512.92
480.311	3583.2
480.682	3670.2
481.053	3757.2
481.424	3888.73
481.795	3965.11
482.166	4041.49
482.537	4132.79
482.908	4288.94
483.279	4345.89
483.65	4490.97
484.021	4634.69
484.391	4710.62
484.762	4856.16
485.133	4933.9
485.503	5032.42
485.874	5175.47
486.244	5279.42
486.615	5447.78
486.985	5577.72
487.356	5743.82
487.726	5803.48
488.097	6044.37
488.467	6072.17
488.837	6254.31
489.207	6403.01
489.578	6528.43
489.948	6680.06
490.318	6843.45
490.688	6908.53
491.058	7108.98
491.428	7280.27
491.798	7404.11
492.168	7653.37
492.538	7714.39
492.908	7878
493.278	8033.93
493.648	8137.88
494.017	8321.6
494.387	8462.62
494.757	8633.69
495.126	8751.2
495.496	8846.79
495.866	9000.68
496.235	9129.72
496.605	9219.66
496.974	9271.18
497.344	9509.37
497.713	9635.92
498.082	9729.25
498.452	9917.95
498.821	9985.97
499.19	10041.56
499.559	10287.2
499.928	10416.46
500.298	10447.2
500.667	10594.54
501.036	10646.97
501.405	10875.89
501.774	10802.67
502.143	11055.54
502.512	11051.47
502.88	11253.28
503.249	11234.07
503.618	11377.12
503.987	11520.39
504.356	11534.63
504.724	11611.23
505.093	11734.85
505.462	11790.21
505.83	11909.98
506.199	12046.7
506.567	12251.67
506.936	12205.79
507.304	12364.21
507.672	12352.91
508.041	12513.13
508.409	12606.69
508.777	12699.12
509.145	12758.32
509.514	12802.39
509.882	12969.62
510.25	12965.77
510.618	13001.71
510.986	13108.14
511.354	13232.89
511.722	13245.77
512.09	13359.89
512.458	13281.7
512.826	13468.36
513.193	13546.32
513.561	13651.63
513.929	13670.84
514.297	13631.07
514.664	13780.22
515.032	13885.75
515.4	13878.52
515.767	14010.27
516.135	13921.68
516.502	13878.97
516.869	14060.89
517.237	14200.32
517.604	14061.34
517.972	14260.43
518.339	14298.17
518.706	14186.53
519.073	14368.9
519.44	14390.82
519.808	14375.46
520.175	14431.5
520.542	14629.91
520.909	14668.55
521.276	14594.43
521.643	14723.24
522.009	14761.89
522.376	14814.54
522.743	14830.36
523.11	15013.4
523.477	14970.92
523.843	14991.48
524.21	15180.18
524.577	15266.73
524.943	15158.26
525.31	15233.06
525.676	15346.96
526.043	15389.44
526.409	15344.7
526.776	15475.99
527.142	15450.23
527.508	15546.05
527.874	15553.28
528.241	15527.29
528.607	15584.92
528.973	15657
529.339	15588.3
529.705	15686.38
530.071	15653.39
530.437	15755.76
530.803	15739.49
531.169	15825.13
531.535	15845.7
531.901	15592.82
532.267	15668.98
532.632	15674.63
532.998	15777.45
533.364	15788.75
533.73	15806.6
534.095	15879.37
534.461	15866.04
534.826	15869.43
535.192	15894.29
535.557	15948.07
535.923	15828.52
536.288	15812.48
536.653	15823.55
537.019	15770.9
537.384	15776.55
537.749	15804.8
538.114	15697
538.479	15713.5
538.845	15713.5
539.21	15594.41
539.575	15668.08
539.94	15577.91
540.305	15726.15
540.67	15586.95
541.034	15577.91
541.399	15610.68
541.764	15509.44
542.129	15487.97
542.494	15489.1
542.858	15475.99
543.223	15471.02
543.587	15563.9
543.952	15344.7
544.316	15418.59
544.681	15409.78
545.045	15348.31
545.41	15382.21
545.774	15353.73
546.138	15281.87
546.503	15282.78
546.867	15164.59
547.231	15252.27
547.595	15281.42
547.959	15205.72
548.324	15148.54
548.688	15115.1
549.052	15124.36
549.416	15154.42
549.779	15100.18
550.143	15052.95
550.507	15121.65
550.871	15122.1
551.235	14999.85
551.599	15018.38
551.962	14953.29
552.326	14958.94
552.689	14974.31
553.053	14857.7
553.417	14883.69
553.78	14944.03
554.143	14911.49
554.507	14845.95
554.87	14880.53
555.234	15018.38
555.597	14845.05
555.96	14798.95
556.323	14869.68
556.686	14831.94
557.05	14953.07
557.413	14890.24
557.776	14807.99
558.139	14914.2
558.502	14919.4
558.865	14829.91
559.228	14876.01
559.59	14888.21
559.953	14785.61
560.316	14856.57
560.679	14913.97
561.041	14876.91
561.404	14958.26
561.767	14919.17
562.129	14885.72
562.492	15011.14
562.854	15013.4
563.217	14954.2
563.579	15000.52
563.941	15006.17
564.304	15049.34
564.666	15160.07
565.028	15144.7
565.39	15006.63
565.753	15207.98
566.115	15153.74
566.477	15175.21
566.839	15173.4
567.201	15160.75
567.563	15274.87
567.925	15314.19
568.287	15233.74
568.648	15299.27
569.01	15318.71
569.372	15351.7
569.734	15291.36
570.095	15438.7
570.457	15373.4
570.819	15440.96
571.18	15483.9
571.542	15407.97
571.903	15524.35
572.265	15431.47
572.626	15481.41
572.987	15558.48
573.349	15497.46
573.71	15636.89
574.071	15525.26
574.432	15581.3
574.794	15665.59
575.155	15732.93
575.516	15620.39
575.877	15696.78
576.238	15704.91
576.599	15705.59
576.96	15639.6
577.32	15718.24
577.681	15756.44
578.042	15729.32
578.403	15751.69
578.763	15724.12
579.124	15711.47
579.485	15772.71
579.845	15798.47
580.206	15883.21
580.566	15747.4
580.927	15725.25
581.287	15808.64
581.648	15785.14
582.008	15862.2
582.368	15765.02
582.728	15796.21
583.089	15772.25
583.449	15694.06
583.809	15741.75
584.169	15834.85
584.529	15741.52
584.889	15840.95
585.249	15699.04
585.609	15696.32
585.969	15768.64
586.329	15697
586.688	15684.12
587.048	15633.95
587.408	15587.4
587.768	15678.7
588.127	15617.91
588.487	15571.36
588.846	15666.72
589.206	15581.75
589.565	15581.98
589.925	15647.29
590.284	15601.86
590.643	15648.87
591.003	15616.1
591.362	15611.58
591.721	15561.64
592.08	15584.69
592.44	15656.33
592.799	15730.22
593.158	15619.04
593.517	15586.27
593.876	15659.04
594.235	15596.44
594.593	15581.75
594.952	15641.86
595.311	15590.56
595.67	15561.41
596.029	15722.54
596.387	15594.63
596.746	15603.67
597.104	15612.03
597.463	15482.09
597.822	15624.69
598.18	15509.66
598.538	15602.99
598.897	15584.92
599.255	15412.49
599.613	15662.65
599.972	15563.45
600.33	15571.36
600.688	15507.18
601.046	15614.74
601.404	15613.84
601.762	15527.74
602.12	15583.56
602.478	15623.33
602.836	15611.13
603.194	15453.39
603.552	15584.92
603.91	15420.63
604.268	15587.17
604.625	15498.36
604.983	15635.31
605.341	15590.79
605.698	15585.59
606.056	15655.2
606.413	15575.2
606.771	15602.99
607.128	15615.65
607.485	15534.75
607.843	15547.18
608.2	15629.89
608.557	15770.67
608.914	15663.33
609.272	15700.17
609.629	15741.07
609.986	15801.41
610.343	15746.27
610.7	15785.36
611.057	15801.41
611.414	15787.85
611.771	15729.77
612.127	15957.33
612.484	15869.43
612.841	15920.73
613.198	15755.76
613.554	15822.65
613.911	15886.38
614.267	15849.99
614.624	15851.35
614.98	15878.47
615.337	15919.6
615.693	15836.89
616.05	15910.1
616.406	16112.36
616.762	15950.1
617.118	15958.01
617.475	15961.63
617.831	16025.81
618.187	15973.61
618.543	16012.93
618.899	16025.13
619.255	16084.79
619.611	16027.84
619.967	16103.77
620.323	16129.31
620.678	15986.49
621.034	16026.03
621.39	16053.38
621.746	16061.74
622.101	16161.85
622.457	16075.07
622.812	16098.57
623.168	16098.8
623.523	16062.64
623.879	16135.86
624.234	16083.21
624.589	16079.14
624.945	16091.57
625.3	16196.2
625.655	16044.34
626.01	16184.9
626.365	16174.96
626.72	16124.79
627.075	16093.38
627.43	15984.9
627.785	16012.93
628.14	16090.89
628.495	16031.68
628.85	15984
629.205	16031.01
629.559	16126.14
629.914	16086.82
630.269	16041.85
630.623	15970.22
630.978	16039.82
631.332	16100.38
631.687	15987.39
632.041	15964.34
632.396	16024.9
632.75	15919.82
633.104	15963.21
633.459	15808.19
633.813	15870.33
634.167	15849.31
634.521	15761.63
634.875	15856.77
635.229	15856.77
635.583	15812.93
635.937	15745.14
636.291	15670.11
636.645	15731.35
636.999	15708.53
637.352	15744.01
637.706	15654.29
638.06	15688.87
638.413	15584.01
638.767	15616.1
639.121	15682.31
639.474	15449.33
639.828	15529.78
640.181	15546.95
640.534	15585.59
640.888	15541.3
641.241	15501.98
641.594	15497.46
641.947	15597.12
642.301	15521.19
642.654	15482.32
643.007	15531.81
643.36	15453.62
643.713	15418.14
644.066	15463.79
644.419	15388.99
644.771	15338.14
645.124	15159.39
645.477	15250.23
645.83	15084.36
646.182	15029
646.535	14859.74
646.888	14967.76
647.24	14895.22
647.593	14999.62
647.945	14915.33
648.298	14863.8
648.65	14844.37
649.002	14777.93
649.355	14972.95
649.707	14932.95
650.059	14941.54
650.411	15129.11
650.763	15135.44
651.115	15391.7
651.467	15202.55
651.819	15175.66
652.171	15205.26
652.523	15187.64
652.875	15126.85
653.227	15080.52
653.578	15183.8
653.93	15203.23
654.282	15110.8
654.633	15010.92
654.985	15128.88
655.337	15143.12
655.688	15242.78
656.039	15297.24
656.391	15102.89
656.742	15171.37
657.094	15182.44
657.445	15273.06
657.796	15203
658.147	15133.63
658.498	15203.91
658.849	15195.32
659.2	15166.17
659.551	15136.11
659.902	15217.69
660.253	15218.37
660.604	15131.59
660.955	15138.37
661.306	15149.9
661.656	15139.28
662.007	15211.14
662.358	15184.7
662.708	15189.67
663.059	15174.3
663.409	15036.68
663.76	15200.07
664.11	15248.65
664.461	15271.25
664.811	15274.41
665.161	15120.52
665.511	15127.53
665.862	15148.32
666.212	15233.74
666.562	15200.74
666.912	15157.36
667.262	15199.39
667.612	15163.01
667.962	15181.08
668.312	15213.85
668.662	15194.19
669.011	15156.23
669.361	15203.91
669.711	15128.88
670.06	15194.42
670.41	15110.13
670.76	15105.15
671.109	15196
671.459	15073.29
671.808	15109.67
672.157	15132.95
672.507	15038.71
672.856	15053.63
673.205	15073.74
673.554	15074.19
673.904	15037.36
674.253	15096.79
674.602	15024.93
674.951	14817.48
675.3	14777.03
675.649	14973.63
675.998	14968.43
676.346	14930.02
676.695	14943.12
677.044	14851.38
677.393	14933.41
677.741	14946.06
678.09	14971.37
678.438	14863.35
678.787	14919.4
679.135	14951.03
679.484	14831.94
679.832	14802.34
680.181	14724.6
680.529	14709.01
680.877	14707.2
681.225	14716.92
681.573	14780.42
681.922	14607.31
682.27	14620.42
682.618	14650.02
682.966	14540.2
683.314	14495.45
683.661	14467.2
684.009	14473.76
684.357	14406.41
684.705	14407.09
685.053	14388.79
685.4	14418.62
685.748	14352.18
686.095	14309.02
686.443	14299.53
686.79	14235.35
687.138	14313.76
687.485	14292.29
687.832	14243.48
688.18	14273.31
688.527	14124.84
688.874	14120.09
689.221	14087.1
689.568	14031.51
689.915	14042.58
690.262	13953.09
690.609	14015.01
690.956	13842.81
691.303	13829.26
691.65	13813.66
691.997	13776.6
692.344	13668.13
692.69	13625.64
693.037	13733.66
693.383	13493.9
693.73	13609.15
694.077	13446.89
694.423	13402.6
694.769	13428.36
695.116	13337.74
695.462	13310.62
695.808	13298.65
696.155	13269.27
696.501	13254.58
696.847	13195.83
697.193	13045.09
697.539	13109.73
697.885	12987.24
698.231	13029.28
698.577	12904.76
698.923	12982.05
699.269	12827.25
699.614	12783.86
699.96	12712.45
700.306	12689.62
700.651	12704.99
700.997	12616.63
701.342	12678.1
701.688	12562.4
702.033	12451.44
702.379	12507.03
702.724	12445.34
703.069	12424.09
703.415	12349.75
703.76	12330.54
704.105	12358.33
704.45	12309.75
704.795	12211.44
705.14	12161.5
705.485	12073.82
705.83	12042.41
706.175	12082.41
706.52	12044.44
706.865	11947.04
707.209	11961.73
707.554	11921.96
707.899	11924.22
708.243	11825.24
708.588	11803.32
708.932	11781.4
709.277	11730.78
709.621	11723.55
709.966	11676.09
710.31	11650.1
710.654	11536.89
710.998	11634.28
711.342	11613.95
711.687	11486.72
712.031	11521.97
712.375	11464.57
712.719	11475.42
713.063	11510.9
713.407	11488.3
713.75	11408.75
714.094	11415.99
714.438	11364.46
714.782	11379.38
715.125	11261.86
715.469	11288.76
715.812	11267.29
716.156	11224.58
716.499	11264.58
716.843	11174.18
717.186	11129.66
717.53	11179.16
717.873	11144.58
718.216	11144.35
718.559	11130.57
718.902	11036.33
719.246	11016
719.589	11012.15
719.932	10921.76
720.275	10975.32
720.617	10863.91
720.96	10924.02
721.303	10894.19
721.646	10964.92
721.989	10904.36
722.331	10921.08
722.674	10862.33
723.016	10862.55
723.359	10894.87
723.701	10919.05
724.044	10841.31
724.386	10803.57
724.729	10827.07
725.071	10756.57
725.413	10779.84
725.755	10777.58
726.097	10794.76
726.439	10721.99
726.782	10752.5
727.124	10768.32
727.465	10691.71
727.807	10691.94
728.149	10627.31
728.491	10678.38
728.833	10656.91
729.175	10679.96
729.516	10636.12
729.858	10714.76
730.199	10618.72
730.541	10711.6
730.882	10585.72
731.224	10716.57
731.565	10586.18
731.906	10603.35
732.248	10569.68
732.589	10540.3
732.93	10545.27
733.271	10589.11
733.612	10562.45
733.953	10638.6
734.294	10526.74
734.635	10539.4
734.976	10611.94
735.317	10559.06
735.658	10591.6
735.999	10560.19
736.339	10572.39
736.68	10621.66
737.021	10529.91
737.361	10523.81
737.702	10610.81
738.042	10608.32
738.383	10534.43
738.723	10611.26
739.063	10594.54
739.404	10595.22
739.744	10610.13
740.084	10611.71
740.424	10597.7
740.764	10573.07
741.104	10660.3
741.444	10546.63
741.784	10578.49
742.124	10697.36
742.464	10738.49
742.804	10661.43
743.143	10664.59
743.483	10736.91
743.823	10669.56
744.162	10724.7
744.502	10764.25
744.841	10721.09
745.181	10780.97
745.52	10749.11
745.86	10881.08
746.199	10931.03
746.538	10926.28
746.877	11008.99
747.216	11072.72
747.556	11064.81
747.895	11060.06
748.234	11137.12
748.573	11142.77
748.911	11209.89
749.25	11251.92
749.589	11294.86
749.928	11397.23
750.267	11504.34
750.605	11504.8
750.944	11646.71
751.283	11674.06
751.621	11807.84
751.96	11842.41
752.298	11925.8
752.636	12026.36
752.975	12145.23
753.313	12111.11
753.651	12290.54
753.989	12357.88
754.327	12454.15
754.666	12576.41
755.004	12707.93
755.342	12893.01
755.679	12997.64
756.017	13019.78
756.355	13198.31
