Data from hue_34_FLMS001491_00054.txt Node
Date: Tue Feb 07 17:25:49 GMT 2017
User: dcchb
Spectrometer: FLMS00149
Trigger mode: 0
Integration Time (sec): 2.000000E-2
Scans to average: 10
Electric dark correction enabled: true
Nonlinearity correction enabled: false
Boxcar width: 0
XAxis mode: Wavelengths
Number of Pixels in Spectrum: 2048
>>>>>Begin Spectral Data<<<<<
341.393	2.05
341.776	2.05
342.16	2.05
342.543	-54.22
342.927	-71.85
343.31	-62.81
343.693	-69.36
344.077	-71.85
344.46	-70.04
344.843	-55.35
345.226	-35.24
345.61	-33.43
345.993	-23.94
346.376	10.18
346.759	13.12
347.142	43.18
347.525	42.05
347.908	64.19
348.291	61.93
348.674	94.93
349.057	92.44
349.44	141.03
349.823	142.38
350.206	171.99
350.588	199.78
350.971	212.89
351.354	232.78
351.737	242.95
352.119	255.37
352.502	264.64
352.884	281.36
353.267	286.79
353.65	305.32
354.032	295.37
354.414	313.68
354.797	342.15
355.179	327.46
355.562	335.37
355.944	334.92
356.326	325.66
356.709	348.03
357.091	320.68
357.473	335.82
357.855	334.69
358.238	336.95
358.62	350.97
359.002	334.24
359.384	346.9
359.766	334.02
360.148	374.24
360.53	361.81
360.912	346.67
361.294	355.03
361.676	328.14
362.057	349.61
362.439	357.29
362.821	340.8
363.203	327.69
363.584	317.97
363.966	341.47
364.348	339.21
364.729	314.36
365.111	308.03
365.493	350.29
365.874	322.27
366.256	330.85
366.637	306.22
367.019	315.94
367.4	340.57
367.781	329.27
368.163	321.36
368.544	305.54
368.925	301.7
369.306	313.45
369.688	320.46
370.069	308.71
370.45	304.64
370.831	325.2
371.212	318.88
371.593	314.13
371.974	332.89
372.355	321.81
372.736	317.29
373.117	333.79
373.498	336.05
373.879	319.1
374.26	317.75
374.641	315.94
375.021	311.87
375.402	332.43
375.783	316.39
376.163	325.2
376.544	323.4
376.925	348.03
377.305	334.24
377.686	334.92
378.066	336.95
378.447	317.29
378.827	327.69
379.208	339.44
379.588	334.92
379.968	322.94
380.349	332.43
380.729	324.53
381.109	364.07
381.489	330.63
381.87	328.59
382.25	319.78
382.63	351.19
383.01	336.73
383.39	341.93
383.77	335.82
384.15	308.93
384.53	330.4
384.91	335.15
385.29	360
385.67	338.31
386.049	362.94
386.429	324.53
386.809	353.9
387.189	338.76
387.568	348.03
387.948	337.41
388.328	358.42
388.707	375.15
389.087	365.88
389.466	370.4
389.846	375.82
390.225	347.8
390.605	365.43
390.984	369.27
391.363	363.62
391.743	370.4
392.122	352.32
392.501	364.75
392.881	368.82
393.26	376.05
393.639	375.82
394.018	370.63
394.397	390.06
394.776	371.08
395.155	373.34
395.534	384.18
395.913	379.89
396.292	394.13
396.671	377.86
397.05	407.46
397.429	382.15
397.808	370.63
398.186	386.44
398.565	414.24
398.944	393.45
399.323	396.84
399.701	402.04
400.08	385.31
400.458	395.48
400.837	392.77
401.215	420.79
401.594	402.72
401.972	410.85
402.351	394.81
402.729	415.6
403.107	374.24
403.486	405.65
403.864	408.36
404.242	415.37
404.62	431.87
404.999	439.55
405.377	415.14
405.755	413.11
406.133	437.29
406.511	413.56
406.889	437.29
407.267	438.42
407.645	435.48
408.023	440.45
408.401	452.21
408.779	434.13
409.156	445.2
409.534	447.01
409.912	428.7
410.29	464.86
410.667	448.82
411.045	440.23
411.422	461.24
411.8	459.89
412.178	462.15
412.555	463.5
412.933	469.83
413.31	480.23
413.687	457.4
414.065	473.67
414.442	473
414.819	485.43
415.197	487.68
415.574	488.14
415.951	505.31
416.328	484.3
416.705	486.33
417.082	506.44
417.46	501.24
417.837	508.02
418.214	522.26
418.591	517.51
418.967	492.88
419.344	513.9
419.721	515.03
420.098	508.02
420.475	534.69
420.852	534.46
421.228	523.62
421.605	515.48
421.982	524.75
422.358	529.27
422.735	545.76
423.111	557.97
423.488	562.49
423.864	547.34
424.241	571.52
424.617	570.39
424.994	562.49
425.37	549.6
425.746	561.81
426.123	587.8
426.499	581.02
426.875	554.8
427.251	576.72
427.627	596.61
428.003	592.99
428.379	588.47
428.756	605.42
429.132	598.64
429.507	609.26
429.883	617.85
430.259	638.19
430.635	611.52
431.011	637.96
431.387	632.77
431.763	636.38
432.138	637.29
432.514	650.62
432.89	621.92
433.265	655.36
433.641	664.4
434.016	657.4
434.392	677.74
434.767	689.71
435.143	689.71
435.518	691.52
435.894	692.88
436.269	688.36
436.644	712.99
437.02	714.57
437.395	680.67
437.77	714.8
438.145	724.51
438.52	738.98
438.895	743.72
439.271	734.01
439.646	750.95
440.021	765.87
440.395	734.46
440.77	752.08
441.145	732.88
441.52	773.1
441.895	768.81
442.27	780.11
442.645	795.47
443.019	791.63
443.394	779.65
443.769	768.36
444.143	800.22
444.518	821.91
444.892	797.28
445.267	790.73
445.641	807.9
446.016	796.6
446.39	785.76
446.764	805.64
447.139	807.9
447.513	811.52
447.887	830.27
448.262	805.19
448.636	841.8
449.01	841.57
449.384	841.35
449.758	848.81
450.132	880.67
450.506	855.13
450.88	877.28
451.254	875.47
451.628	861.23
452.002	874.79
452.376	885.64
452.75	905.3
453.123	901.91
453.497	916.37
453.871	935.36
454.244	932.87
454.618	923.61
454.992	961.12
455.365	943.04
455.739	986.88
456.112	972.19
456.486	978.75
456.859	992.3
457.232	1035.69
457.606	1027.56
457.979	1014.22
458.352	1051.29
458.725	1058.97
459.099	1066.43
459.472	1069.82
459.845	1081.12
460.218	1083.83
460.591	1101.91
460.964	1101.45
461.337	1129.25
461.71	1136.03
462.083	1163.37
462.456	1173.32
462.829	1168.12
463.201	1171.73
463.574	1180.1
463.947	1201.11
464.32	1217.61
464.692	1239.08
465.065	1264.39
465.438	1264.61
465.81	1285.18
466.183	1306.65
466.555	1326.08
466.928	1313.88
467.3	1329.24
467.672	1347.55
468.045	1377.38
468.417	1385.74
468.789	1438.39
469.161	1445.63
469.534	1482.91
469.906	1463.03
470.278	1512.52
470.65	1533.99
471.022	1564.49
471.394	1563.81
471.766	1601.1
472.138	1630.93
472.51	1654.21
472.882	1674.09
473.253	1711.38
473.625	1762.91
473.997	1798.61
474.369	1786.18
474.74	1844.71
475.112	1867.08
475.484	1878.61
475.855	1916.35
476.227	1966.97
476.598	2026.4
476.97	2041.77
477.341	2130.35
477.713	2131.71
478.084	2164.93
478.455	2236.11
478.827	2281.31
479.198	2383.23
479.569	2406.28
479.94	2475.43
480.311	2509.55
480.682	2604.92
481.053	2639.04
481.424	2736.44
481.795	2778.25
482.166	2837.91
482.537	2881.75
482.908	2963.33
483.279	3034.51
483.65	3072.02
484.021	3184.11
484.391	3257.56
484.762	3297.33
485.133	3346.82
485.503	3395.63
485.874	3510.66
486.244	3606.7
486.615	3705.91
486.985	3779.12
487.356	3876.3
487.726	3952.9
488.097	4085.33
488.467	4119.68
488.837	4168.94
489.207	4286.23
489.578	4412.78
489.948	4469.95
490.318	4576.84
490.688	4649.84
491.058	4732.55
491.428	4831.75
491.798	4925.31
492.168	5031.29
492.538	5128.47
492.908	5167.34
493.278	5284.17
493.648	5341.34
494.017	5426.54
494.387	5545.86
494.757	5622.47
495.126	5677.83
495.496	5733.65
495.866	5788.79
496.235	5913.53
496.605	6013.42
496.974	6065.17
497.344	6179.74
497.713	6216.35
498.082	6265.39
498.452	6386.06
498.821	6428.77
499.19	6516.23
499.559	6498.6
499.928	6649.33
500.298	6703.34
500.667	6802.55
501.036	6827.41
501.405	6948.08
501.774	6961.86
502.143	7118.47
502.512	7088.87
502.88	7162.99
503.249	7253.83
503.618	7241.41
503.987	7338.35
504.356	7429.42
504.724	7478.01
505.093	7544.22
505.462	7569.76
505.83	7659.7
506.199	7751.9
506.567	7878.23
506.936	7833.71
507.304	7931.78
507.672	8049.75
508.041	8061.5
508.409	8075.06
508.777	8143.98
509.145	8232.79
509.514	8242.96
509.882	8319.34
510.25	8336.74
510.618	8408.38
510.986	8445.22
511.354	8465.33
511.722	8644.76
512.09	8665.32
512.458	8634.36
512.826	8708.94
513.193	8811.08
513.561	8832.78
513.929	8906.67
514.297	9027.57
514.664	9019.89
515.032	9047.69
515.4	9112.77
515.767	9159.55
516.135	9261.01
516.502	9229.38
516.869	9306.89
517.237	9467.11
517.604	9342.59
517.972	9448.58
518.339	9512.31
518.706	9543.04
519.073	9564.06
519.44	9597.5
519.808	9731.96
520.175	9742.81
520.542	9835.91
520.909	9854.44
521.276	9917.95
521.643	10032.07
522.009	10074.33
522.376	10115.68
522.743	10159.97
523.11	10233.19
523.477	10326.97
523.843	10401.77
524.21	10498.04
524.577	10526.07
524.943	10535.56
525.31	10589.34
525.676	10617.14
526.043	10785.27
526.409	10744.82
526.776	10932.16
527.142	10905.04
527.508	10936.68
527.874	11033.17
528.241	11133.73
528.607	11132.38
528.973	11293.5
529.339	11222.32
529.705	11307.51
530.071	11473.61
530.437	11521.07
530.803	11519.49
531.169	11691.91
531.535	11640.39
531.901	11673.15
532.267	11777.11
532.632	11798.57
532.998	11780.72
533.364	11897.33
533.73	11933.71
534.095	12013.26
534.461	12051.45
534.826	12112.46
535.192	12208.28
535.557	12273.59
535.923	12225.68
536.288	12463.64
536.653	12396.75
537.019	12421.16
537.384	12485.79
537.749	12537.54
538.114	12519.91
538.479	12545
538.845	12615.95
539.21	12623.19
539.575	12683.3
539.94	12838.77
540.305	12850.75
540.67	12799.45
541.034	12966.68
541.399	12987.92
541.764	13019.56
542.129	13069.05
542.494	13114.02
542.858	13159.44
543.223	13176.62
543.587	13307.69
543.952	13348.82
544.316	13403.73
544.681	13383.62
545.045	13497.96
545.41	13483.28
545.774	13535.03
546.138	13595.59
546.503	13712.42
546.867	13718.98
547.231	13742.03
547.595	13821.8
547.959	13876.03
548.324	13930.95
548.688	13971.4
549.052	13980.89
549.416	14029.48
549.779	14055.92
550.143	14132.98
550.507	14260.66
550.871	14226.98
551.235	14252.07
551.599	14370.71
551.962	14450.03
552.326	14370.71
552.689	14514.21
553.053	14428.34
553.417	14455
553.78	14735.22
554.143	14744.71
554.507	14721.21
554.87	14827.87
555.234	14834.2
555.597	14766.41
555.96	14904.48
556.323	14996
556.686	14964.82
557.05	15119.84
557.413	15132.5
557.776	15151.48
558.139	15216.34
558.502	15170.69
558.865	15315.77
559.228	15388.08
559.59	15360.51
559.953	15434.64
560.316	15647.96
560.679	15523.67
561.041	15680.73
561.404	15756.44
561.767	15848.41
562.129	15809.99
562.492	15921.18
562.854	15998.92
563.217	16001.63
563.579	15950.1
563.941	16138.35
564.304	16121.4
564.666	16213.6
565.028	16339.92
565.39	16303.09
565.753	16388.96
566.115	16390.54
566.477	16580.82
566.839	16573.14
567.201	16640.25
567.563	16785.79
567.925	16801.15
568.287	16873.47
568.648	16844.09
569.01	17027.36
569.372	17027.14
569.734	17023.3
570.095	17167.25
570.457	17266
570.819	17289.73
571.18	17344.87
571.542	17480.01
571.903	17455.37
572.265	17539.21
572.626	17573.56
572.987	17711.41
573.349	17776.04
573.71	17876.83
574.071	17990.73
574.432	17994.12
574.794	18226.43
575.155	18160.89
575.516	18261.68
575.877	18423.94
576.238	18454.9
576.599	18620.32
576.96	18715
577.32	18791.61
577.681	19068.89
578.042	18953.64
578.403	19203.13
578.763	19229.79
579.124	19443.8
579.485	19642.44
579.845	19742.32
580.206	19804.01
580.566	20060.73
580.927	20128.75
581.287	20304.79
581.648	20435.86
582.008	20656.42
582.368	20830.65
582.728	20987.94
583.089	21034.04
583.449	21286.91
583.809	21475.83
584.169	21743.17
584.529	21865.2
584.889	22253.67
585.249	22311.97
585.609	22438.29
585.969	22746.31
586.329	22834.67
586.688	23178.39
587.048	23256.35
587.408	23520.07
587.768	23730.24
588.127	23978.82
588.487	24230.34
588.846	24562.31
589.206	24638.69
589.565	24874.61
589.925	25155.96
590.284	25349.4
590.643	25699.23
591.003	25979.9
591.362	26284.97
591.721	26408.81
592.08	26690.16
592.44	26906.43
592.799	27093.31
593.158	27340.31
593.517	27585.5
593.876	27868.89
594.235	28169.67
594.593	28323.79
594.952	28659.15
595.311	28752.25
595.67	28988.86
596.029	29538.67
596.387	29649.4
596.746	29777.54
597.104	30067.7
597.463	30201.71
597.822	30606.67
598.18	30813.67
598.538	30918.07
598.897	31360.77
599.255	31249.59
599.613	31932.06
599.972	31990.59
600.33	32222.22
600.688	32375.21
601.046	32645.48
601.404	32860.62
601.762	33040.28
602.12	33438.46
602.478	33461.28
602.836	33672.35
603.194	33617.89
603.552	34014.04
603.91	34023.75
604.268	34453.57
604.625	34331.54
604.983	34820.34
605.341	34820.57
605.698	35172.42
606.056	35402.93
606.413	35511.17
606.771	35872.52
607.128	36015.79
607.485	35892.4
607.843	36168.55
608.2	36559.73
608.557	36539.62
608.914	36650.58
609.272	36850.12
609.629	37123.56
609.986	37390.67
610.343	37395.87
610.7	37587.73
611.057	37799.02
611.414	37842.41
611.771	38022.07
612.127	38303.41
612.484	38274.26
612.841	38642.61
613.198	38444.43
613.554	38505.22
613.911	38970.51
614.267	39154.46
614.624	39108.82
614.98	39215.93
615.337	39511.74
615.693	39432.88
616.05	39532.99
616.406	39859.08
616.762	39613.44
617.118	39829.93
617.475	39965.74
617.831	40115.57
618.187	40356.92
618.543	40323.25
618.899	40590.13
619.255	40525.73
619.611	40534.32
619.967	40813.63
620.323	40897.92
620.678	40806.4
621.034	40847.08
621.39	40809.11
621.746	40993.74
622.101	41455.87
622.457	41192.15
622.812	41290.45
623.168	41459.71
623.523	41531.35
623.879	41686.6
624.234	41460.17
624.589	41726.83
624.945	41828.74
625.3	41842.76
625.655	41862.19
626.01	41870.33
626.365	41878.91
626.72	42004.11
627.075	41927.95
627.43	42078.23
627.785	41886.37
628.14	42188.28
628.495	42192.13
628.85	42160.94
629.205	42138.12
629.559	42433.7
629.914	42146.02
630.269	42176.08
630.623	42381.27
630.978	42064.44
631.332	42336.98
631.687	42478.45
632.041	42268.51
632.396	42267.38
632.75	42146.7
633.104	42296.3
633.459	42220.82
633.813	42188.96
634.167	42252.69
634.521	42175.85
634.875	42294.95
635.229	42349.41
635.583	42219.92
635.937	42182.18
636.291	42075.52
636.645	42201.39
636.999	42060.15
637.352	42019.7
637.706	41944.45
638.06	42299.24
638.413	42031.23
638.767	42029.64
639.121	42228.28
639.474	41949.42
639.828	42001.17
640.181	42044.33
640.534	42009.98
640.888	41952.36
641.241	41798.46
641.594	41875.07
641.947	41986.25
642.301	41878.69
642.654	41961.4
643.007	41872.59
643.36	41803.66
643.713	41806.82
644.066	41965.69
644.419	41633.04
644.771	41510.11
645.124	41221.98
645.477	40953.51
645.83	40766.63
646.182	40664.71
646.535	40598.27
646.888	40669
647.24	40430.36
647.593	40711.49
647.945	40617.48
648.298	40363.02
648.65	40369.8
649.002	40261.33
649.355	40567.54
649.707	40494.54
650.059	40702.22
650.411	41212.72
650.763	41143.34
651.115	41520.05
651.467	41380.4
651.819	41313.05
652.171	41306.5
652.523	41223.79
652.875	41332.26
653.227	40895.66
653.578	41353.73
653.93	41273.28
654.282	41198.7
654.633	40914.42
654.985	41045.71
655.337	41106.28
655.688	41101.53
656.039	41299.04
656.391	40970.46
656.742	40899.05
657.094	40996.9
657.445	41144.92
657.796	40944.02
658.147	40976.11
658.498	40994.64
658.849	40982.44
659.2	40888.66
659.551	40873.06
659.902	41022.66
660.253	40798.49
660.604	40940.86
660.955	40682.56
661.306	40947.64
661.656	40699.51
662.007	40878.04
662.358	40810.47
662.708	40704.03
663.059	40781.31
663.409	40623.35
663.76	40834.19
664.11	40795.33
664.461	40889.11
664.811	40746.06
665.161	40781.54
665.511	40741.99
665.862	40633.3
666.212	40621.32
666.562	40730.92
666.912	40727.98
667.262	40701.99
667.612	40688.44
667.962	40724.37
668.312	40552.39
668.662	40843.69
669.011	40745.38
669.361	40812.27
669.711	40677.36
670.06	40653.41
670.41	40646.4
670.76	40478.72
671.109	40737.25
671.459	40537.48
671.808	40509.01
672.157	40631.04
672.507	40381.1
672.856	40429.69
673.205	40554.88
673.554	40643.01
673.904	40501.1
674.253	40713.52
674.602	40516.91
674.951	39971.39
675.3	39654.34
675.649	40294.32
675.998	40340.87
676.346	40401.21
676.695	40517.37
677.044	40143.82
677.393	40144.72
677.741	40153.53
678.09	40240.99
678.438	40207.32
678.787	40143.59
679.135	40122.12
679.484	39768.69
679.832	40086.42
680.181	39851.4
680.529	40049.13
680.877	39780.21
681.225	39860.21
681.573	40046.64
681.922	39706.31
682.27	39652.53
682.618	39690.04
682.966	39505.42
683.314	39650.5
683.661	39521.69
684.009	39332.77
684.357	39363.05
684.705	39177.06
685.053	39374.8
685.4	39203.28
685.748	39036.05
686.095	39126.22
686.443	38886.9
686.79	38935.26
687.138	39065.2
687.485	38919.22
687.832	38837.64
688.18	38791.76
688.527	38625.89
688.874	38635.38
689.221	38466.8
689.568	38492.11
689.915	38318.55
690.262	38369.4
690.609	38185.68
690.956	38064.55
691.303	38172.57
691.65	37949.98
691.997	37904.78
692.344	37698.91
692.69	37646.71
693.037	37679.93
693.383	37465.02
693.73	37466.37
694.077	37223.67
694.423	37338.02
694.769	37164.01
695.116	37107.74
695.462	37049.66
695.808	37045.14
696.155	37144.57
696.501	36682.89
696.847	36716.11
697.193	36402.9
697.539	36703.46
697.885	36452.39
698.231	36444.03
698.577	36298.95
698.923	36277.03
699.269	36223.69
699.614	35886.98
699.96	35894.89
700.306	35960.88
700.651	35812.86
700.997	35715.69
701.342	35631.85
701.688	35488.8
702.033	35350.27
702.379	35332.19
702.724	35291.29
703.069	35343.04
703.415	34929.49
703.76	35101.46
704.105	34909.38
704.45	34932.65
704.795	34735.6
705.14	34622.83
705.485	34626
705.83	34297.64
706.175	34557.52
706.52	34351.88
706.865	34325.89
707.209	34132.9
707.554	34228.27
707.899	34154.14
708.243	33910.76
708.588	33933.13
708.932	33693.82
709.277	33731.78
709.621	33718.45
709.966	33546.93
710.31	33674.38
710.654	33255.41
710.998	33394.16
711.342	33255.86
711.687	33247.95
712.031	33071.91
712.375	33045.02
712.719	32968.41
713.063	33019.71
713.407	33040.28
713.75	32798.25
714.094	32833.05
714.438	32739.49
714.782	32806.38
715.125	32533.85
715.469	32635.77
715.812	32557.8
716.156	32373.63
716.499	32359.84
716.843	32335.66
717.186	32021.09
717.53	32309.9
717.873	32286.85
718.216	32243.23
718.559	32097.93
718.902	31809.57
719.246	31972.96
719.589	31782.91
719.932	31725.28
720.275	31697.26
720.617	31717.15
720.96	31617.26
721.303	31662.46
721.646	31537.49
721.989	31468.57
722.331	31561.44
722.674	31356.25
723.016	31328.46
723.359	31327.78
723.701	31331.62
724.044	31101.12
724.386	30953.32
724.729	31183.6
725.071	31032.87
725.413	30998.75
725.755	31008.92
726.097	30871.29
726.439	30677.4
726.782	30816.6
727.124	30828.36
727.465	30690.28
727.807	30739.32
728.149	30648.7
728.491	30457.74
728.833	30666.1
729.175	30508.59
729.516	30520.57
729.858	30368.93
730.199	30431.53
730.541	30279.67
730.882	30219.56
731.224	30383.4
731.565	30215.49
731.906	30192.67
732.248	30136.62
732.589	29993.12
732.93	29733.02
733.271	29935.95
733.612	29882.17
733.953	29805.56
734.294	29792.23
734.635	29740.93
734.976	29764.66
735.317	29563.76
735.658	29593.81
735.999	29596.07
736.339	29496.87
736.68	29623.87
737.021	29482.4
737.361	29434.27
737.702	29459.58
738.042	29420.48
738.383	29199.25
738.723	29246.7
739.063	29172.81
739.404	29273.37
739.744	29217.1
740.084	29072.02
740.424	29090.55
740.764	29105.92
741.104	29169.42
741.444	28943.89
741.784	28823.44
742.124	28915.86
742.464	28873.38
742.804	28875.19
743.143	28840.84
743.483	28775.53
743.823	28677.45
744.162	28616.66
744.502	28731.46
744.841	28560.17
745.181	28618.92
745.52	28611.01
745.86	28517.91
746.199	28524.69
746.538	28530.56
746.877	28389.1
747.216	28467.51
747.556	28332.15
747.895	28425.48
748.234	28178.93
748.573	28224.36
748.911	27971.26
749.25	27987.3
749.589	27866.17
749.928	28020.75
750.267	27903.46
750.605	27990.92
750.944	27873.63
751.283	27773.3
751.621	27712.51
751.96	27606.07
752.298	27635.9
752.636	27744.14
752.975	27451.04
753.313	27367.88
753.651	27528.33
753.989	27323.82
754.327	27326.98
754.666	27188.9
755.004	27312.97
755.342	27150.94
755.679	27048.34
756.017	27037.95
756.355	26997.5
756.693	26976.25
757.031	27029.81
757.368	26691.29
757.706	26827.78
