Data from hue_80_FLMS001491_71.txt Node
Date: Mon Feb 06 15:23:31 GMT 2017
User: dcchb
Spectrometer: FLMS00149
Trigger mode: 0
Integration Time (sec): 2.000000E-2
Scans to average: 10
Electric dark correction enabled: true
Nonlinearity correction enabled: false
Boxcar width: 0
XAxis mode: Wavelengths
Number of Pixels in Spectrum: 2048
>>>>>Begin Spectral Data<<<<<
341.393	-0.07
341.776	-0.07
342.16	-0.07
342.543	-55.21
342.927	-80.07
343.31	-65.15
343.693	-71.71
344.077	-65.38
344.46	-76.9
344.843	-63.35
345.226	-16.34
345.61	-29.45
345.993	-32.61
346.376	-12.27
346.759	10.55
347.142	34.73
347.525	61.62
347.908	72.24
348.291	52.81
348.674	99.59
349.057	101.62
349.44	128.97
349.823	143.65
350.206	158.57
350.588	194.5
350.971	212.35
351.354	238.57
351.737	228.85
352.119	246.48
352.502	274.5
352.884	260.26
353.267	277.66
353.65	295.29
354.032	305.91
354.414	319.92
354.797	299.13
355.179	313.37
355.562	327.15
355.944	319.69
356.326	339.58
356.709	335.29
357.091	351.56
357.473	346.59
357.855	364.89
358.238	354.95
358.62	342.52
359.002	337.55
359.384	334.38
359.766	333.93
360.148	331.67
360.53	343.2
360.912	324.67
361.294	333.25
361.676	323.08
362.057	335.74
362.439	347.49
362.821	340.94
363.203	313.37
363.584	346.81
363.966	339.81
364.348	298
364.729	324.89
365.111	303.2
365.493	305.23
365.874	300.26
366.256	302.97
366.637	315.18
367.019	306.36
367.4	302.97
367.781	313.37
368.163	308.62
368.544	303.65
368.925	304.78
369.306	308.85
369.688	297.55
370.069	295.29
370.45	320.15
370.831	315.63
371.212	337.77
371.593	331.9
371.974	317.44
372.355	321.05
372.736	315.85
373.117	318.79
373.498	305.01
373.879	291.9
374.26	322.86
374.641	315.18
375.021	306.81
375.402	299.36
375.783	331.67
376.163	329.86
376.544	332.12
376.925	316.08
377.305	327.15
377.686	322.86
378.066	329.64
378.447	332.58
378.827	335.74
379.208	312.69
379.588	320.37
379.968	333.48
380.349	322.18
380.729	333.93
381.109	340.49
381.489	322.18
381.87	337.77
382.25	322.63
382.63	359.69
383.01	337.77
383.39	348.39
383.77	333.03
384.15	348.62
384.53	360.15
384.91	357.66
385.29	356.76
385.67	333.48
386.049	358.56
386.429	364.21
386.809	354.72
387.189	330.54
387.568	334.16
387.948	343.42
388.328	338
388.707	347.94
389.087	363.76
389.466	386.59
389.846	342.52
390.225	342.75
390.605	358.11
390.984	372.35
391.363	365.57
391.743	362.86
392.122	385
392.501	370.09
392.881	373.7
393.26	350.43
393.639	380.48
394.018	380.94
394.397	358.34
394.776	369.86
395.155	390.43
395.534	394.04
395.913	364.44
396.292	379.13
396.671	382.07
397.05	379.35
397.429	382.29
397.808	367.15
398.186	359.24
398.565	396.53
398.944	382.29
399.323	380.48
399.701	391.56
400.08	400.6
400.458	416.64
400.837	389.52
401.215	397.21
401.594	415.51
401.972	393.14
402.351	404.89
402.729	380.71
403.107	404.21
403.486	408.51
403.864	411.67
404.242	411.67
404.62	409.41
404.999	396.08
405.377	412.57
405.755	409.41
406.133	412.12
406.511	429.07
406.889	425.45
407.267	417.77
407.645	424.78
408.023	418
408.401	457.09
408.779	428.84
409.156	451.67
409.534	420.48
409.912	430.88
410.29	457.77
410.667	449.18
411.045	465.91
411.422	453.93
411.8	450.54
412.178	438.56
412.555	455.28
412.933	450.99
413.31	479.69
413.687	475.85
414.065	469.52
414.442	472.91
414.819	464.32
415.197	473.36
415.574	476.53
415.951	492.35
416.328	500.03
416.705	501.16
417.082	492.12
417.46	496.41
417.837	504.77
418.214	502.74
418.591	496.41
418.967	484.66
419.344	521.72
419.721	511.33
420.098	526.47
420.475	531.67
420.852	527.83
421.228	535.51
421.605	528.73
421.982	521.27
422.358	541.38
422.735	523.31
423.111	533.93
423.488	540.71
423.864	537.77
424.241	559.01
424.617	547.71
424.994	546.58
425.37	564.21
425.746	558.56
426.123	570.31
426.499	579.12
426.875	558.11
427.251	582.29
427.627	563.53
428.003	577.99
428.379	556.07
428.756	608.27
429.132	598.11
429.507	584.77
429.883	598.56
430.259	617.09
430.635	634.04
431.011	598.78
431.387	630.42
431.763	623.87
432.138	628.61
432.514	622.51
432.89	641.49
433.265	650.08
433.641	665.9
434.016	645.79
434.392	656.86
434.767	673.81
435.143	666.13
435.518	660.93
435.894	671.78
436.269	681.04
436.644	705.9
437.02	697.31
437.395	696.18
437.77	701.15
438.145	702.51
438.52	723.53
438.895	729.4
439.271	735.5
439.646	715.16
440.021	743.64
440.395	759.23
440.77	744.09
441.145	724.88
441.52	742.73
441.895	754.71
442.27	759.01
442.645	773.69
443.019	761.72
443.394	773.69
443.769	789.51
444.143	770.76
444.518	808.04
444.892	792
445.267	792.9
445.641	829.51
446.016	808.27
446.39	774.82
446.764	823.64
447.139	788.38
447.513	829.29
447.887	845.78
448.262	803.3
448.636	822.73
449.01	839.68
449.384	833.58
449.758	829.06
450.132	856.18
450.506	860.7
450.88	859.79
451.254	847.59
451.628	872.45
452.002	875.39
452.376	888.04
452.75	940.47
453.123	926.68
453.497	917.42
453.871	923.97
454.244	931.88
454.618	954.03
454.992	944.54
455.365	954.48
455.739	965.1
456.112	973.46
456.486	967.14
456.859	978.21
457.232	1012.11
457.606	993.8
457.979	1030.41
458.352	1053.69
458.725	1041.26
459.099	1049.39
459.472	1079.22
459.845	1103.18
460.218	1110.18
460.591	1128.71
460.964	1103.86
461.337	1102.05
461.71	1166.45
462.083	1161.25
462.456	1168.49
462.829	1184.53
463.201	1225.89
463.574	1204.42
463.947	1261.59
464.32	1274.92
464.692	1241.93
465.065	1291.19
465.438	1302.72
465.81	1302.49
466.183	1336.62
466.555	1338.65
466.928	1355.83
467.3	1382.04
467.672	1379.55
468.045	1418.2
468.417	1443.28
468.789	1488.93
469.161	1497.07
469.534	1520.34
469.906	1544.07
470.278	1565.09
470.65	1598.98
471.022	1611.64
471.394	1645.99
471.766	1668.81
472.138	1718.08
472.51	1767.34
472.882	1790.62
473.253	1815.25
473.625	1843.72
473.997	1903.61
474.369	1935.92
474.74	1963.04
475.112	2011.18
475.484	2066.09
475.855	2135.24
476.227	2148.12
476.598	2193.09
476.97	2255.69
477.341	2297.95
477.713	2368.91
478.084	2425.63
478.455	2544.27
478.827	2551.27
479.198	2648.22
479.569	2717.6
479.94	2783.81
480.311	2837.14
480.682	2941.09
481.053	3042.79
481.424	3096.35
481.795	3173.18
482.166	3303.35
482.537	3348.54
482.908	3475.09
483.279	3565.49
483.65	3631.92
484.021	3773.84
484.391	3840.73
484.762	3945.14
485.133	4050.67
485.503	4153.72
485.874	4309.87
486.244	4373.15
486.615	4517.78
486.985	4665.34
487.356	4767.49
487.726	4837.54
488.097	5021.49
488.467	5111.21
488.837	5306.68
489.207	5429.84
489.578	5552.55
489.948	5653.79
490.318	5807.91
490.688	5887.68
491.058	6088.36
491.428	6208.58
491.798	6320.67
492.168	6512.3
492.538	6677.72
492.908	6788.9
493.278	6964.94
493.648	7097.82
494.017	7191.15
494.387	7374.88
494.757	7467.08
495.126	7674.08
495.496	7760.4
495.866	7820.97
496.235	8052.15
496.605	8213.72
496.974	8292.59
497.344	8482.64
497.713	8526.48
498.082	8655.97
498.452	8860.49
498.821	8960.82
499.19	9050.76
499.559	9269.52
499.928	9337.54
500.298	9509.74
500.667	9652.56
501.036	9678.32
501.405	9815.94
501.774	9937.52
502.143	10091.87
502.512	10145.65
502.88	10292.09
503.249	10375.93
503.618	10481.01
503.987	10522.59
504.356	10683.26
504.724	10750.38
505.093	10907.89
505.462	10994.67
505.83	11043.25
506.199	11209.13
506.567	11367.77
506.936	11440.53
507.304	11570.92
507.672	11603.69
508.041	11728.66
508.409	11790.13
508.777	11885.04
509.145	12104.47
509.514	12057.24
509.882	12237.12
510.25	12296.1
510.618	12418.81
510.986	12453.16
511.354	12520.96
511.722	12694.74
512.09	12820.84
512.458	12814.51
512.826	12926.14
513.193	12963.43
513.561	13065.8
513.929	13126.82
514.297	13278.9
514.664	13410.42
515.032	13463.98
515.4	13572.68
515.767	13562.51
516.135	13629.18
516.502	13574.26
516.869	13794.14
517.237	13923.86
517.604	13821.03
517.972	14025.78
518.339	14023.52
518.706	14074.59
519.073	14136.05
519.44	14214.02
519.808	14367.69
520.175	14337.41
520.542	14469.83
520.909	14545.54
521.276	14509.6
521.643	14760.67
522.009	14748.02
522.376	14864.17
522.743	14837.73
523.11	14974.45
523.477	15050.38
523.843	15145.52
524.21	15311.39
524.577	15283.82
524.943	15300.54
525.31	15434.1
525.676	15546.19
526.043	15610.14
526.409	15644.49
526.776	15822.34
527.142	15686.3
527.508	15776.92
527.874	15908.44
528.241	15907.53
528.607	15873.41
528.973	16034.99
529.339	16065.5
529.705	16150.69
530.071	16154.98
530.437	16211.25
530.803	16269.11
531.169	16383.23
531.535	16216.9
531.901	16194.31
532.267	16288.09
532.632	16384.81
532.998	16435.66
533.364	16466.16
533.73	16512.72
534.095	16586.16
534.461	16453.96
534.826	16669.32
535.192	16582.32
535.557	16597.01
535.923	16635.65
536.288	16706.16
536.653	16709.32
537.019	16572.15
537.384	16728.76
537.749	16596.78
538.114	16630.23
538.479	16594.52
538.845	16700.06
539.21	16689.21
539.575	16606.27
539.94	16602.66
540.305	16688.53
540.67	16667.74
541.034	16686.5
541.399	16697.8
541.764	16641.3
542.129	16561.3
542.494	16545.94
542.858	16670.9
543.223	16652.37
543.587	16679.49
543.952	16581.87
544.316	16669.32
544.681	16548.87
545.045	16645.14
545.41	16684.24
545.774	16649.44
546.138	16672.71
546.503	16643.11
546.867	16618.48
547.231	16717.91
547.595	16634.07
547.959	16515.43
548.324	16668.64
548.688	16595.65
549.052	16610.79
549.416	16563.34
549.779	16573.28
550.143	16583.45
550.507	16625.03
550.871	16668.19
551.235	16602.2
551.599	16730.56
551.962	16618.7
552.326	16654.63
552.689	16778.25
553.053	16616.89
553.417	16553.17
553.78	16674.97
554.143	16612.83
554.507	16681.52
554.87	16608.08
555.234	16752.48
555.597	16660.73
555.96	16633.16
556.323	16655.76
556.686	16688.76
557.05	16674.75
557.413	16631.36
557.776	16677.68
558.139	16728.3
558.502	16769.43
558.865	16672.03
559.228	16834.97
559.59	16806.49
559.953	16856.21
560.316	16909.32
560.679	16850.33
561.041	16849.2
561.404	17089.42
561.767	16970.1
562.129	17000.61
562.492	17076.99
562.854	16961.74
563.217	16928.75
563.579	17036.32
563.941	17182.53
564.304	17148.86
564.666	17232.47
565.028	17226.6
565.39	17265.01
565.753	17291.9
566.115	17267.5
566.477	17312.24
566.839	17370.09
567.201	17501.39
567.563	17400.6
567.925	17550.88
568.287	17476.76
568.648	17470.66
569.01	17605.12
569.372	17653.02
569.734	17662.74
570.095	17673.14
570.457	17789.07
570.819	17800.37
571.18	17717.43
571.542	17821.38
571.903	17868.61
572.265	17876.07
572.626	17950.19
572.987	17860.48
573.349	17941.6
573.71	17943.64
574.071	18029.51
574.432	17971.21
574.794	18167.14
575.155	18074.26
575.516	17969.85
575.877	17999.91
576.238	18165.55
576.599	18158.55
576.96	18101.15
577.32	18153.58
577.681	18164.42
578.042	18172.33
578.403	18157.64
578.763	18171.88
579.124	18114.71
579.485	18303.4
579.845	18377.3
580.206	18237.64
580.566	18279.22
580.927	18251.2
581.287	18282.39
581.648	18180.92
582.008	18213.69
582.368	18266.34
582.728	18289.84
583.089	18303.18
583.449	18204.2
583.809	18196.97
584.169	18206.46
584.529	18164.65
584.889	18336.17
585.249	18179.11
585.609	18172.11
585.969	18294.82
586.329	18154.93
586.688	18206.23
587.048	18177.76
587.408	18157.87
587.768	18229.73
588.127	18095.27
588.487	18129.85
588.846	18196.97
589.206	18191.99
589.565	18147.02
589.925	18206
590.284	18104.99
590.643	18205.55
591.003	18214.14
591.362	18143.41
591.721	18110.87
592.08	18145.89
592.44	18195.38
592.799	18165.78
593.158	18104.54
593.517	18160.58
593.876	18112.22
594.235	18072
594.593	18051.66
594.952	18073.58
595.311	17995.61
595.67	18112.45
596.029	18191.77
596.387	18140.47
596.746	18244.2
597.104	18081.26
597.463	18160.36
597.822	18125.1
598.18	18024.09
598.538	18009.63
598.897	18219.56
599.255	17995.84
599.613	18278.54
599.972	18113.8
600.33	18129.17
600.688	18058.89
601.046	18078.78
601.404	18216.4
601.762	18058.44
602.12	18189.28
602.478	18196.06
602.836	18102.28
603.194	18134.59
603.552	18168.27
603.91	18085.1
604.268	18207.13
604.625	18094.14
604.983	18125.78
605.341	18042.39
605.698	18255.49
606.056	18138.89
606.413	18130.3
606.771	18132.33
607.128	18207.13
607.485	18131.43
607.843	18160.81
608.2	18263.4
608.557	18374.14
608.914	18189.06
609.272	18313.12
609.629	18346.57
609.986	18336.85
610.343	18298.66
610.7	18434.7
611.057	18456.85
611.414	18366.23
611.771	18442.38
612.127	18477.41
612.484	18480.35
612.841	18566.22
613.198	18521.7
613.554	18477.64
613.911	18548.59
614.267	18534.81
614.624	18492.32
614.98	18562.15
615.337	18589.95
615.693	18638.54
616.05	18561.48
616.406	18665.65
616.762	18641.93
617.118	18671.98
617.475	18595.6
617.831	18721.25
618.187	18702.71
618.543	18745.2
618.899	18799.66
619.255	18836.27
619.611	18777.74
619.967	18855.7
620.323	18884.18
620.678	18839.66
621.034	18765.09
621.39	18734.8
621.746	18713.56
622.101	19018.64
622.457	18806.89
622.812	18800.79
623.168	18839.66
623.523	18867.91
623.879	18883.73
624.234	18711.53
624.589	18840.34
624.945	18831.3
625.3	18909.26
625.655	18885.53
626.01	18869.94
626.365	18959.88
626.72	18848.47
627.075	18900.45
627.43	18820.23
627.785	18781.81
628.14	18871.3
628.495	18835.59
628.85	18871.52
629.205	18695.71
629.559	18955.36
629.914	18836.95
630.269	18794.24
630.623	18764.18
630.978	18844.63
631.332	18805.31
631.687	18926.21
632.041	18725.54
632.396	18781.81
632.75	18681.02
633.104	18668.59
633.459	18620
633.813	18625.2
634.167	18681.02
634.521	18638.08
634.875	18652.32
635.229	18586.11
635.583	18580.46
635.937	18549.72
636.291	18439.22
636.645	18552.44
636.999	18461.14
637.352	18515.15
637.706	18397.86
638.06	18491.65
638.413	18349.73
638.767	18440.57
639.121	18446.22
639.474	18333.68
639.828	18275.38
640.181	18231.31
640.534	18326.91
640.888	18241.26
641.241	18292.78
641.594	18227.92
641.947	18382.5
642.301	18303.63
642.654	18208.26
643.007	18306.79
643.36	18222.95
643.713	18136.4
644.066	18241.26
644.419	18144.54
644.771	18049.62
645.124	17851.66
645.477	17865.22
645.83	17683.76
646.182	17661.39
646.535	17567.15
646.888	17641.73
647.24	17498.9
647.593	17700.93
647.945	17534.61
648.298	17537.55
648.65	17469.07
649.002	17525.8
649.355	17520.37
649.707	17553.59
650.059	17524.44
650.411	17780.03
650.763	17809.4
651.115	18055.73
651.467	17992.68
651.819	17951.1
652.171	17955.39
652.523	17914.03
652.875	17896.41
653.227	17899.57
653.578	17893.47
653.93	17953.36
654.282	17813.92
654.633	17804.21
654.985	17839.69
655.337	17923.98
655.688	17857.09
656.039	17980.25
656.391	17930.31
656.742	17917.42
657.094	17784.32
657.445	17940.7
657.796	17822.29
658.147	17888.5
658.498	17938.44
658.849	17928.72
659.2	17890.76
659.551	17903.87
659.902	17980.93
660.253	17870.19
660.604	17984.99
660.955	17910.64
661.306	17916.07
661.656	17947.03
662.007	17910.19
662.358	17902.51
662.708	17942.28
663.059	18015.5
663.409	17877.43
663.76	18045.1
664.11	17986.35
664.461	17991.09
664.811	17951.32
665.161	17950.64
665.511	17949.97
665.862	17970.76
666.212	18081.26
666.562	18035.39
666.912	17928.05
667.262	17917.88
667.612	17954.94
667.962	17939.57
668.312	17936.41
668.662	18015.5
669.011	17907.03
669.361	17905.9
669.711	17917.2
670.06	17910.87
670.41	17849.63
670.76	17812.34
671.109	17919.68
671.459	17914.26
671.808	17881.72
672.157	17878.56
672.507	17761.95
672.856	17833.13
673.205	17814.6
673.554	17947.03
673.904	17807.82
674.253	17927.14
674.602	17739.8
674.951	17564.89
675.3	17456.65
675.649	17781.38
675.998	17750.88
676.346	17774.83
676.695	17867.48
677.044	17590.2
677.393	17749.75
677.741	17676.98
678.09	17733.47
678.438	17656.41
678.787	17662.06
679.135	17712.01
679.484	17581.61
679.832	17552.91
680.181	17501.84
680.529	17517.89
680.877	17561.73
681.225	17531.9
681.573	17539.81
681.922	17323.32
682.27	17418.91
682.618	17380.49
682.966	17250.1
683.314	17273.6
683.661	17290.1
684.009	17133.04
684.357	17108.86
684.705	17041.97
685.053	17126.94
685.4	17044.68
685.748	16991.57
686.095	16938.47
686.443	16875.42
686.79	16931.24
687.138	16908.19
687.485	16919.48
687.832	16766.49
688.18	16804.46
688.527	16809.2
688.874	16664.58
689.221	16698.93
689.568	16677.68
689.915	16607.4
690.262	16576.89
690.609	16420.74
690.956	16401.98
691.303	16418.03
691.65	16320.86
691.997	16316.56
692.344	16205.15
692.69	16184.14
693.037	16242.21
693.383	16029.11
693.73	16058.72
694.077	16005.16
694.423	15970.81
694.769	15853.98
695.116	15836.58
695.462	15832.06
695.808	15847.42
696.155	15721.55
696.501	15626.86
696.847	15666.18
697.193	15500.54
697.539	15528.33
697.885	15447.66
698.231	15329.92
698.577	15391.39
698.923	15253.99
699.269	15230.72
699.614	15167.44
699.96	15089.7
700.306	15083.6
700.651	15074.56
700.997	15031.17
701.342	14941.23
701.688	14935.81
702.033	14816.71
702.379	14801.8
702.724	14706.44
703.069	14774.68
703.415	14614.46
703.76	14583.73
704.105	14547.34
704.45	14440.23
704.795	14426.22
705.14	14376.05
705.485	14421.47
705.83	14420.12
706.175	14321.36
706.52	14267.8
706.865	14186
707.209	14222.61
707.554	14095.15
707.899	14183.29
708.243	14060.35
708.588	14073.91
708.932	13920.92
709.277	13954.82
709.621	13889.96
709.966	13853.8
710.31	13896.29
710.654	13748.72
710.998	13808.15
711.342	13799.57
711.687	13807.93
712.031	13659.46
712.375	13571.32
712.719	13598.22
713.063	13585.79
713.407	13610.19
713.75	13601.38
714.094	13524.09
714.438	13436.86
714.782	13381.5
715.125	13364.55
715.469	13397.09
715.812	13294.04
716.156	13266.93
716.499	13294.27
716.843	13313.25
717.186	13219.02
717.53	13259.02
717.873	13267.15
718.216	13134.27
718.559	13111.45
718.902	13052.69
719.246	13111.45
719.589	13095.63
719.932	13012.47
720.275	12985.35
720.617	12941.51
720.96	12907.61
721.303	12933.37
721.646	12947.16
721.989	12803.89
722.331	12884.79
722.674	12805.47
723.016	12888.63
723.359	12834.17
723.701	12883.66
724.044	12760.05
724.386	12726.6
724.729	12763.44
725.071	12812.25
725.413	12814.06
725.755	12782.19
726.097	12687.28
726.439	12654.74
726.782	12710.78
727.124	12717.79
727.465	12648.18
727.807	12657.22
728.149	12643.66
728.491	12645.92
728.833	12697
729.175	12685.02
729.516	12620.84
729.858	12623.55
730.199	12576.55
730.541	12572.03
730.882	12590.33
731.224	12601.63
731.565	12482.99
731.906	12539.26
732.248	12596.66
732.589	12558.92
732.93	12502.43
733.271	12526.38
733.612	12579.26
733.953	12614.96
734.294	12579.03
734.635	12545.81
734.976	12549.43
735.317	12494.29
735.658	12572.25
735.999	12569.99
736.339	12534.29
736.68	12650.22
737.021	12569.32
737.361	12542.2
737.702	12625.13
738.042	12521.18
738.383	12543.55
738.723	12638.02
739.063	12556.89
739.404	12604.34
739.744	12565.47
740.084	12526.61
740.424	12596.43
740.764	12530
741.104	12618.35
741.444	12579.49
741.784	12560.28
742.124	12638.69
742.464	12655.87
742.804	12643.44
743.143	12642.99
743.483	12644.79
743.823	12663.33
744.162	12693.15
744.502	12732.93
744.841	12760.05
745.181	12893.38
745.52	12771.8
745.86	12900.38
746.199	12915.52
746.538	12941.06
746.877	13016.76
747.216	13035.29
747.556	13109.19
747.895	13096.31
748.234	13093.14
748.573	13180.15
748.911	13196.19
749.25	13414.27
749.589	13273.25
749.928	13421.5
750.267	13527.71
750.605	13533.36
750.944	13517.99
751.283	13643.41
751.621	13741.04
751.96	13746.91
752.298	13804.76
752.636	13953.01
752.975	13946.68
753.313	14049.96
753.651	14235.49
753.989	14253.79
754.327	14341.02
754.666	14457.4
755.004	14600.22
755.342	14651.75
755.679	14776.94
756.017	14849.26
756.355	15006.09
756.693	15043.38
