Data from hue_34_FLMS001491_00046.txt Node
Date: Tue Feb 07 17:25:40 GMT 2017
User: dcchb
Spectrometer: FLMS00149
Trigger mode: 0
Integration Time (sec): 2.000000E-2
Scans to average: 10
Electric dark correction enabled: true
Nonlinearity correction enabled: false
Boxcar width: 0
XAxis mode: Wavelengths
Number of Pixels in Spectrum: 2048
>>>>>Begin Spectral Data<<<<<
341.393	9.99
341.776	9.99
342.16	9.99
342.543	-75.89
342.927	-51.48
343.31	-58.94
343.693	-63.01
344.077	-69.79
344.46	-70.24
344.843	-56.45
345.226	-34.53
345.61	-40.63
345.993	-20.97
346.376	-1.99
346.759	12.7
347.142	28.29
347.525	44.79
347.908	61.74
348.291	81.4
348.674	79.36
349.057	108.29
349.44	126.82
349.823	142.41
350.206	163.65
350.588	200.26
350.971	215.4
351.354	225.8
351.737	236.19
352.119	262.63
352.502	256.31
352.884	285.46
353.267	278.45
353.65	306.25
354.032	304.22
354.414	301.5
354.797	302.18
355.179	316.64
355.562	326.59
355.944	343.08
356.326	331.79
356.709	361.16
357.091	341.73
357.473	343.76
357.855	329.98
358.238	370.2
358.62	341.73
359.002	376.08
359.384	341.73
359.766	341.28
360.148	358.9
360.53	340.37
360.912	345.8
361.294	317.1
361.676	336.98
362.057	322.29
362.439	343.54
362.821	341.5
363.203	325.68
363.584	330.88
363.966	325.01
364.348	316.42
364.729	319.13
365.111	337.66
365.493	299.02
365.874	315.06
366.256	326.59
366.637	331.11
367.019	320.94
367.4	347.83
367.781	307.6
368.163	322.07
368.544	314.38
368.925	316.19
369.306	314.84
369.688	325.46
370.069	316.42
370.45	316.19
370.831	297.89
371.212	343.76
371.593	316.42
371.974	308.51
372.355	324.1
372.736	310.09
373.117	327.04
373.498	318.9
373.879	330.43
374.26	306.25
374.641	310.99
375.021	302.63
375.402	332.91
375.783	322.07
376.163	311.22
376.544	332.24
376.925	322.97
377.305	307.6
377.686	304.89
378.066	329.53
378.447	343.54
378.827	331.56
379.208	335.63
379.588	320.03
379.968	327.72
380.349	345.8
380.729	344.89
381.109	366.81
381.489	343.76
381.87	347.6
382.25	346.02
382.63	341.95
383.01	330.43
383.39	350.77
383.77	336.98
384.15	346.7
384.53	359.13
384.91	369.3
385.29	359.13
385.67	383.54
386.049	368.85
386.429	348.51
386.809	356.19
387.189	364.55
387.568	357.1
387.948	351.45
388.328	350.77
388.707	362.97
389.087	373.14
389.466	358.9
389.846	377.89
390.225	371.33
390.605	372.24
390.984	387.15
391.363	393.03
391.743	362.52
392.122	339.69
392.501	369.52
392.881	400.94
393.26	388.73
393.639	381.5
394.018	372.69
394.397	370.43
394.776	403.2
395.155	391.9
395.534	368.39
395.913	408.85
396.292	386.02
396.671	394.16
397.05	393.48
397.429	399.81
397.808	417.43
398.186	402.52
398.565	404.78
398.944	391.9
399.323	408.17
399.701	407.49
400.08	415.85
400.458	422.86
400.837	419.24
401.215	401.16
401.594	407.72
401.972	402.29
402.351	399.58
402.729	419.01
403.107	407.94
403.486	440.26
403.864	408.17
404.242	435.29
404.62	415.62
404.999	434.16
405.377	425.57
405.755	419.01
406.133	441.61
406.511	426.92
406.889	429.64
407.267	439.8
407.645	435.29
408.023	456.75
408.401	448.17
408.779	453.36
409.156	459.47
409.534	458.34
409.912	467.83
410.29	463.31
410.667	464.66
411.045	464.89
411.422	462.4
411.8	487.04
412.178	468.5
412.555	485.91
412.933	481.39
413.31	499.01
413.687	490.88
414.065	494.94
414.442	492.68
414.819	499.24
415.197	484.1
415.574	506.02
415.951	504.89
416.328	514.15
416.705	507.6
417.082	517.32
417.46	513.25
417.837	517.54
418.214	527.71
418.591	522.51
418.967	539.92
419.344	534.27
419.721	557.54
420.098	538.33
420.475	539.46
420.852	554.83
421.228	562.74
421.605	560.48
421.982	546.24
422.358	551.21
422.735	560.71
423.111	556.41
423.488	558.45
423.864	569.52
424.241	600.7
424.617	583.98
424.994	571.78
425.37	599.8
425.746	589.63
426.123	581.5
426.499	575.17
426.875	581.72
427.251	615.17
427.627	607.03
428.003	607.94
428.379	612.91
428.756	607.03
429.132	621.27
429.507	640.7
429.883	628.73
430.259	635.73
430.635	626.47
431.011	660.36
431.387	663.98
431.763	659.69
432.138	654.04
432.514	656.97
432.89	656.75
433.265	677.31
433.641	683.64
434.016	683.41
434.392	683.87
434.767	693.36
435.143	706.92
435.518	726.8
435.894	706.01
436.269	718.44
436.644	757.76
437.02	750.53
437.395	731.32
437.77	748.05
438.145	755.95
438.52	760.47
438.895	762.51
439.271	739.23
439.646	770.64
440.021	783.3
440.395	767.71
440.77	795.05
441.145	797.31
441.52	810.87
441.895	812.45
442.27	793.92
442.645	795.95
443.019	839.79
443.394	812.9
443.769	821.04
444.143	815.61
444.518	828.04
444.892	860.13
445.267	848.38
445.641	852
446.016	836.18
446.39	846.8
446.764	861.04
447.139	830.98
447.513	866.23
447.887	855.61
448.262	862.17
448.636	892
449.01	873.92
449.384	883.41
449.758	893.58
450.132	921.15
450.506	886.8
450.88	933.58
451.254	895.84
451.628	894.26
452.002	953.69
452.376	980.81
452.75	944.65
453.123	948.72
453.497	957.31
453.871	983.75
454.244	969.28
454.618	988.94
454.992	1019.45
455.365	1008.38
455.739	1000.02
456.112	1032.56
456.486	1047.02
456.859	1074.14
457.232	1051.31
457.606	1057.42
457.979	1075.72
458.352	1079.34
458.725	1106
459.099	1122.72
459.472	1129.73
459.845	1130.86
460.218	1146.68
460.591	1166.34
460.964	1181.48
461.337	1204.76
461.71	1227.35
462.083	1223.06
462.456	1263.29
462.829	1242.72
463.201	1250.4
463.574	1266.9
463.947	1254.7
464.32	1297.86
464.692	1332.44
465.065	1334.92
465.438	1331.98
465.81	1361.59
466.183	1377.63
466.555	1396.84
466.928	1396.62
467.3	1409.5
467.672	1429.61
468.045	1461.02
468.417	1443.85
468.789	1499.89
469.161	1534.24
469.534	1562.49
469.906	1545.09
470.278	1601.13
470.65	1612.66
471.022	1607.46
471.394	1652.43
471.766	1686.55
472.138	1703.05
472.51	1734.01
472.882	1800.9
473.253	1808.36
473.625	1829.6
473.997	1881.12
474.369	1917.73
474.74	1915.02
475.112	1995.92
475.484	2012.19
475.855	2057.39
476.227	2083.6
476.598	2127.22
476.97	2206.09
477.341	2219.87
477.713	2256.71
478.084	2303.48
478.455	2396.59
478.827	2399.3
479.198	2479.3
479.569	2519.3
479.94	2581.67
480.311	2623.25
480.682	2724.94
481.053	2768.11
481.424	2823.24
481.795	2896.69
482.166	2959.96
482.537	3009.45
482.908	3115.21
483.279	3154.99
483.65	3262.1
484.021	3312.27
484.391	3425.26
484.762	3466.62
485.133	3548.2
485.503	3605.82
485.874	3743.22
486.244	3744.12
486.615	3887.17
486.985	3958.36
487.356	4018.24
487.726	4098.92
488.097	4215.07
488.467	4234.51
488.837	4378.46
489.207	4470.89
489.578	4542.75
489.948	4622.52
490.318	4732.12
490.688	4782.97
491.058	4934.6
491.428	5057.54
491.798	5083.07
492.168	5280.13
492.538	5296.4
492.908	5418.2
493.278	5451.42
493.648	5551.08
494.017	5620.91
494.387	5715.6
494.757	5758.08
495.126	5861.36
495.496	5932.99
495.866	6019.77
496.235	6096.38
496.605	6201.46
496.974	6248.92
497.344	6383.83
497.713	6424.96
498.082	6482.81
498.452	6628.79
498.821	6666.99
499.19	6712.63
499.559	6828.56
499.928	6923.02
500.298	6923.7
500.667	7053.42
501.036	6996.02
501.405	7131.83
501.774	7199.4
502.143	7276.24
502.512	7321.43
502.88	7397.59
503.249	7419.73
503.618	7518.26
503.987	7594.19
504.356	7710.35
504.724	7689.56
505.093	7751.48
505.462	7857.24
505.83	7966.84
506.199	7979.04
506.567	8103.56
506.936	8037.8
507.304	8167.96
507.672	8205.7
508.041	8193.73
508.409	8315.53
508.777	8494.28
509.145	8483.44
509.514	8508.75
509.882	8541.51
510.25	8601.62
510.618	8700.83
510.986	8698.12
511.354	8807.49
511.722	8896.08
512.09	8931.11
512.458	8927.04
512.826	9051.78
513.193	9096.98
513.561	9147.6
513.929	9177.2
514.297	9279.8
514.664	9288.16
515.032	9364.09
515.4	9428.72
515.767	9482.96
516.135	9470.3
516.502	9415.84
516.869	9637.3
517.237	9623.07
517.604	9622.84
517.972	9830.29
518.339	9865.55
518.706	9886.11
519.073	9936.96
519.44	9973.11
519.808	9995.03
520.175	10012.43
520.542	10100.12
520.909	10171.53
521.276	10244.97
521.643	10297.85
522.009	10317.51
522.376	10381.24
522.743	10455.59
523.11	10556.6
523.477	10617.16
523.843	10747.1
524.21	10865.07
524.577	10932.64
524.943	10909.13
525.31	10996.59
525.676	11083.82
526.043	11123.59
526.409	11178.51
526.776	11228.67
527.142	11335.56
527.508	11343.7
527.874	11426.41
528.241	11463.02
528.607	11562.45
528.973	11639.51
529.339	11671.6
529.705	11750.24
530.071	11839.96
530.437	11878.6
530.803	11923.57
531.169	11952.5
531.535	12068.2
531.901	12027.97
532.267	12119.95
532.632	12178.03
532.998	12227.52
533.364	12300.51
533.73	12443.11
534.095	12467.96
534.461	12519.49
534.826	12629.31
535.192	12664.79
535.557	12714.28
535.923	12669.09
536.288	12821.17
536.653	12796.77
537.019	12836.32
537.384	12811.91
537.749	12997.67
538.114	13004.45
538.479	13053.48
538.845	13031.56
539.21	13090.55
539.575	13166.7
539.94	13237.89
540.305	13252.58
540.67	13279.47
541.034	13419.35
541.399	13415.28
541.764	13511.1
542.129	13473.81
542.494	13592.91
542.858	13646.01
543.223	13618.67
543.587	13755.84
543.952	13739.12
544.316	13779.34
544.681	13866.8
545.045	13958.77
545.41	14027.24
545.774	13979.34
546.138	14014.36
546.503	14089.16
546.867	14126
547.231	14199.89
547.595	14273.11
547.959	14358.99
548.324	14372.09
548.688	14498.64
549.052	14495.93
549.416	14521.47
549.779	14535.25
550.143	14602.14
550.507	14699.09
550.871	14626.1
551.235	14714.23
551.599	14869.26
551.962	14884.4
552.326	14839.88
552.689	14947.45
553.053	14954
553.417	14987.67
553.78	15188.57
554.143	15123.49
554.507	15197.61
554.87	15290.94
555.234	15402.12
555.597	15290.26
555.96	15386.3
556.323	15452.97
556.686	15503.59
557.05	15582.68
557.413	15591.5
557.776	15602.57
558.139	15838.04
558.502	15807.31
558.865	15713.3
559.228	15956.01
559.59	15933.63
559.953	15919.17
560.316	16135.44
560.679	16146.28
561.041	16220.86
561.404	16220.41
561.767	16336.79
562.129	16292.27
562.492	16406.84
562.854	16479.16
563.217	16496.33
563.579	16577.46
563.941	16706.72
564.304	16783.33
564.666	16849.54
565.028	16861.52
565.39	16908.52
565.753	17014.06
566.115	16985.58
566.477	17123.21
566.839	17141.96
567.201	17220.61
567.563	17170.66
567.925	17420.15
568.287	17377.89
568.648	17502.41
569.01	17633.93
569.372	17720.48
569.734	17645.23
570.095	17903.07
570.457	17865.79
570.819	17821.27
571.18	17961.15
571.542	18024.88
571.903	18083.18
572.265	18209.51
572.626	18229.39
572.987	18221.03
573.349	18385.77
573.71	18462.16
574.071	18598.88
574.432	18687.69
574.794	18823.28
575.155	18858.53
575.516	18885.2
575.877	19064.85
576.238	19055.13
576.599	19240.89
576.96	19350.72
577.32	19438.85
577.681	19534.67
578.042	19663.71
578.403	19710.71
578.763	19865.28
579.124	20017.6
579.485	20264.14
579.845	20377.36
580.206	20555.89
580.566	20563.57
580.927	20702.55
581.287	20914.52
581.648	20968.76
582.008	21226.83
582.368	21413.94
582.728	21665.69
583.089	21727.83
583.449	21867.72
583.809	22114.72
584.169	22236.07
584.529	22408.27
584.889	22733.91
585.249	22884.19
585.609	23006.67
585.969	23321.01
586.329	23505.86
586.688	23719.64
587.048	23936.81
587.408	24182.91
587.768	24347.65
588.127	24574.09
588.487	24757.36
588.846	25087.29
589.206	25154.18
589.565	25488.19
589.925	25882.53
590.284	26067.38
590.643	26254.95
591.003	26499.68
591.362	26724.54
591.721	26934.93
592.08	27113.91
592.44	27533.56
592.799	27724.74
593.158	27788.92
593.517	28123.82
593.876	28536.47
594.235	28605.84
594.593	28933.52
594.952	29154.98
595.311	29312.49
595.67	29702.76
596.029	30064.56
596.387	30332.58
596.746	30489.64
597.104	30696.64
597.463	30852.79
597.822	31267.47
598.18	31241.71
598.538	31485.77
598.897	31916.04
599.255	31782.94
599.613	32537.49
599.972	32535.01
600.33	32855.9
600.688	32786.07
601.046	33167.53
601.404	33572.72
601.762	33624.24
602.12	33912.82
602.478	34167.28
602.836	34341.74
603.194	34331.34
603.552	34704.89
603.91	34713.25
604.268	34955.73
604.625	35154.15
604.983	35263.3
605.341	35386.46
605.698	35792.32
606.056	36054.01
606.413	36003.62
606.771	36335.13
607.128	36461.91
607.485	36494.68
607.843	36781.45
608.2	37040.2
608.557	37237.71
608.914	37210.36
609.272	37487.19
609.629	37728.77
609.986	38002.43
610.343	37826.39
610.7	38254.4
611.057	38410.11
611.414	38469.09
611.771	38552.93
612.127	38949.98
612.484	38900.04
612.841	39174.38
613.198	39063.2
613.554	39248.5
613.911	39591.77
614.267	39663.63
614.624	39792.67
614.98	39984.08
615.337	40185.2
615.693	40153.11
616.05	40115.6
616.406	40537.51
616.762	40441.24
617.118	40638.75
617.475	40550.84
617.831	40916.48
618.187	40803.94
618.543	40984.05
618.899	41382.23
619.255	41274.66
619.611	41155.57
619.967	41411.38
620.323	41697.03
620.678	41680.53
621.034	41651.38
621.39	41491.15
621.746	41620.19
622.101	42123.23
622.457	41889.79
622.812	42107.64
623.168	42202.1
623.523	42117.8
623.879	42280.29
624.234	42198.25
624.589	42217.69
624.945	42397.12
625.3	42502.88
625.655	42466.27
626.01	42624.91
626.365	42554.4
626.72	42706.72
627.075	42611.35
627.43	42530.45
627.785	42606.38
628.14	42694.96
628.495	42822.87
628.85	42702.42
629.205	42616.77
629.559	42893.38
629.914	42717.79
630.269	42875.98
630.623	42829.2
630.978	42728.41
631.332	42919.14
631.687	43011.11
632.041	42813.38
632.396	42929.31
632.75	42885.69
633.104	42910.78
633.459	42727.73
633.813	42820.39
634.167	42807.73
634.521	42933.83
634.875	42958.69
635.229	42822.65
635.583	42776.09
635.937	42880.04
636.291	42800.05
636.645	42825.58
636.999	42778.35
637.352	42863.32
637.706	42696.09
638.06	42819.26
638.413	42803.21
638.767	42591.46
639.121	42732.48
639.474	42401.19
639.828	42704.23
640.181	42877.56
640.534	42595.08
640.888	42616.32
641.241	42368.87
641.594	42583.33
641.947	42537
642.301	42574.06
642.654	42500.85
643.007	42532.48
643.36	42377.46
643.713	42419.49
644.066	42593.5
644.419	42235.77
644.771	42105.83
645.124	41788.1
645.477	41727.76
645.83	41489.57
646.182	41283.25
646.535	41265.4
646.888	41302.23
647.24	41137.04
647.593	41458.84
647.945	41249.35
648.298	41059.53
648.65	40972.07
649.002	40914.67
649.355	41168.9
649.707	41116.7
650.059	41261.1
650.411	41742.22
650.763	41854.08
651.115	42055.21
651.467	41944.02
651.819	41931.37
652.171	41965.94
652.523	41836
652.875	41961.65
653.227	41610.02
653.578	41982.22
653.93	41888.43
654.282	41783.12
654.633	41603.92
654.985	41746.74
655.337	41827.87
655.688	41682.34
656.039	41873.74
656.391	41470.36
656.742	41722.34
657.094	41754.65
657.445	41875.33
657.796	41536.13
658.147	41630.59
658.498	41604.37
658.849	41840.07
659.2	41602.56
659.551	41402.12
659.902	41649.57
660.253	41486.64
660.604	41525.96
660.955	41458.84
661.306	41488.22
661.656	41435.56
662.007	41500.19
662.358	41319.86
662.708	41522.57
663.059	41341.55
663.409	41280.31
663.76	41406.64
664.11	41359.18
664.461	41352.18
664.811	41576.8
665.161	41422.91
665.511	41351.95
665.862	41286.64
666.212	41437.14
666.562	41411.83
666.912	41317.15
667.262	41217.49
667.612	41261.78
667.962	41216.13
668.312	41315.34
668.662	41467.2
669.011	41306.98
669.361	41358.28
669.711	41142.46
670.06	41264.95
670.41	41132.52
670.76	41004.39
671.109	41337.26
671.459	41203.03
671.808	41200.54
672.157	41334.77
672.507	41079.19
672.856	41048.23
673.205	41006.87
673.554	41282.8
673.904	41204.83
674.253	41401.89
674.602	41152.41
674.951	40526.66
675.3	40325.99
675.649	40921.45
675.998	40859.53
676.346	41003.71
676.695	41146.76
677.044	40706.54
677.393	40918.74
677.741	40942.02
678.09	40757.84
678.438	40754.68
678.787	40723.72
679.135	40744.06
679.484	40457.51
679.832	40597.39
680.181	40421.8
680.529	40567.34
680.877	40466.77
681.225	40361.02
681.573	40599.65
681.922	40251.41
682.27	40249.83
682.618	40305.42
682.966	40144.52
683.314	40211.64
683.661	40003.51
684.009	39898.65
684.357	39784.76
684.705	39893.68
685.053	39771.88
685.4	39824.31
685.748	39653.24
686.095	39561.71
686.443	39517.42
686.79	39545.22
687.138	39432.68
687.485	39476.97
687.832	39247.6
688.18	39373.24
688.527	39249.86
688.874	39107.71
689.221	39070.2
689.568	38901.17
689.915	38928.06
690.262	38899.58
690.609	38862.3
690.956	38792.69
691.303	38632.47
691.65	38551.57
691.997	38571.23
692.344	38260.96
692.69	38244.46
693.037	38238.58
693.383	38030.45
693.73	38100.96
694.077	37870.46
694.423	37934.64
694.769	37801.99
695.116	37741.42
695.462	37735.55
695.808	37625.72
696.155	37613.06
696.501	37289.91
696.847	37284.94
697.193	37016.02
697.539	37135.34
697.885	36855.12
698.231	36840.88
698.577	36671.17
698.923	36670.94
699.269	36516.6
699.614	36512.75
699.96	36370.84
700.306	36390.5
700.651	36261.46
700.997	36138.98
701.342	36066.44
701.688	35948.02
702.033	35918.42
702.379	35931.3
702.724	35725.2
703.069	35897.4
703.415	35418.09
703.76	35477.3
704.105	35381.03
704.45	35396.4
704.795	35164.99
705.14	35070.53
705.485	35089.52
705.83	34859.24
706.175	35006.81
706.52	34907.6
706.865	34767.49
707.209	34692.92
707.554	34516.87
707.899	34673.71
708.243	34482.53
708.588	34346.48
708.932	34135.87
709.277	34174.51
709.621	34084.34
709.966	33896.33
710.31	34093.38
710.654	33695.88
710.998	33809.32
711.342	33736.56
711.687	33654.75
712.031	33649.55
712.375	33510.8
712.719	33490.46
713.063	33431.71
713.407	33544.92
713.75	33388.77
714.094	33355.1
714.438	33160.98
714.782	33275.1
715.125	32991.72
715.469	33217.25
715.812	32985.39
716.156	32804.83
716.499	32790.82
716.843	32782.91
717.186	32597.38
717.53	32732.06
717.873	32676.7
718.216	32629.69
718.559	32415.91
718.902	32363.03
719.246	32404.39
719.589	32277.61
719.932	32057.96
720.275	32136.15
720.617	32184.73
720.96	32051.63
721.303	31988.58
721.646	32066.54
721.989	31961.24
722.331	31877.17
722.674	31753.11
723.016	31817.06
723.359	31731.86
723.701	31814.35
724.044	31601.02
724.386	31385.21
724.729	31671.75
725.071	31513.11
725.413	31374.81
725.755	31417.07
726.097	31427.01
726.439	31123.07
726.782	31167.13
727.124	31257.75
727.465	31156.51
727.807	31040.13
728.149	30963.75
728.491	30873.13
728.833	31016.18
729.175	30843.07
729.516	30745.22
729.858	30738.67
730.199	30745
730.541	30665.22
730.882	30586.36
731.224	30815.05
731.565	30463.65
731.906	30485.79
732.248	30599.46
732.589	30392.92
732.93	30290.09
733.271	30286.7
733.612	30333.71
733.953	30321.28
734.294	30202.41
734.635	30161.96
734.976	30257.1
735.317	30003.55
735.658	30012.81
735.999	30047.39
736.339	29905.02
736.68	29971.46
737.021	29908.63
737.361	29659.6
737.702	29864.34
738.042	29769.43
738.383	29612.6
738.723	29797.9
739.063	29593.61
739.404	29787.73
739.744	29516.33
740.084	29390.46
740.424	29545.71
740.764	29581.41
741.104	29526.27
741.444	29450.34
741.784	29327.63
742.124	29340.97
742.464	29224.36
742.804	29163.8
743.143	29153.4
743.483	29280.4
743.823	29063.91
744.162	29161.31
744.502	29008.77
744.841	28864.59
745.181	28992.05
745.52	28791.38
745.86	28996.57
746.199	28837.02
746.538	28869.57
746.877	28866.18
747.216	28847.42
747.556	28746.86
747.895	28727.42
748.234	28614.21
748.573	28526.3
748.911	28573.98
749.25	28461.21
749.589	28321.78
749.928	28500.31
750.267	28519.52
750.605	28297.38
750.944	28240.88
751.283	28143.71
751.621	28188.23
751.96	28083.6
752.298	28009.02
752.636	28088.34
752.975	27890.16
753.313	27815.58
753.651	27885.64
753.989	27687.22
754.327	27728.13
754.666	27641.58
755.004	27748.47
755.342	27652.87
755.679	27574.68
756.017	27537.17
756.355	27507.12
756.693	27420.34
757.031	27384.18
757.368	27202.26
757.706	27227.58
