Data from hue_110_FLMS001491_00057.txt Node
Date: Tue Feb 07 17:01:32 GMT 2017
User: dcchb
Spectrometer: FLMS00149
Trigger mode: 0
Integration Time (sec): 2.000000E-2
Scans to average: 10
Electric dark correction enabled: true
Nonlinearity correction enabled: false
Boxcar width: 0
XAxis mode: Wavelengths
Number of Pixels in Spectrum: 2048
>>>>>Begin Spectral Data<<<<<
341.393	-21.52
341.776	-21.52
342.16	-21.52
342.543	-70.56
342.927	-61.75
343.31	-72.37
343.693	-67.4
344.077	-58.59
344.46	-48.42
344.843	-60.39
345.226	-43.22
345.61	-32.6
345.993	-26.95
346.376	-5.03
346.759	23.22
347.142	8.98
347.525	51.69
347.908	46.95
348.291	81.98
348.674	86.49
349.057	115.65
349.44	122.43
349.823	142.09
350.206	164.01
350.588	190.45
350.971	216.89
351.354	232.93
351.737	235.42
352.119	232.93
352.502	240.62
352.884	238.81
353.267	267.51
353.65	294.4
354.032	301.63
354.414	302.08
354.797	309.09
355.179	326.26
355.562	333.95
355.944	298.24
356.326	347.05
356.709	339.37
357.091	324.68
357.473	335.98
357.855	320.84
358.238	350.89
358.62	348.18
359.002	339.82
359.384	343.44
359.766	342.08
360.148	331.23
360.53	345.7
360.912	340.05
361.294	335.3
361.676	334.85
362.057	321.52
362.439	332.82
362.821	322.65
363.203	318.58
363.584	335.75
363.966	337.56
364.348	333.27
364.729	317.9
365.111	317.9
365.493	321.74
365.874	305.92
366.256	319.26
366.637	314.74
367.019	291.24
367.4	307.51
367.781	306.83
368.163	297.34
368.544	327.84
368.925	314.29
369.306	310.9
369.688	321.07
370.069	320.61
370.45	302.99
370.831	313.61
371.212	331.01
371.593	302.76
371.974	325.81
372.355	304.34
372.736	295.08
373.117	314.06
373.498	317.22
373.879	310.44
374.26	330.33
374.641	311.12
375.021	314.96
375.402	298.24
375.783	313.38
376.163	334.85
376.544	328.07
376.925	320.61
377.305	338.92
377.686	320.16
378.066	312.03
378.447	334.62
378.827	324
379.208	321.74
379.588	336.43
379.968	319.48
380.349	319.71
380.729	341.4
381.109	328.75
381.489	350.89
381.87	323.55
382.25	331.01
382.63	323.32
383.01	331.69
383.39	346.83
383.77	344.12
384.15	350.44
384.53	350.44
384.91	329.2
385.29	349.09
385.67	331.91
386.049	338.01
386.429	348.63
386.809	361.97
387.189	362.87
387.568	344.34
387.948	346.83
388.328	344.57
388.707	332.59
389.087	369.43
389.466	348.41
389.846	342.76
390.225	380.05
390.605	353.15
390.984	361.74
391.363	361.29
391.743	360.39
392.122	365.36
392.501	353.38
392.881	367.62
393.26	377.56
393.639	378.92
394.018	373.49
394.397	374.62
394.776	373.04
395.155	370.56
395.534	390.22
395.913	364.68
396.292	393.61
396.671	385.02
397.05	385.24
397.429	376.2
397.808	382.31
398.186	385.47
398.565	388.63
398.944	381.85
399.323	387.96
399.701	404
400.08	392.93
400.458	406.03
400.837	371.91
401.215	397
401.594	382.53
401.972	388.63
402.351	393.83
402.729	407.62
403.107	402.87
403.486	407.16
403.864	399.03
404.242	411.68
404.62	418.24
404.999	402.64
405.377	415.3
405.755	408.97
406.133	416.88
406.511	429.31
406.889	413.94
407.267	421.4
407.645	420.27
408.023	422.31
408.401	436.54
408.779	433.15
409.156	439.48
409.534	458.91
409.912	470.67
410.29	451.68
410.667	441.29
411.045	437.9
411.422	448.75
411.8	435.64
412.178	460.72
412.555	458.69
412.933	467.28
413.31	440.84
413.687	481.06
414.065	460.95
414.442	473.6
414.819	472.93
415.197	481.06
415.574	466.15
415.951	459.82
416.328	486.26
416.705	513.38
417.082	500.72
417.46	490.55
417.837	527.84
418.214	499.59
418.591	503.66
418.967	498.24
419.344	515.18
419.721	492.59
420.098	517.9
420.475	507.05
420.852	525.81
421.228	517.67
421.605	526.26
421.982	534.17
422.358	536.65
422.735	535.97
423.111	542.98
423.488	538.23
423.864	534.17
424.241	542.08
424.617	538.23
424.994	568.06
425.37	579.36
425.746	560.83
426.123	574.17
426.499	581.62
426.875	587.72
427.251	575.75
427.627	576.2
428.003	594.28
428.379	591.57
428.756	597.67
429.132	596.99
429.507	606.93
429.883	602.87
430.259	611.9
430.635	607.16
431.011	617.78
431.387	630.89
431.763	623.66
432.138	636.99
432.514	645.12
432.89	642.86
433.265	654.16
433.641	640.83
434.016	660.49
434.392	678.34
434.767	657.78
435.143	685.12
435.518	678.8
435.894	683.09
436.269	707.27
436.644	697.55
437.02	711.34
437.395	693.94
437.77	703.88
438.145	716.76
438.52	736.87
438.895	731.68
439.271	731
439.646	744.1
440.021	742.52
440.395	755.63
440.77	742.07
441.145	754.73
441.52	776.65
441.895	754.27
442.27	763.54
442.645	786.82
443.019	783.65
443.394	784.56
443.769	774.84
444.143	795.63
444.518	796.53
444.892	797.21
445.267	796.76
445.641	820.71
446.016	803.31
446.39	798.79
446.764	827.27
447.139	822.97
447.513	824.33
447.887	830.88
448.262	835.4
448.636	837.44
449.01	851.9
449.384	853.03
449.758	862.75
450.132	872.91
450.506	860.49
450.88	882.18
451.254	861.16
451.628	898.45
452.002	900.71
452.376	911.11
452.75	919.24
453.123	923.76
453.497	921.95
453.871	945.91
454.244	970.31
454.618	972.57
454.992	942.74
455.365	969.41
455.739	989.75
456.112	1015.28
456.486	1015.06
456.859	1015.74
457.232	1049.41
457.606	1041.5
457.979	1050.54
458.352	1070.2
458.725	1064.32
459.099	1089.41
459.472	1095.73
459.845	1126.02
460.218	1130.99
460.591	1152.91
460.964	1123.3
461.337	1163.08
461.71	1193.36
462.083	1174.83
462.456	1188.84
462.829	1181.16
463.201	1217.76
463.574	1242.17
463.947	1261.61
464.32	1290.76
464.692	1304.09
465.065	1315.62
465.438	1302.51
465.81	1337.31
466.183	1349.74
466.555	1396.29
466.928	1380.25
467.3	1410.3
467.672	1444.88
468.045	1452.56
468.417	1493.92
468.789	1487.81
469.161	1516.06
469.534	1527.36
469.906	1581.82
470.278	1576.17
470.65	1623.18
471.022	1668.83
471.394	1710.41
471.766	1706.79
472.138	1764.19
472.51	1770.29
472.882	1821.14
473.253	1893.68
473.625	1919.67
473.997	1947.91
474.369	1951.53
474.74	2031.53
475.112	2076.5
475.484	2147.01
475.855	2165.31
476.227	2212.54
476.598	2274.01
476.97	2311.52
477.341	2408.47
477.713	2442.14
478.084	2473.78
478.455	2552.42
478.827	2590.38
479.198	2699.08
479.569	2740.89
479.94	2859.76
480.311	2939.3
480.682	3009.13
481.053	3073.54
481.424	3160.09
481.795	3200.76
482.166	3317.82
482.537	3393.53
482.908	3510.36
483.279	3588.55
483.65	3675.78
484.021	3771.37
484.391	3911.48
484.762	4024.47
485.133	4095.66
485.503	4161.64
485.874	4322.77
486.244	4426.72
486.615	4576.55
486.985	4620.61
487.356	4801.63
487.726	4895.41
488.097	5029.64
488.467	5105.8
488.837	5253.14
489.207	5406.13
489.578	5533.81
489.948	5700.81
490.318	5779.68
490.688	5848.83
491.058	6010.86
491.428	6142.83
491.798	6311.19
492.168	6477.51
492.538	6520.9
492.908	6664.18
493.278	6828.69
493.648	6934
494.017	7095.12
494.387	7223.71
494.757	7311.62
495.126	7430.93
495.496	7540.99
495.866	7643.13
496.235	7846.74
496.605	7918.61
496.974	7983.46
497.344	8194.76
497.713	8267.52
498.082	8367.18
498.452	8423.68
498.821	8630.45
499.19	8682.43
499.559	8788.41
499.928	8952.25
500.298	9049.2
500.667	9194.28
501.036	9171
501.405	9316.99
501.774	9375.29
502.143	9427.94
502.512	9590.88
502.88	9682.4
503.249	9734.6
503.618	9834.49
503.987	9954.48
504.356	9934.82
504.724	10065.22
505.093	10166.68
505.462	10212.33
505.83	10257.98
506.199	10474.47
506.567	10557.86
506.936	10566.22
507.304	10654.58
507.672	10673.34
508.041	10808.02
508.409	10885.08
508.777	10975.25
509.145	11009.6
509.514	11042.82
509.882	11146.77
510.25	11142.7
510.618	11207.11
510.986	11219.54
511.354	11379.53
511.722	11386.54
512.09	11535.69
512.458	11537.49
512.826	11667.43
513.193	11672.86
513.561	11677.15
513.929	11794.44
514.297	11904.49
514.664	11882.12
515.032	11915.79
515.4	12005.96
515.767	12020.42
516.135	12094.77
516.502	12027.88
516.869	12194.65
517.237	12191.04
517.604	12158.04
517.972	12288.43
518.339	12375.21
518.706	12274.87
519.073	12332.5
519.44	12377.25
519.808	12490.69
520.175	12465.6
520.542	12566.84
520.909	12552.38
521.276	12555.09
521.643	12650.23
522.009	12655.66
522.376	12752.15
522.743	12703.79
523.11	12847.97
523.477	12827.18
523.843	12873.96
524.21	12936.78
524.577	13070.79
524.943	13002.54
525.31	13051.58
525.676	13190.78
526.043	13092.03
526.409	13127.28
526.776	13247.96
527.142	13224.91
527.508	13224.45
527.874	13288.18
528.241	13262.42
528.607	13202.76
528.973	13252.48
529.339	13315.98
529.705	13275.07
530.071	13368.18
530.437	13370.67
530.803	13325.24
531.169	13392.59
531.535	13405.47
531.901	13321.18
532.267	13289.09
532.632	13365.69
532.998	13323.43
533.364	13382.42
533.73	13316.2
534.095	13348.07
534.461	13345.58
534.826	13278.24
535.192	13392.36
535.557	13441.62
535.923	13249.99
536.288	13275.3
536.653	13312.81
537.019	13240.05
537.384	13212.25
537.749	13226.94
538.114	13198.47
538.479	13209.77
538.845	13182.2
539.21	13118.02
539.575	13071.46
539.94	13046.61
540.305	13060.62
540.67	13047.06
541.034	13024.46
541.399	12990.79
541.764	12933.39
542.129	12918.02
542.494	12918.93
542.858	12885.71
543.223	12821.08
543.587	12937.91
543.952	12880.51
544.316	12807.52
544.681	12757.35
545.045	12788.08
545.41	12812.71
545.774	12778.59
546.138	12666.05
546.503	12660.85
546.867	12608.2
547.231	12683.68
547.595	12627.63
547.959	12619.5
548.324	12507.86
548.688	12425.61
549.052	12481.2
549.416	12462.89
549.779	12441.2
550.143	12330.92
550.507	12376.79
550.871	12396.45
551.235	12313.29
551.599	12351.48
551.962	12268.1
552.326	12301.31
552.689	12308.77
553.053	12197.59
553.417	12177.25
553.78	12272.84
554.143	12184.71
554.507	12187.42
554.87	12220.41
555.234	12238.49
555.597	12110.36
555.96	12071.26
556.323	12130.47
556.686	12093.41
557.05	12062.23
557.413	12086.86
557.776	12045.28
558.139	12031.72
558.502	12086.86
558.865	11975.9
559.228	12072.62
559.59	12010.7
559.953	12021.1
560.316	12068.78
560.679	12092.28
561.041	12058.61
561.404	12048.89
561.767	12096.35
562.129	12003.24
562.492	12122.11
562.854	12036.01
563.217	12069.91
563.579	12097.7
563.941	12120.08
564.304	12139.06
564.666	12170.02
565.028	12167.08
565.39	12200.3
565.753	12227.87
566.115	12278.94
566.477	12249.34
566.839	12245.95
567.201	12178.15
567.563	12222
567.925	12261.09
568.287	12269
568.648	12219.28
569.01	12306.29
569.372	12332.5
569.734	12345.61
570.095	12307.87
570.457	12420.63
570.819	12366.17
571.18	12339.05
571.542	12408.88
571.903	12350.58
572.265	12342.44
572.626	12516.45
572.987	12383.57
573.349	12429.45
573.71	12495.66
574.071	12449.33
574.432	12508.09
574.794	12490.69
575.155	12543.12
575.516	12436.68
575.877	12526.62
576.238	12493.85
576.599	12463.57
576.96	12487.07
577.32	12441.65
577.681	12564.13
578.042	12585.83
578.403	12534.98
578.763	12559.61
579.124	12604.58
579.485	12593.28
579.845	12604.36
580.206	12532.95
580.566	12490.24
580.927	12542.66
581.287	12588.99
581.648	12509.22
582.008	12592.15
582.368	12455.44
582.728	12516
583.089	12494.98
583.449	12570.69
583.809	12502.21
584.169	12491.59
584.529	12514.42
584.889	12476
585.249	12471.93
585.609	12460.63
585.969	12508.99
586.329	12521.2
586.688	12385.38
587.048	12384.7
587.408	12423.8
587.768	12440.52
588.127	12424.02
588.487	12363.23
588.846	12469.22
589.206	12345.16
589.565	12377.25
589.925	12310.58
590.284	12347.19
590.643	12376.79
591.003	12386.74
591.362	12362.33
591.721	12289.34
592.08	12371.14
592.44	12352.16
592.799	12349.68
593.158	12326.85
593.517	12358.26
593.876	12452.72
594.235	12260.19
594.593	12267.64
594.952	12314.87
595.311	12271.71
595.67	12280.07
596.029	12361.88
596.387	12281.88
596.746	12348.09
597.104	12278.94
597.463	12261.54
597.822	12379.51
598.18	12273.07
598.538	12237.59
598.897	12326.4
599.255	12224.71
599.613	12358.94
599.972	12310.13
600.33	12273.97
600.688	12169.57
601.046	12263.35
601.404	12330.92
601.762	12314.42
602.12	12341.77
602.478	12240.98
602.836	12313.97
603.194	12248.66
603.552	12234.65
603.91	12217.25
604.268	12290.24
604.625	12146.52
604.983	12286.63
605.341	12203.69
605.698	12234.2
606.056	12309
606.413	12234.42
606.771	12278.04
607.128	12315.33
607.485	12206.63
607.843	12258.38
608.2	12326.63
608.557	12405.72
608.914	12352.16
609.272	12339.28
609.629	12283.91
609.986	12407.75
610.343	12327.53
610.7	12457.24
611.057	12381.76
611.414	12357.36
611.771	12376.34
612.127	12465.38
612.484	12417.92
612.841	12474.64
613.198	12446.62
613.554	12416.11
613.911	12495.43
614.267	12460.86
614.624	12421.54
614.98	12471.71
615.337	12518.48
615.693	12482.78
616.05	12465.83
616.406	12547.86
616.762	12472.84
617.118	12449.11
617.475	12503.57
617.831	12505.15
618.187	12561.65
618.543	12605.71
618.899	12619.72
619.255	12635.77
619.611	12648.42
619.967	12620.85
620.323	12688.65
620.678	12592.61
621.034	12598.93
621.39	12584.25
621.746	12521.87
622.101	12739.95
622.457	12546.73
622.812	12592.15
623.168	12678.48
623.523	12673.51
623.879	12695.43
624.234	12618.14
624.589	12634.41
624.945	12572.95
625.3	12580.63
625.655	12616.11
626.01	12634.41
626.365	12624.92
626.72	12561.87
627.075	12605.49
627.43	12534.76
627.785	12629.22
628.14	12657.01
628.495	12526.62
628.85	12541.08
629.205	12570.69
629.559	12620.18
629.914	12516.9
630.269	12573.85
630.623	12577.24
630.978	12580.63
631.332	12616.11
631.687	12575.88
632.041	12562.78
632.396	12493.63
632.75	12431.48
633.104	12539.05
633.459	12424.93
633.813	12349.22
634.167	12406.62
634.521	12453.63
634.875	12399.39
635.229	12421.76
635.583	12351.03
635.937	12401.2
636.291	12310.35
636.645	12350.58
636.999	12290.92
637.352	12359.62
637.706	12260.86
638.06	12267.42
638.413	12318.49
638.767	12315.78
639.121	12297.47
639.474	12217.7
639.828	12254.99
640.181	12231.26
640.534	12232.84
640.888	12112.17
641.241	12104.71
641.594	12154.88
641.947	12084.82
642.301	12098.61
642.654	12127.76
643.007	12165.05
643.36	12183.35
643.713	12123.24
644.066	12143.8
644.419	12079.85
644.771	12052.28
645.124	11908.56
645.477	11810.25
645.83	11724.61
646.182	11701.1
646.535	11715.79
646.888	11732.97
647.24	11667.66
647.593	11713.08
647.945	11722.57
648.298	11644.38
648.65	11633.76
649.002	11585.85
649.355	11680.99
649.707	11629.92
650.059	11750.59
650.411	11888.22
650.763	11862.68
651.115	12040.3
651.467	11960.98
651.819	12020.64
652.171	11940.65
652.523	11925.73
652.875	11925.96
653.227	11904.26
653.578	11963.24
653.93	11989.46
654.282	11884.15
654.633	11843.25
654.985	11955.11
655.337	11942.45
655.688	11889.12
656.039	11941.78
656.391	11859.52
656.742	11934.09
657.094	11869.69
657.445	12060.19
657.796	11939.52
658.147	11970.25
658.498	11959.18
658.849	11960.98
659.2	12016.58
659.551	11865.39
659.902	12026.75
660.253	11981.78
660.604	11973.41
660.955	11855.45
661.306	11993.53
661.656	12039.4
662.007	11944.94
662.358	12043.92
662.708	11920.31
663.059	11996.69
663.409	11903.36
663.76	12018.16
664.11	12009.12
664.461	11976.58
664.811	12003.24
665.161	12002.57
665.511	11990.81
665.862	12040.76
666.212	11996.46
666.562	12035.79
666.912	12004.15
667.262	11958.5
667.612	11991.94
667.962	12066.29
668.312	11988.1
668.662	12070.81
669.011	11981.32
669.361	12042.79
669.711	12002.11
670.06	11991.94
670.41	11961.21
670.76	11906.07
671.109	11985.84
671.459	11890.7
671.808	11850.03
672.157	11955.11
672.507	11869.24
672.856	11852.74
673.205	11899.74
673.554	11930.7
673.904	11863.59
674.253	11926.86
674.602	11921.66
674.951	11630.6
675.3	11686.64
675.649	11779.97
675.998	11825.62
676.346	11869.46
676.695	11909.91
677.044	11800.09
677.393	11869.24
677.741	11810.71
678.09	11850.93
678.438	11709.47
678.787	11737.94
679.135	11759.86
679.484	11710.6
679.832	11690.26
680.181	11641.67
680.529	11702.01
680.877	11685.96
681.225	11629.69
681.573	11639.64
681.922	11533.43
682.27	11541.56
682.618	11573.42
682.966	11492.07
683.314	11516.93
683.661	11509.25
684.009	11440.09
684.357	11418.85
684.705	11497.04
685.053	11392.19
685.4	11426.54
685.748	11363.71
686.095	11272.87
686.443	11316.03
686.79	11226.31
687.138	11241.23
687.485	11302.25
687.832	11210.95
688.18	11223.38
688.527	11102.02
688.874	11119.2
689.221	11139.31
689.568	11040.11
689.915	11068.81
690.262	11077.17
690.609	10929.37
690.956	10951.07
691.303	10950.84
691.65	10892.54
691.997	10850.51
692.344	10787.68
692.69	10796.27
693.037	10808.47
693.383	10662.49
693.73	10732.54
694.077	10572.32
694.423	10595.6
694.769	10515.6
695.116	10532.55
695.462	10505.66
695.808	10436.28
696.155	10504.75
696.501	10390.4
696.847	10392.21
697.193	10371.87
697.539	10283.06
697.885	10198.55
698.231	10186.12
698.577	10217.53
698.923	10198.09
699.269	10128.04
699.614	10031.77
699.96	10021.15
700.306	10041.94
700.651	9943.41
700.997	9923.07
701.342	9878.33
701.688	9875.39
702.033	9846.24
702.379	9816.41
702.724	9754.49
703.069	9814.6
703.415	9684.66
703.76	9626.36
704.105	9665.45
704.45	9635.85
704.795	9618
705.14	9653.47
705.485	9511.56
705.83	9575.96
706.175	9521.73
706.52	9453.93
706.865	9434.72
707.209	9512.24
707.554	9391.79
707.899	9473.14
708.243	9354.73
708.588	9335.97
708.932	9263.65
709.277	9220.94
709.621	9204
709.966	9204.45
710.31	9212.36
710.654	9087.84
710.998	9126.48
711.342	9128.74
711.687	9075.19
712.031	9022.76
712.375	9061.85
712.719	9074.96
713.063	8991.12
713.407	8996.54
713.75	8944.79
714.094	8987.73
714.438	8918.13
714.782	8898.01
715.125	8891.46
715.469	8943.21
715.812	8815.98
716.156	8829.99
716.499	8801.52
716.843	8837
717.186	8825.7
717.53	8826.15
717.873	8828.86
718.216	8794.51
718.559	8800.62
718.902	8719.49
719.246	8737.57
719.589	8683.56
719.932	8698.7
720.275	8649.21
720.617	8637.23
720.96	8658.25
721.303	8681.07
721.646	8684.91
721.989	8595.42
722.331	8606.72
722.674	8574.86
723.016	8652.82
723.359	8641.52
723.701	8609.21
724.044	8539.83
724.386	8481.08
724.729	8578.25
725.071	8567.4
725.413	8597.46
725.755	8563.56
726.097	8508.65
726.439	8524.69
726.782	8487.63
727.124	8507.06
727.465	8514.75
727.807	8410.12
728.149	8426.84
728.491	8474.75
728.833	8422.77
729.175	8448.53
729.516	8438.37
729.858	8475.65
730.199	8381.64
730.541	8382.77
730.882	8400.85
731.224	8497.12
731.565	8361.08
731.906	8434.75
732.248	8407.86
732.589	8372.83
732.93	8357.24
733.271	8408.31
733.612	8473.62
733.953	8437.01
734.294	8405.37
734.635	8398.82
734.976	8386.84
735.317	8385.71
735.658	8410.12
735.999	8429.1
736.339	8402.21
736.68	8393.62
737.021	8392.94
737.361	8418.03
737.702	8460.06
738.042	8428.42
738.383	8457.57
738.723	8497.8
739.063	8395.88
739.404	8519.72
739.744	8496.44
740.084	8474.07
740.424	8511.81
740.764	8457.35
741.104	8517.91
741.444	8518.59
741.784	8518.59
742.124	8483.79
742.464	8578.02
742.804	8610.79
743.143	8549.55
743.483	8571.47
743.823	8618.47
744.162	8590
744.502	8703.67
744.841	8642.2
745.181	8795.87
745.52	8745.02
745.86	8688.53
746.199	8815.53
746.538	8895.75
746.877	8952.48
747.216	8977.56
747.556	9011.46
747.895	9045.58
748.234	9055.98
748.573	9064.34
748.911	9160.15
749.25	9271.56
749.589	9298.23
749.928	9379.13
750.267	9445.8
750.605	9521.5
750.944	9580.26
751.283	9512.69
751.621	9712.68
751.96	9731.21
752.298	9883.53
752.636	9975.73
752.975	10062.05
753.313	10086.46
753.651	10169.17
753.989	10295.27
754.327	10467.69
754.666	10496.39
755.004	10668.36
755.342	10825.2
755.679	10890.5
756.017	10930.5
756.355	11135.47
756.693	11206.2
757.031	11439.64
757.368	11520.09
757.706	11642.12
758.044	11745.4
758.381	11981.32
758.719	12031.49
759.056	12247.53
759.394	12359.62
