Data from hue_24_FLMS001491_00016.txt Node
Date: Tue Feb 07 17:11:51 GMT 2017
User: dcchb
Spectrometer: FLMS00149
Trigger mode: 0
Integration Time (sec): 2.000000E-2
Scans to average: 10
Electric dark correction enabled: true
Nonlinearity correction enabled: false
Boxcar width: 0
XAxis mode: Wavelengths
Number of Pixels in Spectrum: 2048
>>>>>Begin Spectral Data<<<<<
341.393	-15.68
341.776	-15.68
342.16	-15.68
342.543	-52.96
342.927	-72.17
343.31	-73.98
343.693	-72.4
344.077	-62.46
344.46	-59.52
344.843	-47.99
345.226	-50.93
345.61	-39.41
345.993	-5.28
346.376	-9.35
346.759	18.45
347.142	28.62
347.525	45.56
347.908	59.12
348.291	78.33
348.674	86.69
349.057	104.55
349.44	133.7
349.823	148.16
350.206	187.71
350.588	197.2
350.971	217.54
351.354	232.9
351.737	230.42
352.119	255.28
352.502	276.74
352.884	296.86
353.267	278.33
353.65	302.51
354.032	318.32
354.414	301.6
354.797	328.04
355.179	330.75
355.562	331.21
355.944	323.75
356.326	335.73
356.709	334.37
357.091	350.64
357.473	352.67
357.855	352.22
358.238	353.35
358.62	344.31
359.002	350.87
359.384	352.22
359.766	350.64
360.148	352.67
360.53	356.29
360.912	354.26
361.294	342.96
361.676	340.7
362.057	342.51
362.439	317.42
362.821	327.82
363.203	347.25
363.584	343.64
363.966	330.98
364.348	320.13
364.729	322.62
365.111	321.26
365.493	327.36
365.874	311.55
366.256	335.95
366.637	312.68
367.019	298.44
367.4	302.28
367.781	320.58
368.163	333.92
368.544	341.6
368.925	338.89
369.306	324.43
369.688	305.67
370.069	332.79
370.45	329.85
370.831	317.87
371.212	315.16
371.593	326.01
371.974	323.52
372.355	329.4
372.736	319.45
373.117	327.36
373.498	322.84
373.879	325.78
374.26	333.69
374.641	319.68
375.021	325.1
375.402	331.21
375.783	337.31
376.163	344.54
376.544	327.36
376.925	334.82
377.305	319.23
377.686	337.08
378.066	336.4
378.447	320.58
378.827	311.32
379.208	339.79
379.588	340.7
379.968	340.92
380.349	361.26
380.729	336.86
381.109	346.35
381.489	330.98
381.87	332.34
382.25	361.94
382.63	333.92
383.01	348.83
383.39	361.71
383.77	350.87
384.15	353.8
384.53	381.83
384.91	349.06
385.29	356.74
385.67	346.12
386.049	346.8
386.429	361.71
386.809	338.89
387.189	360.58
387.568	384.31
387.948	345.44
388.328	360.81
388.707	385.67
389.087	373.01
389.466	370.98
389.846	375.95
390.225	372.79
390.605	381.15
390.984	374.37
391.363	386.57
391.743	391.54
392.122	402.84
392.501	396.74
392.881	387.48
393.26	388.15
393.639	414.14
394.018	388.61
394.397	385.44
394.776	401.71
395.155	367.36
395.534	396.97
395.913	392.22
396.292	389.28
396.671	395.16
397.05	412.11
397.429	426.57
397.808	430.41
398.186	412.33
398.565	414.59
398.944	410.53
399.323	421.37
399.701	418.21
400.08	426.57
400.458	414.82
400.837	415.5
401.215	428.38
401.594	420.02
401.972	428.6
402.351	430.41
402.729	431.09
403.107	411.43
403.486	423.41
403.864	431.77
404.242	428.83
404.62	439
404.999	458.66
405.377	453.69
405.755	449.39
406.133	450.98
406.511	443.07
406.889	448.49
407.267	479.45
407.645	445.55
408.023	472.22
408.401	465.67
408.779	461.6
409.156	492.56
409.534	467.25
409.912	472.45
410.29	467.25
410.667	486
411.045	485.55
411.422	489.85
411.8	490.52
412.178	495.95
412.555	486
412.933	495.04
413.31	505.89
413.687	511.99
414.065	516.06
414.442	500.69
414.819	520.81
415.197	538.66
415.574	533.69
415.951	532.56
416.328	523.07
416.705	519.9
417.082	500.02
417.46	525.1
417.837	541.14
418.214	563.06
418.591	554.48
418.967	541.6
419.344	561.71
419.721	555.83
420.098	550.41
420.475	565.78
420.852	548.38
421.228	580.69
421.605	556.74
421.982	564.65
422.358	568.71
422.735	588.6
423.111	579.56
423.488	602.39
423.864	577.98
424.241	583.4
424.617	579.11
424.994	619.79
425.37	602.84
425.746	595.38
426.123	608.71
426.499	606.68
426.875	628.6
427.251	634.93
427.627	634.93
428.003	635.83
428.379	651.42
428.756	643.06
429.132	651.42
429.507	654.81
429.883	666.56
430.259	686.9
430.635	685.77
431.011	673.57
431.387	691.87
431.763	699.33
432.138	702.04
432.514	698.88
432.89	701.59
433.265	713.79
433.641	744.3
434.016	744.3
434.392	748.14
434.767	737.75
435.143	744.53
435.518	750.18
435.894	729.61
436.269	755.6
436.644	761.25
437.02	819.78
437.395	786.56
437.77	797.86
438.145	779.56
438.52	795.15
438.895	829.95
439.271	828.59
439.646	840.57
440.021	818.42
440.395	839.22
440.77	823.62
441.145	844.19
441.52	867.69
441.895	859.78
442.27	866.11
442.645	842.83
443.019	894.13
443.394	878.76
443.769	887.8
444.143	893.45
444.518	897.29
444.892	894.58
445.267	886.9
445.641	928.03
446.016	877.63
446.39	896.16
446.764	899.78
447.139	900.68
447.513	914.47
447.887	940.23
448.262	904.98
448.636	906.78
449.01	943.39
449.384	964.86
449.758	962.6
450.132	968.48
450.506	952.88
450.88	974.35
451.254	976.61
451.628	987.91
452.002	1006.67
452.376	999.89
452.75	1018.65
453.123	1014.13
453.497	1038.76
453.871	1033.56
454.244	1056.84
454.618	1052.77
454.992	1065.88
455.365	1087.34
455.739	1058.64
456.112	1099.32
456.486	1110.62
456.859	1111.3
457.232	1132.54
457.606	1144.07
457.979	1163.5
458.352	1161.24
458.725	1202.37
459.099	1202.6
459.472	1218.87
459.845	1213.67
460.218	1244.4
460.591	1243.05
460.964	1252.76
461.337	1285.08
461.71	1291.18
462.083	1314.23
462.456	1285.08
462.829	1317.85
463.201	1312.65
463.574	1358.75
463.947	1368.01
464.32	1391.97
464.692	1402.14
465.065	1449.14
465.438	1458.18
465.81	1424.96
466.183	1470.84
466.555	1483.49
466.928	1509.48
467.3	1528.69
467.672	1512.42
468.045	1565.98
468.417	1553.55
468.789	1570.72
469.161	1605.07
469.534	1615.24
469.906	1660.21
470.278	1685.75
470.65	1710.15
471.022	1715.12
471.394	1755.58
471.766	1761.68
472.138	1786.53
472.51	1836.93
472.882	1879.19
473.253	1876.7
473.625	1895.23
473.997	1945.4
474.369	1965.06
474.74	1971.39
475.112	2054.1
475.484	2071.27
475.855	2111.95
476.227	2116.92
476.598	2165.28
476.97	2195.56
477.341	2247.31
477.713	2309.69
478.084	2292.28
478.455	2382
478.827	2362.79
479.198	2477.36
479.569	2462.45
479.94	2529.57
480.311	2566.63
480.682	2605.5
481.053	2678.26
481.424	2721.43
481.795	2788.54
482.166	2828.54
482.537	2859.73
482.908	2947.41
483.279	3012.04
483.65	2995.99
484.021	3099.04
484.391	3151.92
484.762	3151.47
485.133	3193.05
485.503	3304.91
485.874	3365.93
486.244	3381.97
486.615	3435.76
486.985	3486.6
487.356	3572.02
487.726	3601.18
488.097	3686.6
488.467	3732.92
488.837	3802.08
489.207	3820.38
489.578	3917.78
489.948	3935.63
490.318	4023.99
490.688	4060.83
491.058	4139.69
491.428	4177.88
491.798	4219.69
492.168	4280.25
492.538	4377.88
492.908	4348.28
493.278	4463.53
493.648	4474.15
494.017	4530.19
494.387	4627.59
494.757	4616.07
495.126	4718.89
495.496	4776.96
495.866	4726.12
496.235	4817.19
496.605	4820.13
496.974	4872.78
497.344	4930.86
497.713	4964.76
498.082	5012.44
498.452	5076.17
498.821	5106.9
499.19	5119.1
499.559	5217.18
499.928	5201.36
500.298	5207.01
500.667	5265.09
501.036	5299.89
501.405	5371.3
501.774	5341.7
502.143	5388.93
502.512	5424.86
502.88	5503.5
503.249	5535.36
503.618	5529.94
503.987	5647.9
504.356	5592.76
504.724	5640.22
505.093	5655.13
505.462	5640.67
505.83	5754.34
506.199	5811.74
506.567	5876.14
506.936	5839.54
507.304	5919.76
507.672	5916.6
508.041	5889.03
508.409	5986.88
508.777	6057.61
509.145	6042.69
509.514	6058.29
509.882	6158.17
510.25	6140.77
510.618	6179.41
510.986	6195.01
511.354	6206.76
511.722	6285.17
512.09	6305.96
512.458	6314.33
512.826	6415.57
513.193	6344.61
513.561	6412.85
513.929	6437.49
514.297	6525.62
514.664	6545.73
515.032	6545.51
515.4	6648.33
515.767	6540.08
516.135	6611.94
516.502	6610.59
516.869	6698.95
517.237	6739.17
517.604	6730.13
517.972	6764.71
518.339	6786.18
518.706	6804.26
519.073	6836.12
519.44	6825.05
519.808	6924.03
520.175	6961.31
520.542	7054.65
520.909	7034.53
521.276	7026.4
521.643	7100.29
522.009	7127.64
522.376	7155.21
522.743	7188.43
523.11	7249.44
523.477	7340.51
523.843	7310.68
524.21	7353.39
524.577	7436.33
524.943	7495.09
525.31	7506.38
525.676	7570.11
526.043	7635.19
526.409	7666.15
526.776	7738.92
527.142	7720.84
527.508	7770.56
527.874	7852.36
528.241	7828.41
528.607	7881.29
528.973	7999.48
529.339	7954.51
529.705	8022.76
530.071	8102.3
530.437	8132.58
530.803	8221.62
531.169	8216.87
531.535	8220.26
531.901	8259.81
532.267	8345.91
532.632	8317.44
532.998	8250.55
533.364	8404.89
533.73	8384.33
534.095	8568.73
534.461	8552.68
534.826	8612.34
535.192	8663.42
535.557	8628.39
535.923	8702.06
536.288	8672.68
536.653	8770.31
537.019	8836.52
537.384	8775.28
537.749	8779.35
538.114	8832
538.479	8890.53
538.845	8941.15
539.21	8927.36
539.575	9013.46
539.94	8950.41
540.305	9002.84
540.67	9031.54
541.034	9096.4
541.399	9210.75
541.764	9175.72
542.129	9230.41
542.494	9210.07
542.858	9236.51
543.223	9363.06
543.587	9374.81
543.952	9360.35
544.316	9406
544.681	9432.89
545.045	9467.91
545.41	9599.66
545.774	9555.37
546.138	9641.24
546.503	9632.66
546.867	9634.01
547.231	9732.09
547.595	9773.22
547.959	9788.81
548.324	9797.17
548.688	9812.09
549.052	9830.62
549.416	9847.79
549.779	9889.82
550.143	9945.19
550.507	10081.68
550.871	10033.78
551.235	9971.4
551.599	10163.49
551.962	10120.78
552.326	10134.79
552.689	10252.98
553.053	10193.55
553.417	10200.55
553.78	10312.41
554.143	10312.19
554.507	10380.66
554.87	10360.32
555.234	10545.17
555.597	10369.36
555.96	10460.88
556.323	10509.47
556.686	10476.02
557.05	10629.92
557.413	10634.21
557.776	10643.25
558.139	10737.49
558.502	10765.51
558.865	10746.07
559.228	10817.26
559.59	10867.43
559.953	10884.83
560.316	10962.56
560.679	11022.9
561.041	11021.09
561.404	11055.67
561.767	11103.13
562.129	11074.2
562.492	11142.45
562.854	11211.82
563.217	11160.53
563.579	11231.71
563.941	11340.41
564.304	11384.93
564.666	11463.12
565.028	11358.71
565.39	11499.73
565.753	11529.1
566.115	11575.66
566.477	11659.04
566.839	11684.81
567.201	11773.39
567.563	11755.76
567.925	11803.45
568.287	11821.75
568.648	11867.63
569.01	11976.32
569.372	12045.25
569.734	11956.44
570.095	12055.87
570.457	12092.25
570.819	12133.16
571.18	12197.11
571.542	12265.13
571.903	12216.32
572.265	12380.38
572.626	12377.89
572.987	12404.33
573.349	12479.14
573.71	12590.77
574.071	12610.21
574.432	12666.02
574.794	12818.34
575.155	12731.56
575.516	12797.77
575.877	12882.06
576.238	13032.79
576.599	13102.17
576.96	13197.99
577.32	13211.55
577.681	13353.91
578.042	13423.74
578.403	13606.79
578.763	13626.68
579.124	13734.92
579.485	13837.97
579.845	13947.12
580.206	13987.12
580.566	14182.37
580.927	14339.88
581.287	14372.19
581.648	14478.63
582.008	14737.83
582.368	14805.18
582.728	15034.77
583.089	15163.13
583.449	15305.95
583.809	15496.46
584.169	15644.48
584.529	15864.13
584.889	16074.52
585.249	16296.66
585.609	16310.9
585.969	16618.46
586.329	16804.67
586.688	17034.72
587.048	17209.18
587.408	17452.79
587.768	17655.95
588.127	17946.11
588.487	18142.26
588.846	18578.86
589.206	18727.56
589.565	18909.02
589.925	19267.43
590.284	19429.46
590.643	19727.08
591.003	20095.21
591.362	20349.21
591.721	20573.61
592.08	20807.5
592.44	21264.89
592.799	21535.17
593.158	21721.83
593.517	22140.12
593.876	22423.51
594.235	22673.22
594.593	22897.17
594.952	23359.75
595.311	23555
595.67	23872.06
596.029	24259.39
596.387	24578.03
596.746	24919.49
597.104	25148.63
597.463	25353.15
597.822	25836.75
598.18	26018.21
598.538	26369.39
598.897	26718.99
599.255	26862.03
599.613	27494.33
599.972	27607.32
600.33	28001.44
600.688	28233.07
601.046	28665.83
601.404	28990.11
601.762	29206.6
602.12	29683.65
602.478	29953.93
602.836	30191.44
603.194	30388.72
603.552	30689.73
603.91	30646.57
604.268	31199.32
604.625	31338.07
604.983	31801.79
605.341	31940.77
605.698	32398.84
606.056	32743.01
606.413	32896.9
606.771	33119.5
607.128	33448.08
607.485	33625.7
607.843	33901.62
608.2	34323.98
608.557	34585.9
608.914	34592.9
609.272	35036.96
609.629	35287.12
609.986	35456.16
610.343	35643.05
610.7	36177.5
611.057	36236.25
611.414	36256.59
611.771	36530.93
612.127	36972.73
612.484	37179.28
612.841	37475.54
613.198	37464.92
613.554	37693.39
613.911	37875.76
614.267	38122.08
614.624	38229.19
614.98	38407.04
615.337	38701.5
615.693	38816.75
616.05	38912.34
616.406	39350.52
616.762	39354.59
617.118	39412.89
617.475	39703.5
617.831	39818.98
618.187	40203.15
618.543	40286.31
618.899	40505.97
619.255	40647.21
619.611	40689.01
619.967	41014.66
620.323	41236.57
620.678	41076.8
621.034	41095.33
621.39	41286.74
621.746	41407.41
622.101	41838.82
622.457	41626.17
622.812	41636.56
623.168	41923.78
623.523	42132.14
623.879	42217.56
624.234	42123.55
624.589	42374.39
624.945	42471.79
625.3	42533.49
625.655	42586.59
626.01	42579.81
626.365	42798.11
626.72	42769.41
627.075	42715.85
627.43	42905.45
627.785	42898
628.14	43009.86
628.495	43136.86
628.85	43075.62
629.205	42990.42
629.559	43452.11
629.914	43065.45
630.269	43258.44
630.623	43276.52
630.978	43269.74
631.332	43356.74
631.687	43641.03
632.041	43491.2
632.396	43630.41
632.75	43390.64
633.104	43433.35
633.459	43462.5
633.813	43410.3
634.167	43649.61
634.521	43561.48
634.875	43613.68
635.229	43583.63
635.583	43409.17
635.937	43556.51
636.291	43402.62
636.645	43497.53
636.999	43467.7
637.352	43708.37
637.706	43467.92
638.06	43704.53
638.413	43590.86
638.767	43534.59
639.121	43557.41
639.474	43321.94
639.828	43412.11
640.181	43530.75
640.534	43537.3
640.888	43417.53
641.241	43329.62
641.594	43338.21
641.947	43527.13
642.301	43501.6
642.654	43393.58
643.007	43476.74
643.36	43561.26
643.713	43506.34
644.066	43528.04
644.419	43350.87
644.771	43135.28
645.124	42807.6
645.477	42700.94
645.83	42387.5
646.182	42316.99
646.535	42283.32
646.888	42438.35
647.24	42057.57
647.593	42328.75
647.945	42157.9
648.298	42009.43
648.65	42091.92
649.002	41956.78
649.355	42156.77
649.707	42197
650.059	42207.39
650.411	42726.7
650.763	42789.07
651.115	43321.26
651.467	42977.54
651.819	42941.84
652.171	42924.21
652.523	42722.41
652.875	42883.76
653.227	42799.24
653.578	43038.11
653.93	42990.2
654.282	42895.96
654.633	42820.71
654.985	42810.09
655.337	42894.38
655.688	42868.62
656.039	43098.67
656.391	42763.54
656.742	42683.99
657.094	42701.62
657.445	42869.52
657.796	42879.01
658.147	42690.77
658.498	42620.72
658.849	42850.09
659.2	42755.85
659.551	42621.62
659.902	42697.78
660.253	42657.55
660.604	42784.55
660.955	42537.78
661.306	42719.47
661.656	42677.44
662.007	42660.49
662.358	42644.22
662.708	42554.5
663.059	42657.55
663.409	42517.22
663.76	42596.08
664.11	42702.75
664.461	42682.86
664.811	42697.78
665.161	42550.89
665.511	42435.64
665.862	42602.64
666.212	42690.54
666.562	42673.6
666.912	42619.81
667.262	42478.35
667.612	42523.99
667.962	42548.18
668.312	42522.86
668.662	42702.07
669.011	42630.21
669.361	42539.81
669.711	42461.85
670.06	42483.54
670.41	42433.6
670.76	42389.08
671.109	42480.15
671.459	42418.69
671.808	42251.91
672.157	42364.68
672.507	42255.98
672.856	42218.47
673.205	42321.06
673.554	42412.13
673.904	42185.47
674.253	42386.37
674.602	42344.11
674.951	41843.56
675.3	41547.3
675.649	42159.94
675.998	42032.93
676.346	42024.57
676.695	42208.75
677.044	41807.86
677.393	42097.11
677.741	42187.05
678.09	41980.28
678.438	42057.57
678.787	42070.45
679.135	42001.07
679.484	41782.09
679.832	42043.78
680.181	41771.92
680.529	41823.9
680.877	41663.68
681.225	41638.37
681.573	41899.83
681.922	41505.94
682.27	41553.85
682.618	41500.07
682.966	41345.49
683.314	41494.19
683.661	41344.36
684.009	41177.59
684.357	41082.68
684.705	41089
685.053	40914.77
685.4	41011.27
685.748	40931.95
686.095	40951.83
686.443	40658.73
686.79	40612.18
687.138	40783.25
687.485	40646.08
687.832	40524.05
688.18	40724.49
688.527	40479.3
688.874	40351.17
689.221	40324.28
689.568	40247.44
689.915	40104.62
690.262	40181.68
690.609	40054
690.956	39921.58
691.303	39906.44
691.65	39671.41
691.997	39700.34
692.344	39461.93
692.69	39275.49
693.037	39450.18
693.383	39097.42
693.73	39230.97
694.077	38983.3
694.423	39068.94
694.769	38866.24
695.116	38867.59
695.462	38792.12
695.808	38774.94
696.155	38833.24
696.501	38522.07
696.847	38474.61
697.193	38249.31
697.539	38430.32
697.885	38221.06
698.231	37990.78
698.577	38073.49
698.923	37974.06
699.269	37880.28
699.614	37636.21
699.96	37541.3
700.306	37526.61
700.651	37520.06
700.997	37461.3
701.342	37450.91
701.688	37418.14
702.033	37101.76
702.379	37086.85
702.724	36944.03
703.069	37118.26
703.415	36615.9
703.76	36772.73
704.105	36745.39
704.45	36635.11
704.795	36415.68
705.14	36217.72
705.485	36257.04
705.83	36070.83
706.175	36230.6
706.52	35968.01
706.865	35926.43
707.209	35927.78
707.554	35798.07
707.899	35803.04
708.243	35562.82
708.588	35489.6
708.932	35386.78
709.277	35175.26
709.621	35345.2
709.966	35177.07
710.31	35158.76
710.654	34862.95
710.998	34834.71
711.342	34980.24
711.687	34806.68
712.031	34732.34
712.375	34535.96
712.719	34724.2
713.063	34496.41
713.407	34648.5
713.75	34351.78
714.094	34486.47
714.438	34356.75
714.782	34338.45
715.125	34182.52
715.469	34293.7
715.812	34034.5
716.156	33823.43
716.499	33909.08
716.843	34017.33
717.186	33675.64
717.53	33924
717.873	33843.32
718.216	33764.45
718.559	33677
718.902	33456.21
719.246	33503.89
719.589	33391.81
719.932	33353.61
720.275	33290.11
720.617	33302.54
720.96	33281.3
721.303	33154.3
721.646	33138.48
721.989	33016.67
722.331	32983.68
722.674	32934.42
723.016	32983.23
723.359	33016.67
723.701	32742.78
724.044	32594.31
724.386	32435.67
724.729	32654.88
725.071	32488.55
725.413	32629.57
725.755	32557.48
726.097	32376.69
726.439	32189.13
726.782	32227.99
727.124	32339.86
727.465	32218.73
727.807	32271.61
728.149	32175.57
728.491	31984.16
728.833	32142.57
729.175	31924.95
729.516	31884.05
729.858	31919.75
730.199	31937.38
730.541	31856.25
730.882	31857.16
731.224	31793.43
731.565	31651.29
731.906	31644.51
732.248	31608.8
732.589	31488.35
732.93	31237.96
733.271	31429.82
733.612	31359.32
733.953	31515.24
734.294	31244.74
734.635	31193.45
734.976	31299.66
735.317	31133.33
735.658	31123.39
735.999	31124.07
736.339	31009.95
736.68	31065.54
737.021	30950.29
737.361	30842.49
737.702	30994.58
738.042	30857.63
738.383	30685.89
738.723	30835.04
739.063	30716.17
739.404	30802.95
739.744	30665.55
740.084	30557.98
740.424	30587.81
740.764	30551.88
741.104	30620.35
741.444	30347.37
741.784	30442.28
742.124	30366.12
742.464	30475.95
742.804	30166.58
743.143	30224.21
743.483	30200.03
743.823	30002.29
744.162	30073.25
744.502	30096.07
744.841	29977.21
745.181	30115.73
745.52	29986.02
745.86	29918.45
746.199	29931.33
746.538	29915.96
746.877	29985.12
747.216	29793.48
747.556	29761.39
747.895	29856.76
748.234	29688.85
748.573	29514.62
748.911	29593.26
749.25	29536.99
749.589	29457.45
749.928	29520.27
750.267	29575.18
750.605	29431.91
750.944	29442.08
751.283	29195.31
751.621	29341.97
751.96	29208.64
752.298	29239.15
752.636	29115.08
752.975	29165.48
753.313	29013.84
753.651	29157.11
753.989	28722.32
754.327	28807.52
754.666	28631.93
755.004	28751.25
755.342	28764.36
755.679	28740.18
756.017	28540.63
756.355	28683.45
756.693	28461.54
757.031	28503.35
757.368	28280.08
757.706	28345.16
758.044	28181.55
758.381	28214.77
758.719	28172.51
