Data from hue_10_FLMS001491_37.txt Node
Date: Mon Feb 06 15:31:49 GMT 2017
User: dcchb
Spectrometer: FLMS00149
Trigger mode: 0
Integration Time (sec): 2.000000E-2
Scans to average: 10
Electric dark correction enabled: true
Nonlinearity correction enabled: false
Boxcar width: 0
XAxis mode: Wavelengths
Number of Pixels in Spectrum: 2048
>>>>>Begin Spectral Data<<<<<
341.393	-2.1
341.776	-2.1
342.16	-2.1
342.543	-63.12
342.927	-74.42
343.31	-60.41
343.693	-80.07
344.077	-69.67
344.46	-43.46
344.843	-52.27
345.226	-36.91
345.61	-52.05
345.993	-1.43
346.376	-10.47
346.759	15.3
347.142	11.23
347.525	41.28
347.908	76.76
348.291	81.51
348.674	91
349.057	89.64
349.44	121.96
349.823	133.26
350.206	160.15
350.588	187.04
350.971	201.73
351.354	225.01
351.737	225.01
352.119	263.43
352.502	273.37
352.884	280.15
353.267	290.54
353.65	284.67
354.032	317.89
354.414	303.65
354.797	308.17
355.179	321.5
355.562	300.26
355.944	334.84
356.326	368.06
356.709	339.81
357.091	319.24
357.473	335.29
357.855	342.07
358.238	352.91
358.62	332.8
359.002	337.77
359.384	339.81
359.766	327.6
360.148	310.2
360.53	332.12
360.912	334.16
361.294	325.57
361.676	325.12
362.057	318.34
362.439	319.92
362.821	318.34
363.203	325.57
363.584	316.53
363.966	325.34
364.348	318.79
364.729	315.63
365.111	319.47
365.493	322.63
365.874	317.66
366.256	290.77
366.637	326.25
367.019	295.51
367.4	313.59
367.781	292.58
368.163	332.12
368.544	320.15
368.925	306.14
369.306	307.72
369.688	321.05
370.069	315.4
370.45	315.18
370.831	309.98
371.212	314.72
371.593	314.27
371.974	308.17
372.355	295.97
372.736	319.24
373.117	314.27
373.498	308.85
373.879	317.66
374.26	330.32
374.641	333.03
375.021	314.72
375.402	332.8
375.783	321.73
376.163	318.11
376.544	324.67
376.925	326.25
377.305	320.15
377.686	335.06
378.066	337.77
378.447	313.59
378.827	335.74
379.208	334.84
379.588	333.03
379.968	333.71
380.349	310.66
380.729	315.85
381.109	316.98
381.489	333.93
381.87	324.44
382.25	360.15
382.63	327.15
383.01	321.73
383.39	335.29
383.77	333.93
384.15	341.84
384.53	351.11
384.91	331.45
385.29	343.2
385.67	338.9
386.049	341.84
386.429	352.01
386.809	338.9
387.189	353.82
387.568	333.03
387.948	344.55
388.328	338.9
388.707	355.63
389.087	354.04
389.466	353.59
389.846	349.3
390.225	358.56
390.605	350.65
390.984	351.33
391.363	366.7
391.743	363.99
392.122	360.82
392.501	340.26
392.881	377.55
393.26	359.24
393.639	351.33
394.018	360.37
394.397	372.12
394.776	347.94
395.155	363.08
395.534	389.52
395.913	375.74
396.292	370.54
396.671	381.61
397.05	371.22
397.429	379.35
397.808	364.67
398.186	398.34
398.565	382.97
398.944	390.88
399.323	403.99
399.701	392.91
400.08	376.42
400.458	381.61
400.837	399.01
401.215	375.74
401.594	369.19
401.972	378.22
402.351	398.34
402.729	403.08
403.107	367.38
403.486	394.27
403.864	409.86
404.242	417.55
404.62	389.98
404.999	384.1
405.377	383.87
405.755	388.62
406.133	396.3
406.511	405.12
406.889	412.8
407.267	434.49
407.645	422.07
408.023	404.66
408.401	415.51
408.779	416.19
409.156	422.52
409.534	435.62
409.912	412.12
410.29	426.36
410.667	410.99
411.045	416.42
411.422	410.54
411.8	453.02
412.178	433.14
412.555	430.88
412.933	437.43
413.31	427.71
413.687	436.53
414.065	459.35
414.442	448.96
414.819	453.93
415.197	445.57
415.574	467.26
415.951	472.23
416.328	476.53
416.705	453.48
417.082	462.97
417.46	471.78
417.837	479.46
418.214	467.04
418.591	458.67
418.967	453.7
419.344	469.52
419.721	479.69
420.098	502.74
420.475	489.63
420.852	489.18
421.228	500.26
421.605	505
421.982	500.71
422.358	502.97
422.735	527.6
423.111	502.52
423.488	509.29
423.864	494.83
424.241	512.01
424.617	526.47
424.994	513.36
425.37	519.69
425.746	516.53
426.123	523.76
426.499	511.33
426.875	542.06
427.251	521.27
427.627	555.4
428.003	536.86
428.379	554.94
428.756	555.4
429.132	544.77
429.507	523.31
429.883	556.52
430.259	586.13
430.635	569.63
431.011	562.4
431.387	599.91
431.763	589.52
432.138	577.09
432.514	592.23
432.89	589.97
433.265	592.23
433.641	594.94
434.016	622.06
434.392	604.43
434.767	633.59
435.143	608.73
435.518	620.03
435.894	616.41
436.269	654.38
436.644	653.02
437.02	644.21
437.395	644.88
437.77	646.47
438.145	647.14
438.52	658.9
438.895	663.87
439.271	656.86
439.646	692.79
440.021	683.98
440.395	673.81
440.77	698.89
441.145	676.3
441.52	701.83
441.895	704.77
442.27	671.32
442.645	703.87
443.019	699.12
443.394	677.43
443.769	698.22
444.143	712
444.518	709.29
444.892	717.88
445.267	721.72
445.641	705.22
446.016	702.74
446.39	728.95
446.764	729.63
447.139	733.92
447.513	726.24
447.887	750.42
448.262	745.22
448.636	735.28
449.01	757.42
449.384	757.65
449.758	749.97
450.132	774.82
450.506	793.81
450.88	775.5
451.254	763.75
451.628	795.39
452.002	802.17
452.376	796.74
452.75	799.46
453.123	812.56
453.497	828.83
453.871	824.09
454.244	839.23
454.618	821.83
454.992	836.74
455.365	843.97
455.739	857.08
456.112	838.55
456.486	857.08
456.859	859.34
457.232	900.24
457.606	867.7
457.979	888.49
458.352	889.4
458.725	895.5
459.099	914.26
459.472	930.07
459.845	898.44
460.218	921.71
460.591	936.63
460.964	944.76
461.337	954.71
461.71	981.82
462.083	974.82
462.456	979.56
462.829	1000.13
463.201	1012.56
463.574	995.61
463.947	1035.61
464.32	1043.29
464.692	1036.51
465.065	1066.34
465.438	1058.43
465.81	1084.19
466.183	1082.39
466.555	1072.67
466.928	1092.33
467.3	1128.26
467.672	1118.77
468.045	1135.72
468.417	1148.37
468.789	1166
469.161	1183.63
469.534	1195.15
469.906	1218.65
470.278	1204.87
470.65	1227.24
471.022	1239.67
471.394	1269.5
471.766	1287.58
472.138	1294.36
472.51	1341.14
472.882	1342.72
473.253	1340.69
473.625	1380.68
473.997	1377.97
474.369	1407.35
474.74	1394.69
475.112	1456.84
475.484	1474.69
475.855	1514.24
476.227	1496.16
476.598	1561.92
476.97	1574.58
477.341	1574.8
477.713	1612.99
478.084	1671.75
478.455	1650.73
478.827	1696.38
479.198	1723.73
479.569	1775.48
479.94	1810.05
480.311	1833.78
480.682	1859.77
481.053	1862.71
481.424	1916.72
481.795	1953.78
482.166	2013.21
482.537	1989.93
482.908	2019.99
483.279	2076.71
483.65	2132.08
484.021	2166.2
484.391	2171.85
484.762	2210.27
485.133	2232.19
485.503	2302.02
485.874	2319.64
486.244	2363.94
486.615	2369.36
486.985	2427.89
487.356	2482.35
487.726	2483.25
488.097	2565.29
488.467	2565.29
488.837	2640.76
489.207	2629.46
489.578	2693.64
489.948	2710.59
490.318	2765.28
490.688	2816.35
491.058	2832.85
491.428	2917.37
491.798	2920.53
492.168	2984.71
492.538	2947.65
492.908	2997.14
493.278	3050.92
493.648	3055.89
494.017	3156.23
494.387	3171.82
494.757	3171.15
495.126	3244.14
495.496	3254.31
495.866	3274.65
496.235	3313.97
496.605	3319.62
496.974	3376.11
497.344	3371.82
497.713	3416.11
498.082	3422.21
498.452	3491.36
498.821	3490.46
499.19	3468.31
499.559	3579.95
499.928	3532.04
500.298	3577.91
500.667	3617.69
501.036	3633.73
501.405	3692.49
501.774	3680.28
502.143	3701.3
502.512	3722.32
502.88	3766.84
503.249	3724.58
503.618	3767.06
503.987	3779.94
504.356	3787.85
504.724	3827.63
505.093	3871.01
505.462	3866.72
505.83	3875.99
506.199	3951.24
506.567	3982.2
506.936	3977.23
507.304	4012.25
507.672	4034.4
508.041	4040.73
508.409	4024.68
508.777	4134.96
509.145	4099.93
509.514	4119.14
509.882	4120.05
510.25	4128.18
510.618	4184.45
510.986	4187.84
511.354	4243.43
511.722	4251.79
512.09	4273.04
512.458	4289.76
512.826	4310.55
513.193	4299.03
513.561	4304
513.929	4352.58
514.297	4361.4
514.664	4374.05
515.032	4430.77
515.4	4418.57
515.767	4420.6
516.135	4469.87
516.502	4472.13
516.869	4501.96
517.237	4539.7
517.604	4548.28
517.972	4571.33
518.339	4582.86
518.706	4574.27
519.073	4597.1
519.44	4645.46
519.808	4642.75
520.175	4664.67
520.542	4691.33
520.909	4658.56
521.276	4709.41
521.643	4725.23
522.009	4807.26
522.376	4776.07
522.743	4826.24
523.11	4848.84
523.477	4855.85
523.843	4890.87
524.21	4913.7
524.577	4985.56
524.943	4932
525.31	5040.25
525.676	5059.68
526.043	5044.32
526.409	5014.03
526.776	5113.92
527.142	5136.74
527.508	5138.33
527.874	5196.18
528.241	5202.96
528.607	5189.85
528.973	5275.95
529.339	5308.04
529.705	5384.42
530.071	5357.3
530.437	5366.12
530.803	5406.79
531.169	5426.45
531.535	5404.99
531.901	5382.16
532.267	5529.28
532.632	5459.9
532.998	5445.44
533.364	5566.56
533.73	5587.35
534.095	5562.72
534.461	5628.93
534.826	5646.56
535.192	5667.58
535.557	5679.55
535.923	5626.22
536.288	5709.61
536.653	5771.76
537.019	5765.2
537.384	5771.08
537.749	5842.49
538.114	5855.37
538.479	5847.01
538.845	5883.16
539.21	5894.69
539.575	5906.44
539.94	5923.39
540.305	5962.71
540.67	5993.44
541.034	6051.07
541.399	5976.72
541.764	6023.05
542.129	6086.1
542.494	6114.8
542.858	6163.16
543.223	6161.8
543.587	6157.28
543.952	6165.42
544.316	6187.56
544.681	6240.9
545.045	6231.63
545.41	6272.98
545.774	6311.63
546.138	6340.1
546.503	6350.72
546.867	6376.48
547.231	6389.59
547.595	6430.04
547.959	6471.85
548.324	6498.74
548.688	6477.5
549.052	6504.17
549.416	6597.95
549.779	6527.67
550.143	6568.8
550.507	6677.72
550.871	6668.91
551.235	6633.88
551.599	6668.45
551.962	6656.7
552.326	6711.84
552.689	6745.29
553.053	6759.98
553.417	6783.71
553.78	6809.24
554.143	6839.75
554.507	6846.98
554.87	6800.2
555.234	6921.33
555.597	6882.46
555.96	6924.72
556.323	6904.15
556.686	6951.39
557.05	7077.26
557.413	7060.99
557.776	7009.69
558.139	7072.06
558.502	7112.51
558.865	7117.93
559.228	7122.68
559.59	7171.27
559.953	7165.16
560.316	7228.21
560.679	7251.49
561.041	7249.91
561.404	7301.21
561.767	7333.97
562.129	7291.49
562.492	7402.9
562.854	7430.47
563.217	7371.49
563.579	7440.64
563.941	7492.61
564.304	7460.3
564.666	7539.17
565.028	7540.52
565.39	7577.36
565.753	7621.65
566.115	7642.21
566.477	7680.41
566.839	7616
567.201	7721.53
567.563	7690.35
567.925	7845.6
568.287	7802.21
568.648	7793.17
569.01	7894.41
569.372	7931.47
569.734	7903.45
570.095	7976.44
570.457	8007.18
570.819	8053.05
571.18	8037.46
571.542	8077.46
571.903	8171.47
572.265	8180.05
572.626	8195.65
572.987	8200.17
573.349	8382.31
573.71	8360.39
574.071	8428.86
574.432	8471.8
574.794	8508.18
575.155	8500.5
575.516	8552.25
575.877	8552.25
576.238	8706.59
576.599	8730.1
576.96	8840.15
577.32	8865.46
577.681	8958.11
578.042	9045.57
578.403	9098.45
578.763	9090.09
579.124	9173.7
579.485	9296.86
579.845	9489.17
580.206	9489.85
580.566	9598.77
580.927	9756.96
581.287	9842.83
581.648	9869.05
582.008	10095.71
582.368	10136.84
582.728	10332.09
583.089	10440.33
583.449	10525.53
583.809	10693.89
584.169	10845.52
584.529	10952.86
584.889	11244.61
585.249	11264.27
585.609	11422
585.969	11689.57
586.329	11855.89
586.688	12048.65
587.048	12187.63
587.408	12456.33
587.768	12607.73
588.127	12821.74
588.487	13023.09
588.846	13378.11
589.206	13422.18
589.565	13644.99
589.925	13946.68
590.284	14256.73
590.643	14391.42
591.003	14741.69
591.362	14973.77
591.721	15144.39
592.08	15445.85
592.44	15749.12
592.799	15981.43
593.158	16250.8
593.517	16546.61
593.876	16875.42
594.235	17108.41
594.593	17304.33
594.952	17636.75
595.311	17839.91
595.67	18145.67
596.029	18509.95
596.387	18803.28
596.746	19088.24
597.104	19219.76
597.463	19506.08
597.822	19871.72
598.18	20148.55
598.538	20419.73
598.897	20845.26
599.255	20946.72
599.613	21539.02
599.972	21652.47
600.33	22016.07
600.688	22120.7
601.046	22440.7
601.404	22844.98
601.762	23165.2
602.12	23457.39
602.478	23718.63
602.836	23943.71
603.194	24096.47
603.552	24444.94
603.91	24736.68
604.268	25015.32
604.625	25198.81
604.983	25491.24
605.341	25604
605.698	25959.47
606.056	26328.5
606.413	26435.84
606.771	26827.02
607.128	27016.85
607.485	27078.54
607.843	27367.12
608.2	27736.38
608.557	27943.83
608.914	28183.82
609.272	28512.4
609.629	28767.76
609.986	29002.56
610.343	29029.45
610.7	29520.96
611.057	29528.87
611.414	29719.15
611.771	29975.64
612.127	30172.92
612.484	30407.04
612.841	30619.69
613.198	30737.65
613.554	30963.41
613.911	31254.25
614.267	31403.4
614.624	31491.98
614.98	31705.08
615.337	32041.35
615.693	32043.15
616.05	32095.13
616.406	32549.58
616.762	32476.59
617.118	32574.21
617.475	32722.91
617.831	33036.8
618.187	33139.62
618.543	33368.54
618.899	33618.03
619.255	33727.63
619.611	33811.24
619.967	34036.77
620.323	34217.11
620.678	34187.73
621.034	34103.89
621.39	34283.1
621.746	34392.92
622.101	34748.62
622.457	34686.93
622.812	34802.63
623.168	34952.23
623.523	34936.86
623.879	35257.99
624.234	35119.46
624.589	35368.72
624.945	35384.99
625.3	35485.1
625.655	35569.62
626.01	35555.83
626.365	35761.25
626.72	35784.07
627.075	35864.07
627.43	35851.19
627.785	35820.91
628.14	35917.4
628.495	36025.42
628.85	36132.31
629.205	36089.15
629.559	36255.47
629.914	36229.49
630.269	36278.3
630.623	36125.99
630.978	36335.7
631.332	36395.13
631.687	36598.74
632.041	36388.8
632.396	36548.12
632.75	36371.63
633.104	36444.85
633.459	36343.38
633.813	36509.48
634.167	36523.04
634.521	36509.7
634.875	36486.43
635.229	36539.31
635.583	36406.66
635.937	36439.88
636.291	36471.29
636.645	36580.44
636.999	36464.73
637.352	36650.94
637.706	36437.16
638.06	36688.68
638.413	36488.91
638.767	36488.69
639.121	36519.2
639.474	36354
639.828	36470.83
640.181	36520.55
640.534	36572.53
640.888	36448.01
641.241	36345.41
641.594	36433.1
641.947	36626.54
642.301	36538.4
642.654	36481.46
643.007	36471.06
643.36	36374.79
643.713	36486.43
644.066	36531.4
644.419	36321.69
644.771	36056.16
645.124	35730.97
645.477	35781.36
645.83	35475.61
646.182	35408.26
646.535	35398.09
646.888	35370.98
647.24	35279
647.593	35542.5
647.945	35347.47
648.298	35230.19
648.65	35111.32
649.002	35091.89
649.355	35194.03
649.707	35204.65
650.059	35262.96
650.411	35623.17
650.763	35833.34
651.115	36197.17
651.467	36008.7
651.819	36095.25
652.171	35910.4
652.523	35964.86
652.875	35851.87
653.227	35874.69
653.578	36105.65
653.93	35907.01
654.282	35791.76
654.633	35747.69
654.985	35877.63
655.337	35912.21
655.688	35822.04
656.039	36061.13
656.391	35502.5
656.742	35659.56
657.094	35690.97
657.445	35858.87
657.796	35764.86
658.147	35675.38
658.498	35766.45
658.849	35845.99
659.2	35624.08
659.551	35785.66
659.902	35848.48
660.253	35729.39
660.604	35716.05
660.955	35647.13
661.306	35687.58
661.656	35639.9
662.007	35621.59
662.358	35577.52
662.708	35726.22
663.059	35641.48
663.409	35421.37
663.76	35780.01
664.11	35622.04
664.461	35742.27
664.811	35582.04
665.161	35650.07
665.511	35430.64
665.862	35546.11
666.212	35531.65
666.562	35683.96
666.912	35666.34
667.262	35541.59
667.612	35543.4
667.962	35581.14
668.312	35558.99
668.662	35659.56
669.011	35525.77
669.361	35509.96
669.711	35508.6
670.06	35488.71
670.41	35409.85
670.76	35270.64
671.109	35412.78
671.459	35441.94
671.808	35292.33
672.157	35385.44
672.507	35218.66
672.856	35249.85
673.205	35312.45
673.554	35356.74
673.904	35181.15
674.253	35283.52
674.602	35229.06
674.951	34726.47
675.3	34585.46
675.649	35169.63
675.998	35040.36
676.346	35131.89
676.695	35284.43
677.044	34933.7
677.393	35061.83
677.741	35046.47
678.09	35002.85
678.438	34910.2
678.787	34966.47
679.135	34954.26
679.484	34731.9
679.832	34826.13
680.181	34752.69
680.529	34771.67
680.877	34620.94
681.225	34705.46
681.573	34839.01
681.922	34618.45
682.27	34512.47
682.618	34460.27
682.966	34496.65
683.314	34553.6
683.661	34276.09
684.009	34215.75
684.357	34269.08
684.705	34243.77
685.053	34341.4
685.4	34140.5
685.748	34006.94
686.095	34006.27
686.443	33853.73
686.79	33909.09
687.138	33895.99
687.485	33915.42
687.832	33782.32
688.18	33836.1
688.527	33566.28
688.874	33683.56
689.221	33583
689.568	33495.55
689.915	33342.1
690.262	33353.85
690.609	33289.45
690.956	32966.07
691.303	33111.83
691.65	32877.26
691.997	32960.87
692.344	32747.09
692.69	32866.64
693.037	32800.87
693.383	32383.94
693.73	32600.2
694.077	32361.11
694.423	32472.3
694.769	32496.02
695.116	32250.83
695.462	32108.92
695.808	32139.65
696.155	32239.53
696.501	31865.76
696.847	31973.55
697.193	31676.38
697.539	31811.52
697.885	31496.73
698.231	31451.98
698.577	31538.76
698.923	31383.06
699.269	31253.57
699.614	31155.27
699.96	31012.22
700.306	31142.16
700.651	31080.02
700.997	30879.12
701.342	30799.12
701.688	30798.44
702.033	30691.1
702.379	30640.93
702.724	30576.07
703.069	30619.92
703.415	30279.81
703.76	30253.82
704.105	30323.88
704.45	30249.08
704.795	30150.32
705.14	29979.48
705.485	30112.81
705.83	29800.28
706.175	29769.09
706.52	29783.55
706.865	29723.22
707.209	29675.08
707.554	29498.81
707.899	29619.04
708.243	29538.14
708.588	29307.63
708.932	29235.09
709.277	29300.63
709.621	29224.7
709.966	29096.79
710.31	29069.22
710.654	28864.71
710.998	28886.18
711.342	28864.48
711.687	28874.88
712.031	28667.88
712.375	28591.95
712.719	28597.82
713.063	28652.28
713.407	28683.47
713.75	28497.26
714.094	28521.21
714.438	28227.89
714.782	28255.23
715.125	28203.26
715.469	28280.32
715.812	28107.89
716.156	27895.92
716.499	28060.66
716.843	27975.24
717.186	27882.59
717.53	27946.54
717.873	27899.08
718.216	27827.9
718.559	27761.69
718.902	27525.31
719.246	27690.05
719.589	27457.51
719.932	27475.59
720.275	27451.64
720.617	27387.68
720.96	27405.76
721.303	27319.44
721.646	27293.45
721.989	27122.15
722.331	27379.55
722.674	27060.91
723.016	27179.55
723.359	27131.65
723.701	27261.81
724.044	26936.4
724.386	26812.78
724.729	26971.42
725.071	26808.26
725.413	26890.52
725.755	26870.41
726.097	26663.86
726.439	26523.75
726.782	26593.81
727.124	26623.18
727.465	26504.77
727.807	26589.06
728.149	26481.04
728.491	26355.39
728.833	26386.58
729.175	26300.25
729.516	26210.77
729.858	26219.58
730.199	26296.64
730.541	26244.89
730.882	26093.71
731.224	26128.06
731.565	26010.77
731.906	26065.68
732.248	26049.87
732.589	25781.4
732.93	25828.18
733.271	25729.87
733.612	25861.4
733.953	25934.61
734.294	25732.81
734.635	25780.27
734.976	25760.83
735.317	25617.79
735.658	25676.09
735.999	25607.84
736.339	25602.65
736.68	25661.85
737.021	25519.03
737.361	25362.88
737.702	25550.67
738.042	25472.71
738.383	25431.58
738.723	25468.41
739.063	25231.13
739.404	25344.57
739.744	25287.63
740.084	25147.74
740.424	25189.32
740.764	25144.35
741.104	25189.55
741.444	25022.1
741.784	25035.66
742.124	25030.68
742.464	25071.81
742.804	24983.23
743.143	24850.35
743.483	24876.11
743.823	24823.68
744.162	24745.49
744.502	24901.87
744.841	24745.04
745.181	24757.92
745.52	24618.04
745.86	24690.58
746.199	24647.64
746.538	24567.87
746.877	24649.22
747.216	24627.3
747.556	24437.25
747.895	24412.85
748.234	24446.52
748.573	24399.74
748.911	24313.19
749.25	24296.69
749.589	24216.24
749.928	24266.18
750.267	24225.51
750.605	24184.83
750.944	24140.99
751.283	24052.86
751.621	24144.15
751.96	23931.73
752.298	24006.3
752.636	23909.81
752.975	23910.94
753.313	23766.54
753.651	23931.73
753.989	23700.32
754.327	23738.97
754.666	23619.87
755.004	23672.3
755.342	23593.66
755.679	23606.77
756.017	23442.7
756.355	23531.51
756.693	23442.02
757.031	23501.91
757.368	23352.31
757.706	23322.71
758.044	23144.63
758.381	23270.96
758.719	23126.33
759.056	23124.97
759.394	22991.64
759.731	22951.42
760.068	22871.19
760.405	22819.89
760.743	22689.05
761.08	22817.86
761.417	22582.61
