Data from hue_330_FLMS001491_81.txt Node
Date: Mon Feb 06 15:46:01 GMT 2017
User: dcchb
Spectrometer: FLMS00149
Trigger mode: 0
Integration Time (sec): 2.000000E-2
Scans to average: 10
Electric dark correction enabled: true
Nonlinearity correction enabled: false
Boxcar width: 0
XAxis mode: Wavelengths
Number of Pixels in Spectrum: 2048
>>>>>Begin Spectral Data<<<<<
341.393	3.39
341.776	3.39
342.16	3.39
342.543	-58.76
342.927	-44.29
343.31	-74.35
343.693	-60.79
344.077	-61.69
344.46	-58.08
344.843	-46.55
345.226	-31.41
345.61	-26.21
345.993	-27.8
346.376	-10.4
346.759	25.08
347.142	25.08
347.525	25.31
347.908	55.37
348.291	66.21
348.674	83.39
349.057	116.83
349.44	130.62
349.823	142.82
350.206	169.26
350.588	200.22
350.971	204.29
351.354	204.29
351.737	242.71
352.119	259.43
352.502	268.47
352.884	253.33
353.267	277.96
353.65	282.7
354.032	289.71
354.414	310.95
354.797	297.85
355.179	328.13
355.562	331.97
355.944	312.08
356.326	337.39
356.709	334.68
357.091	334.45
357.473	340.1
357.855	329.03
358.238	329.93
358.62	333.32
359.002	340.56
359.384	317.51
359.766	354.34
360.148	341.46
360.53	330.61
360.912	329.26
361.294	319.09
361.676	328.35
362.057	336.71
362.439	331.29
362.821	307.11
363.203	354.79
363.584	337.84
363.966	304.17
364.348	322.7
364.729	333.55
365.111	329.71
365.493	330.84
365.874	309.37
366.256	301.46
366.637	300.78
367.019	321.57
367.4	324.06
367.781	313.21
368.163	308.69
368.544	306.21
368.925	298.07
369.306	291.52
369.688	309.14
370.069	298.07
370.45	323.16
370.831	327.9
371.212	304.85
371.593	321.57
371.974	305.98
372.355	315.02
372.736	311.18
373.117	301.91
373.498	320.9
373.879	300.33
374.26	327.22
374.641	303.72
375.021	308.69
375.402	322.48
375.783	320.67
376.163	329.93
376.544	315.47
376.925	331.29
377.305	330.84
377.686	324.74
378.066	326.77
378.447	326.55
378.827	340.1
379.208	332.19
379.588	329.26
379.968	342.14
380.349	323.16
380.729	316.38
381.109	336.04
381.489	340.1
381.87	326.09
382.25	329.71
382.63	341.91
383.01	348.24
383.39	350.73
383.77	338.97
384.15	363.38
384.53	332.42
384.91	342.14
385.29	364.28
385.67	372.65
386.049	344.85
386.429	355.02
386.809	351.18
387.189	350.05
387.568	341.91
387.948	353.66
388.328	352.99
388.707	357.28
389.087	349.37
389.466	361.12
389.846	369.71
390.225	363.83
390.605	390.72
390.984	374
391.363	373.55
391.743	352.53
392.122	389.14
392.501	382.36
392.881	384.62
393.26	369.93
393.639	363.15
394.018	402.93
394.397	367.22
394.776	379.2
395.155	390.05
395.534	395.47
395.913	372.65
396.292	403.15
396.671	392.76
397.05	403.83
397.429	398.18
397.808	386.66
398.186	388.69
398.565	416.03
398.944	383.72
399.323	403.61
399.701	387.79
400.08	403.61
400.458	406.32
400.837	404.96
401.215	412.42
401.594	398.18
401.972	418.07
402.351	420.78
402.729	409.71
403.107	411.29
403.486	397.28
403.864	425.3
404.242	429.37
404.62	431.85
404.999	454.45
405.377	435.02
405.755	427.79
406.133	470.95
406.511	443.83
406.889	475.92
407.267	442.47
407.645	472.08
408.023	456.94
408.401	464.85
408.779	474.34
409.156	472.08
409.534	480.44
409.912	483.83
410.29	498.29
410.667	504.39
411.045	491.29
411.422	480.21
411.8	525.41
412.178	504.39
412.555	524.05
412.933	512.53
413.31	535.58
413.687	545.97
414.065	519.99
414.442	530.16
414.819	558.63
415.197	545.52
415.574	533.55
415.951	586.2
416.328	555.24
416.705	572.64
417.082	576.93
417.46	563.15
417.837	597.5
418.214	583.71
418.591	601.34
418.967	597.27
419.344	629.59
419.721	611.28
420.098	612.41
420.475	630.72
420.852	643.82
421.228	625.97
421.605	660.1
421.982	668.46
422.358	684.73
422.735	656.48
423.111	684.05
423.488	682.92
423.864	710.94
424.241	699.87
424.617	689.7
424.994	702.81
425.37	723.6
425.746	698.29
426.123	727.44
426.499	712.07
426.875	735.8
427.251	746.2
427.627	725.86
428.003	754.1
428.379	753.88
428.756	784.61
429.132	789.81
429.507	805.18
429.883	808.34
430.259	807.21
430.635	838.17
431.011	827.32
431.387	857.38
431.763	881.56
432.138	867.32
432.514	870.71
432.89	874.33
433.265	885.17
433.641	887.66
434.016	907.32
434.392	905.29
434.767	934.66
435.143	920.43
435.518	931.5
435.894	943.7
436.269	957.71
436.644	970.6
437.02	989.13
437.395	991.84
437.77	987.09
438.145	1012.4
438.52	1020.09
438.895	1004.49
439.271	1037.94
439.646	1023.93
440.021	1060.09
440.395	1050.82
440.77	1042.23
441.145	1031.16
441.52	1042.68
441.895	1063.02
442.27	1092.17
442.645	1077.03
443.019	1073.64
443.394	1103.47
443.769	1096.24
444.143	1088.11
444.518	1110.48
444.892	1101.89
445.267	1138.95
445.641	1124.49
446.016	1124.49
446.39	1126.75
446.764	1138.95
447.139	1139.86
447.513	1118.61
447.887	1121.33
448.262	1159.52
448.636	1168.33
449.01	1179.18
449.384	1151.83
449.758	1207.43
450.132	1174.43
450.506	1199.29
450.88	1234.54
451.254	1187.31
451.628	1212.4
452.002	1234.32
452.376	1228.22
452.75	1255.11
453.123	1251.49
453.497	1253.75
453.871	1273.41
454.244	1289.68
454.618	1266.63
454.992	1280.19
455.365	1281.55
455.739	1320.42
456.112	1357.93
456.486	1336.01
456.859	1343.92
457.232	1364.26
457.606	1351.15
457.979	1351.83
458.352	1383.47
458.725	1404.93
459.099	1422.11
459.472	1425.5
459.845	1460.53
460.218	1458.04
460.591	1449.91
460.964	1442.22
461.337	1495.78
461.71	1499.17
462.083	1505.95
462.456	1541.2
462.829	1523.12
463.201	1520.19
463.574	1542.78
463.947	1565.83
464.32	1586.62
464.692	1629.79
465.065	1613.29
465.438	1618.71
465.81	1639.28
466.183	1662.78
466.555	1698.03
466.928	1686.96
467.3	1680.86
467.672	1691.03
468.045	1749.78
468.417	1754.98
468.789	1762.44
469.161	1759.05
469.534	1764.02
469.906	1810.35
470.278	1838.37
470.65	1832.27
471.022	1827.97
471.394	1884.24
471.766	1908.2
472.138	1924.47
472.51	1994.3
472.882	1985.94
473.253	2006.05
473.625	2019.16
473.997	2001.53
474.369	2073.62
474.74	2092.6
475.112	2131.92
475.484	2193.16
475.855	2164.46
476.227	2160.62
476.598	2235.65
476.97	2278.58
477.341	2295.98
477.713	2319.26
478.084	2340.05
478.455	2362.42
478.827	2422.76
479.198	2436.32
479.569	2432.48
479.94	2499.6
480.311	2507.5
480.682	2607.84
481.053	2639.7
481.424	2652.59
481.795	2670.44
482.166	2663.88
482.537	2739.36
482.908	2782.3
483.279	2771.9
483.65	2863.2
484.021	2865.69
484.391	2897.55
484.762	2923.54
485.133	2931
485.503	2968.96
485.874	3094.38
486.244	3066.81
486.615	3096.64
486.985	3151.78
487.356	3207.83
487.726	3215.06
488.097	3278.33
488.467	3278.11
488.837	3323.98
489.207	3400.36
489.578	3399.46
489.948	3486.91
490.318	3463.41
490.688	3528.27
491.058	3520.36
491.428	3526.91
491.798	3600.13
492.168	3639.23
492.538	3677.42
492.908	3689.39
493.278	3745.44
493.648	3784.53
494.017	3789.96
494.387	3848.03
494.757	3822.27
495.126	3862.27
495.496	3867.24
495.866	3914.7
496.235	3958.54
496.605	3980.91
496.974	3994.7
497.344	4071.08
497.713	4046.9
498.082	4085.77
498.452	4097.07
498.821	4089.61
499.19	4121.25
499.559	4173.9
499.928	4183.62
500.298	4165.54
500.667	4182.71
501.036	4205.09
501.405	4262.26
501.774	4239.66
502.143	4294.58
502.512	4308.36
502.88	4361.02
503.249	4356.27
503.618	4370.05
503.987	4376.38
504.356	4417.74
504.724	4396.72
505.093	4434.01
505.462	4450.73
505.83	4496.38
506.199	4507.9
506.567	4571.63
506.936	4530.95
507.304	4575.7
507.672	4606.66
508.041	4604.85
508.409	4616.6
508.777	4689.59
509.145	4663.38
509.514	4708.8
509.882	4696.6
510.25	4782.93
510.618	4756.71
510.986	4751.51
511.354	4745.64
511.722	4846.88
512.09	4872.41
512.458	4839.42
512.826	4884.62
513.193	4860.44
513.561	4882.36
513.929	4929.59
514.297	4961.68
514.664	4930.94
515.032	4960.32
515.4	5015.24
515.767	5016.37
516.135	5039.42
516.502	4986.08
516.869	5082.8
517.237	5092.3
517.604	5039.64
517.972	5088.23
518.339	5126.64
518.706	5140.43
519.073	5130.26
519.44	5130.71
519.808	5163.25
520.175	5208.45
520.542	5249.58
520.909	5241.44
521.276	5288.9
521.643	5285.96
522.009	5307.43
522.376	5283.25
522.743	5373.87
523.11	5392.17
523.477	5410.93
523.843	5436.47
524.21	5522.79
524.577	5522.57
524.943	5492.51
525.31	5561.66
525.676	5612.51
526.043	5617.25
526.409	5623.58
526.776	5653.86
527.142	5656.12
527.508	5702.67
527.874	5790.58
528.241	5799.85
528.607	5804.82
528.973	5835.1
529.339	5855.44
529.705	5890.92
530.071	5936.34
530.437	5983.57
530.803	6045.04
531.169	6036.9
531.535	5987.64
531.901	6047.3
532.267	6072.83
532.632	6063.8
532.998	6158.26
533.364	6125.26
533.73	6188.99
534.095	6265.82
534.461	6171.82
534.826	6298.14
535.192	6267.63
535.557	6359.38
535.923	6324.81
536.288	6348.08
536.653	6390.11
537.019	6424.69
537.384	6412.71
537.749	6485.25
538.114	6485.48
538.479	6516.89
538.845	6491.35
539.21	6570.22
539.575	6575.42
539.94	6552.82
540.305	6656.1
540.67	6655.19
541.034	6591.01
541.399	6728.18
541.764	6743.55
542.129	6733.61
542.494	6780.16
542.858	6805.24
543.223	6836.2
543.587	6859.71
543.952	6886.37
544.316	6849.31
544.681	6908.97
545.045	6954.17
545.41	7026.48
545.774	7017.67
546.138	7050.66
546.503	7002.75
546.867	7028.52
547.231	7176.76
547.595	7161.39
547.959	7125.91
548.324	7140.38
548.688	7221.96
549.052	7211.11
549.416	7209.3
549.779	7293.37
550.143	7281.62
550.507	7322.97
550.871	7405.91
551.235	7347.38
551.599	7391.67
551.962	7480.03
552.326	7402.07
552.689	7543.08
553.053	7499.24
553.417	7496.98
553.78	7602.06
554.143	7570.42
554.507	7659.91
554.87	7636.64
555.234	7649.29
555.597	7615.39
555.96	7716.41
556.323	7710.53
556.686	7733.81
557.05	7777.42
557.413	7752.11
557.776	7786.69
558.139	7795.28
558.502	7879.11
558.865	7902.39
559.228	7929.28
559.59	7939.9
559.953	7963.86
560.316	8053.8
560.679	8034.82
561.041	8035.04
561.404	8126.11
561.767	8144.42
562.129	8166.56
562.492	8210.86
562.854	8200.46
563.217	8173.34
563.579	8186
563.941	8283.17
564.304	8259.67
564.666	8368.82
565.028	8334.92
565.39	8348.93
565.753	8402.26
566.115	8505.09
566.477	8473.22
566.839	8464.64
567.201	8491.98
567.563	8589.15
567.925	8563.62
568.287	8607.68
568.648	8640
569.01	8666.44
569.372	8755.25
569.734	8705.31
570.095	8835.7
570.457	8807.9
570.819	8848.35
571.18	8860.11
571.542	8945.53
571.903	8983.49
572.265	9002.02
572.626	9051.51
572.987	9115.69
573.349	9113.43
573.71	9201.79
574.071	9280.66
574.432	9263.71
574.794	9388
575.155	9397.49
575.516	9455.57
575.877	9518.62
576.238	9596.36
576.599	9640.42
576.96	9747.09
577.32	9776.01
577.681	9907.99
578.042	9918.38
578.403	10024.6
578.763	10088.32
579.124	10213.29
579.485	10342.78
579.845	10418.48
580.206	10519.27
580.566	10656.89
580.927	10789.77
581.287	10814.63
581.648	10964.23
582.008	11086.04
582.368	11212.36
582.728	11439.02
583.089	11530.09
583.449	11670.65
583.809	11910.87
584.169	12052.34
584.529	12128.72
584.889	12467.92
585.249	12616.62
585.609	12698.65
585.969	12980.22
586.329	13185.87
586.688	13344.51
587.048	13645.74
587.408	13749.92
587.768	14025.39
588.127	14296.8
588.487	14438.26
588.846	14741.31
589.206	14864.69
589.565	15224.23
589.925	15480.27
590.284	15689.3
590.643	15942.18
591.003	16247.26
591.362	16537.64
591.721	16807.02
592.08	17091.98
592.44	17353.22
592.799	17574.23
593.158	17942.13
593.517	18204.49
593.876	18440.19
594.235	18664.82
594.593	19068.2
594.952	19377.57
595.311	19635.42
595.67	19916.31
596.029	20327.6
596.387	20550.65
596.746	20934.36
597.104	21108.15
597.463	21284.19
597.822	21778.18
598.18	21888.24
598.538	22111.96
598.897	22665.84
599.255	22646.41
599.613	23332.27
599.972	23416.11
600.33	23689.32
600.688	23848.41
601.046	24331.79
601.404	24617.21
601.762	24799.57
602.12	25232.56
602.478	25444.08
602.836	25734.24
603.194	25861.47
603.552	26062.59
603.91	26334.9
604.268	26602.01
604.625	26863.02
604.983	27223.01
605.341	27354.08
605.698	27703.9
606.056	27976.89
606.413	28110.45
606.771	28507.95
607.128	28600.38
607.485	28791.79
607.843	29101.83
608.2	29493.01
608.557	29654.14
608.914	29721.03
609.272	30100.23
609.629	30390.61
609.986	30666.54
610.343	30696.59
610.7	31100.43
611.057	31174.32
611.414	31398.5
611.771	31645.04
612.127	31923.23
612.484	32063.11
612.841	32331.13
613.198	32435.98
613.554	32428.07
613.911	32812.47
614.267	32980.38
614.624	33065.12
614.98	33346.47
615.337	33589.63
615.693	33682.5
616.05	33723.63
616.406	34056.28
616.762	34104.19
617.118	34203.85
617.475	34306.44
617.831	34591.41
618.187	34673.89
618.543	34908.46
618.899	35192.75
619.255	35272.52
619.611	35320.88
619.967	35439.75
620.323	35687.2
620.678	35569.46
621.034	35653.75
621.39	35853.52
621.746	35905.27
622.101	36396.33
622.457	36081.31
622.812	36337.12
623.168	36375.77
623.523	36576.89
623.879	36585.25
624.234	36478.59
624.589	36862.08
624.945	36928.29
625.3	36973.94
625.655	37108.85
626.01	37262.52
626.365	37258.46
626.72	37128.97
627.075	37305.69
627.43	37327.83
627.785	37410.54
628.14	37450.77
628.495	37589.29
628.85	37589.07
629.205	37536.87
629.559	37799.91
629.914	37662.96
630.269	37787.26
630.623	37658.67
630.978	37692.57
631.332	37862.96
631.687	37987.93
632.041	37877.87
632.396	38072.45
632.75	37930.08
633.104	37974.82
633.459	37814.82
633.813	37862.96
634.167	37929.4
634.521	37953.8
634.875	38054.59
635.229	38039.68
635.583	37852.79
635.937	37912.45
636.291	37798.33
636.645	37987.02
636.999	38008.94
637.352	38120.35
637.706	37859.34
638.06	38066.57
638.413	38023.86
638.767	37950.19
639.121	37966.91
639.474	37872.45
639.828	37792.23
640.181	38029.28
640.534	37913.35
640.888	37889.17
641.241	37792.68
641.594	37902.73
641.947	37954.71
642.301	37857.54
642.654	37840.59
643.007	37992.9
643.36	37750.42
643.713	37890.53
644.066	38107.25
644.419	37732.12
644.771	37405.57
645.124	37247.38
645.477	37153.83
645.83	37063.43
646.182	36728.07
646.535	36835.87
646.888	36933.72
647.24	36610.34
647.593	36789.99
647.945	36725.59
648.298	36627.74
648.65	36542.32
649.002	36534.63
649.355	36788.64
649.707	36537.12
650.059	36768.3
650.411	37172.81
650.763	37300.26
651.115	37496.19
651.467	37431.78
651.819	37594.72
652.171	37397.43
652.523	37418.9
652.875	37432.24
653.227	37163.32
653.578	37507.49
653.93	37527.37
654.282	37217.55
654.633	37135.07
654.985	37184.11
655.337	37271.34
655.688	37355.4
656.039	37373.03
656.391	37008.07
656.742	37142.53
657.094	37110.21
657.445	37317.44
657.796	37234.95
658.147	37174.84
658.498	37182.3
658.849	37256.87
659.2	37159.93
659.551	37097.78
659.902	37274.5
660.253	37134.39
660.604	37178.23
660.955	37032.92
661.306	37218.23
661.656	36931.91
662.007	37096.2
662.358	37109.31
662.708	37058.46
663.059	37058.69
663.409	36917
663.76	37131
664.11	37146.14
664.461	37160.38
664.811	37053.94
665.161	37042.64
665.511	36997.9
665.862	36882.87
666.212	37114.28
666.562	37148.4
666.912	37065.01
667.262	37001.29
667.612	36968.75
667.962	36998.35
668.312	36895.08
668.662	37122.64
669.011	36835.19
669.361	36825.92
669.711	36877.9
670.06	36780.28
670.41	36820.95
670.76	36750.45
671.109	37054.84
671.459	36902.08
671.808	36736.21
672.157	36943.21
672.507	36621.41
672.856	36842.65
673.205	36738.02
673.554	36860.05
673.904	36738.92
674.253	36907.73
674.602	36680.84
674.951	36181.87
675.3	36128.77
675.649	36667.96
675.998	36737.79
676.346	36621.86
676.695	36838.58
677.044	36460.28
677.393	36562.65
677.741	36716.77
678.09	36519.94
678.438	36409.21
678.787	36601.98
679.135	36611.01
679.484	36262.55
679.832	36522.2
680.181	36183.68
680.529	36420.74
680.877	36157.02
681.225	36336.9
681.573	36376.9
681.922	36162.21
682.27	36080.41
682.618	36075.44
682.966	35935.78
683.314	36007.64
683.661	35956.79
684.009	35812.17
684.357	35614.43
684.705	35635.9
685.053	35689.23
685.4	35526.3
685.748	35425.28
686.095	35483.36
686.443	35393.19
686.79	35215.8
687.138	35425.51
687.485	35398.84
687.832	35090.15
688.18	35283.37
688.527	35050.15
688.874	35081.34
689.221	35012.64
689.568	34873.21
689.915	34814.9
690.262	34783.04
690.609	34673.66
690.956	34616.26
691.303	34554.57
691.65	34552.31
691.997	34479.77
692.344	34192.77
692.69	34177.86
693.037	34248.37
693.383	34122.27
693.73	34187.12
694.077	33982.84
694.423	33877.08
694.769	33869.62
695.116	33690.41
695.462	33662.17
695.808	33540.36
696.155	33654.26
696.501	33416.07
696.847	33487.26
697.193	33155.74
697.539	33297.66
697.885	32976.08
698.231	32947.83
698.577	32976.76
698.923	32889.98
699.269	32765.24
699.614	32644.79
699.96	32605.7
700.306	32578.58
700.651	32392.14
700.997	32292.71
701.342	32313.73
701.688	32271.69
702.033	32158.7
702.379	32052.94
702.724	32045.03
703.069	32038.93
703.415	31745.15
703.76	31794.19
704.105	31773.63
704.45	31577.47
704.795	31586.29
705.14	31462.9
705.485	31394.65
705.83	31212.51
706.175	31336.8
706.52	31210.93
706.865	31062.46
707.209	31100.2
707.554	30975.23
707.899	31092.74
708.243	30804.84
708.588	30800.55
708.932	30642.13
709.277	30592.19
709.621	30747.67
709.966	30503.83
710.31	30616.6
710.654	30214.57
710.998	30294.12
711.342	30256.61
711.687	30112.43
712.031	30078.98
712.375	29960.57
712.719	30057.97
713.063	29934.13
713.407	30044.18
713.75	29862.04
714.094	29750.18
714.438	29576.85
714.782	29711.76
715.125	29532.78
715.469	29575.04
715.812	29385.44
716.156	29187.93
716.499	29274.48
716.843	29261.15
717.186	29227.03
717.53	29295.27
717.873	29240.59
718.216	29232.68
718.559	29003.76
718.902	28872.91
719.246	28969.86
719.589	28923.31
719.932	28718.11
720.275	28740.94
720.617	28698.45
720.96	28583.43
721.303	28664.56
721.646	28734.84
721.989	28491.23
722.331	28592.69
722.674	28495.3
723.016	28390.89
723.359	28374.17
723.701	28436.54
724.044	28283.32
724.386	28091.69
724.729	28374.4
725.071	28124.68
725.413	28098.24
725.755	28091.92
726.097	28070.45
726.439	27826.61
726.782	27925.59
727.124	28002.2
727.465	27731.25
727.807	27711.81
728.149	27816.22
728.491	27589.11
728.833	27642.44
729.175	27525.6
729.516	27503.68
729.858	27477.02
730.199	27615.77
730.541	27437.7
730.882	27327.19
731.224	27548.43
731.565	27286.29
731.906	27224.82
732.248	27278.38
732.589	27082
732.93	27159.51
733.271	27026.41
733.612	27150.7
733.953	27112.28
734.294	27045.39
734.635	26902.57
734.976	26943.25
735.317	26869.58
735.658	26831.84
735.999	26835.45
736.339	26805.17
736.68	26794.1
737.021	26847.43
737.361	26545.52
737.702	26847.2
738.042	26626.87
738.383	26654.67
738.723	26589.81
739.063	26583.48
739.404	26592.3
739.744	26433.2
740.084	26428.46
740.424	26391.17
740.764	26284.51
741.104	26470.94
741.444	26190.05
741.784	26201.12
742.124	26245.41
742.464	26090.39
742.804	26115.7
743.143	26072.53
743.483	26202.7
743.823	25885.87
744.162	25783.73
744.502	25942.82
744.841	25836.16
745.181	25906.21
745.52	25778.98
745.86	25930.17
746.199	25681.13
746.538	25647.46
746.877	25772.2
747.216	25653.56
747.556	25580.12
747.895	25606.78
748.234	25593.23
748.573	25403.85
748.911	25396.62
749.25	25451.08
749.589	25218.09
749.928	25408.6
750.267	25311.65
750.605	25246.34
750.944	25188.04
751.283	25199.79
751.621	25138.1
751.96	25064.88
752.298	25067.59
752.636	24940.14
752.975	24942.17
753.313	24846.13
753.651	24918.44
753.989	24709.63
754.327	24772.23
754.666	24642.29
755.004	24712.8
755.342	24590.77
755.679	24568.85
756.017	24371.56
756.355	24465.57
756.693	24393.03
757.031	24332.69
757.368	24249.76
757.706	24212.24
758.044	24095.19
758.381	24142.42
758.719	24066.26
759.056	24046.83
759.394	23844.34
759.731	23814.06
