Data from hue_220_FLMS001491_00017.txt Node
Date: Tue Feb 07 16:38:36 GMT 2017
User: dcchb
Spectrometer: FLMS00149
Trigger mode: 0
Integration Time (sec): 2.000000E-2
Scans to average: 10
Electric dark correction enabled: true
Nonlinearity correction enabled: false
Boxcar width: 0
XAxis mode: Wavelengths
Number of Pixels in Spectrum: 2048
>>>>>Begin Spectral Data<<<<<
341.393	-0.18
341.776	-0.18
342.16	-0.18
342.543	-85.61
342.927	-53.52
343.31	-76.11
343.693	-83.35
344.077	-75.66
344.46	-59.84
344.843	-61.88
345.226	-26.17
345.61	-38.15
345.993	-4.7
346.376	6.82
346.759	13.15
347.142	15.86
347.525	38.46
347.908	61.51
348.291	75.52
348.674	92.24
349.057	122.3
349.44	121.4
349.823	134.05
350.206	159.36
350.588	175.86
350.971	209.3
351.354	215.86
351.737	233.71
352.119	242.75
352.502	280.26
352.884	260.83
353.267	275.97
353.65	294.5
354.032	287.49
354.414	291.79
354.797	317.32
355.179	310.32
355.562	302.63
355.944	336.76
356.326	323.2
356.709	320.03
357.091	303.31
357.473	333.37
357.855	336.08
358.238	355.06
358.62	331.79
359.002	341.05
359.384	338.79
359.766	348.06
360.148	329.98
360.53	338.11
360.912	334.72
361.294	338.56
361.676	321.62
362.057	332.46
362.439	338.11
362.821	325.91
363.203	322.52
363.584	304.44
363.966	321.39
364.348	320.49
364.729	320.71
365.111	299.92
365.493	297.44
365.874	293.14
366.256	319.36
366.637	304.89
367.019	306.7
367.4	309.19
367.781	296.08
368.163	312.8
368.544	322.52
368.925	298.11
369.306	302.18
369.688	305.12
370.069	307.6
370.45	317.32
370.831	331.33
371.212	293.14
371.593	299.24
371.974	308.96
372.355	305.57
372.736	320.26
373.117	313.25
373.498	298.57
373.879	321.39
374.26	307.83
374.641	284.78
375.021	302.18
375.402	297.44
375.783	328.4
376.163	320.26
376.544	320.26
376.925	327.94
377.305	329.75
377.686	310.32
378.066	328.4
378.447	330.43
378.827	316.64
379.208	325.01
379.588	332.24
379.968	342.18
380.349	340.15
380.729	340.15
381.109	333.37
381.489	345.12
381.87	339.69
382.25	336.08
382.63	322.75
383.01	334.27
383.39	322.52
383.77	342.18
384.15	342.86
384.53	338.11
384.91	350.99
385.29	348.51
385.67	338.11
386.049	356.64
386.429	344.89
386.809	351.45
387.189	344.89
387.568	348.28
387.948	341.73
388.328	360.03
388.707	320.71
389.087	344.21
389.466	334.27
389.846	349.86
390.225	354.38
390.605	361.61
390.984	380.82
391.363	367.94
391.743	356.19
392.122	372.46
392.501	369.75
392.881	373.59
393.26	357.77
393.639	372.24
394.018	378.79
394.397	366.81
394.776	366.59
395.155	388.96
395.534	365.68
395.913	366.36
396.292	396.64
396.671	379.02
397.05	365.23
397.429	378.56
397.808	376.98
398.186	409.3
398.565	382.18
398.944	406.13
399.323	420.14
399.701	390.99
400.08	375.17
400.458	376.3
400.837	429.41
401.215	416.53
401.594	401.16
401.972	420.14
402.351	425.12
402.729	417.21
403.107	414.72
403.486	429.64
403.864	436.87
404.242	421.5
404.62	450.65
404.999	449.07
405.377	443.65
405.755	456.53
406.133	443.19
406.511	437.32
406.889	463.76
407.267	463.98
407.645	461.95
408.023	469.41
408.401	478.45
408.779	480.03
409.156	504.44
409.534	507.83
409.912	497.2
410.29	504.66
410.667	532.91
411.045	525.9
411.422	539.69
411.8	552.34
412.178	531.33
412.555	531.55
412.933	556.19
413.31	559.12
413.687	577.2
414.065	565
414.442	598.44
414.819	597.09
415.197	609.74
415.574	611.55
415.951	617.65
416.328	643.42
416.705	632.79
417.082	613.81
417.46	662.85
417.837	663.98
418.214	674.37
418.591	660.14
418.967	684.09
419.344	674.6
419.721	710.76
420.098	697.88
420.475	715.5
420.852	719.57
421.228	760.47
421.605	763.19
421.982	763.41
422.358	767.71
422.735	804.54
423.111	820.81
423.488	814.03
423.864	809.51
424.241	817.87
424.617	874.37
424.994	856.97
425.37	840.92
425.746	875.5
426.123	909.85
426.499	906.69
426.875	933.35
427.251	935.84
427.627	936.29
428.003	973.58
428.379	942.16
428.756	973.35
429.132	971.09
429.507	977.42
429.883	1006.8
430.259	1015.16
430.635	1042.73
431.011	1040.69
431.387	1076.17
431.763	1063.74
432.138	1096.06
432.514	1109.39
432.89	1103.52
433.265	1127.7
433.641	1177.41
434.016	1175.38
434.392	1205.89
434.767	1231.42
435.143	1231.65
435.518	1264.87
435.894	1249.05
436.269	1289.05
436.644	1323.4
437.02	1326.56
437.395	1332.66
437.77	1363.17
438.145	1400.23
438.52	1437.52
438.895	1453.79
439.271	1450.4
439.646	1482.94
440.021	1513
440.395	1536.05
440.77	1493.11
441.145	1555.26
441.52	1580.11
441.895	1618.76
442.27	1632.99
442.645	1592.32
443.019	1676.16
443.394	1654.91
443.769	1671.64
444.143	1662.37
444.518	1718.87
444.892	1707.79
445.267	1710.05
445.641	1767
446.016	1755.93
446.39	1743.73
446.764	1765.87
447.139	1787.34
447.513	1802.48
447.887	1813.55
448.262	1801.12
448.636	1811.75
449.01	1875.93
449.384	1896.72
449.758	1860.11
450.132	1899.65
450.506	1922.7
450.88	1919.99
451.254	1925.87
451.628	1994.79
452.002	1978.97
452.376	2005.19
452.75	2002.02
453.123	2031.18
453.497	2054.45
453.871	2063.04
454.244	2128.57
454.618	2108.69
454.992	2128.12
455.365	2120.89
455.739	2202.92
456.112	2222.58
456.486	2214
456.859	2263.71
457.232	2264.84
457.606	2293.09
457.979	2286.99
458.352	2326.08
458.725	2358.62
459.099	2362.24
459.472	2439.3
459.845	2453.54
460.218	2490.6
460.591	2520.88
460.964	2493.08
461.337	2541.22
461.71	2589.8
462.083	2577.6
462.456	2605.85
462.829	2610.14
463.201	2680.65
463.574	2675.68
463.947	2727.88
464.32	2764.72
464.692	2799.52
465.065	2789.8
465.438	2840.42
465.81	2875
466.183	2904.15
466.555	2950.7
466.928	2991.15
467.3	3003.13
467.672	3010.81
468.045	3058.49
468.417	3105.95
468.789	3098.94
469.161	3167.64
469.534	3207.19
469.906	3226.85
470.278	3269.56
470.65	3332.84
471.022	3344.14
471.394	3445.83
471.766	3460.97
472.138	3465.04
472.51	3544.81
472.882	3609.44
473.253	3582.32
473.625	3666.16
473.997	3738.25
474.369	3723.33
474.74	3775.31
475.112	3779.83
475.484	3913.16
475.855	3973.27
476.227	4018.92
476.598	4079.71
476.97	4081.29
477.341	4154.74
477.713	4245.81
478.084	4244.45
478.455	4325.13
478.827	4368.29
479.198	4498.23
479.569	4525.57
479.94	4575.06
480.311	4599.92
480.682	4703.2
481.053	4782.52
481.424	4834.49
481.795	4925.79
482.166	4979.35
482.537	4955.39
482.908	5142.28
483.279	5114.48
483.65	5179.12
484.021	5217.53
484.391	5329.17
484.762	5339.34
485.133	5446.68
485.503	5463.18
485.874	5593.79
486.244	5595.83
486.615	5673.11
486.985	5725.99
487.356	5824.3
487.726	5857.29
488.097	5927.8
488.467	5939.77
488.837	6044.18
489.207	6146.77
489.578	6276.94
489.948	6245.98
490.318	6366.65
490.688	6361.68
491.058	6403.49
491.428	6513.77
491.798	6563.03
492.168	6664.95
492.538	6642.58
492.908	6762.58
493.278	6808
493.648	6786.98
494.017	6872.63
494.387	6882.12
494.757	7017.03
495.126	7029.24
495.496	7048.67
495.866	7080.76
496.235	7104.71
496.605	7192.4
496.974	7160.31
497.344	7238.04
497.713	7240.08
498.082	7328.89
498.452	7320.75
498.821	7400.3
499.19	7389
499.559	7445.04
499.928	7499.28
500.298	7482.56
500.667	7548.32
501.036	7553.97
501.405	7585.15
501.774	7584.7
502.143	7623.12
502.512	7713.74
502.88	7748.54
503.249	7713.51
503.618	7741.99
503.987	7796.45
504.356	7826.28
504.724	7849.78
505.093	7826.73
505.462	7819.05
505.83	7860.85
506.199	7923
506.567	7937.01
506.936	7977.91
507.304	8026.95
507.672	8024.69
508.041	8068.08
508.409	8079.83
508.777	8086.38
509.145	8137.68
509.514	8163.44
509.882	8126.61
510.25	8174.29
510.618	8203.89
510.986	8173.16
511.354	8283.67
511.722	8268.98
512.09	8286.38
512.458	8286.15
512.826	8290.67
513.193	8302.2
513.561	8365.92
513.929	8398.69
514.297	8433.72
514.664	8457.22
515.032	8383.55
515.4	8447.73
515.767	8485.24
516.135	8485.92
516.502	8331.12
516.869	8485.92
517.237	8391.69
517.604	8443.66
517.972	8432.36
518.339	8487.05
518.706	8447.5
519.073	8452.25
519.44	8487.05
519.808	8591.45
520.175	8480.95
520.542	8564.56
520.909	8564.34
521.276	8523.21
521.643	8569.08
522.009	8615.86
522.376	8607.27
522.743	8670.1
523.11	8681.62
523.477	8701.73
523.843	8688.63
524.21	8779.7
524.577	8753.26
524.943	8742.64
525.31	8744.45
525.676	8782.18
526.043	8775.63
526.409	8743.32
526.776	8815.86
527.142	8779.92
527.508	8805.69
527.874	8822.18
528.241	8825.8
528.607	8799.13
528.973	8846.36
529.339	8794.61
529.705	8852.69
530.071	8901.05
530.437	8873.48
530.803	8891.79
531.169	8882.75
531.535	8818.34
531.901	8788.06
532.267	8836.87
532.632	8830.09
532.998	8874.61
533.364	8831
533.73	8838.23
534.095	8849.08
534.461	8802.75
534.826	8823.09
535.192	8852.92
535.557	8801.17
535.923	8753.71
536.288	8747.16
536.653	8764.33
537.019	8662.19
537.384	8684.11
537.749	8660.83
538.114	8656.09
538.479	8657.22
538.845	8623.77
539.21	8649.98
539.575	8615.41
539.94	8571.34
540.305	8604.34
540.67	8538.57
541.034	8550.1
541.399	8529.99
541.764	8481.18
542.129	8471.46
542.494	8526.6
542.858	8518.46
543.223	8418.13
543.587	8479.14
543.952	8413.61
544.316	8397.11
544.681	8401.4
545.045	8409.99
545.41	8400.05
545.774	8397.11
546.138	8353.5
546.503	8311.46
546.867	8276.89
547.231	8298.81
547.595	8281.18
547.959	8266.94
548.324	8262.88
548.688	8195.08
549.052	8124.57
549.416	8184.01
549.779	8120.05
550.143	8098.81
550.507	8129.32
550.871	8115.76
551.235	8029.21
551.599	8087.06
551.962	8053.62
552.326	8069.66
552.689	8084.8
553.053	8034.63
553.417	8020.85
553.78	8066.04
554.143	8055.88
554.507	8036.89
554.87	7978.14
555.234	8056.78
555.597	7925.71
555.96	7931.59
556.323	7960.29
556.686	7924.13
557.05	7954.18
557.413	7977.91
557.776	7935.65
558.139	7908.53
558.502	7937.01
558.865	7977.91
559.228	7936.56
559.59	7970.23
559.953	7906.95
560.316	7999.15
560.679	7950.57
561.041	7995.31
561.404	7973.17
561.767	7993.28
562.129	7944.24
562.492	8010.91
562.854	7939.95
563.217	7980.4
563.579	7947.4
563.941	7975.88
564.304	8002.32
564.666	8005.48
565.028	8059.04
565.39	8022.88
565.753	8058.36
566.115	8050
566.477	8066.5
566.839	8074.63
567.201	8125.48
567.563	8177.68
567.925	8154.86
568.287	8094.97
568.648	8177.23
569.01	8146.49
569.372	8177.68
569.734	8154.63
570.095	8217.23
570.457	8157.34
570.819	8234.85
571.18	8179.26
571.542	8215.19
571.903	8176.78
572.265	8268.07
572.626	8267.62
572.987	8271.46
573.349	8315.53
573.71	8319.37
574.071	8311.69
574.432	8386.94
574.794	8407.05
575.155	8377.22
575.516	8423.78
575.877	8389.65
576.238	8371.57
576.599	8431.01
576.96	8422.19
577.32	8439.14
577.681	8472.14
578.042	8558.24
578.403	8509.2
578.763	8479.59
579.124	8558.91
579.485	8573.38
579.845	8584.45
580.206	8593.49
580.566	8554.39
580.927	8636.43
581.287	8639.36
581.648	8614.28
582.008	8691.34
582.368	8688.63
582.728	8681.85
583.089	8750.55
583.449	8721.85
583.809	8693.37
584.169	8711
584.529	8793.48
584.889	8796.65
585.249	8696.54
585.609	8778.57
585.969	8822.41
586.329	8803.88
586.688	8835.74
587.048	8822.18
587.408	8818.79
587.768	8832.8
588.127	8847.04
588.487	8894.72
588.846	8933.59
589.206	8873.71
589.565	8909.41
589.925	8969.52
590.284	8881.16
590.643	8953.71
591.003	8973.82
591.362	8986.7
591.721	9007.94
592.08	9026.92
592.44	9011.1
592.799	9016.98
593.158	8992.35
593.517	9071.89
593.876	9043.42
594.235	9016.08
594.593	9044.1
594.952	9031.44
595.311	9068.73
595.67	9115.96
596.029	9085.91
596.387	9183.08
596.746	9280.25
597.104	9124.77
597.463	9125
597.822	9126.36
598.18	9157.09
598.538	9182.63
598.897	9233.92
599.255	9152.12
599.613	9230.53
599.972	9200.03
600.33	9169.07
600.688	9187.6
601.046	9200.03
601.404	9290.42
601.762	9226.24
602.12	9306.69
602.478	9224.88
602.836	9214.94
603.194	9226.24
603.552	9268.95
603.91	9205
604.268	9257.65
604.625	9313.02
604.983	9308.72
605.341	9257.43
605.698	9324.77
606.056	9345.56
606.413	9342.4
606.771	9302.85
607.128	9365.67
607.485	9268.05
607.843	9276.63
608.2	9345.56
608.557	9403.64
608.914	9367.03
609.272	9371.32
609.629	9372.68
609.986	9456.97
610.343	9317.31
610.7	9452.9
611.057	9396.41
611.414	9442.28
611.771	9395.05
612.127	9475.73
612.484	9443.18
612.841	9444.09
613.198	9435.95
613.554	9454.26
613.911	9509.62
614.267	9496.29
614.624	9477.08
614.98	9481.6
615.337	9431.88
615.693	9555.5
616.05	9515.95
616.406	9573.58
616.762	9550.53
617.118	9560.92
617.475	9531.77
617.831	9567.7
618.187	9581.03
618.543	9560.69
618.899	9648.15
619.255	9567.93
619.611	9588.49
619.967	9637.98
620.323	9734.48
620.678	9659.68
621.034	9578.55
621.39	9660.13
621.746	9600.24
622.101	9761.37
622.457	9595.04
622.812	9569.51
623.168	9670.52
623.523	9672.78
623.879	9631.88
624.234	9684.99
624.589	9562.73
624.945	9649.73
625.3	9689.05
625.655	9625.55
626.01	9619.9
626.365	9631.43
626.72	9595.27
627.075	9621.48
627.43	9656.96
627.785	9604.54
628.14	9615.38
628.495	9653.35
628.85	9581.94
629.205	9487.02
629.559	9580.58
629.914	9589.17
630.269	9565.89
630.623	9603.86
630.978	9527.48
631.332	9602.95
631.687	9587.13
632.041	9543.75
632.396	9567.47
632.75	9546.68
633.104	9504.43
633.459	9452.9
633.813	9431.66
634.167	9578.32
634.521	9489.06
634.875	9487.48
635.229	9473.47
635.583	9428.27
635.937	9335.16
636.291	9292.91
636.645	9400.02
636.999	9406.8
637.352	9409.51
637.706	9420.36
638.06	9408.83
638.413	9350.98
638.767	9369.06
639.121	9449.29
639.474	9280.7
639.828	9276.63
640.181	9320.25
640.534	9298.1
640.888	9291.55
641.241	9260.14
641.594	9244.32
641.947	9287.26
642.301	9232.79
642.654	9200.93
643.007	9297.88
643.36	9248.39
643.713	9162.29
644.066	9197.31
644.419	9219.91
644.771	9153.47
645.124	9059.69
645.477	9032.12
645.83	9083.87
646.182	8922.07
646.535	8973.14
646.888	8873.71
647.24	8822.64
647.593	8913.03
647.945	8876.87
648.298	8871.9
648.65	8857.66
649.002	8904.67
649.355	8859.02
649.707	8863.31
650.059	8914.38
650.411	9045.68
650.763	9017.88
651.115	9127.26
651.467	9134.94
651.819	9050.43
652.171	9145.56
652.523	9052.23
652.875	9078.45
653.227	9028.73
653.578	9095.85
653.93	9052.23
654.282	9031.44
654.633	8975.17
654.985	9048.84
655.337	9045.23
655.688	9063.76
656.039	9144.21
656.391	9073.02
656.742	9072.57
657.094	9058.11
657.445	9138.11
657.796	9049.07
658.147	9072.8
658.498	9087.26
658.849	9051.56
659.2	9097.88
659.551	9108.05
659.902	9095.17
660.253	9173.59
660.604	9133.81
660.955	9035.51
661.306	9060.82
661.656	9136.07
662.007	9102.18
662.358	9062.85
662.708	9121.84
663.059	9097.43
663.409	9035.74
663.76	9129.29
664.11	9071.67
664.461	9143.98
664.811	9190.54
665.161	9129.29
665.511	9126.58
665.862	9128.16
666.212	9184.21
666.562	9190.54
666.912	9151.21
667.262	9168.16
667.612	9093.36
667.962	9193.25
668.312	9122.06
668.662	9197.54
669.011	9110.99
669.361	9191.67
669.711	9110.54
670.06	9130.42
670.41	9149.86
670.76	9058.56
671.109	9127.49
671.459	9077.54
671.808	9080.03
672.157	9082.52
672.507	9034.16
672.856	8992.12
673.205	9036.41
673.554	9094.94
673.904	9049.52
674.253	9078.45
674.602	9061.95
674.951	8897.66
675.3	8814.73
675.649	9021.73
675.998	9068.73
676.346	9004.78
676.695	8977.89
677.044	8990.09
677.393	8972.24
677.741	9009.52
678.09	8921.62
678.438	8988.28
678.787	8941.95
679.135	8886.14
679.484	8852.92
679.832	8879.58
680.181	8899.24
680.529	8853.37
680.877	8841.39
681.225	8792.35
681.573	8834.16
681.922	8776.76
682.27	8844.1
682.618	8829.64
682.966	8793.26
683.314	8715.75
683.661	8720.49
684.009	8761.62
684.357	8656.09
684.705	8649.31
685.053	8649.76
685.4	8670.1
685.748	8645.01
686.095	8584
686.443	8588.07
686.79	8521.63
687.138	8552.81
687.485	8517.78
687.832	8511.91
688.18	8528.63
688.527	8442.53
688.874	8470.55
689.221	8464.23
689.568	8394.4
689.915	8329.54
690.262	8311.24
690.609	8312.37
690.956	8265.59
691.303	8321.86
691.65	8284.12
691.997	8275.08
692.344	8151.92
692.69	8136.1
693.037	8145.36
693.383	8115.31
693.73	8167.29
694.077	8063.33
694.423	8085.71
694.769	8013.84
695.116	8074.18
695.462	8004.13
695.808	7961.64
696.155	7969.78
696.501	7896.11
696.847	7894.3
697.193	7858.14
697.539	7852.94
697.885	7782.66
698.231	7771.36
698.577	7750.57
698.923	7766.84
699.269	7697.69
699.614	7635.55
699.96	7569.11
700.306	7617.24
700.651	7561.43
700.997	7579.5
701.342	7493.18
701.688	7466.74
702.033	7447.76
702.379	7450.02
702.724	7402.33
703.069	7429.23
703.415	7314.43
703.76	7295.22
704.105	7297.93
704.45	7272.17
704.795	7228.33
705.14	7261.55
705.485	7238.72
705.83	7198.05
706.175	7113.75
706.52	7197.14
706.865	7110.36
707.209	7111.04
707.554	7088.44
707.899	7086.86
708.243	7113.98
708.588	7052.06
708.932	6987.2
709.277	7051.83
709.621	7004.83
709.966	6970.03
710.31	6981.33
710.654	6907.43
710.998	6924.61
711.342	6950.82
711.687	6879.18
712.031	6876.92
712.375	6860.43
712.719	6837.6
713.063	6812.97
713.407	6820.65
713.75	6784.95
714.094	6779.07
714.438	6758.73
714.782	6711.73
715.125	6689.81
715.469	6737.94
715.812	6758.06
716.156	6684.39
716.499	6708.79
716.843	6671.28
717.186	6675.35
717.53	6641.68
717.873	6703.14
718.216	6682.13
718.559	6611.17
718.902	6624.73
719.246	6606.2
719.589	6551.96
719.932	6508.8
720.275	6614.11
720.617	6569.59
720.96	6537.27
721.303	6581.79
721.646	6522.81
721.989	6471.74
722.331	6483.94
722.674	6599.87
723.016	6542.24
723.359	6506.76
723.701	6550.83
724.044	6430.38
724.386	6388.12
724.729	6448.69
725.071	6436.71
725.413	6429.48
725.755	6420.66
726.097	6434
726.439	6379.31
726.782	6405.75
727.124	6440.1
727.465	6396.03
727.807	6379.31
728.149	6405.75
728.491	6399.42
728.833	6430.83
729.175	6366.65
729.516	6349.25
729.858	6408.24
730.199	6387.9
730.541	6316.71
730.882	6365.75
731.224	6383.83
731.565	6308.35
731.906	6429.48
732.248	6426.54
732.589	6362.81
732.93	6335.47
733.271	6396.26
733.612	6378.63
733.953	6391.29
734.294	6404.85
734.635	6314.23
734.976	6378.18
735.317	6386.99
735.658	6390.83
735.999	6433.09
736.339	6450.49
736.68	6410.95
737.021	6403.94
737.361	6417.95
737.702	6387.67
738.042	6398.97
738.383	6393.55
738.723	6464.05
739.063	6388.8
739.404	6409.82
739.744	6473.32
740.084	6425.86
740.424	6489.82
740.764	6446.88
741.104	6472.19
741.444	6508.12
741.784	6507.89
742.124	6530.72
742.464	6497.5
742.804	6579.98
743.143	6521.23
743.483	6612.07
743.823	6517.16
744.162	6597.16
744.502	6659.98
744.841	6649.36
745.181	6701.11
745.52	6707.66
745.86	6849.58
746.199	6793.08
746.538	6770.71
746.877	6872.63
747.216	6884.16
747.556	6887.09
747.895	6961.22
748.234	6975.9
748.573	6978.62
748.911	7042.8
749.25	7072.4
749.589	7186.52
749.928	7244.37
750.267	7287.76
750.605	7343.13
750.944	7430.13
751.283	7452.95
751.621	7595.77
751.96	7612.05
752.298	7698.15
752.636	7798.26
752.975	7883.45
753.313	7917.57
753.651	8120.73
753.989	8139.72
754.327	8234.4
754.666	8287.06
755.004	8416.77
755.342	8576.09
755.679	8702.19
756.017	8801.84
756.355	8927.94
756.693	9067.15
757.031	9136.07
757.368	9276.18
757.706	9435.95
758.044	9593.24
758.381	9736.28
758.719	9840.46
759.056	9997.07
759.394	10145.54
759.731	10304.63
760.068	10388.47
760.405	10517.05
760.743	10749.36
761.08	10936.93
761.417	11080.43
761.754	11211.95
762.091	11432.06
762.428	11520.64
762.765	11611.94
763.102	11803.35
763.438	12011.03
763.775	12160.85
764.112	12426.61
764.449	12482.65
764.785	12748.41
765.122	12763.55
765.458	13011.45
765.795	13121.96
766.131	13370.54
766.467	13431.78
766.804	13589.97
767.14	13737.99
767.476	13899.79
767.812	13999.67
768.148	14257.29
768.485	14368.7
768.821	14468.14
