Data from hue_330_FLMS001491_8.txt Node
Date: Mon Feb 06 15:44:48 GMT 2017
User: dcchb
Spectrometer: FLMS00149
Trigger mode: 0
Integration Time (sec): 2.000000E-2
Scans to average: 10
Electric dark correction enabled: true
Nonlinearity correction enabled: false
Boxcar width: 0
XAxis mode: Wavelengths
Number of Pixels in Spectrum: 2048
>>>>>Begin Spectral Data<<<<<
341.393	-31.88
341.776	-31.88
342.16	-31.88
342.543	-66.45
342.927	-73.46
343.31	-54.02
343.693	-65.1
344.077	-65.55
344.46	-61.48
344.843	-58.54
345.226	-60.13
345.61	-36.17
345.993	-31.65
346.376	14.67
346.759	20.55
347.142	16.93
347.525	50.38
347.908	67.1
348.291	52.64
348.674	101.23
349.057	109.14
349.44	90.38
349.823	126.99
350.206	157.04
350.588	182.81
350.971	187.1
351.354	214.44
351.737	224.84
352.119	232.97
352.502	244.5
352.884	266.19
353.267	263.03
353.65	275.01
354.032	279.07
354.414	298.28
354.797	292.86
355.179	321.79
355.562	325.85
355.944	326.98
356.326	311.16
356.709	315.68
357.091	316.81
357.473	338.28
357.855	333.99
358.238	308
358.62	315.68
359.002	337.6
359.384	321.56
359.766	323.82
360.148	345.51
360.53	333.08
360.912	330.82
361.294	319.53
361.676	321.79
362.057	324.05
362.439	321.79
362.821	299.41
363.203	292.86
363.584	329.92
363.966	306.64
364.348	319.07
364.729	320.43
365.111	289.24
365.493	309.58
365.874	312.97
366.256	290.15
366.637	301.45
367.019	321.56
367.4	310.26
367.781	298.06
368.163	293.09
368.544	303.25
368.925	309.13
369.306	324.05
369.688	307.32
370.069	300.32
370.45	272.3
370.831	312.97
371.212	304.16
371.593	302.12
371.974	285.4
372.355	327.43
372.736	308.9
373.117	305.74
373.498	315.91
373.879	305.29
374.26	329.92
374.641	314.78
375.021	312.97
375.402	318.4
375.783	310.03
376.163	315.01
376.544	300.77
376.925	307.77
377.305	333.08
377.686	323.14
378.066	337.38
378.447	319.07
378.827	319.98
379.208	311.84
379.588	305.51
379.968	334.21
380.349	304.84
380.729	319.53
381.109	317.04
381.489	331.05
381.87	310.49
382.25	330.6
382.63	318.62
383.01	323.14
383.39	327.89
383.77	329.92
384.15	333.54
384.53	334.89
384.91	322.46
385.29	321.11
385.67	344.16
386.049	352.52
386.429	338.51
386.809	342.8
387.189	329.69
387.568	368.34
387.948	355
388.328	329.02
388.707	364.72
389.087	358.62
389.466	340.09
389.846	337.83
390.225	347.77
390.605	342.35
390.984	355.23
391.363	378.96
391.743	368.56
392.122	346.87
392.501	355.46
392.881	376.47
393.26	349.36
393.639	371.5
394.018	352.97
394.397	366.08
394.776	371.05
395.155	345.06
395.534	333.08
395.913	360.43
396.292	375.34
396.671	395
397.05	383.48
397.429	369.47
397.808	388.22
398.186	392.74
398.565	388.45
398.944	373.08
399.323	398.62
399.701	396.13
400.08	388
400.458	398.62
400.837	396.59
401.215	392.74
401.594	384.16
401.972	369.69
402.351	395.23
402.729	401.11
403.107	400.65
403.486	414.89
403.864	401.11
404.242	409.47
404.62	396.59
404.999	409.69
405.377	418.28
405.755	413.76
406.133	445.85
406.511	432.52
406.889	436.36
407.267	416.25
407.645	439.07
408.023	430.93
408.401	459.86
408.779	468.45
409.156	465.74
409.534	450.14
409.912	466.19
410.29	470.48
410.667	467.77
411.045	477.71
411.422	471.84
411.8	477.71
412.178	491.5
412.555	492.63
412.933	492.18
413.31	493.76
413.687	503.93
414.065	525.4
414.442	512.74
414.819	543.25
415.197	519.52
415.574	524.27
415.951	520.2
416.328	533.53
416.705	542.8
417.082	560.65
417.46	551.16
417.837	581.67
418.214	575.56
418.591	578.95
418.967	594.09
419.344	595.22
419.721	580.08
420.098	576.92
420.475	627.31
420.852	615.79
421.228	618.95
421.605	626.64
421.982	609.91
422.358	663.92
422.735	632.51
423.111	632.06
423.488	641.1
423.864	671.15
424.241	663.25
424.617	673.64
424.994	684.94
425.37	672.96
425.746	698.05
426.123	672.28
426.499	693.53
426.875	694.2
427.251	718.61
427.627	765.62
428.003	728.55
428.379	723.81
428.756	740.08
429.132	719.74
429.507	743.7
429.883	757.93
430.259	800.64
430.635	780.53
431.011	813.75
431.387	821.43
431.763	813.52
432.138	809.91
432.514	847.2
432.89	821.43
433.265	832.51
433.641	836.57
434.016	876.57
434.392	865.73
434.767	861.43
435.143	865.95
435.518	881.32
435.894	905.27
436.269	903.24
436.644	917.48
437.02	916.12
437.395	910.24
437.77	951.15
438.145	957.25
438.52	947.53
438.895	943.69
439.271	980.3
439.646	972.84
440.021	1001.77
440.395	1000.64
440.77	992.73
441.145	980.3
441.52	999.96
441.895	1020.07
442.27	1008.09
442.645	1028.66
443.019	1017.59
443.394	1024.14
443.769	1022.78
444.143	1051.48
444.518	1049
444.892	1054.2
445.267	1053.29
445.641	1026.85
446.016	1049.45
446.39	1086.74
446.764	1067.98
447.139	1072.5
447.513	1066.4
447.887	1097.58
448.262	1084.7
448.636	1076.79
449.01	1089.45
449.384	1095.55
449.758	1102.78
450.132	1105.95
450.506	1113.63
450.88	1133.52
451.254	1124.93
451.628	1147.07
452.002	1140.07
452.376	1177.13
452.75	1181.65
453.123	1178.26
453.497	1178.03
453.871	1172.61
454.244	1187.3
454.618	1184.81
454.992	1212.38
455.365	1221.42
455.739	1233.17
456.112	1233.85
456.486	1261.65
456.859	1248.54
457.232	1283.34
457.606	1270.69
457.979	1285.38
458.352	1300.74
458.725	1309.1
459.099	1341.65
459.472	1345.71
459.845	1346.17
460.218	1333.74
460.591	1357.24
460.964	1365.83
461.337	1393.4
461.71	1382.32
462.083	1410.8
462.456	1432.04
462.829	1439.72
463.201	1446.5
463.574	1468.42
463.947	1446.05
464.32	1482.43
464.692	1510.68
465.065	1508.42
465.438	1523.11
465.81	1533.73
466.183	1540.74
466.555	1583.22
466.928	1562.66
467.3	1561.98
467.672	1566.95
468.045	1618.7
468.417	1625.71
468.789	1634.75
469.161	1647.4
469.534	1675.2
469.906	1677.23
470.278	1707.51
470.65	1698.92
471.022	1748.41
471.394	1731.69
471.766	1803.78
472.138	1795.42
472.51	1816.44
472.882	1851.69
473.253	1831.58
473.625	1892.14
473.997	1916.09
474.369	1918.13
474.74	1915.19
475.112	1990.67
475.484	1972.59
475.855	1997.9
476.227	2034.06
476.598	2075.64
476.97	2086.48
477.341	2113.38
477.713	2147.27
478.084	2134.39
478.455	2213.94
478.827	2226.37
479.198	2272.92
479.569	2250.32
479.94	2298
480.311	2355.86
480.682	2368.74
481.053	2411
481.424	2433.59
481.795	2479.92
482.166	2499.81
482.537	2524.21
482.908	2528.05
483.279	2555.62
483.65	2600.14
484.021	2664.55
484.391	2673.59
484.762	2697.09
485.133	2726.92
485.503	2752
485.874	2817.09
486.244	2803.75
486.615	2884.43
486.985	2886.46
487.356	2907.48
487.726	2947.7
488.097	3018.21
488.467	2992.9
488.837	3084.42
489.207	3093.92
489.578	3128.27
489.948	3145.89
490.318	3183.18
490.688	3187.25
491.058	3232.44
491.428	3249.62
491.798	3281.93
492.168	3377.75
492.538	3391.76
492.908	3414.59
493.278	3459.56
493.648	3447.58
494.017	3500.91
494.387	3474.02
494.757	3541.81
495.126	3539.78
495.496	3548.37
495.866	3601.47
496.235	3631.98
496.605	3633.56
496.974	3649.61
497.344	3666.78
497.713	3722.37
498.082	3739.32
498.452	3751.3
498.821	3739.55
499.19	3805.54
499.559	3777.29
499.928	3795.14
500.298	3835.37
500.667	3902.26
501.036	3850.73
501.405	3947.23
501.774	3928.02
502.143	3938.64
502.512	3936.83
502.88	3978.19
503.249	3973.89
503.618	3999.43
503.987	4001.46
504.356	4015.93
504.724	4023.38
505.093	4092.99
505.462	4120.78
505.83	4098.41
506.199	4107.45
506.567	4127.11
506.936	4135.24
507.304	4222.7
507.672	4182.93
508.041	4172.76
508.409	4208.46
508.777	4258.86
509.145	4281.68
509.514	4279.2
509.882	4312.41
510.25	4297.73
510.618	4337.27
510.986	4301.12
511.354	4349.02
511.722	4375.01
512.09	4422.92
512.458	4372.07
512.826	4444.39
513.193	4449.59
513.561	4449.36
513.929	4462.02
514.297	4491.39
514.664	4504.05
515.032	4518.74
515.4	4523.48
515.767	4564.84
516.135	4555.12
516.502	4540.88
516.869	4579.07
517.237	4594.89
517.604	4597.38
517.972	4638.96
518.339	4618.62
518.706	4600.09
519.073	4663.14
519.44	4643.93
519.808	4711.27
520.175	4700.88
520.542	4762.57
520.909	4749.24
521.276	4766.19
521.643	4828.56
522.009	4794.66
522.376	4799.86
522.743	4857.94
523.11	4878.95
523.477	4862.91
523.843	4899.29
524.21	4979.29
524.577	4959.86
524.943	4977.48
525.31	4995.33
525.676	5083.47
526.043	5033.07
526.409	5082.79
526.776	5078.95
527.142	5142.9
527.508	5141.77
527.874	5225.39
528.241	5260.41
528.607	5228.32
528.973	5229.45
529.339	5299.28
529.705	5279.17
530.071	5353.52
530.437	5370.69
530.803	5375.44
531.169	5417.7
531.535	5363.91
531.901	5421.31
532.267	5445.04
532.632	5513.06
532.998	5528.65
533.364	5537.47
533.73	5507.64
534.095	5616.79
534.461	5621.08
534.826	5617.24
535.192	5629.89
535.557	5676.22
535.923	5654.3
536.288	5741.98
536.653	5744.92
537.019	5768.65
537.384	5787.63
537.749	5840.28
538.114	5850.23
538.479	5824.69
538.845	5896.55
539.21	5857.23
539.575	5961.64
539.94	5922.09
540.305	5936.1
540.67	5956.67
541.034	5948.76
541.399	6040.96
541.764	6063.78
542.129	6092.71
542.494	6085.48
542.858	6119.6
543.223	6083.22
543.587	6174.51
543.952	6165.47
544.316	6195.3
544.681	6164.57
545.045	6221.52
545.41	6299.71
545.774	6309.2
546.138	6322.98
546.503	6363.43
546.867	6291.35
547.231	6415.64
547.595	6417.67
547.959	6425.58
548.324	6444.56
548.688	6479.59
549.052	6523.88
549.416	6547.84
549.779	6574.5
550.143	6559.36
550.507	6598.68
550.871	6603.2
551.235	6615.18
551.599	6687.95
551.962	6720.71
552.326	6741.28
552.689	6748.51
553.053	6736.76
553.417	6743.09
553.78	6863.76
554.143	6765.46
554.507	6829.86
554.87	6821.95
555.234	6895.85
555.597	6816.3
555.96	6918.9
556.323	6934.72
556.686	6941.5
557.05	7024.89
557.413	6996.86
557.776	7017.43
558.139	7026.69
558.502	7013.59
558.865	7050.2
559.228	7159.57
559.59	7162.28
559.953	7107.82
560.316	7220.81
560.679	7221.72
561.041	7213.36
561.404	7253.81
561.767	7305.33
562.129	7310.08
562.492	7332.45
562.854	7372.9
563.217	7286.57
563.579	7398.44
563.941	7425.33
564.304	7411.99
564.666	7540.8
565.028	7514.36
565.39	7483.63
565.753	7596.4
566.115	7571.99
566.477	7565.66
566.839	7638.2
567.201	7690.41
567.563	7671.42
567.925	7734.92
568.287	7744.87
568.648	7737.64
569.01	7835.26
569.372	7876.16
569.734	7848.14
570.095	7877.97
570.457	7940.79
570.819	7984.86
571.18	7988.25
571.542	8012.66
571.903	8064.18
572.265	8085.2
572.626	8124.29
572.987	8123.39
573.349	8232.09
573.71	8284.29
574.071	8380.78
574.432	8345.53
574.794	8472.98
575.155	8494.9
575.516	8499.42
575.877	8546.43
576.238	8647.89
576.599	8676.82
576.96	8773.31
577.32	8838.62
577.681	8952.97
578.042	9009.92
578.403	9060.76
578.763	9139.63
579.124	9267.31
579.485	9342.34
579.845	9471.38
580.206	9487.65
580.566	9656
580.927	9779.84
581.287	9931.7
581.648	9963.34
582.008	10158.36
582.368	10235.87
582.728	10396.55
583.089	10565.58
583.449	10652.81
583.809	10842.64
584.169	11072.69
584.529	11060.03
584.889	11453.02
585.249	11536.63
585.609	11745.44
585.969	11996.05
586.329	12161.02
586.688	12360.11
587.048	12596.26
587.408	12785.41
587.768	12957.61
588.127	13187.44
588.487	13368.9
588.846	13744.71
589.206	13774.09
589.565	14120.97
589.925	14475.99
590.284	14620.84
590.643	14904
591.003	15185.8
591.362	15517.32
591.721	15696.97
592.08	16031.43
592.44	16247.92
592.799	16616.05
593.158	16847.9
593.517	17164.28
593.876	17443.14
594.235	17663.7
594.593	18052.62
594.952	18255.55
595.311	18480.4
595.67	18839.04
596.029	19240.38
596.387	19475.41
596.746	19792.46
597.104	20057.54
597.463	20322.39
597.822	20821.36
598.18	20891.19
598.538	21175.93
598.897	21632.41
599.255	21757.61
599.613	22299.06
599.972	22359.4
600.33	22782.21
600.688	22948.08
601.046	23339.49
601.404	23643.21
601.762	23724.33
602.12	24263.98
602.478	24441.38
602.836	24744.19
603.194	24951.87
603.552	25192.77
603.91	25469.37
604.268	25771.06
604.625	25969.47
604.983	26292.4
605.341	26378.28
605.698	26797.93
606.056	27072.27
606.413	27247.63
606.771	27654.85
607.128	27774.4
607.485	27972.36
607.843	28142.07
608.2	28507.94
608.557	28745.67
608.914	28923.52
609.272	29307.92
609.629	29413.45
609.986	29728.02
610.343	29857.96
610.7	30326.42
611.057	30316.7
611.414	30516.25
611.771	30741.78
612.127	31033.75
612.484	31126.85
612.841	31424.92
613.198	31551.7
613.554	31777
613.911	31961.63
614.267	32030.78
614.624	32285.01
614.98	32426.7
615.337	32685.23
615.693	32802.97
616.05	32892.91
616.406	33289.73
616.762	33186.68
617.118	33414.47
617.475	33615.37
617.831	33800.91
618.187	33900.79
618.543	34074.8
618.899	34268.46
619.255	34343.49
619.611	34425.07
619.967	34707.77
620.323	34953.42
620.678	34948.67
621.034	35013.98
621.39	35116.35
621.746	35104.6
622.101	35684.7
622.457	35402.67
622.812	35700.06
623.168	35804.92
623.523	35811.25
623.879	35975.99
624.234	35787.97
624.589	36086.04
624.945	36222.08
625.3	36250.33
625.655	36295.3
626.01	36263.67
626.365	36397.67
626.72	36521.06
627.075	36669.76
627.43	36519.93
627.785	36594.05
628.14	36719.47
628.495	36841.96
628.85	36939.58
629.205	36869.07
629.559	37121.5
629.914	36911.33
630.269	36953.59
630.623	37071.1
630.978	37023.87
631.332	37240.81
631.687	37274.49
632.041	37251.89
632.396	37349.74
632.75	37209.4
633.104	37343.41
633.459	37191.1
633.813	37274.26
634.167	37341.15
634.521	37367.59
634.875	37439.45
635.229	37376.63
635.583	37221.15
635.937	37288.72
636.291	37306.58
636.645	37273.13
636.999	37262.96
637.352	37448.04
637.706	37168.73
638.06	37413.01
638.413	37345.9
638.767	37291.89
639.121	37338.67
639.474	37167.6
639.828	37132.12
640.181	37333.47
640.534	37348.83
640.888	37208.5
641.241	37011.22
641.594	37152.91
641.947	37208.73
642.301	37027.71
642.654	37342.28
643.007	37144.32
643.36	37109.29
643.713	37156.97
644.066	37325.78
644.419	37071.78
644.771	36903.65
645.124	36522.19
645.477	36504.56
645.83	36419.14
646.182	36169.66
646.535	36135.53
646.888	36215.53
647.24	35933.96
647.593	36299.6
647.945	36162.65
648.298	36045.37
648.65	35939.61
649.002	35884.47
649.355	36063.67
649.707	35972.83
650.059	36146.83
650.411	36613.49
650.763	36585.24
651.115	37011.89
651.467	36825.91
651.819	36813.48
652.171	36875.63
652.523	36751.56
652.875	36711.11
653.227	36785.69
653.578	36922.63
653.93	36820.94
654.282	36649.42
654.633	36573.49
654.985	36602.87
655.337	36587.27
655.688	36652.36
656.039	36846.47
656.391	36498.01
656.742	36546.82
657.094	36623.66
657.445	36626.82
657.796	36666.14
658.147	36567.16
658.498	36543.43
658.849	36655.52
659.2	36574.17
659.551	36446.71
659.902	36662.98
660.253	36655.75
660.604	36471.34
660.955	36524
661.306	36733.94
661.656	36509.08
662.007	36462.3
662.358	36558.57
662.708	36523.32
663.059	36427.5
663.409	36288.75
663.76	36411.46
664.11	36546.37
664.461	36557.22
664.811	36507.73
665.161	36406.94
665.511	36349.54
665.862	36410.1
666.212	36606.48
666.562	36652.13
666.912	36433.38
667.262	36444.9
667.612	36305.92
667.962	36485.81
668.312	36481.29
668.662	36438.35
669.011	36424.11
669.361	36210.11
669.711	36402.19
670.06	36180.05
670.41	36203.33
670.76	36126.27
671.109	36409.2
671.459	36241.29
671.808	36171.92
672.157	36283.1
672.507	36127.62
672.856	36159.94
673.205	36107.51
673.554	36169.2
673.904	36128.3
674.253	36324
674.602	36208.75
674.951	35587.3
675.3	35528.32
675.649	36089.66
675.998	36066.38
676.346	36061.64
676.695	36118.36
677.044	35874.07
677.393	35859.16
677.741	35992.49
678.09	35926.95
678.438	35754.98
678.787	36018.25
679.135	36063.44
679.484	35656.68
679.832	35812.15
680.181	35632.04
680.529	35816.9
680.877	35693.96
681.225	35653.51
681.573	35795.88
681.922	35575.77
682.27	35497.36
682.618	35348.43
682.966	35397.02
683.314	35439.96
683.661	35432.5
684.009	35263.47
684.357	35196.35
684.705	35034.09
685.053	35185.73
685.4	35160.64
685.748	34922.68
686.095	34941.44
686.443	34785.74
686.79	34628.45
687.138	34889.01
687.485	34797.04
687.832	34581.22
688.18	34839.3
688.527	34476.37
688.874	34583.03
689.221	34514.78
689.568	34385.97
689.915	34338.97
690.262	34307.11
690.609	34034.35
690.956	33907.57
691.303	34029.15
691.65	33839.55
691.997	33903.05
692.344	33693.11
692.69	33644.98
693.037	33616.96
693.383	33401.14
693.73	33597.75
694.077	33376.74
694.423	33459.67
694.769	33192.11
695.116	33153.69
695.462	33072.11
695.808	32936.29
696.155	33010.19
696.501	32778.11
696.847	32750.99
697.193	32531.33
697.539	32910.98
697.885	32443.43
698.231	32318.46
698.577	32364.78
698.923	32298.57
699.269	32231.68
699.614	31834.86
699.96	31974.29
700.306	31986.49
700.651	31862.88
700.997	31760.73
701.342	31812.93
701.688	31634.86
702.033	31631.24
702.379	31661.53
702.724	31548.08
703.069	31527.74
703.415	31332.72
703.76	31187.87
704.105	31180.63
704.45	31033.07
704.795	30998.94
705.14	31041.2
705.485	30767.99
705.83	30762.34
706.175	30753.08
706.52	30662.23
706.865	30421.56
707.209	30444.38
707.554	30443.93
707.899	30376.14
708.243	30242.58
708.588	30346.76
708.932	30068.57
709.277	29945.41
709.621	30223.82
709.966	29907.67
710.31	30075.81
710.654	29732.76
710.998	29858.64
711.342	29780.22
711.687	29629.26
712.031	29504.52
712.375	29438.99
712.719	29464.52
713.063	29395.82
713.407	29513.33
713.75	29387.24
714.094	29306.56
714.438	29202.61
714.782	29205.77
715.125	29189.5
715.469	29211.42
715.812	28949.73
716.156	28864.09
716.499	28875.16
716.843	28836.29
717.186	28761.04
717.53	28767.37
717.873	28723.3
718.216	28691.66
718.559	28589.06
718.902	28386.81
719.246	28484.43
719.589	28473.81
719.932	28378.67
720.275	28374.38
720.617	28160.6
720.96	28289.41
721.303	28141.39
721.646	28180.04
721.989	27996.09
722.331	28017.78
722.674	28027.05
723.016	27955.86
723.359	27916.09
723.701	27861.17
724.044	27673.61
724.386	27728.3
724.729	27781.63
725.071	27639.94
725.413	27585.48
725.755	27619.6
726.097	27643.55
726.439	27416.21
726.782	27298.25
727.124	27459.38
727.465	27364.92
727.807	27317.23
728.149	27350.45
728.491	27272.94
728.833	27206.5
729.175	27092.38
729.516	27110.46
729.858	26944.36
730.199	27058.26
730.541	26959.05
730.882	27021.87
731.224	27048.99
731.565	26888.32
731.906	26884.7
732.248	26838.38
732.589	26594.54
732.93	26616.91
733.271	26653.75
733.612	26673.41
733.953	26723.35
734.294	26582.56
734.635	26436.8
734.976	26464.83
735.317	26380.08
735.658	26397.26
735.999	26384.38
736.339	26269.35
736.68	26429.35
737.021	26191.39
737.361	26172.18
737.702	26289.92
738.042	26238.62
738.383	26053.54
738.723	26215.79
739.063	26042.69
739.404	26137.6
739.744	26024.84
740.084	25945.29
740.424	25958.63
740.764	25922.02
741.104	25939.19
741.444	25797.73
741.784	25713.66
742.124	25686.54
742.464	25712.08
742.804	25600.44
743.143	25559.54
743.483	25630.27
743.823	25570.16
744.162	25414.23
744.502	25430.05
744.841	25378.98
745.181	25479.99
745.52	25340.34
745.86	25362.03
746.199	25256.5
746.538	25197.52
746.877	25387.11
747.216	25260.34
747.556	25174.47
747.895	25238.87
748.234	25121.59
748.573	25114.81
748.911	25052.66
749.25	24975.37
749.589	24758.43
749.928	24911.42
750.267	24868.03
750.605	24801.82
750.944	24746.23
751.283	24674.82
751.621	24710.75
751.96	24513.92
752.298	24562.73
752.636	24574.25
752.975	24308.95
753.313	24347.37
753.651	24409.29
753.989	24230.99
754.327	24308.5
754.666	24043.2
755.004	24165.45
755.342	24198.45
755.679	24179.92
756.017	23987.83
756.355	23990.09
756.693	23993.48
757.031	23912.13
757.368	23811.34
757.706	23787.83
758.044	23719.36
758.381	23733.15
758.719	23683.43
759.056	23649.53
759.394	23464.91
759.731	23402.99
760.068	23395.3
