Data from hue_300_FLMS001491_00065.txt Node
Date: Tue Feb 07 15:51:03 GMT 2017
User: dcchb
Spectrometer: FLMS00149
Trigger mode: 0
Integration Time (sec): 2.000000E-2
Scans to average: 10
Electric dark correction enabled: true
Nonlinearity correction enabled: false
Boxcar width: 0
XAxis mode: Wavelengths
Number of Pixels in Spectrum: 2048
>>>>>Begin Spectral Data<<<<<
341.393	-20.96
341.776	-20.96
342.16	-20.96
342.543	-52.37
342.927	-65.25
343.31	-69.32
343.693	-68.42
344.077	-71.58
344.46	-50.56
344.843	-45.82
345.226	-38.13
345.61	-23.67
345.993	-34.29
346.376	-2.43
346.759	3.45
347.142	26.95
347.525	43.22
347.908	63.56
348.291	71.02
348.674	93.84
349.057	102.2
349.44	119.6
349.823	163.89
350.206	162.99
350.588	197.57
350.971	205.25
351.354	210.22
351.737	229.2
352.119	225.14
352.502	259.71
352.884	241.86
353.267	271.46
353.65	275.08
354.032	285.25
354.414	290.22
354.797	299.94
355.179	309.43
355.562	306.49
355.944	346.04
356.326	328.41
356.709	334.96
357.091	330.22
357.473	339.03
357.855	315.98
358.238	337.9
358.62	350.78
359.002	342.65
359.384	332.7
359.766	323.66
360.148	330.22
360.53	333.83
360.912	337.22
361.294	316.21
361.676	318.69
362.057	329.77
362.439	320.27
362.821	315.98
363.203	342.42
363.584	320.95
363.966	310.78
364.348	324.79
364.729	319.82
365.111	316.66
365.493	304
365.874	330.44
366.256	285.02
366.637	300.39
367.019	308.52
367.4	301.74
367.781	305.59
368.163	307.17
368.544	292.48
368.925	304.68
369.306	311.69
369.688	323.89
370.069	297.45
370.45	311.91
370.831	309.43
371.212	326.15
371.593	320.27
371.974	306.04
372.355	300.61
372.736	322.99
373.117	329.54
373.498	322.53
373.879	348.75
374.26	318.24
374.641	336.09
375.021	308.07
375.402	322.31
375.783	319.82
376.163	332.7
376.544	350.56
376.925	306.94
377.305	347.39
377.686	318.01
378.066	328.18
378.447	308.07
378.827	327.28
379.208	316.66
379.588	362.98
379.968	334.06
380.349	340.84
380.729	339.48
381.109	311.69
381.489	346.49
381.87	337.67
382.25	346.04
382.63	334.74
383.01	358.24
383.39	325.7
383.77	336.54
384.15	337.9
384.53	367.5
384.91	343.55
385.29	365.7
385.67	335.87
386.049	355.08
386.429	355.53
386.809	357.34
387.189	350.33
387.568	365.7
387.948	374.28
388.328	357.79
388.707	362.53
389.087	342.42
389.466	376.09
389.846	365.24
390.225	370.44
390.605	370.89
390.984	384
391.363	361.18
391.743	370.44
392.122	373.61
392.501	380.84
392.881	386.94
393.26	403.66
393.639	373.83
394.018	374.96
394.397	397.33
394.776	410.89
395.155	392.36
395.534	380.16
395.913	391.91
396.292	403.21
396.671	404.57
397.05	388.07
397.429	389.2
397.808	400.95
398.186	419.25
398.565	418.8
398.944	404.11
399.323	419.03
399.701	417.22
400.08	421.06
400.458	419.71
400.837	413.15
401.215	400.95
401.594	428.52
401.972	442.53
402.351	426.71
402.729	433.72
403.107	433.27
403.486	453.83
403.864	442.3
404.242	438.69
404.62	463.55
404.999	434.17
405.377	462.87
405.755	478.46
406.133	476.2
406.511	464.9
406.889	476.88
407.267	487.5
407.645	472.81
408.023	483.21
408.401	500.83
408.779	509.42
409.156	519.59
409.534	499.48
409.912	537.44
410.29	532.7
410.667	518.23
411.045	536.54
411.422	540.61
411.8	566.14
412.178	562.98
412.555	580.61
412.933	577.22
413.31	562.98
413.687	588.97
414.065	612.24
414.442	635.75
414.819	617.44
415.197	617.44
415.574	637.1
415.951	660.38
416.328	654.28
416.705	639.59
417.082	657.44
417.46	678
417.837	687.27
418.214	677.78
418.591	698.57
418.967	721.85
419.344	708.51
419.721	728.62
420.098	731.11
420.475	730.88
420.852	762.52
421.228	772.47
421.605	768.62
421.982	761.62
422.358	784.22
422.735	818.79
423.111	813.37
423.488	806.36
423.864	801.17
424.241	814.72
424.617	846.59
424.994	842.52
425.37	854.72
425.746	857.44
426.123	873.25
426.499	884.78
426.875	896.76
427.251	896.3
427.627	918.22
428.003	903.54
428.379	913.48
428.756	954.16
429.132	958
429.507	968.62
429.883	963.65
430.259	991.44
430.635	1002.29
431.011	986.92
431.387	1036.41
431.763	1048.39
432.138	1055.62
432.514	1058.79
432.89	1028.96
433.265	1080.71
433.641	1115.51
434.016	1094.04
434.392	1151.44
434.767	1130.42
435.143	1127.48
435.518	1147.37
435.894	1185.34
436.269	1207.03
436.644	1193.92
437.02	1206.8
437.395	1228.05
437.77	1228.27
438.145	1249.06
438.52	1275.28
438.895	1296.75
439.271	1277.31
439.646	1264.66
440.021	1302.85
440.395	1310.08
440.77	1299.46
441.145	1302.4
441.52	1316.18
441.895	1319.8
442.27	1367.03
442.645	1326.12
443.019	1351.66
443.394	1338.55
443.769	1372
444.143	1387.59
444.518	1358.89
444.892	1385.1
445.267	1397.99
445.641	1407.03
446.016	1400.47
446.39	1422.39
446.764	1402.51
447.139	1394.37
447.513	1426.91
447.887	1419.68
448.262	1421.94
448.636	1402.05
449.01	1459.68
449.384	1463.29
449.758	1463.97
450.132	1462.39
450.506	1492.67
450.88	1490.41
451.254	1479.79
451.628	1490.86
452.002	1497.87
452.376	1506.01
452.75	1535.16
453.123	1568.15
453.497	1560.47
453.871	1564.31
454.244	1569.96
454.618	1577.64
454.992	1628.26
455.365	1612.67
455.739	1606.57
456.112	1636.85
456.486	1646.79
456.859	1637.3
457.232	1669.17
457.606	1661.93
457.979	1678.43
458.352	1703.74
458.725	1739.9
459.099	1732.89
459.472	1776.73
459.845	1776.51
460.218	1766.79
460.591	1754.36
460.964	1795.94
461.337	1811.99
461.71	1845.43
462.083	1851.76
462.456	1857.86
462.829	1856.05
463.201	1876.17
463.574	1855.37
463.947	1881.36
464.32	1936.95
464.692	1935.37
465.065	1936.05
465.438	1964.75
465.81	1997.29
466.183	1996.16
466.555	2067.35
466.928	2035.26
467.3	2019.89
467.672	2046.1
468.045	2074.35
468.417	2101.92
468.789	2101.7
469.161	2114.58
469.534	2154.35
469.906	2185.76
470.278	2206.1
470.65	2221.47
471.022	2248.13
471.394	2230.73
471.766	2291.07
472.138	2274.57
472.51	2315.48
472.882	2359.54
473.253	2389.37
473.625	2399.09
473.997	2453.55
474.369	2442.7
474.74	2474.79
475.112	2498.3
475.484	2512.98
475.855	2552.08
476.227	2553.66
476.598	2605.19
476.97	2623.94
477.341	2621.23
477.713	2700.32
478.084	2735.58
478.455	2738.52
478.827	2776.03
479.198	2834.11
479.569	2824.39
479.94	2902.81
480.311	2883.6
480.682	2955.91
481.053	2992.52
481.424	3024.84
481.795	3031.62
482.166	3089.47
482.537	3104.83
482.908	3147.09
483.279	3153.19
483.65	3173.76
484.021	3218.28
484.391	3296.24
484.762	3305.05
485.133	3286.52
485.503	3298.05
485.874	3397.48
486.244	3395.9
486.615	3432.73
486.985	3490.59
487.356	3515.67
487.726	3524.71
488.097	3600.87
488.467	3595.44
488.837	3640.41
489.207	3689
489.578	3713.41
489.948	3753.63
490.318	3801.99
490.688	3744.82
491.058	3838.15
491.428	3940.07
491.798	3911.37
492.168	3934.87
492.538	3943
492.908	4030.23
493.278	4048.99
493.648	4020.52
494.017	4068.2
494.387	4136.67
494.757	4173.73
495.126	4163.34
495.496	4203.11
495.866	4216.44
496.235	4278.59
496.605	4303.22
496.974	4310.68
497.344	4298.47
497.713	4312.49
498.082	4355.2
498.452	4388.42
498.821	4376.44
499.19	4346.83
499.559	4461.41
499.928	4481.75
500.298	4433.16
500.667	4475.87
501.036	4523.55
501.405	4537.79
501.774	4531.91
502.143	4545.25
502.512	4561.07
502.88	4581.86
503.249	4564.46
503.618	4647.84
503.987	4645.81
504.356	4674.06
504.724	4678.35
505.093	4708.63
505.462	4708.86
505.83	4670.67
506.199	4768.74
506.567	4786.15
506.936	4787.28
507.304	4782.3
507.672	4851.91
508.041	4868.86
508.409	4805.58
508.777	4918.12
509.145	4921.06
509.514	4945.92
509.882	4957.44
510.25	4936.65
510.618	4977.55
510.986	4997.89
511.354	5037.21
511.722	5046.93
512.09	5041.73
512.458	5095.52
512.826	5095.97
513.193	5100.71
513.561	5131.45
513.929	5126.93
514.297	5219.13
514.664	5198.34
515.032	5183.42
515.4	5199.24
515.767	5217.55
516.135	5258.22
516.502	5287.6
516.869	5348.62
517.237	5309.3
517.604	5301.16
517.972	5338.45
518.339	5359.46
518.706	5336.64
519.073	5387.49
519.44	5418.67
519.808	5403.76
520.175	5370.54
520.542	5490.31
520.909	5441.27
521.276	5495.05
521.643	5505.9
522.009	5533.47
522.376	5582.06
522.743	5656.18
523.11	5615.05
523.477	5651.21
523.843	5647.37
524.21	5726.01
524.577	5754.48
524.943	5707.7
525.31	5794.03
525.676	5834.71
526.043	5877.42
526.409	5835.16
526.776	5933.46
527.142	5967.81
527.508	6006
527.874	5987.24
528.241	6034.7
528.607	5979.56
528.973	6081.03
529.339	6129.16
529.705	6156.73
530.071	6169.61
530.437	6200.57
530.803	6243.06
531.169	6236.73
531.535	6244.19
531.901	6245.32
532.267	6378.19
532.632	6373.67
532.998	6368.25
533.364	6390.85
533.73	6392.2
534.095	6540.9
534.461	6503.61
534.826	6527.79
535.192	6556.95
535.557	6596.72
535.923	6586.32
536.288	6577.74
536.653	6641.69
537.019	6644.4
537.384	6644.18
537.749	6669.49
538.114	6718.3
538.479	6734.12
538.845	6749.03
539.21	6748.81
539.575	6806.21
539.94	6810.95
540.305	6862.93
540.67	6870.38
541.034	6907.67
541.399	6914.9
541.764	6965.07
542.129	6987.22
542.494	7073.77
542.858	7072.19
543.223	7062.92
543.587	7102.92
543.952	7121.23
544.316	7191.51
544.681	7087.33
545.045	7165.97
545.41	7220.88
545.774	7238.74
546.138	7269.02
546.503	7323.48
546.867	7355.12
547.231	7440.76
547.595	7415.45
547.959	7461.33
548.324	7440.31
548.688	7460.88
549.052	7557.15
549.416	7454.55
549.779	7546.52
550.143	7546.75
550.507	7525.28
550.871	7586.07
551.235	7593.98
551.599	7637.37
551.962	7658.61
552.326	7695.22
552.689	7735.45
553.053	7703.58
553.417	7723.92
553.78	7766.41
554.143	7830.59
554.507	7833.3
554.87	7859.28
555.234	7989.22
555.597	7902.22
555.96	7930.02
556.323	8011.37
556.686	7972.73
557.05	7992.84
557.413	8031.03
557.776	8073.06
558.139	8113.06
558.502	8033.29
558.865	8141.31
559.228	8164.36
559.59	8167.3
559.953	8233.96
560.316	8239.61
560.679	8235.09
561.041	8298.6
561.404	8347.41
561.767	8358.25
562.129	8304.7
562.492	8434.41
562.854	8402.55
563.217	8368.88
563.579	8416.56
563.941	8482.09
564.304	8560.06
564.666	8582.66
565.028	8541.53
565.39	8628.08
565.753	8643.22
566.115	8632.82
566.477	8658.59
566.839	8657.68
567.201	8740.17
567.563	8732.48
567.925	8797.79
568.287	8793.5
568.648	8827.62
569.01	8894.51
569.372	9014.51
569.734	8989.65
570.095	8997.33
570.457	9047.5
570.819	9082.98
571.18	9200.94
571.542	9170.44
571.903	9191.91
572.265	9256.54
572.626	9308.74
572.987	9329.53
573.349	9370.66
573.71	9385.35
574.071	9481.16
574.432	9555.96
574.794	9609.97
575.155	9673.47
575.516	9679.35
575.877	9775.39
576.238	9880.7
576.599	9889.06
576.96	9957.99
577.32	9992.34
577.681	10143.97
578.042	10243.4
578.403	10340.8
578.763	10436.39
579.124	10546.67
579.485	10682.94
579.845	10762.03
580.206	10860.56
580.566	10996.15
580.927	11103.04
581.287	11282.92
581.648	11325.86
582.008	11571.73
582.368	11644.27
582.728	11770.82
583.089	12007.88
583.449	12110.7
583.809	12267.08
584.169	12426.85
584.529	12645.37
584.889	12934.63
585.249	13004.23
585.609	13163.33
585.969	13496.65
586.329	13722.41
586.688	13868.39
587.048	14102.96
587.408	14299.57
587.768	14603.51
588.127	14839.44
588.487	15021.36
588.846	15370.05
589.206	15546.77
589.565	15778.62
589.925	16060.43
590.284	16313.75
590.643	16690.24
591.003	16899.27
591.362	17244.12
591.721	17393.72
592.08	17748.97
592.44	18002.07
592.799	18366.81
593.158	18534.71
593.517	18883.85
593.876	19198.65
594.235	19418.08
594.593	19785.98
594.952	20110.71
595.311	20357.71
595.67	20635.9
596.029	21035.89
596.387	21328.54
596.746	21657.11
597.104	21795.87
597.463	22231.34
597.822	22592.46
598.18	22768.05
598.538	23004.42
598.897	23465.43
599.255	23595.82
599.613	24068.58
599.972	24278.97
600.33	24563.25
600.688	24810.48
601.046	25057.02
601.404	25439.16
601.762	25718.25
602.12	26158.01
602.478	26339.93
602.836	26518
603.194	26786.47
603.552	26986.47
603.91	27175.61
604.268	27576.05
604.625	27649.5
604.983	28005.2
605.341	28077.96
605.698	28508.69
606.056	28841.11
606.413	28965.17
606.771	29274.77
607.128	29527.42
607.485	29621.88
607.843	29879.72
608.2	30185.93
608.557	30488.75
608.914	30524.45
609.272	30979.35
609.629	31067.71
609.986	31472.45
610.343	31401.04
610.7	31895.72
611.057	32005.99
611.414	32148.82
611.771	32425.19
612.127	32694.11
612.484	32864.96
612.841	33169.35
613.198	33052.75
613.554	33198.96
613.911	33669.23
614.267	33716.01
614.624	33880.52
614.98	34089.1
615.337	34315.31
615.693	34363.45
616.05	34532.71
616.406	34787.16
616.762	34731.35
617.118	34937.44
617.475	35046.59
617.831	35362.29
618.187	35389.63
618.543	35519.8
618.899	35853.58
619.255	35846.8
619.611	35895.16
619.967	36078.66
620.323	36313.23
620.678	36427.57
621.034	36411.75
621.39	36518.19
621.746	36670.5
622.101	37060.32
622.457	36812.87
622.812	36974.23
623.168	37267.55
623.523	37215.35
623.879	37364.05
624.234	37202.47
624.589	37559.97
624.945	37582.8
625.3	37726.3
625.655	37635
626.01	37704.38
626.365	37813.53
626.72	37851.94
627.075	37769.91
627.43	37998.15
627.785	37965.84
628.14	38093.74
628.495	38086.06
628.85	38226.17
629.205	38107.98
629.559	38261.2
629.914	38195.44
630.269	38317.47
630.623	38332.38
630.978	38208.77
631.332	38557.69
631.687	38526.05
632.041	38450.8
632.396	38611.02
632.75	38397.01
633.104	38510.46
633.459	38452.15
633.813	38401.08
634.167	38435.88
634.521	38492.38
634.875	38517.69
635.229	38401.31
635.583	38373.06
635.937	38531.92
636.291	38484.02
636.645	38405.6
636.999	38497.58
637.352	38699.6
637.706	38421.87
638.06	38536.44
638.413	38459.16
638.767	38344.81
639.121	38563.11
639.474	38317.24
639.828	38403.11
640.181	38408.76
640.534	38397.24
640.888	38344.58
641.241	38112.95
641.594	38427.29
641.947	38439.5
642.301	38265.04
642.654	38413.74
643.007	38345.26
643.36	38418.26
643.713	38264.81
644.066	38541.19
644.419	38195.89
644.771	37997.48
645.124	37740.31
645.477	37664.38
645.83	37643.59
646.182	37320.88
646.535	37247.89
646.888	37420.77
647.24	37138.29
647.593	37423.03
647.945	37224.84
648.298	37094
648.65	37174.67
649.002	37045.86
649.355	37103.71
649.707	36962.93
650.059	37339.19
650.411	37636.81
650.763	37825.05
651.115	38055.78
651.467	37952.05
651.819	37947.53
652.171	37917.48
652.523	37919.51
652.875	37911.6
653.227	37837.48
653.578	38048.55
653.93	37979.85
654.282	37929
654.633	37669.35
654.985	37844.26
655.337	37831.38
655.688	37860.3
656.039	37940.53
656.391	37632.97
656.742	37672.06
657.094	37786.63
657.445	37973.3
657.796	37779.63
658.147	37843.13
658.498	37823.69
658.849	37830.47
659.2	37789.35
659.551	37650.37
659.902	37824.82
660.253	37839.74
660.604	37806.52
660.955	37459.18
661.306	37778.05
661.656	37714.55
662.007	37831.83
662.358	37689.23
662.708	37711.83
663.059	37606.53
663.409	37406.08
663.76	37742.11
664.11	37628.67
664.461	37760.87
664.811	37694.43
665.161	37552.29
665.511	37603.81
665.862	37590.71
666.212	37834.77
666.562	37731.04
666.912	37574.89
667.262	37627.54
667.612	37694.88
667.962	37710.7
668.312	37616.69
668.662	37738.95
669.011	37537.6
669.361	37681.78
669.711	37640.2
670.06	37667.77
670.41	37448.79
670.76	37414.21
671.109	37581.89
671.459	37428.45
671.808	37470.94
672.157	37541.44
672.507	37242.02
672.856	37389.58
673.205	37471.61
673.554	37552.97
673.904	37259.42
674.253	37456.7
674.602	37489.92
674.951	36806.32
675.3	36756.38
675.649	37199.08
675.998	37267.55
676.346	37210.83
676.695	37430.26
677.044	37062.36
677.393	37103.26
677.741	37187.1
678.09	37246.99
678.438	37072.3
678.787	37139.19
679.135	37210.15
679.484	37021
679.832	37077.95
680.181	36889.93
680.529	36960.67
680.877	36929.71
681.225	36881.12
681.573	37039.76
681.922	36771.29
682.27	36548.7
682.618	36620.56
682.966	36458.31
683.314	36683.39
683.661	36408.59
684.009	36476.84
684.357	36279.78
684.705	36204.53
685.053	36203.62
685.4	36165.66
685.748	36065.55
686.095	36016.74
686.443	35960.92
686.79	35796.18
687.138	35904.65
687.485	35965.21
687.832	35729.74
688.18	35898.77
688.527	35564.55
688.874	35450.88
689.221	35513.02
689.568	35374.95
689.915	35298.11
690.262	35256.53
690.609	35117.33
690.956	35042.98
691.303	34981.51
691.65	34884.34
691.997	34859.03
692.344	34767.05
692.69	34736.32
693.037	34789.65
693.383	34468.3
693.73	34661.29
694.077	34472.14
694.423	34392.6
694.769	34280.06
695.116	34223.34
695.462	34161.19
695.808	33950.12
696.155	34168.2
696.501	33859.28
696.847	33799.39
697.193	33546.29
697.539	33607.08
697.885	33422.45
698.231	33382.91
698.577	33418.84
698.923	33297.71
699.269	33160.77
699.614	33070.15
699.96	32973.2
700.306	33001.22
700.651	32685.75
700.997	32701.8
701.342	32785.41
701.688	32612.08
702.033	32567.34
702.379	32557.84
702.724	32415.93
703.069	32570.73
703.415	32107.46
703.76	32193.33
704.105	32063.62
704.45	32041.25
704.795	31898.2
705.14	31804.19
705.485	31913.57
705.83	31544.54
706.175	31706.34
706.52	31441.26
706.865	31495.73
707.209	31445.56
707.554	31242.4
707.899	31417.31
708.243	31220.93
708.588	31088.96
708.932	30952.01
709.277	30917.44
709.621	30900.49
709.966	30729.64
710.31	30848.28
710.654	30499.59
710.998	30537.56
711.342	30702.07
711.687	30541.4
712.031	30412.36
712.375	30425.7
712.719	30385.02
713.063	30345.93
713.407	30339.15
713.75	30083.33
714.094	30205.14
714.438	30000.85
714.782	30044.24
715.125	29882.89
715.469	29953.62
715.812	29858.48
716.156	29712.72
716.499	29612.39
716.843	29591.59
717.186	29535.78
717.53	29674.98
717.873	29568.32
718.216	29513.18
718.559	29270.47
718.902	29222.34
719.246	29305.5
719.589	29168.78
719.932	29066.86
720.275	29214.43
720.617	29029.12
720.96	28913.19
721.303	29025.73
721.646	29051.04
721.989	28889.24
722.331	28957.49
722.674	28849.69
723.016	28833.2
723.359	28758.4
723.701	28734.67
724.044	28659.42
724.386	28439.08
724.729	28588.68
725.071	28481.57
725.413	28464.84
725.755	28311.85
726.097	28293.32
726.439	28219.43
726.782	28237.51
727.124	28247.22
727.465	28228.69
727.807	28239.31
728.149	28057.4
728.491	28066.44
728.833	28190.05
729.175	27903.5
729.516	27996.38
729.858	27859.44
730.199	27940.56
730.541	27855.37
730.882	27909.83
731.224	27859.21
731.565	27699.22
731.906	27824.86
732.248	27752.77
732.589	27610.18
732.93	27486.57
733.271	27546.9
733.612	27510.75
733.953	27559.78
734.294	27494.02
734.635	27450.41
734.976	27359.79
735.317	27247.48
735.658	27283.63
735.999	27343.29
736.339	27228.95
736.68	27436.62
737.021	27186.46
737.361	27018.1
737.702	27122.73
738.042	27100.13
738.383	27016.3
738.723	27114.6
739.063	26989.18
739.404	26896.3
739.744	26975.17
740.084	26782.86
740.424	26980.59
740.764	26833.7
741.104	26894.49
741.444	26645.46
741.784	26574.5
742.124	26623.09
742.464	26591.9
742.804	26590.09
743.143	26452.92
743.483	26599.13
743.823	26532.47
744.162	26373.15
744.502	26429.42
744.841	26378.12
745.181	26445.91
745.52	26292.47
745.86	26293.83
746.199	26281.63
746.538	26282.3
746.877	26303.09
747.216	26301.29
747.556	26250.67
747.895	26241.63
748.234	26148.75
748.573	26090.9
748.911	26081.18
749.25	26202.31
749.589	25991.24
749.928	26068.52
750.267	26002.99
750.605	25930.22
750.944	25905.14
751.283	25782.88
751.621	25988.53
751.96	25843.9
752.298	25762.99
752.636	25809.77
752.975	25647.97
753.313	25614.75
753.651	25757.57
753.989	25635.09
754.327	25522.1
754.666	25505.37
755.004	25582.43
755.342	25543.11
755.679	25497.69
756.017	25414.08
756.355	25514.19
756.693	25331.82
757.031	25368.88
757.368	25205.04
757.706	25210.02
758.044	25202.78
758.381	25202.11
758.719	25029.68
759.056	25161.65
759.394	25045.73
