Data from hue_150_FLMS001491_00012.txt Node
Date: Tue Feb 07 16:53:41 GMT 2017
User: dcchb
Spectrometer: FLMS00149
Trigger mode: 0
Integration Time (sec): 2.000000E-2
Scans to average: 10
Electric dark correction enabled: true
Nonlinearity correction enabled: false
Boxcar width: 0
XAxis mode: Wavelengths
Number of Pixels in Spectrum: 2048
>>>>>Begin Spectral Data<<<<<
341.393	-26.09
341.776	-26.09
342.16	-26.09
342.543	-61.57
342.927	-61.79
343.31	-71.28
343.693	-51.4
344.077	-56.14
344.46	-75.35
344.843	-58.18
345.226	-51.85
345.61	-25.18
345.993	-29.93
346.376	-5.07
346.759	2.61
347.142	32.67
347.525	54.59
347.908	50.75
348.291	68.83
348.674	93.91
349.057	121.03
349.44	135.72
349.823	144.98
350.206	164.19
350.588	209.39
350.971	215.94
351.354	228.14
351.737	237.18
352.119	257.97
352.502	258.43
352.884	288.03
353.267	299.78
353.65	281.93
354.032	296.16
354.414	293.68
354.797	320.34
355.179	313.11
355.562	305.43
355.944	341.36
356.326	348.37
356.709	335.94
357.091	331.87
357.473	358.31
357.855	344.98
358.238	343.62
358.62	314.92
359.002	344.07
359.384	329.16
359.766	343.39
360.148	330.74
360.53	336.84
360.912	329.61
361.294	338.42
361.676	350.63
362.057	332.32
362.439	335.03
362.821	344.3
363.203	321.47
363.584	319.44
363.966	332.32
364.348	320.8
364.729	335.03
365.111	338.42
365.493	326.45
365.874	341.36
366.256	299.78
366.637	323.28
367.019	324.64
367.4	323.73
367.781	302.94
368.163	325.54
368.544	323.96
368.925	307.01
369.306	322.6
369.688	321.47
370.069	305.88
370.45	310.63
370.831	323.51
371.212	293
371.593	302.49
371.974	309.5
372.355	332.55
372.736	317.63
373.117	324.86
373.498	303.17
373.879	331.19
374.26	340.46
374.641	317.18
375.021	324.19
375.402	355.37
375.783	332.77
376.163	328.71
376.544	318.31
376.925	342.04
377.305	317.86
377.686	342.04
378.066	339.78
378.447	340.23
378.827	340.23
379.208	344.3
379.588	334.36
379.968	343.62
380.349	328.71
380.729	349.27
381.109	331.19
381.489	347.24
381.87	333.23
382.25	325.09
382.63	366.45
383.01	372.55
383.39	361.47
383.77	359.44
384.15	370.06
384.53	366.67
384.91	347.24
385.29	382.26
385.67	340.91
386.049	360.12
386.429	347.24
386.809	348.82
387.189	382.49
387.568	371.19
387.948	372.09
388.328	363.73
388.707	372.77
389.087	375.26
389.466	351.98
389.846	383.85
390.225	361.47
390.605	370.96
390.984	378.2
391.363	355.82
391.743	380
392.122	393.11
392.501	383.17
392.881	393.11
393.26	391.53
393.639	404.18
394.018	406.44
394.397	382.72
394.776	388.14
395.155	420.23
395.534	399.89
395.913	409.16
396.292	401.7
396.671	399.44
397.05	419.78
397.429	420.46
397.808	409.16
398.186	399.44
398.565	403.51
398.944	405.54
399.323	412.09
399.701	424.75
400.08	400.12
400.458	422.26
400.837	431.53
401.215	444.86
401.594	414.35
401.972	417.97
402.351	419.33
402.729	455.03
403.107	414.35
403.486	445.99
403.864	422.71
404.242	439.21
404.62	449.38
404.999	434.47
405.377	436.05
405.755	457.74
406.133	449.15
406.511	473.79
406.889	465.88
407.267	455.71
407.645	459.32
408.023	465.65
408.401	456.61
408.779	477.18
409.156	475.59
409.534	464.3
409.912	482.6
410.29	496.39
410.667	489.83
411.045	498.65
411.422	491.87
411.8	509.94
412.178	510.17
412.555	489.15
412.933	521.47
413.31	519.89
413.687	508.14
414.065	525.54
414.442	519.66
414.819	514.24
415.197	508.14
415.574	532.77
415.951	551.07
416.328	536.84
416.705	544.29
417.082	547.68
417.46	568.7
417.837	565.08
418.214	540.68
418.591	549.27
418.967	572.54
419.344	568.47
419.721	584.07
420.098	589.72
420.475	584.29
420.852	584.97
421.228	576.16
421.605	582.48
421.982	584.97
422.358	591.3
422.735	605.99
423.111	603.73
423.488	621.81
423.864	638.3
424.241	644.86
424.617	634.01
424.994	620
425.37	640.79
425.746	643.05
426.123	649.15
426.499	653.9
426.875	660
427.251	663.84
427.627	667
428.003	679.88
428.379	699.32
428.756	687.57
429.132	684.85
429.507	702.03
429.883	711.07
430.259	705.19
430.635	717.17
431.011	730.96
431.387	739.32
431.763	745.19
432.138	733.44
432.514	757.62
432.89	748.13
433.265	756.94
433.641	767.56
434.016	771.63
434.392	770.95
434.767	816.38
435.143	791.29
435.518	808.02
435.894	838.07
436.269	807.79
436.644	823.38
437.02	817.51
437.395	848.01
437.77	864.29
438.145	849.37
438.52	874.68
438.895	889.82
439.271	885.08
439.646	890.27
440.021	897.28
440.395	904.28
440.77	926.43
441.145	899.31
441.52	928.01
441.895	938.86
442.27	966.88
442.645	928.46
443.019	949.25
443.394	945.41
443.769	966.88
444.143	974.11
444.518	973.89
444.892	974.56
445.267	986.54
445.641	989.03
446.016	962.59
446.39	991.97
446.764	999.42
447.139	1009.14
447.513	1014.34
447.887	1034.45
448.262	1031.74
448.636	1049.82
449.01	1035.58
449.384	1075.13
449.758	1071.51
450.132	1098.63
450.506	1090.04
450.88	1106.99
451.254	1120.55
451.628	1110.38
452.002	1106.54
452.376	1148.57
452.75	1150.83
453.123	1138.63
453.497	1178.18
453.871	1190.83
454.244	1166.88
454.618	1236.25
454.992	1224.5
455.365	1219.98
455.739	1234.22
456.112	1242.35
456.486	1281.9
456.859	1288.45
457.232	1333.65
457.606	1318.51
457.979	1310.83
458.352	1313.76
458.725	1388.57
459.099	1378.4
459.472	1396.02
459.845	1397.6
460.218	1453.2
460.591	1439.19
460.964	1465.17
461.337	1472.63
461.71	1486.87
462.083	1527.54
462.456	1551.5
462.829	1540.2
463.201	1565.96
463.574	1579.97
463.947	1626.07
464.32	1647.32
464.692	1671.95
465.065	1663.36
465.438	1696.81
465.81	1721.21
466.183	1772.51
466.555	1768.22
466.928	1796.69
467.3	1801.89
467.672	1860.42
468.045	1880.76
468.417	1885.95
468.789	1931.6
469.161	1951.94
469.534	1987.42
469.906	2056.8
470.278	2069.68
470.65	2102.9
471.022	2141.54
471.394	2197.13
471.766	2207.07
472.138	2272.16
472.51	2325.04
472.882	2354.19
473.253	2381.76
473.625	2462.66
473.997	2524.81
474.369	2550.79
474.74	2609.32
475.112	2604.8
475.484	2709.66
475.855	2764.8
476.227	2795.08
476.598	2911.24
476.97	2958.47
477.341	3063.78
477.713	3160.95
478.084	3167.05
478.455	3277.1
478.827	3347.16
479.198	3480.94
479.569	3503.31
479.94	3629.18
480.311	3675.51
480.682	3800.71
481.053	3908.95
481.424	3994.82
481.795	4113.24
482.166	4197.3
482.537	4261.26
482.908	4405.21
483.279	4479.56
483.65	4644.3
484.021	4807.23
484.391	4902.15
484.762	5003.84
485.133	5087.68
485.503	5175.36
485.874	5354.79
486.244	5456.48
486.615	5592.3
486.985	5729.69
487.356	5900.76
487.726	6030.48
488.097	6136.01
488.467	6232.51
488.837	6374.65
489.207	6512.95
489.578	6716.11
489.948	6875.2
490.318	6951.36
490.688	7108.87
491.058	7216.66
491.428	7394.06
491.798	7575.3
492.168	7762.86
492.538	7879.24
492.908	8043.53
493.278	8191.78
493.648	8258.22
494.017	8486.46
494.387	8531.43
494.757	8750.41
495.126	8838.54
495.496	8961.7
495.866	9040.57
496.235	9281.24
496.605	9369.82
496.974	9531.4
497.344	9626.99
497.713	9727.33
498.082	9827.44
498.452	10012.52
498.821	10109.24
499.19	10156.47
499.559	10303.81
499.928	10375.9
500.298	10473.75
500.667	10562.34
501.036	10719.85
501.405	10878.49
501.774	10791.48
502.143	11000.52
502.512	11059.5
502.88	11228.31
503.249	11288.87
503.618	11428.53
503.987	11416.78
504.356	11552.14
504.724	11513.95
505.093	11638.69
505.462	11753.04
505.83	11786.03
506.199	11953.71
506.567	12033.71
506.936	12055.86
507.304	12225.79
507.672	12312.8
508.041	12336.07
508.409	12473.47
508.777	12587.82
509.145	12587.37
509.514	12615.16
509.882	12768.15
510.25	12745.1
510.618	12748.04
510.986	12833.46
511.354	13018.09
511.722	13064.87
512.09	13200.68
512.458	13084.3
512.826	13261.7
513.193	13213.34
513.561	13288.59
513.929	13445.65
514.297	13414.92
514.664	13537.85
515.032	13585.31
515.4	13734.46
515.767	13646.55
516.135	13725.42
516.502	13624.63
516.869	13750.05
517.237	13876.82
517.604	13773.1
517.972	13934.22
518.339	13960.89
518.706	13980.32
519.073	14044.28
519.44	14085.18
519.808	14195.46
520.175	14117.04
520.542	14217.83
520.909	14414.44
521.276	14249.24
521.643	14385.74
522.009	14400.2
522.376	14331.95
522.743	14465.06
523.11	14529.91
523.477	14627.54
523.843	14695.11
524.21	14748.67
524.577	14714.32
524.943	14800.19
525.31	14739.17
525.676	14943.24
526.043	14961.32
526.409	14871.6
526.776	15030.01
527.142	14950.02
527.508	15140.97
527.874	15086.74
528.241	15124.25
528.607	15133.97
528.973	15153.85
529.339	15094.19
529.705	15237.01
530.071	15238.37
530.437	15277.47
530.803	15294.41
531.169	15316.33
531.535	15126.51
531.901	15219.61
532.267	15195.66
532.632	15231.82
532.998	15229.78
533.364	15287.41
533.73	15240.63
534.095	15339.16
534.461	15285.15
534.826	15277.47
535.192	15208.77
535.557	15308.2
535.923	15289.44
536.288	15239.73
536.653	15227.98
537.019	15108.2
537.384	15162.44
537.749	15212.83
538.114	15126.06
538.479	15100.07
538.845	15122.44
539.21	15080.63
539.575	15072.73
539.94	15037.25
540.305	15033.86
540.67	14966.97
541.034	15026.85
541.399	14994.54
541.764	14907.53
542.129	14909.11
542.494	14886.97
542.858	14865.5
543.223	14858.27
543.587	14841.77
543.952	14823.47
544.316	14756.12
544.681	14709.12
545.045	14706.18
545.41	14751.83
545.774	14672.96
546.138	14688.78
546.503	14558.39
546.867	14558.84
547.231	14649.91
547.595	14608.33
547.959	14589.8
548.324	14484.94
548.688	14400.65
549.052	14491.95
549.416	14387.09
549.779	14437.94
550.143	14413.53
550.507	14420.54
550.871	14368.56
551.235	14340.77
551.599	14374.89
551.962	14308.45
552.326	14246.08
552.689	14265.29
553.053	14127.44
553.417	14227.32
553.78	14386.64
554.143	14211.5
554.507	14198.62
554.87	14212.86
555.234	14347.77
555.597	14133.77
555.96	14059.19
556.323	14149.81
556.686	14093.09
557.05	14160.88
557.413	14120.66
557.776	14083.6
558.139	14147.78
558.502	14150.72
558.865	14129.25
559.228	14161.11
559.59	14136.7
559.953	14138.06
560.316	14237.27
560.679	14311.84
561.041	14295.57
561.404	14255.8
561.767	14280.66
562.129	14228.45
562.492	14274.78
562.854	14315.46
563.217	14263.03
563.579	14286.98
563.941	14348.22
564.304	14345.96
564.666	14318.39
565.028	14382.12
565.39	14273.42
565.753	14407.43
566.115	14367.21
566.477	14414.44
566.839	14509.12
567.201	14496.24
567.563	14476.58
567.925	14500.76
568.287	14602.91
568.648	14601.55
569.01	14599.29
569.372	14654.66
569.734	14557.48
570.095	14593.42
570.457	14627.09
570.819	14762.68
571.18	14679.29
571.542	14787.08
571.903	14682
572.265	14770.59
572.626	14799.96
572.987	14811.49
573.349	14789.12
573.71	14814.65
574.071	14851.26
574.432	14836.8
574.794	14961.54
575.155	14811.26
575.516	14857.36
575.877	14873.18
576.238	14886.97
576.599	14914.76
576.96	14919.06
577.32	14848.32
577.681	14907.53
578.042	15002.22
578.403	14889.68
578.763	14996.79
579.124	14874.76
579.485	14933.97
579.845	15000.18
580.206	14919.51
580.566	14890.81
580.927	14956.8
581.287	14983.69
581.648	14960.41
582.008	15020.3
582.368	14997.02
582.728	15001.31
583.089	15017.36
583.449	14919.28
583.809	14983.91
584.169	14968.1
584.529	14858.95
584.889	14989.34
585.249	14886.74
585.609	14864.37
585.969	14892.84
586.329	14917.47
586.688	14836.57
587.048	14855.78
587.408	14847.19
587.768	14763.81
588.127	14798.38
588.487	14710.93
588.846	14934.42
589.206	14787.53
589.565	14746.41
589.925	14892.16
590.284	14759.74
590.643	14794.54
591.003	14885.84
591.362	14844.93
591.721	14809.46
592.08	14811.94
592.44	14825.73
592.799	14811.49
593.158	14765.84
593.517	14744.15
593.876	14836.12
594.235	14733.3
594.593	14664.37
594.952	14659.18
595.311	14644.94
595.67	14756.35
596.029	14783.47
596.387	14798.61
596.746	14726.75
597.104	14677.26
597.463	14625.51
597.822	14726.75
598.18	14575.79
598.538	14733.07
598.897	14730.59
599.255	14706.86
599.613	14817.36
599.972	14769.23
600.33	14759.29
600.688	14723.13
601.046	14783.02
601.404	14851.94
601.762	14732.62
602.12	14707.09
602.478	14783.69
602.836	14762.9
603.194	14737.14
603.552	14755.67
603.91	14690.36
604.268	14667.76
604.625	14621.89
604.983	14755.9
605.341	14656.01
605.698	14768.55
606.056	14790.92
606.413	14699.4
606.771	14818.95
607.128	14819.62
607.485	14676.13
607.843	14725.39
608.2	14868.44
608.557	14848.78
608.914	14788.66
609.272	14787.08
609.629	14893.29
609.986	14958.38
610.343	14870.24
610.7	14949.34
611.057	14860.08
611.414	14908.66
611.771	14889.91
612.127	14955.44
612.484	14833.18
612.841	14998.6
613.198	14997.25
613.554	14884.03
613.911	15015.55
614.267	14862.56
614.624	14958.15
614.98	15013.74
615.337	15064.82
615.693	15112.05
616.05	15028.43
616.406	15035.66
616.762	15029.79
617.118	15035.66
617.475	15108.66
617.831	15087.87
618.187	15072.27
618.543	15157.24
618.899	15215.77
619.255	15232.27
619.611	15161.54
619.967	15147.75
620.323	15216.9
620.678	15220.29
621.034	15100.97
621.39	15083.8
621.746	15145.27
622.101	15297.8
622.457	15203.8
622.812	15193.85
623.168	15195.89
623.523	15263.68
623.879	15350.91
624.234	15143.46
624.589	15270.69
624.945	15194.3
625.3	15258.71
625.655	15188.2
626.01	15269.78
626.365	15239.73
626.72	15244.02
627.075	15180.29
627.43	15196.34
627.785	15141.65
628.14	15168.54
628.495	15291.48
628.85	15145.72
629.205	15115.44
629.559	15205.6
629.914	15133.06
630.269	15134.87
630.623	15091.48
630.978	15128.99
631.332	15085.15
631.687	15113.18
632.041	15022.11
632.396	15091.48
632.75	14939.17
633.104	14946.63
633.459	14950.02
633.813	14983.24
634.167	14899.62
634.521	14888.55
634.875	14981.88
635.229	14951.6
635.583	14813.97
635.937	14820.98
636.291	14756.58
636.645	14816.46
636.999	14751.6
637.352	14735.56
637.706	14678.16
638.06	14779.4
638.413	14702.79
638.767	14722.9
639.121	14679.52
639.474	14608.56
639.828	14602
640.181	14660.08
640.534	14547.09
640.888	14609.01
641.241	14532.63
641.594	14641.32
641.947	14624.83
642.301	14514.55
642.654	14672.74
643.007	14552.96
643.36	14547.99
643.713	14463.93
644.066	14521.1
644.419	14446.98
644.771	14410.37
645.124	14207.44
645.477	14277.72
645.83	14102.13
646.182	14087.21
646.535	14049.48
646.888	14016.48
647.24	13996.37
647.593	14024.39
647.945	14052.19
648.298	13911.63
648.65	13946.2
649.002	13900.78
649.355	14080.89
649.707	13988.46
650.059	14105.97
650.411	14178.06
650.763	14244.72
651.115	14343.7
651.467	14320.65
651.819	14425.74
652.171	14401.78
652.523	14277.94
652.875	14294.44
653.227	14190.71
653.578	14400.65
653.93	14322.46
654.282	14258.28
654.633	14280.66
654.985	14354.1
655.337	14175.8
655.688	14228.91
656.039	14314.1
656.391	14148.46
656.742	14192.3
657.094	14218.74
657.445	14245.4
657.796	14207.21
658.147	14255.57
658.498	14232.52
658.849	14211.28
659.2	14295.57
659.551	14170.83
659.902	14276.59
660.253	14212.86
660.604	14376.47
660.955	14273.65
661.306	14276.59
661.656	14269.13
662.007	14287.89
662.358	14247.21
662.708	14268.23
663.059	14270.71
663.409	14178.51
663.76	14331.28
664.11	14302.8
664.461	14218.06
664.811	14299.41
665.161	14270.26
665.511	14280.43
665.862	14253.54
666.212	14402.23
666.562	14248.79
666.912	14276.14
667.262	14166.76
667.612	14268.45
667.962	14268.68
668.312	14310.26
668.662	14297.83
669.011	14279.98
669.361	14246.31
669.711	14239.53
670.06	14298.06
670.41	14225.74
670.76	14182.81
671.109	14292.18
671.459	14211.05
671.808	14103.26
672.157	14226.87
672.507	14149.13
672.856	14171.05
673.205	14177.83
673.554	14169.92
673.904	14119.98
674.253	14277.72
674.602	14101.9
674.951	13969.93
675.3	13849.93
675.649	14094.9
675.998	14009.48
676.346	14091.51
676.695	14143.03
677.044	13962.92
677.393	13947.33
677.741	14030.49
678.09	13993.21
678.438	13951.62
678.787	13979.42
679.135	13919.54
679.484	13944.62
679.832	13905.07
680.181	13830.72
680.529	13784.17
680.877	13857.62
681.225	13861.46
681.573	13844.73
681.922	13734
682.27	13724.74
682.618	13709.15
682.966	13655.59
683.314	13724.29
683.661	13662.82
684.009	13579.66
684.357	13634.34
684.705	13495.37
685.053	13597.06
685.4	13469.6
685.748	13421.24
686.095	13455.82
686.443	13362.49
686.79	13367.91
687.138	13381.24
687.485	13460.34
687.832	13363.62
688.18	13334.92
688.527	13259.44
688.874	13250.85
689.221	13155.94
689.568	13128.6
689.915	13073.91
690.262	13117.07
690.609	13115.49
690.956	12972.89
691.303	13012.89
691.65	12912.78
691.997	12937.19
692.344	12883.18
692.69	12821.26
693.037	12779.23
693.383	12690.87
693.73	12658.1
694.077	12581.94
694.423	12525.9
694.769	12579.68
695.116	12567.71
695.462	12494.94
695.808	12424.43
696.155	12449.74
696.501	12357.09
696.847	12323.87
697.193	12239.58
697.539	12244.1
697.885	12289.97
698.231	12118.23
698.577	12105.8
698.923	12133.37
699.269	12061.5
699.614	12026.48
699.96	11967.27
700.306	11955.74
700.651	11881.62
700.997	11845.01
701.342	11811.34
701.688	11849.99
702.033	11768.41
702.379	11727.5
702.724	11742.87
703.069	11614.51
703.415	11585.59
703.76	11593.49
704.105	11579.03
704.45	11545.81
704.795	11485.93
705.14	11419.94
705.485	11452.03
705.83	11387.62
706.175	11325.93
706.52	11285.93
706.865	11190.57
707.209	11224.01
707.554	11140.4
707.899	11244.58
708.243	11141.76
708.588	11035.09
708.932	10938.37
709.277	10995.09
709.621	10945.6
709.966	10875.55
710.31	10892.95
710.654	10819.96
710.998	10824.7
711.342	10830.8
711.687	10778.37
712.031	10735.66
712.375	10706.29
712.719	10674.65
713.063	10812.72
713.407	10708.32
713.75	10672.84
714.094	10582.67
714.438	10633.97
714.782	10681.2
715.125	10565.73
715.469	10595.33
715.812	10559.85
716.156	10506.52
716.499	10495.9
716.843	10466.97
717.186	10420.19
717.53	10463.13
717.873	10514.2
718.216	10449.12
718.559	10416.8
718.902	10315.11
719.246	10363.24
719.589	10294.09
719.932	10215.68
720.275	10246.86
720.617	10273.53
720.96	10173.64
721.303	10236.24
721.646	10244.38
721.989	10180.42
722.331	10145.17
722.674	10189.46
723.016	10185.4
723.359	10160.99
723.701	10209.58
724.044	10069.47
724.386	10070.14
724.729	10132.29
725.071	10063.82
725.413	10076.02
725.755	10139.07
726.097	10048.45
726.439	9989.69
726.782	10017.94
727.124	10041.22
727.465	10016.13
727.807	10025.4
728.149	10003.71
728.491	9979.07
728.833	9972.97
729.175	9968.45
729.516	9986.76
729.858	9916.02
730.199	9952.18
730.541	9956.02
730.882	9953.76
731.224	9981.56
731.565	9879.42
731.906	9957.83
732.248	9946.53
732.589	9844.16
732.93	9860.21
733.271	9842.13
733.612	9909.92
733.953	9915.35
734.294	9909.47
734.635	9895.91
734.976	9940.43
735.317	9830.15
735.658	9855.69
735.999	9823.15
736.339	9868.34
736.68	9922.58
737.021	9882.35
737.361	9833.54
737.702	9936.14
738.042	9828.12
738.383	9850.49
738.723	9951.5
739.063	9878.96
739.404	9896.82
739.744	9941.79
740.084	9885.06
740.424	9932.52
740.764	9920.77
741.104	9997.38
741.444	9832.64
741.784	9937.49
742.124	10003.48
742.464	10030.82
742.804	9998.73
743.143	9990.82
743.483	10060.65
743.823	10069.24
744.162	10015.68
744.502	10062.24
744.841	10058.17
745.181	10218.16
745.52	10123.7
745.86	10198.05
746.199	10248.9
746.538	10336.35
746.877	10370.7
747.216	10391.04
747.556	10373.41
747.895	10496.57
748.234	10453.86
748.573	10540.64
748.911	10518.27
749.25	10696.8
749.589	10633.75
749.928	10720.07
750.267	10822.67
750.605	10905.6
750.944	10889.78
751.283	10966.62
751.621	11090.01
751.96	11075.77
752.298	11158.93
752.636	11307.85
752.975	11323.22
753.313	11389.88
753.651	11584.91
753.989	11664.68
754.327	11738.12
754.666	11874.39
755.004	11995.29
755.342	12155.51
755.679	12214.95
756.017	12335.17
756.355	12483.87
756.693	12647.25
