Data from hue_260_FLMS001491_00072.txt Node
Date: Tue Feb 07 15:59:33 GMT 2017
User: dcchb
Spectrometer: FLMS00149
Trigger mode: 0
Integration Time (sec): 2.000000E-2
Scans to average: 10
Electric dark correction enabled: true
Nonlinearity correction enabled: false
Boxcar width: 0
XAxis mode: Wavelengths
Number of Pixels in Spectrum: 2048
>>>>>Begin Spectral Data<<<<<
341.393	10.21
341.776	10.21
342.16	10.21
342.543	-68.88
342.927	-44.93
343.31	-82.67
343.693	-58.26
344.077	-66.17
344.46	-69.79
344.843	-75.66
345.226	-40.86
345.61	-18.94
345.993	-1.54
346.376	-2.44
346.759	5.47
347.142	40.27
347.525	54.28
347.908	56.09
348.291	59.93
348.674	83.43
349.057	116.88
349.44	121.17
349.823	144.67
350.206	153.71
350.588	193.71
350.971	219.47
351.354	240.49
351.737	248.85
352.119	241.84
352.502	271.9
352.884	273.48
353.267	275.29
353.65	288.17
354.032	304.67
354.414	302.63
354.797	321.16
355.179	310.77
355.562	306.02
355.944	327.72
356.326	317.55
356.709	319.58
357.091	334.04
357.473	331.33
357.855	323.65
358.238	344.44
358.62	329.53
359.002	327.72
359.384	325.01
359.766	315.29
360.148	332.46
360.53	311.9
360.912	316.42
361.294	310.09
361.676	344.21
362.057	329.75
362.439	314.84
362.821	302.86
363.203	315.29
363.584	321.84
363.966	306.47
364.348	301.5
364.729	321.16
365.111	324.78
365.493	329.75
365.874	303.31
366.256	310.77
366.637	319.81
367.019	313.48
367.4	318.9
367.781	320.26
368.163	319.13
368.544	295.18
368.925	300.37
369.306	300.6
369.688	293.37
370.069	308.28
370.45	316.42
370.831	310.99
371.212	299.24
371.593	310.77
371.974	289.3
372.355	326.59
372.736	296.53
373.117	301.05
373.498	304.67
373.879	307.83
374.26	301.05
374.641	307.6
375.021	331.11
375.402	326.81
375.783	313.03
376.163	336.53
376.544	329.53
376.925	321.39
377.305	316.64
377.686	322.07
378.066	321.62
378.447	292.46
378.827	336.08
379.208	322.52
379.588	346.47
379.968	334.5
380.349	323.42
380.729	307.38
381.109	357.1
381.489	342.86
381.87	339.47
382.25	333.82
382.63	335.17
383.01	334.5
383.39	346.7
383.77	346.93
384.15	351.45
384.53	357.77
384.91	346.93
385.29	337.21
385.67	362.74
386.049	347.15
386.429	341.73
386.809	341.28
387.189	346.47
387.568	351.9
387.948	338.11
388.328	372.01
388.707	359.58
389.087	346.25
389.466	358.23
389.846	364.55
390.225	346.47
390.605	355.29
390.984	368.17
391.363	353.71
391.743	364.78
392.122	383.54
392.501	378.34
392.881	361.61
393.26	395.29
393.639	388.28
394.018	406.13
394.397	391.9
394.776	378.11
395.155	397.32
395.534	399.58
395.913	403.65
396.292	414.27
396.671	410.43
397.05	421.05
397.429	396.19
397.808	400.03
398.186	395.74
398.565	397.77
398.944	405
399.323	395.29
399.701	385.79
400.08	417.88
400.458	410.65
400.837	402.74
401.215	402.52
401.594	422.86
401.972	381.28
402.351	421.73
402.729	433.93
403.107	433.03
403.486	438.45
403.864	427.38
404.242	446.13
404.62	454.72
404.999	447.71
405.377	461.95
405.755	457.66
406.133	458.11
406.511	474.83
406.889	468.73
407.267	459.01
407.645	479.8
408.023	472.8
408.401	489.07
408.779	472.57
409.156	486.36
409.534	507.83
409.912	502.85
410.29	499.46
410.667	525.23
411.045	525.23
411.422	513.02
411.8	539.92
412.178	570.42
412.555	526.36
412.933	566.13
413.31	545.79
413.687	568.39
414.065	575.85
414.442	567.03
414.819	609.74
415.197	587.15
415.574	620.37
415.951	613.13
416.328	591.44
416.705	611.55
417.082	630.31
417.46	631.21
417.837	652.23
418.214	656.52
418.591	643.42
418.967	626.47
419.344	667.14
419.721	687.26
420.098	673.92
420.475	715.28
420.852	686.58
421.228	702.17
421.605	715.5
421.982	702.62
422.358	743.53
422.735	732.9
423.111	750.76
423.488	774.03
423.864	789.85
424.241	802.28
424.617	786.91
424.994	803.64
425.37	812.45
425.746	851.77
426.123	818.78
426.499	836.4
426.875	853.58
427.251	873.92
427.627	866.01
428.003	885.67
428.379	910.98
428.756	887.7
429.132	944.65
429.507	925.67
429.883	946.46
430.259	949.62
430.635	951.43
431.011	978.1
431.387	1007.02
431.763	1018.77
432.138	1011.32
432.514	1024.87
432.89	1020.58
433.265	1050.86
433.641	1059.9
434.016	1082.05
434.392	1103.74
434.767	1111.65
435.143	1150.97
435.518	1139.22
435.894	1163.85
436.269	1205.21
436.644	1201.14
437.02	1208.82
437.395	1249.73
437.77	1253.34
438.145	1282.95
438.52	1259.44
438.895	1309.16
439.271	1284.75
439.646	1349.39
440.021	1345.32
440.395	1376.73
440.77	1346.9
441.145	1373.34
441.52	1419.21
441.895	1421.02
442.27	1432.1
442.645	1428.48
443.019	1468.48
443.394	1460.34
443.769	1462.15
444.143	1484.75
444.518	1497.63
444.892	1514.35
445.267	1527.69
445.641	1542.15
446.016	1557.97
446.39	1578.08
446.764	1575.14
447.139	1573.33
447.513	1597.97
447.887	1588.93
448.262	1595.71
448.636	1588.7
449.01	1651.52
449.384	1619.21
449.758	1639.1
450.132	1691.52
450.506	1687.91
450.88	1673.22
451.254	1685.65
451.628	1708.92
452.002	1727.45
452.376	1734.46
452.75	1777.62
453.123	1788.02
453.497	1770.62
453.871	1830.05
454.244	1843.16
454.618	1854.91
454.992	1834.34
455.365	1868.69
455.739	1926.09
456.112	1948.92
456.486	1961.12
456.859	1952.08
457.232	1995.02
457.606	2027.33
457.979	2002.25
458.352	2040.21
458.725	2045.41
459.099	2095.81
459.472	2114.56
459.845	2134.68
460.218	2153.88
460.591	2176.48
460.964	2143.49
461.337	2184.62
461.71	2239.76
462.083	2249.7
462.456	2276.82
462.829	2274.78
463.201	2291.51
463.574	2310.94
463.947	2370.15
464.32	2399.53
464.692	2444.27
465.065	2421.67
465.438	2449.02
465.81	2498.51
466.183	2500.54
466.555	2569.24
466.928	2584.16
467.3	2589.58
467.672	2602.01
468.045	2674.32
468.417	2677.94
468.789	2692.17
469.161	2731.72
469.534	2778.5
469.906	2816.92
470.278	2822.79
470.65	2818.27
471.022	2887.65
471.394	2930.13
471.766	2965.39
472.138	3040.19
472.51	3052.39
472.882	3049.68
473.253	3085.38
473.625	3152.05
473.997	3208.32
474.369	3208.55
474.74	3275.21
475.112	3349.11
475.484	3365.15
475.855	3401.53
476.227	3430.01
476.598	3525.37
476.97	3505.49
477.341	3585.26
477.713	3679.04
478.084	3656.22
478.455	3749.55
478.827	3747.51
479.198	3833.61
479.569	3869.32
479.94	3962.88
480.311	3954.29
480.682	4064.12
481.053	4151.35
481.424	4198.12
481.795	4237.22
482.166	4265.92
482.537	4318.57
482.908	4440.15
483.279	4441.96
483.65	4447.84
484.021	4555.4
484.391	4547.95
484.762	4623.65
485.133	4698.45
485.503	4699.58
485.874	4833.59
486.244	4817.54
486.615	4948.61
486.985	4996.97
487.356	5033.58
487.726	5086.69
488.097	5116.29
488.467	5163.52
488.837	5243.52
489.207	5284.65
489.578	5357.64
489.948	5424.76
490.318	5489.16
490.688	5443.52
491.058	5553.57
491.428	5603.06
491.798	5652.1
492.168	5747.46
492.538	5772.09
492.908	5835.6
493.278	5849.38
493.648	5861.13
494.017	5924.86
494.387	5996.72
494.757	5966.21
495.126	6084.85
495.496	6036.27
495.866	6112.88
496.235	6161.01
496.605	6222.25
496.974	6210.73
497.344	6262.02
497.713	6322.14
498.082	6334.57
498.452	6380.44
498.821	6356.26
499.19	6412.76
499.559	6429.03
499.928	6460.89
500.298	6531.17
500.667	6502.24
501.036	6496.37
501.405	6587.89
501.774	6606.2
502.143	6655.69
502.512	6653.65
502.88	6682.35
503.249	6674.44
503.618	6741.11
503.987	6793.99
504.356	6753.31
504.724	6759.19
505.093	6817.49
505.462	6856.81
505.83	6854.78
506.199	6923.02
506.567	6991.27
506.936	6913.31
507.304	6998.95
507.672	7076.47
508.041	6987.43
508.409	7102.91
508.777	7085.73
509.145	7114.88
509.514	7147.88
509.882	7150.81
510.25	7159.63
510.618	7209.8
510.986	7140.19
511.354	7318.72
511.722	7226.07
512.09	7313.07
512.458	7280.75
512.826	7313.07
513.193	7310.36
513.561	7324.82
513.929	7344.93
514.297	7426.74
514.664	7417.7
515.032	7388.32
515.4	7491.14
515.767	7479.62
516.135	7514.2
516.502	7449.11
516.869	7574.08
517.237	7522.78
517.604	7470.13
517.972	7505.61
518.339	7649.78
518.706	7581.99
519.073	7591.26
519.44	7634.42
519.808	7667.86
520.175	7633.29
520.542	7715.32
520.909	7699.73
521.276	7729.78
521.643	7703.34
522.009	7729.56
522.376	7768.88
522.743	7730.91
523.11	7771.36
523.477	7880.51
523.843	7917.8
524.21	7899.5
524.577	7893.39
524.943	7924.58
525.31	7955.31
525.676	7974.52
526.043	8053.62
526.409	7992.83
526.776	8006.61
527.142	8065.37
527.508	8058.81
527.874	8056.55
528.241	8071.92
528.607	8069.21
528.973	8118.7
529.339	8082.99
529.705	8151.69
530.071	8207.96
530.437	8176.1
530.803	8217.45
531.169	8199.6
531.535	8170.9
531.901	8179.26
532.267	8238.47
532.632	8248.41
532.998	8198.92
533.364	8228.07
533.73	8241.63
534.095	8277.34
534.461	8266.72
534.826	8277.11
535.192	8244.57
535.557	8272.59
535.923	8223.55
536.288	8252.93
536.653	8231.92
537.019	8219.49
537.384	8195.08
537.749	8200.96
538.114	8163.44
538.479	8129.77
538.845	8257.9
539.21	8175.19
539.575	8185.59
539.94	8219.04
540.305	8286.6
540.67	8179.26
541.034	8162.99
541.399	8254.97
541.764	8188.53
542.129	8199.6
542.494	8192.82
542.858	8218.13
543.223	8191.47
543.587	8174.52
543.952	8195.08
544.316	8195.99
544.681	8060.17
545.045	8150.56
545.41	8179.94
545.774	8151.24
546.138	8137
546.503	8122.31
546.867	8201.63
547.231	8167.74
547.595	8136.78
547.959	8146.95
548.324	8106.95
548.688	8093.16
549.052	8116.21
549.416	8087.29
549.779	8085.71
550.143	8088.64
550.507	8099.26
550.871	8103.78
551.235	8026.72
551.599	8115.08
551.962	8075.99
552.326	8081.86
552.689	8180.84
553.053	8116.44
553.417	8021.07
553.78	8141.75
554.143	8129.77
554.507	8046.38
554.87	8047.29
555.234	8165.48
555.597	8062.88
555.96	8126.61
556.323	8078.93
556.686	8123.67
557.05	8179.94
557.413	8125.03
557.776	8174.29
558.139	8133.84
558.502	8094.29
558.865	8186.72
559.228	8201.18
559.59	8203.44
559.953	8207.74
560.316	8267.17
560.679	8282.31
561.041	8278.69
561.404	8306.26
561.767	8291.35
562.129	8285.93
562.492	8429.43
562.854	8344
563.217	8306.49
563.579	8343.78
563.941	8392.59
564.304	8374.06
564.666	8434.62
565.028	8450.67
565.39	8434.85
565.753	8430.33
566.115	8497.67
566.477	8472.36
566.839	8540.38
567.201	8506.26
567.563	8606.37
567.925	8592.81
568.287	8569.53
568.648	8553.49
569.01	8639.14
569.372	8680.94
569.734	8652.7
570.095	8721.85
570.457	8727.5
570.819	8773.6
571.18	8741.96
571.542	8769.53
571.903	8830.54
572.265	8835.52
572.626	8872.35
572.987	8845.91
573.349	8880.26
573.71	8908.28
574.071	8925.23
574.432	8968.62
574.794	8986.02
575.155	8971.33
575.516	9014.49
575.877	8994.38
576.238	9080.26
576.599	9107.37
576.96	9052.01
577.32	9118.9
577.681	9204.32
578.042	9106.92
578.403	9159.8
578.763	9100.37
579.124	9203.42
579.485	9267.37
579.845	9248.84
580.206	9249.29
580.566	9270.31
580.927	9344.66
581.287	9383.07
581.648	9382.39
582.008	9398.21
582.368	9404.99
582.728	9431.43
583.089	9378.55
583.449	9392.79
583.809	9425.33
584.169	9495.16
584.529	9414.94
584.889	9526.12
585.249	9538.77
585.609	9434.82
585.969	9531.54
586.329	9532
586.688	9527.25
587.048	9538.77
587.408	9502.39
587.768	9585.78
588.127	9558.21
588.487	9608.38
588.846	9715.27
589.206	9599.11
589.565	9632.56
589.925	9622.84
590.284	9640.01
590.643	9698.32
591.003	9714.59
591.362	9748.26
591.721	9784.64
592.08	9749.16
592.44	9780.35
592.799	9796.17
593.158	9745.77
593.517	9788.49
593.876	9821.93
594.235	9855.83
594.593	9827.58
594.952	9815.6
595.311	9803.17
595.67	9781.48
596.029	9880.69
596.387	9875.49
596.746	9994.36
597.104	9825.32
597.463	9886.34
597.822	9911.19
598.18	9903.06
598.538	9862.38
598.897	9958.42
599.255	9927.92
599.613	10019.89
599.972	9973.11
600.33	10038.87
600.688	9985.32
601.046	10040.91
601.404	10025.32
601.762	10025.32
602.12	10037.74
602.478	10031.87
602.836	10056.5
603.194	10025.54
603.552	10029.38
603.91	10000.01
604.268	9999.1
604.625	10074.13
604.983	10033.68
605.341	9990.51
605.698	10063.73
606.056	10052.89
606.413	10068.7
606.771	10086.1
607.128	10177.63
607.485	10101.47
607.843	10081.59
608.2	10184.63
608.557	10214.01
608.914	10160.45
609.272	10240.9
609.629	10217.17
609.986	10266.21
610.343	10119.55
610.7	10240.9
611.057	10212.88
611.414	10261.02
611.771	10237.74
612.127	10257.4
612.484	10227.8
612.841	10327.45
613.198	10314.57
613.554	10224.63
613.911	10311.64
614.267	10272.09
614.624	10314.8
614.98	10230.51
615.337	10375.36
615.693	10326.78
616.05	10382.14
616.406	10423.05
616.762	10404.29
617.118	10388.02
617.475	10445.19
617.831	10457.39
618.187	10446.77
618.543	10431.86
618.899	10473.21
619.255	10461.01
619.611	10474.12
619.967	10443.61
620.323	10477.06
620.678	10435.47
621.034	10445.42
621.39	10422.59
621.746	10430.28
622.101	10620.1
622.457	10465.3
622.812	10438.64
623.168	10399.32
623.523	10463.5
623.879	10514.12
624.234	10465.76
624.589	10491.97
624.945	10456.49
625.3	10493.1
625.655	10509.6
626.01	10481.8
626.365	10470.28
626.72	10423.95
627.075	10406.1
627.43	10523.61
627.785	10456.26
628.14	10423.27
628.495	10472.54
628.85	10472.76
629.205	10424.63
629.559	10499.65
629.914	10396.61
630.269	10425.08
630.623	10383.5
630.978	10372.65
631.332	10432.08
631.687	10431.18
632.041	10385.53
632.396	10493.1
632.75	10327.91
633.104	10341.92
633.459	10369.71
633.813	10336.27
634.167	10316.16
634.521	10348.7
634.875	10306.66
635.229	10213.33
635.583	10191.86
635.937	10233.67
636.291	10231.41
636.645	10231.19
636.999	10298.75
637.352	10189.83
637.706	10157.06
638.06	10201.13
638.413	10163.62
638.767	10094.01
639.121	10134.01
639.474	10071.19
639.828	10080.23
640.181	10139.21
640.534	10126.33
640.888	10058.08
641.241	10061.47
641.594	10049.5
641.947	10071.87
642.301	10062.6
642.654	10087.01
643.007	10039.55
643.36	10020.8
643.713	9989.84
644.066	10056.95
644.419	9952.1
644.771	9912.32
645.124	9863.06
645.477	9805.21
645.83	9731.54
646.182	9675.04
646.535	9774.7
646.888	9747.13
647.24	9679.34
647.593	9669.84
647.945	9738.09
648.298	9619.9
648.65	9653.8
649.002	9558.44
649.355	9650.64
649.707	9685.21
650.059	9667.58
650.411	9766.79
650.763	9781.03
651.115	9879.56
651.467	9856.28
651.819	9902.15
652.171	9862.16
652.523	9786
652.875	9868.48
653.227	9777.19
653.578	9860.35
653.93	9871.2
654.282	9819.9
654.633	9892.21
654.985	9704.19
655.337	9846.34
655.688	9794.36
656.039	9844.3
656.391	9795.49
656.742	9788.71
657.094	9838.65
657.445	9894.02
657.796	9894.02
658.147	9927.69
658.498	9805.66
658.849	9907.35
659.2	9862.61
659.551	9830.52
659.902	9821.71
660.253	9818.99
660.604	9793.68
660.955	9817.41
661.306	9845.21
661.656	9790.75
662.007	9854.25
662.358	9918.43
662.708	9801.37
663.059	9795.94
663.409	9767.02
663.76	9861.7
664.11	9907.13
664.461	9812.67
664.811	9897.64
665.161	9863.96
665.511	9783.51
665.862	9827.81
666.212	9838.88
666.562	9895.83
666.912	9830.97
667.262	9907.35
667.612	9807.24
667.962	9817.19
668.312	9795.49
668.662	9896.73
669.011	9816.06
669.361	9827.58
669.711	9746.23
670.06	9813.34
670.41	9768.83
670.76	9787.13
671.109	9819.22
671.459	9809.05
671.808	9819.22
672.157	9783.51
672.507	9784.64
672.856	9739.45
673.205	9761.59
673.554	9737.64
673.904	9675.27
674.253	9767.02
674.602	9717.98
674.951	9587.59
675.3	9565.21
675.649	9683.4
675.998	9695.15
676.346	9699.45
676.695	9766.11
677.044	9648.38
677.393	9686.79
677.741	9713.46
678.09	9634.37
678.438	9597.53
678.787	9581.03
679.135	9612.67
679.484	9552.56
679.832	9605.89
680.181	9579.68
680.529	9587.13
680.877	9505.78
681.225	9490.64
681.573	9602.73
681.922	9451.32
682.27	9428.95
682.618	9423.75
682.966	9432.56
683.314	9445.67
683.661	9355.5
684.009	9308.05
684.357	9377.2
684.705	9369.29
685.053	9423.3
685.4	9280.7
685.748	9274.6
686.095	9260.82
686.443	9237.09
686.79	9169.29
687.138	9215.17
687.485	9235.28
687.832	9174.72
688.18	9148.73
688.527	9107.15
688.874	9105.11
689.221	9083.19
689.568	9047.49
689.915	8981.05
690.262	8997.55
690.609	9001.84
690.956	9011.56
691.303	8950.09
691.65	8877.1
691.997	8952.58
692.344	8822.86
692.69	8766.59
693.037	8849.53
693.383	8816.53
693.73	8796.65
694.077	8707.16
694.423	8681.17
694.769	8659.48
695.116	8645.46
695.462	8588.07
695.808	8642.3
696.155	8594.62
696.501	8558.69
696.847	8486.37
697.193	8482.31
697.539	8525.02
697.885	8462.64
698.231	8282.54
698.577	8361.4
698.923	8361.63
699.269	8299.26
699.614	8228.07
699.96	8261.52
700.306	8234.4
700.651	8194.86
700.997	8124.8
701.342	8146.72
701.688	8144.69
702.033	8039.15
702.379	8121.86
702.724	8048.19
703.069	8069.21
703.415	7937.23
703.76	7944.24
704.105	7901.08
704.45	7940.4
704.795	7884.13
705.14	7907.63
705.485	7841.19
705.83	7774.08
706.175	7821.08
706.52	7741.31
706.865	7743.79
707.209	7748.31
707.554	7657.69
707.899	7769.78
708.243	7704.7
708.588	7693.4
708.932	7622.67
709.277	7604.14
709.621	7635.1
709.966	7589.22
710.31	7585.83
710.654	7532.05
710.998	7505.38
711.342	7506.96
711.687	7406.18
712.031	7428.77
712.375	7427.87
712.719	7425.84
713.063	7377.48
713.407	7429
713.75	7367.53
714.094	7392.16
714.438	7327.08
714.782	7328.44
715.125	7280.08
715.469	7312.84
715.812	7301.09
716.156	7233.52
716.499	7264.94
716.843	7227.42
717.186	7222.68
717.53	7212.73
717.873	7245.5
718.216	7199.18
718.559	7201.66
718.902	7143.81
719.246	7208.89
719.589	7118.05
719.932	7119.63
720.275	7105.39
720.617	7093.64
720.96	7131.61
721.303	7102
721.646	7162.79
721.989	7054.77
722.331	7074.66
722.674	7110.14
723.016	7048.9
723.359	7070.14
723.701	7012.06
724.044	7039.63
724.386	7006.19
724.729	7055.45
725.071	6990.14
725.413	6965.06
725.755	6957.83
726.097	6939.52
726.439	6920.76
726.782	6929.58
727.124	7028.78
727.465	6946.75
727.807	6945.17
728.149	6953.76
728.491	6883.93
728.833	6951.72
729.175	6922.57
729.516	6903.59
729.858	6944.49
730.199	6957.15
730.541	6906.75
730.882	6899.97
731.224	6944.27
731.565	6834.21
731.906	6847.77
732.248	6892.29
732.589	6826.98
732.93	6864.27
733.271	6813.2
733.612	6862.91
733.953	6858.85
734.294	6850.48
734.635	6845.51
734.976	6862.69
735.317	6843.7
735.658	6846.64
735.999	6837.6
736.339	6862.69
736.68	6857.49
737.021	6855
737.361	6837.15
737.702	6896.13
738.042	6821.33
738.383	6837.38
738.723	6878.51
739.063	6835.57
739.404	6889.8
739.744	6889.13
740.084	6885.06
740.424	6928.67
740.764	6864.27
741.104	6900.2
741.444	6954.66
741.784	6902.46
742.124	6935
742.464	7005.96
742.804	6951.5
743.143	6995.56
743.483	7011.84
743.823	6972.74
744.162	7015.68
744.502	7036.24
744.841	6998.28
745.181	7098.16
745.52	7156.01
745.86	7100.42
746.199	7118.27
746.538	7151.94
746.877	7251.6
747.216	7185.84
747.556	7234.2
747.895	7322.56
748.234	7315.33
748.573	7324.6
748.911	7424.03
749.25	7386.06
749.589	7459.06
749.928	7525.72
750.267	7518.49
750.605	7629.9
750.944	7705.83
751.283	7657.02
751.621	7784.24
751.96	7807.52
752.298	7930.68
752.636	8014.75
752.975	8075.99
753.313	8023.56
753.651	8216.32
753.989	8183.1
754.327	8340.61
754.666	8418.35
755.004	8488.63
755.342	8607.5
755.679	8699.47
756.017	8810.88
756.355	8861.28
756.693	8971.56
757.031	9129.75
757.368	9218.11
757.706	9294.04
758.044	9431.88
758.381	9580.81
758.719	9621.94
759.056	9808.15
759.394	9868.03
759.731	9990.74
760.068	10037.52
760.405	10239.55
760.743	10318.42
761.08	10480.9
761.417	10561.35
761.754	10734.22
762.091	10838.85
762.428	10880.43
762.765	11031.16
763.102	11271.84
763.438	11259.63
763.775	11388.67
764.112	11554.77
764.449	11770.58
764.785	11836.12
765.122	11975.77
765.458	12030.01
765.795	12166.5
766.131	12398.36
766.467	12337.35
766.804	12520.39
