Data from hue_300_FLMS001491_00016.txt Node
Date: Tue Feb 07 15:50:22 GMT 2017
User: dcchb
Spectrometer: FLMS00149
Trigger mode: 0
Integration Time (sec): 2.000000E-2
Scans to average: 10
Electric dark correction enabled: true
Nonlinearity correction enabled: false
Boxcar width: 0
XAxis mode: Wavelengths
Number of Pixels in Spectrum: 2048
>>>>>Begin Spectral Data<<<<<
341.393	-0.54
341.776	-0.54
342.16	-0.54
342.543	-69.01
342.927	-66.52
343.31	-51.83
343.693	-82.34
344.077	-51.38
344.46	-66.3
344.843	-55.68
345.226	-24.04
345.61	-27.43
345.993	-27.65
346.376	-11.61
346.759	15.28
347.142	39.24
347.525	33.36
347.908	60.03
348.291	77.65
348.674	80.14
349.057	92.57
349.44	123.08
349.823	145.45
350.206	140.25
350.588	186.13
350.971	196.52
351.354	212.34
351.737	220.93
352.119	239.46
352.502	245.78
352.884	237.42
353.267	260.93
353.65	279.68
354.032	300.7
354.414	288.04
354.797	309.51
355.179	314.03
355.562	310.64
355.944	302.73
356.326	314.71
356.709	317.42
357.091	324.88
357.473	329.17
357.855	314.94
358.238	331.66
358.62	340.7
359.002	331.21
359.384	340.47
359.766	335.27
360.148	325.56
360.53	309.74
360.912	307.03
361.294	342.51
361.676	322.62
362.057	326.46
362.439	316.52
362.821	325.1
363.203	302.05
363.584	308.16
363.966	314.71
364.348	312
364.729	316.74
365.111	294.37
365.493	300.25
365.874	294.82
366.256	299.12
366.637	313.81
367.019	323.52
367.4	312
367.781	308.16
368.163	302.05
368.544	300.02
368.925	323.3
369.306	310.42
369.688	318.1
370.069	299.12
370.45	306.57
370.831	313.13
371.212	318.1
371.593	283.07
371.974	297.31
372.355	307.48
372.736	314.26
373.117	323.75
373.498	290.76
373.879	301.15
374.26	298.21
374.641	304.09
375.021	308.83
375.402	313.13
375.783	300.92
376.163	320.36
376.544	295.5
376.925	329.4
377.305	315.39
377.686	316.74
378.066	320.58
378.447	309.51
378.827	319
379.208	319.68
379.588	303.86
379.968	323.75
380.349	323.75
380.729	333.01
381.109	329.17
381.489	347.93
381.87	320.13
382.25	336.4
382.63	314.48
383.01	314.03
383.39	343.18
383.77	334.14
384.15	327.36
384.53	324.43
384.91	327.36
385.29	335.05
385.67	355.84
386.049	348.15
386.429	333.92
386.809	344.99
387.189	339.12
387.568	350.41
387.948	333.01
388.328	342.96
388.707	351.77
389.087	334.82
389.466	348.61
389.846	364.65
390.225	324.88
390.605	346.35
390.984	345.89
391.363	335.73
391.743	366.69
392.122	332.56
392.501	376.4
392.881	360.58
393.26	368.04
393.639	357.65
394.018	352
394.397	355.39
394.776	375.5
395.155	360.81
395.534	353.13
395.913	362.39
396.292	395.39
396.671	384.99
397.05	359
397.429	383.86
397.808	370.53
398.186	382.73
398.565	415.05
398.944	396.06
399.323	387.7
399.701	389.28
400.08	392.9
400.458	389.06
400.837	401.49
401.215	406.68
401.594	392.22
401.972	397.64
402.351	414.59
402.729	407.81
403.107	409.85
403.486	411.2
403.864	411.88
404.242	390.19
404.62	430.19
404.999	425.67
405.377	439.23
405.755	446.91
406.133	427.25
406.511	437.87
406.889	427.25
407.267	443.75
407.645	457.53
408.023	462.5
408.401	470.64
408.779	482.39
409.156	463.86
409.534	465.44
409.912	491.43
410.29	502.5
410.667	510.18
411.045	476.74
411.422	489.62
411.8	497.53
412.178	491.43
412.555	539.11
412.933	528.04
413.31	537.3
413.687	559
414.065	553.35
414.442	549.96
414.819	562.84
415.197	583.4
415.574	581.59
415.951	596.51
416.328	612.55
416.705	609.16
417.082	622.05
417.46	597.64
417.837	635.83
418.214	623.85
418.591	626.79
418.967	631.99
419.344	657.53
419.721	670.18
420.098	656.85
420.475	677.86
420.852	693.68
421.228	685.55
421.605	704.08
421.982	702.5
422.358	711.08
422.735	703.4
423.111	715.83
423.488	728.94
423.864	744.98
424.241	775.49
424.617	784.53
424.994	754.92
425.37	766.45
425.746	789.72
426.123	797.41
426.499	806.45
426.875	804.41
427.251	844.64
427.627	834.24
428.003	825.88
428.379	850.29
428.756	834.47
429.132	875.15
429.507	878.54
429.883	876.05
430.259	908.82
430.635	919.67
431.011	916.05
431.387	946.33
431.763	933.68
432.138	956.05
432.514	962.83
432.89	967.8
433.265	965.54
433.641	1006.67
434.016	989.27
434.392	1003.5
434.767	1045.31
435.143	1021.81
435.518	1039.44
435.894	1059.32
436.269	1090.06
436.644	1071.98
437.02	1083.28
437.395	1096.61
437.77	1103.62
438.145	1119.66
438.52	1104.07
438.895	1140.45
439.271	1126.67
439.646	1154.91
440.021	1171.64
440.395	1151.07
440.77	1160.11
441.145	1187.68
441.52	1199.66
441.895	1202.37
442.27	1193.1
442.645	1218.19
443.019	1231.07
443.394	1218.19
443.769	1209.37
444.143	1237.17
444.518	1242.59
444.892	1211.86
445.267	1257.06
445.641	1229.71
446.016	1290.05
446.39	1275.81
446.764	1250.05
447.139	1266.77
447.513	1262.25
447.887	1252.31
448.262	1251.18
448.636	1278.3
449.01	1266.77
449.384	1292.54
449.758	1282.59
450.132	1313.78
450.506	1278.75
450.88	1290.05
451.254	1316.04
451.628	1337.73
452.002	1326.43
452.376	1316.49
452.75	1326.66
453.123	1356.72
453.497	1343.38
453.871	1366.21
454.244	1355.13
454.618	1396.49
454.992	1395.36
455.365	1369.37
455.739	1411.63
456.112	1414.79
456.486	1442.14
456.859	1450.27
457.232	1469.48
457.606	1462.93
457.979	1477.84
458.352	1489.82
458.725	1504.06
459.099	1477.39
459.472	1520.1
459.845	1506.77
460.218	1557.39
460.591	1524.62
460.964	1530.27
461.337	1576.6
461.71	1557.39
462.083	1573.66
462.456	1586.31
462.829	1592.64
463.201	1629.25
463.574	1609.82
463.947	1631.51
464.32	1656.59
464.692	1648.01
465.065	1666.76
465.438	1699.53
465.81	1695.92
466.183	1705.86
466.555	1727.1
466.928	1741.56
467.3	1749.25
467.672	1740.21
468.045	1804.84
468.417	1759.19
468.789	1769.59
469.161	1783.15
469.534	1815.91
469.906	1876.02
470.278	1851.84
470.65	1843.03
471.022	1891.62
471.394	1907.44
471.766	1912.86
472.138	1900.2
472.51	1933.42
472.882	1974.55
473.253	1954.89
473.625	2003.25
473.997	2014.1
474.369	1976.36
474.74	2074.21
475.112	2060.65
475.484	2084.15
475.855	2111.72
476.227	2139.75
476.598	2140.2
476.97	2155.11
477.341	2220.65
477.713	2206.86
478.084	2215
478.455	2240.08
478.827	2269.91
479.198	2309.01
479.569	2306.97
479.94	2375.45
480.311	2330.48
480.682	2416.57
481.053	2429.23
481.424	2443.01
481.795	2426.07
482.166	2466.29
482.537	2500.64
482.908	2552.39
483.279	2534.76
483.65	2563.46
484.021	2614.76
484.391	2636.91
484.762	2635.55
485.133	2636.46
485.503	2727.3
485.874	2720.75
486.244	2708.54
486.615	2760.29
486.985	2765.04
487.356	2828.99
487.726	2811.37
488.097	2873.06
488.467	2881.65
488.837	2901.08
489.207	2938.82
489.578	2919.39
489.948	2963.23
490.318	2965.49
490.688	2998.25
491.058	3021.76
491.428	3031.7
491.798	3097.01
492.168	3156.67
492.538	3129.1
492.908	3121.19
493.278	3187.4
493.648	3152.15
494.017	3178.14
494.387	3212.94
494.757	3239.38
495.126	3215.42
495.496	3276.21
495.866	3304.91
496.235	3354.18
496.605	3321.41
496.974	3342.65
497.344	3332.26
497.713	3358.92
498.082	3348.53
498.452	3362.31
498.821	3361.63
499.19	3388.75
499.559	3405.93
499.928	3401.41
500.298	3460.16
500.667	3501.74
501.036	3467.85
501.405	3481.63
501.774	3449.54
502.143	3458.13
502.512	3501.74
502.88	3582.42
503.249	3537
503.618	3569.76
503.987	3539.03
504.356	3572.93
504.724	3576.09
505.093	3601.63
505.462	3594.4
505.83	3589.65
506.199	3642.08
506.567	3664.9
506.936	3622.64
507.304	3679.59
507.672	3687.95
508.041	3686.37
508.409	3702.19
508.777	3721.17
509.145	3730.21
509.514	3689.31
509.882	3742.19
510.25	3735.41
510.618	3730.89
510.986	3785.8
511.354	3781.51
511.722	3771.12
512.09	3843.66
512.458	3828.06
512.826	3807.05
513.193	3816.31
513.561	3808.63
513.929	3851.79
514.297	3851.57
514.664	3887.95
515.032	3909.19
515.4	3863.54
515.767	3920.04
516.135	3906.48
516.502	3917.33
516.869	3928.4
517.237	3925.46
517.604	3889.53
517.972	3995.29
518.339	3950.09
518.706	3929.98
519.073	3980.83
519.44	3958
519.808	3990.54
520.175	3946.7
520.542	4037.1
520.909	4058.11
521.276	4030.54
521.643	4062.41
522.009	4129.75
522.376	4085.46
522.743	4105.57
523.11	4098.11
523.477	4125
523.843	4149.64
524.21	4173.14
524.577	4179.92
524.943	4202.74
525.31	4188.05
525.676	4222.63
526.043	4238.22
526.409	4236.19
526.776	4285
527.142	4295.62
527.508	4299.46
527.874	4352.57
528.241	4386.69
528.607	4370.2
528.973	4445
529.339	4414.26
529.705	4416.75
530.071	4426.01
530.437	4427.82
530.803	4482.51
531.169	4499.91
531.535	4473.92
531.901	4515.05
532.267	4525.67
532.632	4564.32
532.998	4598.21
533.364	4590.3
533.73	4631.21
534.095	4640.25
534.461	4632.56
534.826	4640.02
535.192	4680.24
535.557	4725.89
535.923	4686.8
536.288	4768.6
536.653	4750.52
537.019	4729.73
537.384	4779.22
537.749	4790.52
538.114	4820.81
538.479	4783.74
538.845	4845.89
539.21	4870.3
539.575	4890.41
539.94	4858.77
540.305	4929.28
540.67	4870.97
541.034	4978.99
541.399	4932.89
541.764	4960.46
542.129	4999.78
542.494	5017.18
542.858	5039.33
543.223	5029.84
543.587	5103.06
543.952	5071.42
544.316	5134.7
544.681	5143.73
545.045	5183.73
545.41	5186.22
545.774	5196.16
546.138	5169.95
546.503	5215.37
546.867	5220.57
547.231	5275.26
547.595	5313.45
547.959	5293.34
548.324	5311.41
548.688	5360.45
549.052	5340.57
549.416	5354.12
549.779	5339.66
550.143	5408.81
550.507	5432.99
550.871	5432.99
551.235	5403.16
551.599	5498.3
551.962	5541.24
552.326	5449.04
552.689	5517.74
553.053	5510.28
553.417	5495.59
553.78	5521.8
554.143	5582.59
554.507	5588.02
554.87	5597.73
555.234	5645.19
555.597	5621.69
555.96	5654.23
556.323	5656.94
556.686	5670.05
557.05	5679.31
557.413	5731.74
557.776	5678.64
558.139	5737.39
558.502	5766.54
558.865	5745.3
559.228	5761.12
559.59	5817.16
559.953	5836.6
560.316	5862.81
560.679	5856.26
561.041	5864.17
561.404	5945.3
561.767	5957.95
562.129	5946.2
562.492	5971.28
562.854	5941.23
563.217	6005.63
563.579	5991.62
563.941	6026.2
564.304	6013.99
564.666	6030.27
565.028	6064.84
565.39	6045.86
565.753	6124.27
566.115	6090.15
566.477	6196.14
566.839	6143.48
567.201	6167.89
567.563	6168.11
567.925	6168.57
568.287	6251.28
568.648	6280.43
569.01	6292.41
569.372	6320.65
569.734	6308.22
570.095	6402.01
570.457	6437.71
570.819	6415.79
571.18	6469.35
571.542	6516.13
571.903	6531.95
572.265	6546.64
572.626	6517.71
572.987	6602.23
573.349	6616.24
573.71	6690.13
574.071	6794.09
574.432	6806.06
574.794	6894.65
575.155	6961.31
575.516	6903.01
575.877	7031.14
576.238	7062.78
576.599	7092.16
576.96	7143.46
577.32	7217.35
577.681	7336.67
578.042	7442.43
578.403	7364.92
578.763	7504.58
579.124	7604.91
579.485	7760.62
579.845	7845.81
580.206	7834.96
580.566	8008.29
580.927	8151.11
581.287	8264.78
581.648	8354.5
582.008	8539.35
582.368	8665.68
582.728	8772.57
583.089	8920.13
583.449	9139.11
583.809	9293.46
584.169	9456.84
584.529	9591.98
584.889	9869.03
585.249	9883.27
585.609	10132.3
585.969	10404.61
586.329	10602.12
586.688	10805.96
587.048	10998.5
587.408	11192.84
587.768	11444.81
588.127	11656.33
588.487	11869.21
588.846	12243.66
589.206	12402.08
589.565	12593.26
589.925	12961.61
590.284	13240.92
590.643	13527.02
591.003	13825.09
591.362	14013.56
591.721	14353.44
592.08	14417.62
592.44	14933.53
592.799	15172.85
593.158	15476.12
593.517	15700.75
593.876	16079.72
594.235	16262.09
594.593	16644.9
594.952	17000.82
595.311	17166.24
595.67	17481.94
596.029	18044.19
596.387	18218.65
596.746	18500.67
597.104	18743.15
597.463	18993.09
597.822	19429.91
598.18	19610.47
598.538	19914.19
598.897	20395.76
599.255	20591.92
599.613	20895.64
599.972	21146.7
600.33	21507.6
600.688	21810.64
601.046	22043.86
601.404	22503.73
601.762	22687.23
602.12	22899.88
602.478	23260.09
602.836	23477.49
603.194	23766.52
603.552	23935.33
603.91	24103.24
604.268	24558.37
604.625	24754.29
604.983	24982.76
605.341	25240.38
605.698	25571.9
606.056	25950.65
606.413	26102.05
606.771	26408.49
607.128	26614.81
607.485	26710.63
607.843	26989.94
608.2	27285.75
608.557	27632.64
608.914	27733.2
609.272	28036.01
609.629	28227.87
609.986	28508.77
610.343	28623.8
610.7	28900.4
611.057	29155.31
611.414	29311.46
611.771	29512.81
612.127	29716.42
612.484	29903.54
612.841	30242.96
613.198	30118.67
613.554	30369.06
613.911	30744.42
614.267	30844.3
614.624	31031.19
614.98	31127.68
615.337	31397.51
615.693	31507.34
616.05	31630.27
616.406	32051.28
616.762	32019.86
617.118	32007.44
617.475	32237.03
617.831	32444.03
618.187	32709.11
618.543	32781.2
618.899	32949.56
619.255	33138.93
619.611	33131.93
619.967	33410.56
620.323	33489.88
620.678	33474.74
621.034	33620.05
621.39	33619.6
621.746	33707.05
622.101	34146.36
622.457	33986.59
622.812	34294.83
623.168	34299.35
623.523	34388.16
623.879	34581.83
624.234	34412.57
624.589	34619.8
624.945	34710.87
625.3	34882.39
625.655	34859.11
626.01	34969.39
626.365	35100.69
626.72	35004.19
627.075	35112.89
627.43	35107.92
627.785	35186.11
628.14	35338.65
628.495	35400.57
628.85	35485.54
629.205	35445.08
629.559	35638.07
629.914	35463.39
630.269	35561.24
630.623	35499.09
630.978	35449.83
631.332	35686.66
631.687	35795.81
632.041	35761.69
632.396	35775.7
632.75	35669.94
633.104	35780.67
633.459	35512.65
633.813	35734.34
634.167	35681.91
634.521	35841.46
634.875	35917.16
635.229	35771.4
635.583	35702.93
635.937	35761.23
636.291	35763.95
636.645	35770.27
636.999	35791.52
637.352	35931.63
637.706	35722.59
638.06	35916.94
638.413	35806.43
638.767	35662.03
639.121	35783.38
639.474	35594.01
639.828	35754.23
640.181	35699.54
640.534	35793.78
640.888	35674.68
641.241	35548.13
641.594	35650.96
641.947	35825.41
642.301	35631.97
642.654	35800.1
643.007	35730.28
643.36	35823.15
643.713	35710.39
644.066	35772.53
644.419	35598.75
644.771	35430.17
645.124	35018.88
645.477	35108.6
645.83	34783.18
646.182	34720.58
646.535	34708.38
646.888	34749.74
647.24	34634.71
647.593	34828.15
647.945	34682.39
648.298	34630.64
648.65	34696.18
649.002	34561.49
649.355	34700.25
649.707	34608.27
650.059	34827.93
650.411	35182.04
650.763	35103.17
651.115	35446.89
651.467	35546.1
651.819	35500.45
652.171	35410.51
652.523	35287.35
652.875	35375.26
653.227	35227.01
653.578	35362.15
653.93	35401.24
654.282	35203.51
654.633	35200.57
654.985	35225.88
655.337	35306.78
655.688	35309.5
656.039	35267.46
656.391	35251.19
656.742	35185.88
657.094	35346.56
657.445	35304.75
657.796	35206.22
658.147	35314.01
658.498	35275.15
658.849	35203.06
659.2	35198.99
659.551	35182.04
659.902	35137.97
660.253	35200.8
660.604	35207.8
660.955	35163.51
661.306	35213.9
661.656	35109.5
662.007	35222.72
662.358	35213.45
662.708	35156.28
663.059	35069.73
663.409	34940.24
663.76	35234.92
664.11	35082.61
664.461	35065.66
664.811	35128.26
665.161	35151.53
665.511	34950.18
665.862	34993.12
666.212	35002.38
666.562	35141.36
666.912	35189.5
667.262	35076.73
667.612	35098.88
667.962	35063.63
668.312	35041.93
668.662	35250.06
669.011	35070.41
669.361	35044.42
669.711	35130.52
670.06	34988.6
670.41	34920.58
670.76	34942.27
671.109	35030.86
671.459	34959.22
671.808	34884.87
672.157	34991.54
672.507	34954.25
672.856	34856.4
673.205	34810.3
673.554	35007.13
673.904	34910.41
674.253	35069.95
674.602	34873.57
674.951	34361.05
675.3	34203.54
675.649	34750.19
675.998	34713.35
676.346	34775.5
676.695	34810.98
677.044	34639
677.393	34755.61
677.741	34812.79
678.09	34622.51
678.438	34636.74
678.787	34605.11
679.135	34640.81
679.484	34462.51
679.832	34527.59
680.181	34241.05
680.529	34436.75
680.877	34340.93
681.225	34231.11
681.573	34453.25
681.922	34175.29
682.27	34160.82
682.618	34072.24
682.966	33969.87
683.314	34147.49
683.661	34102.97
684.009	33833.15
684.357	33904.56
684.705	33793.38
685.053	33799.03
685.4	33852.36
685.748	33655.98
686.095	33634.96
686.443	33489.2
686.79	33369.43
687.138	33445.82
687.485	33553.38
687.832	33294.41
688.18	33338.47
688.527	33183.9
688.874	33260.28
689.221	33189.55
689.568	33091.47
689.915	32876.79
690.262	32932.16
690.609	32917.02
690.956	32747.08
691.303	32709.34
691.65	32585.73
691.997	32578.95
692.344	32414.2
692.69	32488.55
693.037	32385.05
693.383	32171.5
693.73	32286.75
694.077	32088.56
694.423	32098.28
694.769	31980.54
695.116	31794.56
695.462	31856.48
695.808	31691.74
696.155	31794.79
696.501	31592.76
696.847	31608.58
697.193	31290.39
697.539	31498.75
697.885	31256.04
698.231	31172.2
698.577	31202.48
698.923	31004.98
699.269	30938.08
699.614	30816.96
699.96	30891.08
700.306	30859.44
700.651	30662.84
700.997	30541.71
701.342	30528.83
701.688	30475.72
702.033	30385.78
702.379	30324.54
702.724	30163.64
703.069	30269.18
703.415	29769.75
703.76	30070.99
704.105	30076.41
704.45	29880.49
704.795	29768.85
705.14	29670.32
705.485	29698.34
705.83	29495.18
706.175	29455.41
706.52	29543.55
706.865	29282.08
707.209	29402.76
707.554	29254.97
707.899	29215.64
708.243	28995.54
708.588	29046.16
708.932	28871.47
709.277	28805.71
709.621	28863.56
709.966	28714.87
710.31	28725.94
710.654	28596.45
710.998	28602.55
711.342	28683.68
711.687	28453.86
712.031	28316.68
712.375	28264.03
712.719	28312.84
713.063	28274.2
713.407	28356.68
713.75	28221.55
714.094	28256.35
714.438	28102.23
714.782	28068.33
715.125	27953.08
715.469	27937.03
715.812	27862.01
716.156	27646.42
716.499	27739.75
716.843	27716.93
717.186	27523.03
717.53	27665.18
717.873	27618.62
718.216	27648.68
718.559	27473.09
718.902	27295.02
719.246	27361.46
719.589	27245.3
719.932	27206.88
720.275	27046.21
720.617	27085.98
720.96	27040.33
721.303	27089.6
721.646	27093.44
721.989	26920.11
722.331	27036.72
722.674	26893.9
723.016	26924.86
723.359	26750.4
723.701	27008.02
724.044	26656.39
724.386	26492.1
724.729	26676.5
725.071	26551.76
725.413	26576.84
725.755	26467.24
726.097	26371.88
726.439	26362.84
726.782	26226.57
727.124	26395.38
727.465	26300.47
727.807	26257.76
728.149	26249.17
728.491	26132.56
728.833	26156.74
729.175	26080.59
729.516	26139.57
729.858	26019.34
730.199	25973.92
730.541	25959.46
730.882	25889.4
731.224	25923.3
731.565	25815.51
731.906	25812.57
732.248	25858.22
732.589	25777.77
732.93	25641.73
733.271	25738.67
733.612	25650.09
733.953	25621.84
734.294	25742.97
734.635	25482.86
734.976	25642.86
735.317	25467.95
735.658	25406.7
735.999	25510.66
736.339	25248.52
736.68	25497.32
737.021	25310.44
737.361	25216.2
737.702	25388.4
738.042	25250.78
738.383	25215.52
738.723	25180.5
739.063	25129.2
739.404	25182.76
739.744	25164.23
740.084	25027.51
740.424	25026.83
740.764	24966.49
741.104	25051.46
741.444	24943.67
741.784	24858.47
742.124	24833.84
742.464	24963.33
742.804	24781.18
743.143	24784.35
743.483	24850.34
743.823	24599.04
744.162	24735.08
744.502	24716.33
744.841	24681.75
745.181	24641.3
745.52	24592.04
745.86	24660.06
746.199	24672.94
746.538	24592.94
746.877	24640.62
747.216	24554.98
747.556	24615.09
747.895	24531.02
748.234	24406.05
748.573	24302.33
748.911	24408.54
749.25	24404.92
749.589	24170.13
749.928	24306.17
750.267	24333.06
750.605	24314.76
750.944	24210.58
751.283	24154.53
751.621	24215.55
751.96	24037.7
752.298	24171.71
752.636	24116.34
752.975	24074.54
753.313	23813.3
753.651	24015.33
753.989	23852.17
754.327	23886.07
754.666	23710.7
755.004	23851.27
755.342	23868.21
755.679	23873.64
756.017	23693.53
756.355	23796.13
756.693	23637.71
757.031	23739.4
757.368	23567.21
757.706	23561.56
758.044	23483.82
758.381	23581.22
758.719	23436.36
759.056	23458.28
759.394	23323.14
759.731	23201.79
760.068	23261.22
