Data from hue_210_FLMS001491_00077.txt Node
Date: Tue Feb 07 16:41:41 GMT 2017
User: dcchb
Spectrometer: FLMS00149
Trigger mode: 0
Integration Time (sec): 2.000000E-2
Scans to average: 10
Electric dark correction enabled: true
Nonlinearity correction enabled: false
Boxcar width: 0
XAxis mode: Wavelengths
Number of Pixels in Spectrum: 2048
>>>>>Begin Spectral Data<<<<<
341.393	-10.38
341.776	-10.38
342.16	-10.38
342.543	-53.77
342.927	-73.66
343.31	-66.65
343.693	-63.94
344.077	-78.85
344.46	-56.71
344.843	-62.81
345.226	-37.05
345.61	-27.78
345.993	-21
346.376	-1.34
346.759	-16.48
347.142	38.21
347.525	40.01
347.908	61.48
348.291	89.05
348.674	73.91
349.057	129.95
349.44	143.74
349.823	143.74
350.206	160.91
350.588	193.46
350.971	237.52
351.354	246.11
351.737	235.94
352.119	253.11
352.502	254.47
352.884	257.86
353.267	278.88
353.65	281.14
354.032	317.97
354.414	289.27
354.797	334.24
355.179	325.66
355.562	325.66
355.944	342.6
356.326	312.32
356.709	334.92
357.091	338.31
357.473	336.73
357.855	336.5
358.238	312.32
358.62	339.89
359.002	336.95
359.384	345.77
359.766	354.81
360.148	330.63
360.53	343.06
360.912	329.95
361.294	314.58
361.676	332.43
362.057	317.07
362.439	327.01
362.821	338.76
363.203	348.93
363.584	330.17
363.966	305.54
364.348	313.23
364.729	324.53
365.111	315.94
365.493	293.34
365.874	315.26
366.256	333.11
366.637	323.62
367.019	322.94
367.4	325.66
367.781	287.24
368.163	329.27
368.544	335.15
368.925	307.58
369.306	305.77
369.688	306.45
370.069	301.02
370.45	299.22
370.831	301.02
371.212	317.97
371.593	315.03
371.974	309.84
372.355	317.75
372.736	323.85
373.117	315.94
373.498	304.41
373.879	307.58
374.26	302.38
374.641	300.35
375.021	330.17
375.402	325.2
375.783	298.31
376.163	328.59
376.544	302.15
376.925	331.08
377.305	313.45
377.686	319.33
378.066	324.98
378.447	327.69
378.827	308.71
379.208	341.02
379.588	329.05
379.968	322.94
380.349	339.89
380.729	345.77
381.109	346.22
381.489	339.44
381.87	341.7
382.25	343.28
382.63	326.56
383.01	340.12
383.39	346.45
383.77	364.3
384.15	347.58
384.53	356.61
384.91	347.35
385.29	345.77
385.67	354.81
386.049	367.69
386.429	345.32
386.809	348.48
387.189	347.58
387.568	353.45
387.948	349.16
388.328	384.18
388.707	357.97
389.087	368.59
389.466	365.65
389.846	363.62
390.225	372.66
390.605	358.42
390.984	370.17
391.363	372.43
391.743	374.47
392.122	393.68
392.501	394.58
392.881	372.43
393.26	374.69
393.639	390.29
394.018	376.28
394.397	388.93
394.776	389.38
395.155	375.82
395.534	395.03
395.913	394.35
396.292	409.95
396.671	402.04
397.05	400.23
397.429	393.9
397.808	394.81
398.186	392.32
398.565	384.41
398.944	402.04
399.323	418.99
399.701	418.53
400.08	430.29
400.458	414.24
400.837	419.21
401.215	404.98
401.594	404.75
401.972	438.87
402.351	438.87
402.729	441.58
403.107	434.58
403.486	449.04
403.864	446.56
404.242	462.15
404.62	431.19
404.999	458.31
405.377	463.05
405.755	465.99
406.133	467.12
406.511	462.83
406.889	523.16
407.267	482.49
407.645	510.51
408.023	490.85
408.401	517.51
408.779	513.9
409.156	501.24
409.534	523.62
409.912	548.47
410.29	532.88
410.667	505.09
411.045	553.67
411.422	566.33
411.8	576.72
412.178	551.19
412.555	582.82
412.933	599.77
413.31	603.61
413.687	600
414.065	639.77
414.442	599.32
414.819	618.75
415.197	620.11
415.574	638.42
415.951	637.74
416.328	663.95
416.705	673.89
417.082	678.87
417.46	700.79
417.837	704.18
418.214	725.87
418.591	694.91
418.967	697.17
419.344	739.88
419.721	745.08
420.098	744.85
420.475	736.72
420.852	742.59
421.228	786.66
421.605	804.29
421.982	821.01
422.358	804.06
422.735	856.49
423.111	847.45
423.488	879.54
423.864	874.57
424.241	896.49
424.617	936.26
424.994	928.35
425.37	947.56
425.746	956.37
426.123	950.27
426.499	977.39
426.875	984.17
427.251	1003.38
427.627	1027.11
428.003	1044.73
428.379	1053.55
428.756	1060.55
429.132	1083.38
429.507	1092.87
429.883	1105.07
430.259	1117.27
430.635	1119.53
431.011	1139.87
431.387	1165.18
431.763	1181.68
432.138	1189.81
432.514	1200.43
432.89	1197.27
433.265	1266.65
433.641	1270.26
434.016	1289.02
434.392	1322.01
434.767	1349.81
435.143	1360.88
435.518	1383.03
435.894	1417.6
436.269	1439.3
436.644	1441.11
437.02	1452.41
437.395	1480.65
437.77	1519.3
438.145	1543.02
438.52	1603.81
438.895	1584.83
439.271	1582.57
439.646	1666.64
440.021	1671.38
440.395	1682.68
440.77	1639.07
441.145	1710.7
441.52	1776.46
441.895	1757.26
442.27	1777.82
442.645	1797.48
443.019	1824.82
443.394	1800.87
443.769	1846.07
444.143	1877.25
444.518	1862.11
444.892	1904.6
445.267	1900.76
445.641	1936.23
446.016	1929.68
446.39	1915.44
446.764	1994.09
447.139	1978.04
447.513	2012.16
447.887	2020.53
448.262	2036.12
448.636	2055.1
449.01	2050.81
449.384	2072.5
449.758	2065.5
450.132	2121.99
450.506	2119.28
450.88	2172.16
451.254	2140.97
451.628	2181.88
452.002	2204.7
452.376	2222.55
452.75	2252.61
453.123	2234.53
453.497	2329.67
453.871	2327.41
454.244	2349.33
454.618	2375.09
454.992	2421.42
455.365	2430.91
455.739	2461.19
456.112	2469.1
456.486	2496.22
456.859	2500.51
457.232	2584.13
457.606	2558.59
457.979	2592.26
458.352	2660.74
458.725	2683.79
459.099	2688.08
459.472	2747.74
459.845	2781.86
460.218	2765.37
460.591	2803.1
460.964	2810.79
461.337	2906.83
461.71	2889.2
462.083	2987.05
462.456	2934.85
462.829	2963.55
463.201	3058.69
463.574	3022.76
463.947	3093.72
464.32	3161.06
464.692	3187.27
465.065	3196.09
465.438	3259.14
465.81	3281.51
466.183	3324.9
466.555	3403.31
466.928	3389.98
467.3	3340.27
467.672	3444.9
468.045	3545.01
468.417	3530.54
468.789	3541.62
469.161	3604.21
469.534	3675.62
469.906	3721.05
470.278	3726.7
470.65	3758.79
471.022	3803.76
471.394	3899.57
471.766	3905.45
472.138	4004.65
472.51	4085.78
472.882	4090.08
473.253	4135.95
473.625	4209.39
473.997	4306.79
474.369	4316.06
474.74	4329.17
475.112	4398.77
475.484	4478.77
475.855	4551.53
476.227	4575.49
476.598	4687.12
476.97	4713.79
477.341	4834.92
477.713	4871.98
478.084	4900
478.455	5001.69
478.827	5026.1
479.198	5188.35
479.569	5209.82
479.94	5325.52
480.311	5330.95
480.682	5425.63
481.053	5545.18
481.424	5672.18
481.795	5608.45
482.166	5721.45
482.537	5782.46
482.908	5897.94
483.279	5961.89
483.65	6061.55
484.021	6155.56
484.391	6193.07
484.762	6225.16
485.133	6264.48
485.503	6334.08
485.874	6526.17
486.244	6512.16
486.615	6592.16
486.985	6697.92
487.356	6832.15
487.726	6855.43
488.097	7027.17
488.467	6964.35
488.837	7159.15
489.207	7165.7
489.578	7191.46
489.948	7329.54
490.318	7363.21
490.688	7420.61
491.058	7557.78
491.428	7613.6
491.798	7662.64
492.168	7818.79
492.538	7866.93
492.908	7928.62
493.278	7992.8
493.648	7995.51
494.017	8098.56
494.387	8075.06
494.757	8168.61
495.126	8199.35
495.496	8235.5
495.866	8349.63
496.235	8359.57
496.605	8411.09
496.974	8355.27
497.344	8487.47
497.713	8574.25
498.082	8615.15
498.452	8709.16
498.821	8626.45
499.19	8692.89
499.559	8763.85
499.928	8799.78
500.298	8851.31
500.667	8851.31
501.036	8891.08
501.405	8918.88
501.774	8912.32
502.143	9008.82
502.512	9023.28
502.88	9118.19
503.249	9040.45
503.618	9101.47
503.987	9177.17
504.356	9133.79
504.724	9173.11
505.093	9215.59
505.462	9232.99
505.83	9265.08
506.199	9281.8
506.567	9487.22
506.936	9409.48
507.304	9430.95
507.672	9422.82
508.041	9508.46
508.409	9473.66
508.777	9539.65
509.145	9603.15
509.514	9580.33
509.882	9613.09
510.25	9650.83
510.618	9648.8
510.986	9663.04
511.354	9749.14
511.722	9726.09
512.09	9770.6
512.458	9788.68
512.826	9803.6
513.193	9736.48
513.561	9705.07
513.929	9875.01
514.297	9948.68
514.664	9863.71
515.032	9864.16
515.4	9895.57
515.767	9930.15
516.135	9898.74
516.502	9851.51
516.869	9989.81
517.237	9947.78
517.604	9974.67
517.972	9952.29
518.339	9990.26
518.706	9986.64
519.073	10023.25
519.44	10016.47
519.808	10113.42
520.175	10052.86
520.542	10145.74
520.909	10102.35
521.276	10053.99
521.643	10162.68
522.009	10162.23
522.376	10167.43
522.743	10103.93
523.11	10183.93
523.477	10257.82
523.843	10225.06
524.21	10308.44
524.577	10410.59
524.943	10336.24
525.31	10276.81
525.676	10341.44
526.043	10369.68
526.409	10379.18
526.776	10401.1
527.142	10428.44
527.508	10366.97
527.874	10408.33
528.241	10396.12
528.607	10394.09
528.973	10406.97
529.339	10439.51
529.705	10428.21
530.071	10397.93
530.437	10344.37
530.803	10395.45
531.169	10399.97
531.535	10391.38
531.901	10334.88
532.267	10389.35
532.632	10325.39
532.998	10316.81
533.364	10369.68
533.73	10319.97
534.095	10363.36
534.461	10307.09
534.826	10322.23
535.192	10306.86
535.557	10356.13
535.923	10302.79
536.288	10204.49
536.653	10231.38
537.019	10166.3
537.384	10163.59
537.749	10106.42
538.114	10188.45
538.479	10069.35
538.845	10053.08
539.21	9965.4
539.575	10005.4
539.94	9998.62
540.305	10025.97
540.67	9945.74
541.034	9910.49
541.399	9821.68
541.764	9859.87
542.129	9840.89
542.494	9764.28
542.858	9856.7
543.223	9720.21
543.587	9774.67
543.952	9731.51
544.316	9674.79
544.681	9694
545.045	9693.09
545.41	9629.59
545.774	9633.21
546.138	9608.58
546.503	9576.26
546.867	9469.37
547.231	9471.86
547.595	9508.92
547.959	9454.68
548.324	9364.06
548.688	9405.64
549.052	9333.33
549.416	9374.91
549.779	9406.09
550.143	9341.46
550.507	9255.14
550.871	9254.69
551.235	9167
551.599	9311.63
551.962	9195.93
552.326	9129.27
552.689	9094.46
553.053	9111.41
553.417	9080.68
553.78	9153.22
554.143	9038.65
554.507	9050.4
554.87	9082.26
555.234	9075.93
555.597	8968.14
555.96	8998.65
556.323	8996.84
556.686	8923.62
557.05	8955.71
557.413	8924.3
557.776	8945.99
558.139	8944.19
558.502	8899.44
558.865	8804.53
559.228	8926.56
559.59	8877.75
559.953	8875.94
560.316	8953.9
560.679	8895.15
561.041	8961.36
561.404	8901.93
561.767	8894.47
562.129	8880.46
562.492	8866.45
562.854	8904.86
563.217	8884.3
563.579	8868.26
563.941	8962.26
564.304	8880.91
564.666	8929.5
565.028	8928.37
565.39	8886.56
565.753	8990.06
566.115	8979.67
566.477	8937.41
566.839	8957.29
567.201	8995.71
567.563	8976.28
567.925	8995.26
568.287	9010.4
568.648	8993.22
569.01	9007.91
569.372	9034.58
569.734	9033.45
570.095	9064.41
570.457	9051.53
570.819	9113.22
571.18	9039.78
571.542	9045.43
571.903	9023.28
572.265	9168.59
572.626	9181.24
572.987	9132.66
573.349	9149.15
573.71	9206.33
574.071	9138.3
574.432	9148.7
574.794	9223.73
575.155	9222.37
575.516	9172.88
575.877	9211.3
576.238	9265.76
576.599	9250.39
576.96	9291.75
577.32	9218.75
577.681	9335.14
578.042	9233.44
578.403	9243.61
578.763	9332.2
579.124	9344.85
579.485	9365.19
579.845	9373.1
580.206	9309.83
580.566	9353.44
580.927	9392.54
581.287	9414.68
581.648	9410.84
582.008	9465.53
582.368	9353.21
582.728	9441.12
583.089	9414.23
583.449	9395.02
583.809	9453.32
584.169	9461.69
584.529	9412.2
584.889	9439.99
585.249	9421.46
585.609	9477.73
585.969	9450.39
586.329	9487
586.688	9542.36
587.048	9529.26
587.408	9452.65
587.768	9538.75
588.127	9432.99
588.487	9548.92
588.846	9595.47
589.206	9553.89
589.565	9484.28
589.925	9581.23
590.284	9517.73
590.643	9596.82
591.003	9536.94
591.362	9595.24
591.721	9508.69
592.08	9568.8
592.44	9577.39
592.799	9617.84
593.158	9586.88
593.517	9621.68
593.876	9598.18
594.235	9590.95
594.593	9554.79
594.952	9565.86
595.311	9542.14
595.67	9628.91
596.029	9652.42
596.387	9626.65
596.746	9647.67
597.104	9584.85
597.463	9558.41
597.822	9598.86
598.18	9620.78
598.538	9545.3
598.897	9632.53
599.255	9565.41
599.613	9665.07
599.972	9592.53
600.33	9665.3
600.688	9571.74
601.046	9618.07
601.404	9689.93
601.762	9660.78
602.12	9673.21
602.478	9713.88
602.836	9638.63
603.194	9660.55
603.552	9660.55
603.91	9623.72
604.268	9642.47
604.625	9592.53
604.983	9552.76
605.341	9623.49
605.698	9635.69
606.056	9644.51
606.413	9673.66
606.771	9661.23
607.128	9675.69
607.485	9621.23
607.843	9659.42
608.2	9764.5
608.557	9741.23
608.914	9670.27
609.272	9668.01
609.629	9783.03
609.986	9697.16
610.343	9802.47
610.7	9757.72
611.057	9681.34
611.414	9755.92
611.771	9745.97
612.127	9788.91
612.484	9770.6
612.841	9809.25
613.198	9803.82
613.554	9819.87
613.911	9787.1
614.267	9844.05
614.624	9841.56
614.98	9825.97
615.337	9907.32
615.693	9899.19
616.05	9811.73
616.406	9857.83
616.762	9887.89
617.118	9882.24
617.475	9840.66
617.831	9941.45
618.187	9953.65
618.543	9943.03
618.899	10033.42
619.255	9932.18
619.611	9956.59
619.967	9963.37
620.323	10033.65
620.678	9925.4
621.034	9990.03
621.39	9971.5
621.746	9827.33
622.101	10019.41
622.457	9924.95
622.812	9975.57
623.168	9994.55
623.523	9982.58
623.879	9997.04
624.234	9937.83
624.589	10000.43
624.945	9905.97
625.3	10000.43
625.655	9896.25
626.01	9952.07
626.365	9917.04
626.72	9937.38
627.075	9948.23
627.43	9923.14
627.785	9965.18
628.14	9933.31
628.495	9973.31
628.85	9953.42
629.205	9888.12
629.559	9974.67
629.914	9856.7
630.269	9931.28
630.623	9881.56
630.978	9875.23
631.332	9913.88
631.687	9899.87
632.041	9847.89
632.396	9870.94
632.75	9772.86
633.104	9837.95
633.459	9839.76
633.813	9784.84
634.167	9762.92
634.521	9724.73
634.875	9740.32
635.229	9748.01
635.583	9641.34
635.937	9706.65
636.291	9694.45
636.645	9692.19
636.999	9689.02
637.352	9643.83
637.706	9595.02
638.06	9662.58
638.413	9646.54
638.767	9640.66
639.121	9648.57
639.474	9568.12
639.828	9538.75
640.181	9634.79
640.534	9635.69
640.888	9510.05
641.241	9505.98
641.594	9517.05
641.947	9595.47
642.301	9512.53
642.654	9509.37
643.007	9463.49
643.36	9501.23
643.713	9518.86
644.066	9550.95
644.419	9442.48
644.771	9470.73
645.124	9405.19
645.477	9292.2
645.83	9344.4
646.182	9185.54
646.535	9215.37
646.888	9237.06
647.24	9175.37
647.593	9228.7
647.945	9218.75
648.298	9121.13
648.65	9098.98
649.002	9143.5
649.355	9196.61
649.707	9160.23
650.059	9219.66
650.411	9317.96
650.763	9357.28
651.115	9392.08
651.467	9400.22
651.819	9321.8
652.171	9411.97
652.523	9305.98
652.875	9334.46
653.227	9327.68
653.578	9375.59
653.93	9404.29
654.282	9305.31
654.633	9331.29
654.985	9355.7
655.337	9323.61
655.688	9386.43
656.039	9385.76
656.391	9348.24
656.742	9384.17
657.094	9289.94
657.445	9381.91
657.796	9356.15
658.147	9345.31
658.498	9399.32
658.849	9396.83
659.2	9344.63
659.551	9321.35
659.902	9395.7
660.253	9373.33
660.604	9359.99
660.955	9383.27
661.306	9414.68
661.656	9357.06
662.007	9366.55
662.358	9365.87
662.708	9372.42
663.059	9377.39
663.409	9383.5
663.76	9447.45
664.11	9413.1
664.461	9432.76
664.811	9492.42
665.161	9454.68
665.511	9376.72
665.862	9479.54
666.212	9464.62
666.562	9493.32
666.912	9449.26
667.262	9413.1
667.612	9438.86
667.962	9445.64
668.312	9433.44
668.662	9508.46
669.011	9419.88
669.361	9482.7
669.711	9450.84
670.06	9407
670.41	9284.97
670.76	9410.16
671.109	9397.51
671.459	9397.96
671.808	9389.82
672.157	9399.32
672.507	9375.13
672.856	9344.18
673.205	9354.12
673.554	9408.58
673.904	9399.77
674.253	9353.21
674.602	9312.09
674.951	9178.3
675.3	9149.6
675.649	9284.97
675.998	9287.23
676.346	9275.48
676.695	9338.75
677.044	9241.13
677.393	9226.44
677.741	9209.26
678.09	9244.52
678.438	9182.82
678.787	9232.54
679.135	9202.26
679.484	9122.71
679.832	9171.98
680.181	9126.55
680.529	9131.75
680.877	9124.07
681.225	9157.51
681.573	9136.27
681.922	9059.89
682.27	9009.49
682.618	9052.66
682.966	9029.83
683.314	9038.65
683.661	8945.54
684.009	8940.34
684.357	8964.07
684.705	8875.94
685.053	8908.71
685.4	8929.04
685.748	8859.44
686.095	8835.49
686.443	8821.48
686.79	8810.18
687.138	8804.98
687.485	8819.9
687.832	8767.69
688.18	8796.84
688.527	8735.38
688.874	8671.42
689.221	8712.78
689.568	8599.79
689.915	8594.14
690.262	8588.04
690.609	8617.19
690.956	8541.71
691.303	8508.94
691.65	8495.84
691.997	8489.51
692.344	8443.41
692.69	8389.62
693.037	8444.99
693.383	8297.2
693.73	8338.55
694.077	8290.64
694.423	8248.61
694.769	8224.88
695.116	8204.09
695.462	8228.72
695.808	8199.8
696.155	8157.31
696.501	8154.15
696.847	8101.72
697.193	8054.27
697.539	8086.81
697.885	8005.91
698.231	8002.06
698.577	7969.75
698.923	7958.9
699.269	7927.94
699.614	7833.03
699.96	7836.87
700.306	7808.4
700.651	7809.07
700.997	7785.12
701.342	7789.41
701.688	7714.16
702.033	7719.13
702.379	7613.83
702.724	7662.64
703.069	7640.27
703.415	7518.01
703.76	7565.46
704.105	7580.15
704.45	7553.94
704.795	7482.53
705.14	7431.46
705.485	7409.76
705.83	7353.95
706.175	7401.18
706.52	7351.01
706.865	7330.22
707.209	7337.67
707.554	7283.66
707.899	7234.17
708.243	7247.96
708.588	7203.89
708.932	7144.01
709.277	7177.45
709.621	7178.81
709.966	7106.27
710.31	7151.69
710.654	7138.36
710.998	7055.87
711.342	7064.46
711.687	7050.45
712.031	7025.82
712.375	7006.84
712.719	7007.51
713.063	7027.85
713.407	7039.83
713.75	6976.78
714.094	6933.84
714.438	6919.15
714.782	6957.12
715.125	6911.7
715.469	6850.91
715.812	6868.08
716.156	6875.31
716.499	6889.32
716.843	6912.15
717.186	6803
717.53	6817.46
717.873	6815.88
718.216	6837.35
718.559	6795.32
718.902	6765.26
719.246	6813.39
719.589	6755.09
719.932	6721.65
720.275	6760.74
720.617	6696.34
720.96	6769.78
721.303	6736.79
721.646	6748.09
721.989	6662.21
722.331	6676
722.674	6714.19
723.016	6659.95
723.359	6686.17
723.701	6665.15
724.044	6655.43
724.386	6595.55
724.729	6641.42
725.071	6619.28
725.413	6631.48
725.755	6675.77
726.097	6593.97
726.439	6598.48
726.782	6591.25
727.124	6606.17
727.465	6585.6
727.807	6638.48
728.149	6621.99
728.491	6566.62
728.833	6570.91
729.175	6548.99
729.516	6540.63
729.858	6608.65
730.199	6570.91
730.541	6569.56
730.882	6598.71
731.224	6559.39
731.565	6557.36
731.906	6599.61
732.248	6586.96
732.589	6552.84
732.93	6515.1
733.271	6534.31
733.612	6559.16
733.953	6617.02
734.294	6539.28
734.635	6536.57
734.976	6629.44
735.317	6586.96
735.658	6499.96
735.999	6597.13
736.339	6572.95
736.68	6592.38
737.021	6585.15
737.361	6595.55
737.702	6621.31
738.042	6613.85
738.383	6578.6
738.723	6676
739.063	6624.25
739.404	6633.29
739.744	6630.12
740.084	6627.41
740.424	6606.62
740.764	6617.24
741.104	6722.78
741.444	6683.68
741.784	6673.06
742.124	6648.65
742.464	6740.63
742.804	6690.01
743.143	6723.23
743.483	6680.97
743.823	6725.49
744.162	6733.4
744.502	6848.2
744.841	6796.9
745.181	6888.65
745.52	6837.35
745.86	6888.87
746.199	6948.31
746.538	6990.34
746.877	7051.81
747.216	7128.41
747.556	7134.97
747.895	7125.93
748.234	7154.63
748.573	7280.95
748.911	7228.3
749.25	7309.2
749.589	7408.41
749.928	7482.08
750.267	7502.64
750.605	7574.28
750.944	7702.64
751.283	7635.52
751.621	7791
751.96	7873.48
752.298	7971.56
752.636	8076.64
752.975	8140.59
753.313	8255.62
753.651	8348.04
753.989	8399.79
754.327	8573.8
754.666	8615.83
755.004	8715.94
755.342	8880.91
755.679	9038.19
756.017	9120.45
756.355	9274.35
756.693	9410.16
757.031	9508.69
757.368	9672.53
757.706	9793.43
758.044	9944.39
758.381	10134.66
758.719	10233.19
759.056	10383.47
759.394	10551.38
759.731	10666.4
760.068	10885.83
760.405	11044.92
760.743	11149.1
761.08	11299.6
761.417	11522.87
761.754	11684.45
762.091	11879.93
762.428	12046.7
762.765	12229.75
763.102	12387.94
763.438	12468.16
763.775	12746.35
764.112	12880.81
764.449	13171.42
764.785	13281.7
765.122	13347.23
765.458	13611.63
765.795	13732.99
766.131	13887.33
766.467	14038.97
766.804	14174.78
767.14	14254.1
