Data from hue_30_FLMS001491_62.txt Node
Date: Mon Feb 06 15:05:45 GMT 2017
User: dcchb
Spectrometer: FLMS00149
Trigger mode: 0
Integration Time (sec): 2.000000E-2
Scans to average: 10
Electric dark correction enabled: true
Nonlinearity correction enabled: false
Boxcar width: 0
XAxis mode: Wavelengths
Number of Pixels in Spectrum: 2048
>>>>>Begin Spectral Data<<<<<
341.393	7.73
341.776	7.73
342.16	7.73
342.543	-61.42
342.927	-79.96
343.31	-69.33
343.693	-72.05
344.077	-61.2
344.46	-64.81
344.843	-55.32
345.226	-31.82
345.61	-33.4
345.993	-19.62
346.376	-16.91
346.759	-0.18
347.142	37.33
347.525	45.01
347.908	67.16
348.291	75.75
348.674	94.28
349.057	105.12
349.44	149.42
349.823	144.45
350.206	170.66
350.588	216.08
350.971	215.18
351.354	217.66
351.737	235.97
352.119	266.93
352.502	243.88
352.884	263.99
353.267	281.16
353.65	282.52
354.032	307.6
354.414	304.22
354.797	309.64
355.179	311.67
355.562	339.02
355.944	329.98
356.326	334.04
356.709	332.69
357.091	339.02
357.473	341.28
357.855	344.44
358.238	342.63
358.62	337.66
359.002	340.6
359.384	369.07
359.766	340.37
360.148	333.14
360.53	333.37
360.912	335.4
361.294	334.95
361.676	331.11
362.057	322.97
362.439	340.15
362.821	328.62
363.203	346.7
363.584	321.39
363.966	325.46
364.348	337.66
364.729	326.59
365.111	315.97
365.493	319.58
365.874	303.76
366.256	325.46
366.637	325.46
367.019	315.51
367.4	296.31
367.781	328.4
368.163	322.75
368.544	304.89
368.925	300.15
369.306	299.7
369.688	340.37
370.069	323.2
370.45	296.76
370.831	304.89
371.212	338.79
371.593	316.19
371.974	315.29
372.355	306.47
372.736	316.87
373.117	304.44
373.498	329.53
373.879	331.33
374.26	313.93
374.641	336.76
375.021	328.17
375.402	331.79
375.783	325.23
376.163	344.67
376.544	325.46
376.925	329.07
377.305	333.37
377.686	324.55
378.066	332.46
378.447	348.51
378.827	323.88
379.208	334.27
379.588	345.57
379.968	344.44
380.349	345.34
380.729	334.72
381.109	352.8
381.489	350.77
381.87	343.99
382.25	338.11
382.63	358.45
383.01	343.99
383.39	362.97
383.77	370.43
384.15	344.21
384.53	350.99
384.91	351.22
385.29	358.68
385.67	337.21
386.049	348.06
386.429	359.13
386.809	357.32
387.189	366.36
387.568	361.61
387.948	372.24
388.328	378.56
388.707	374.04
389.087	356.19
389.466	365
389.846	362.07
390.225	361.39
390.605	370.43
390.984	368.85
391.363	377.89
391.743	389.18
392.122	391.67
392.501	364.1
392.881	369.98
393.26	399.81
393.639	379.24
394.018	386.25
394.397	367.49
394.776	384.21
395.155	400.26
395.534	404.33
395.913	385.34
396.292	395.06
396.671	388.73
397.05	386.7
397.429	393.48
397.808	396.42
398.186	401.16
398.565	376.76
398.944	404.1
399.323	397.32
399.701	416.53
400.08	411.11
400.458	408.85
400.837	395.74
401.215	421.95
401.594	411.33
401.972	412.91
402.351	433.48
402.729	426.47
403.107	407.72
403.486	423.08
403.864	409.3
404.242	425.12
404.62	428.28
404.999	442.74
405.377	418.11
405.755	439.13
406.133	423.99
406.511	426.25
406.889	428.05
407.267	447.94
407.645	448.17
408.023	456.08
408.401	441.39
408.779	452.69
409.156	431.22
409.534	469.18
409.912	454.49
410.29	469.63
410.667	452.23
411.045	461.27
411.422	473.02
411.8	485.45
412.178	486.36
412.555	473.48
412.933	478
413.31	470.54
413.687	469.41
414.065	492.23
414.442	519.58
414.819	492.23
415.197	506.92
415.574	517.54
415.951	502.85
416.328	521.16
416.705	518.67
417.082	482.29
417.46	519.35
417.837	535.4
418.214	521.61
418.591	541.5
418.967	508.28
419.344	510.31
419.721	538.56
420.098	539.01
420.475	547.6
420.852	549.18
421.228	546.69
421.605	538.33
421.982	555.06
422.358	556.19
422.735	567.03
423.111	561.61
423.488	576.07
423.864	574.72
424.241	577.43
424.617	576.07
424.994	566.13
425.37	580.14
425.746	573.59
426.123	595.28
426.499	588.5
426.875	595.73
427.251	593.47
427.627	626.92
428.003	606.81
428.379	628.73
428.756	609.97
429.132	646.13
429.507	652.68
429.883	653.36
430.259	651.32
430.635	661.72
431.011	683.64
431.387	653.36
431.763	648.61
432.138	635.05
432.514	682.06
432.89	700.59
433.265	679.35
433.641	688.84
434.016	677.31
434.392	701.27
434.767	707.59
435.143	688.39
435.518	705.11
435.894	708.27
436.269	724.32
436.644	739.91
437.02	739.68
437.395	722.74
437.77	750.31
438.145	743.53
438.52	765.45
438.895	766.58
439.271	770.64
439.646	774.49
440.021	774.71
440.395	784.43
440.77	760.47
441.145	781.04
441.52	797.76
441.895	799.12
442.27	822.85
442.645	790.3
443.019	825.56
443.394	809.74
443.769	803.41
444.143	822.39
444.518	850.42
444.892	814.03
445.267	828.72
445.641	832.34
446.016	831.21
446.39	861.71
446.764	864.43
447.139	848.83
447.513	858.32
447.887	875.05
448.262	844.77
448.636	859.91
449.01	889.96
449.384	896.29
449.758	890.64
450.132	901.04
450.506	910.98
450.88	923.18
451.254	898.78
451.628	935.61
452.002	944.65
452.376	933.35
452.75	964.54
453.123	981.94
453.497	967.7
453.871	968.6
454.244	1006.57
454.618	1010.19
454.992	982.62
455.365	1001.15
455.739	1021.71
456.112	1005.89
456.486	1033.69
456.859	1045.66
457.232	1035.5
457.606	1047.7
457.979	1077.98
458.352	1105.32
458.725	1088.15
459.099	1116.85
459.472	1142.61
459.845	1151.88
460.218	1129.73
460.591	1152.78
460.964	1192.33
461.337	1179.45
461.71	1181.03
462.083	1222.61
462.456	1224.64
462.829	1247.02
463.201	1228.48
463.574	1245.66
463.947	1216.51
464.32	1302.83
464.692	1298.99
465.065	1302.61
465.438	1318.65
465.81	1333.79
466.183	1348.48
466.555	1352.1
466.928	1361.14
467.3	1401.14
467.672	1394.58
468.045	1440.91
468.417	1447.01
468.789	1439.33
469.161	1458.76
469.534	1518.65
469.906	1536.95
470.278	1544.41
470.65	1549.38
471.022	1583.28
471.394	1592.77
471.766	1642.71
472.138	1656.72
472.51	1696.04
472.882	1738.75
473.253	1758.87
473.625	1757.74
473.997	1829.15
474.369	1818.98
474.74	1853.55
475.112	1889.48
475.484	1927.9
475.855	1975.58
476.227	2005.64
476.598	2039.54
476.97	2073.21
477.341	2115.92
477.713	2123.6
478.084	2117.95
478.455	2222.13
478.827	2259.87
479.198	2315.69
479.569	2356.14
479.94	2447.66
480.311	2446.31
480.682	2516.81
481.053	2580.99
481.424	2619.18
481.795	2677.71
482.166	2711.38
482.537	2742.57
482.908	2827.09
483.279	2891.49
483.65	2913.41
484.021	2979.85
484.391	3028.21
484.762	3084.26
485.133	3132.16
485.503	3178.26
485.874	3262.78
486.244	3313.85
486.615	3395.21
486.985	3451.93
487.356	3510.68
487.726	3589.78
488.097	3632.72
488.467	3658.7
488.837	3791.36
489.207	3837.23
489.578	3889.43
489.948	3992.25
490.318	4052.59
490.688	4088.07
491.058	4166.94
491.428	4233.38
491.798	4270.66
492.168	4376.42
492.538	4439.93
492.908	4526.93
493.278	4559.02
493.648	4620.94
494.017	4661.16
494.387	4702.29
494.757	4786.36
495.126	4831.78
495.496	4887.82
495.866	4887.82
496.235	4996.52
496.605	5058.21
496.974	5065.22
497.344	5167.59
497.713	5211.88
498.082	5243.52
498.452	5307.7
498.821	5406.23
499.19	5396.74
499.559	5469.28
499.928	5547.02
500.298	5549.95
500.667	5612.55
501.036	5661.36
501.405	5689.84
501.774	5719.89
502.143	5798.31
502.512	5821.36
502.88	5857.52
503.249	5876.27
503.618	5921.47
503.987	5996.04
504.356	6027.68
504.724	6060
505.093	6072.88
505.462	6139.77
505.83	6203.27
506.199	6225.19
506.567	6337.05
506.936	6364.17
507.304	6384.51
507.672	6410.04
508.041	6438.07
508.409	6507.89
508.777	6529.59
509.145	6568.01
509.514	6589.02
509.882	6667.21
510.25	6682.35
510.618	6682.35
510.986	6758.96
511.354	6836.25
511.722	6882.8
512.09	6890.93
512.458	6889.35
512.826	6968.67
513.193	7011.84
513.561	6979.75
513.929	7070.14
514.297	7102.68
514.664	7166.63
515.032	7136.13
515.4	7225.39
515.767	7209.57
516.135	7304.94
516.502	7272.62
516.869	7337.02
517.237	7420.64
517.604	7364.59
517.972	7426.06
518.339	7460.64
518.706	7571.59
519.073	7480.98
519.44	7619.96
519.808	7649.33
520.175	7675.32
520.542	7727.52
520.909	7767.97
521.276	7782.21
521.643	7857.46
522.009	7884.81
522.376	7891.36
522.743	7953.05
523.11	7997.12
523.477	8082.77
523.843	8078.47
524.21	8176.32
524.577	8226.49
524.943	8225.36
525.31	8295.42
525.676	8380.16
526.043	8398.01
526.409	8503.55
526.776	8520.5
527.142	8504
527.508	8594.84
527.874	8646.59
528.241	8650.66
528.607	8722.52
528.973	8736.76
529.339	8857.89
529.705	8873.71
530.071	8977.21
530.437	8970.88
530.803	8974.5
531.169	9077.09
531.535	9069.41
531.901	9079.35
532.267	9153.93
532.632	9184.89
532.998	9283.41
533.364	9286.8
533.73	9347.59
534.095	9391.43
534.461	9381.72
534.826	9494.71
535.192	9531.32
535.557	9534.25
535.923	9566.8
536.288	9623.07
536.653	9686.79
537.019	9585.55
537.384	9714.36
537.749	9744.64
538.114	9778.77
538.479	9851.08
538.845	9857.41
539.21	9882.72
539.575	9956.39
539.94	9972.66
540.305	10033.22
540.67	10018.08
541.034	10040.68
541.399	10074.81
541.764	10118.19
542.129	10222.6
542.494	10234.35
542.858	10304.18
543.223	10315.03
543.587	10404.06
543.952	10401.8
544.316	10511.4
544.681	10488.13
545.045	10448.36
545.41	10604.06
545.774	10648.8
546.138	10597.5
546.503	10597.5
546.867	10701.91
547.231	10762.25
547.595	10846.76
547.959	10781.68
548.324	10825.97
548.688	10873.2
549.052	10893.99
549.416	10977.83
549.779	11024.61
550.143	11069.36
550.507	11080.88
550.871	11180.09
551.235	11208.11
551.599	11246.53
551.962	11261.22
552.326	11294.43
552.689	11253.08
553.053	11401.32
553.417	11372.85
553.78	11470.7
554.143	11372.85
554.507	11491.49
554.87	11560.64
555.234	11622.11
555.597	11569.68
555.96	11634.76
556.323	11668.89
556.686	11631.6
557.05	11767.19
557.413	11829.34
557.776	11747.08
558.139	11924.7
558.502	11863.23
558.865	11965.83
559.228	12028.2
559.59	12051.02
559.953	12065.49
560.316	12138.48
560.679	12159.95
561.041	12213.05
561.404	12246.73
561.767	12366.95
562.129	12344.12
562.492	12410.34
562.854	12488.75
563.217	12382.32
563.579	12491.47
563.941	12584.57
564.304	12587.06
564.666	12717.45
565.028	12675.87
565.39	12716.54
565.753	12842.42
566.115	12797.67
566.477	12914.05
566.839	12902.75
567.201	12980.04
567.563	13025.91
567.925	13051.68
568.287	13042.41
568.648	13134.61
569.01	13235.63
569.372	13284.44
569.734	13260.71
570.095	13392.23
570.457	13433.81
570.819	13479.24
571.18	13522.62
571.542	13627.03
571.903	13619.12
572.265	13687.37
572.626	13738.89
572.987	13836.06
573.349	13848.94
573.71	14023.85
574.071	14030.18
574.432	14090.52
574.794	14238.99
575.155	14290.97
575.516	14228.59
575.877	14398.08
576.238	14431.75
576.599	14532.77
576.96	14622.03
577.32	14702.25
577.681	14865.64
578.042	14960.33
578.403	15026.31
578.763	15096.82
579.124	15264.5
579.485	15414.55
579.845	15597.15
580.206	15636.02
580.566	15714.21
580.927	15897.03
581.287	16145.83
581.648	16200.52
582.008	16452.72
582.368	16516.44
582.728	16729.55
583.089	16860.16
583.449	17044.34
583.809	17315.29
584.169	17594.38
584.529	17572.91
584.889	17925.67
585.249	18037.76
585.609	18180.13
585.969	18505.09
586.329	18711.87
586.688	18962.93
587.048	19124.06
587.408	19188.24
587.768	19641.11
588.127	19740.09
588.487	19929.46
588.846	20321.99
589.206	20438.38
589.565	20764.24
589.925	21055.99
590.284	21323.78
590.643	21538.69
591.003	21828.85
591.362	22186.13
591.721	22398.55
592.08	22613.01
592.44	22946.11
592.799	23236.27
593.158	23472.42
593.517	23759.19
593.876	24006.64
594.235	24263.59
594.593	24639.39
594.952	24995.77
595.311	25072.83
595.67	25416.55
596.029	25790.55
596.387	26036.42
596.746	26433.92
597.104	26591.89
597.463	26826.46
597.822	27193.45
598.18	27413.11
598.538	27686.77
598.897	28141.68
599.255	28037.27
599.613	28837.93
599.972	28871.6
600.33	29145.72
600.688	29312.04
601.046	29505.03
601.404	30027.28
601.762	30175.75
602.12	30491.67
602.478	30762.4
602.836	30941.83
603.194	30963.52
603.552	31303.4
603.91	31366.22
604.268	31963.5
604.625	31980.22
604.983	32323.26
605.341	32378.85
605.698	32755.57
606.056	33044.6
606.413	33201.66
606.771	33542.21
607.128	33751.02
607.485	33679.61
607.843	33956.66
608.2	34400.72
608.557	34480.49
608.914	34704.89
609.272	34975.62
609.629	35040.02
609.986	35459.9
610.343	35469.17
610.7	35853.56
611.057	35962.03
611.414	35987.8
611.771	36379.2
612.127	36470.72
612.484	36752.3
612.841	36838.62
613.198	36805.4
613.554	37052.85
613.911	37302.56
614.267	37460.53
614.624	37684.25
614.98	37759.5
615.337	37967.63
615.693	38051.92
616.05	38216.21
616.406	38512.93
616.762	38373.04
617.118	38613.72
617.475	38680.16
617.831	38900.49
618.187	38999.69
618.543	39240.59
618.899	39523.07
619.255	39579.34
619.611	39695.72
619.967	39683.29
620.323	39908.82
620.678	39854.59
621.034	39846.45
621.39	39957.41
621.746	40037.63
622.101	40341.35
622.457	40208.7
622.812	40425.19
623.168	40608.69
623.523	40411.86
623.879	40647.34
624.234	40660.44
624.589	40779.76
624.945	40912.19
625.3	40944.05
625.655	40988.34
626.01	41139.75
626.365	41088.23
626.72	41219.52
627.075	41276.02
627.43	41279.86
627.785	41153.54
628.14	41454.77
628.495	41575.67
628.85	41488.67
629.205	41349.24
629.559	41538.39
629.914	41553.3
630.269	41461.55
630.623	41391.72
630.978	41392.17
631.332	41704.93
631.687	41760.53
632.041	41604.15
632.396	41792.39
632.75	41640.98
633.104	41748.78
633.459	41530.93
633.813	41613.64
634.167	41622.9
634.521	41611.83
634.875	41811.6
635.229	41634.2
635.583	41540.19
635.937	41591.94
636.291	41563.47
636.645	41513.75
636.999	41525.05
637.352	41674.2
637.706	41411.83
638.06	41614.99
638.413	41494.32
638.767	41417.03
639.121	41531.83
639.474	41335.45
639.828	41445.73
640.181	41448.22
640.534	41491.15
640.888	41433.53
641.241	41251.61
641.594	41333.42
641.947	41463.13
642.301	41450.25
642.654	41342.23
643.007	41441.21
643.36	41138.62
643.713	41185.85
644.066	41381.78
644.419	41244.83
644.771	40868.57
645.124	40634.45
645.477	40618.86
645.83	40308.59
646.182	40145.88
646.535	40103.62
646.888	40055.49
647.24	39949.05
647.593	40338.19
647.945	39994.47
648.298	39888.49
648.65	39862.5
649.002	39662.73
649.355	40045.54
649.707	40067.01
650.059	40175.48
650.411	40554.23
650.763	40532.99
651.115	41036.48
651.467	40993.77
651.819	40911.28
652.171	40812.08
652.523	40665.19
652.875	40799.65
653.227	40417.96
653.578	40772.3
653.93	40678.75
654.282	40548.58
654.633	40450.05
654.985	40581.35
655.337	40661.12
655.688	40542.25
656.039	40751.97
656.391	40397.85
656.742	40382.71
657.094	40454.8
657.445	40583.61
657.796	40377.96
658.147	40304.29
658.498	40428.81
658.849	40521.91
659.2	40429.04
659.551	40375.93
659.902	40555.59
660.253	40319.89
660.604	40491.63
660.955	40304.97
661.306	40273.33
661.656	40283.5
662.007	40431.07
662.358	40388.58
662.708	40333.67
663.059	40346.55
663.409	39900.46
663.76	40402.82
664.11	40358.08
664.461	40265.2
664.811	40318.3
665.161	40224.52
665.511	40182.71
665.862	40301.81
666.212	40470.62
666.562	40372.54
666.912	40359.66
667.262	40104.75
667.612	40275.37
667.962	40341.35
668.312	40378.19
668.662	40285.31
669.011	40304.52
669.361	40208.93
669.711	40093.9
670.06	40132.77
670.41	40105.65
670.76	40060.01
671.109	40116.05
671.459	40159.89
671.808	40006.45
672.157	40215.48
672.507	39826.34
672.856	39960.8
673.205	40050.29
673.554	39916.05
673.904	39987.01
674.253	40151.75
674.602	39845.32
674.951	39366.46
675.3	39182.74
675.649	39822.05
675.998	39711.09
676.346	39787.47
676.695	39931.42
677.044	39661.15
677.393	39796.74
677.741	39800.58
678.09	39763.74
678.438	39655.95
678.787	39757.19
679.135	39582.73
679.484	39434.71
679.832	39625.22
680.181	39269.97
680.529	39559.23
680.877	39331.66
681.225	39408.05
681.573	39587.7
681.922	39333.02
682.27	39208.73
682.618	39252.34
682.966	38988.4
683.314	39055.51
683.661	39161.72
684.009	38887.16
684.357	38868.17
684.705	38696.65
685.053	38644.22
685.4	38643.32
685.748	38560.84
686.095	38465.25
686.443	38449.2
686.79	38279.94
687.138	38403.78
687.485	38357
687.832	38189.77
688.18	38355.87
688.527	38144.8
688.874	37992.04
689.221	37969.21
689.568	37926.28
689.915	37790.69
690.262	37768.54
690.609	37639.5
690.956	37698.03
691.303	37599.73
691.65	37454.88
691.997	37456.91
692.344	37128.56
692.69	37217.82
693.037	37089.91
693.383	37006.3
693.73	37119.97
694.077	36732.86
694.423	36708.46
694.769	36624.62
695.116	36583.94
695.462	36619.87
695.808	36383.27
696.155	36410.61
696.501	36142.14
696.847	36208.58
697.193	35867.8
697.539	36065.31
697.885	35659.67
698.231	35608.82
698.577	35640.69
698.923	35603.85
699.269	35456.51
699.614	35329.51
699.96	35329.96
700.306	35319.57
700.651	35077.09
700.997	35083.19
701.342	35008.16
701.688	34931.55
702.033	34878.22
702.379	34830.76
702.724	34791.67
703.069	34878.22
703.415	34365.24
703.76	34383.55
704.105	34429.42
704.45	34394.39
704.795	34048.86
705.14	34142.42
705.485	34094.74
705.83	33903.78
706.175	33998.47
706.52	33735.43
706.865	33677.35
707.209	33618.37
707.554	33599.16
707.899	33733.39
708.243	33328.21
708.588	33454.08
708.932	33191.94
709.277	33064.03
709.621	33197.59
709.966	32926.86
710.31	33165.5
710.654	32681.22
710.998	32763.02
711.342	32934.32
711.687	32830.37
712.031	32527.77
712.375	32457.27
712.719	32523.03
713.063	32393.31
713.407	32497.72
713.75	32309.93
714.094	32214.79
714.438	32231.06
714.782	32170.04
715.125	32108.35
715.469	32085.53
715.812	31937.28
716.156	31855.02
716.499	31846.44
716.843	31758.53
717.186	31623.84
717.53	31904.06
717.873	31725.99
718.216	31673.11
718.559	31551.98
718.902	31287.58
719.246	31468.14
719.589	31330.07
719.932	31167.36
720.275	31142.27
720.617	31168.71
720.96	31106.8
721.303	31069.73
721.646	31137.75
721.989	30975.95
722.331	30890.3
722.674	30810.31
723.016	30819.57
723.359	30812.79
723.701	30835.62
724.044	30519.47
724.386	30465.91
724.729	30611.89
725.071	30444.21
725.413	30437.66
725.755	30413.71
726.097	30456.64
726.439	30163.77
726.782	30228.63
727.124	30313.82
727.465	30112.24
727.807	30039.03
728.149	29939.59
728.491	29980.27
728.833	29908.63
729.175	29954.73
729.516	29820.05
729.858	29775.53
730.199	29820.95
730.541	29838.35
730.882	29618.47
731.224	29701.41
731.565	29542.32
731.906	29646.04
732.248	29617.79
732.589	29339.16
732.93	29453.05
733.271	29319.27
733.612	29392.04
733.953	29406.27
734.294	29213.51
734.635	29244.92
734.976	29253.51
735.317	29104.59
735.658	29112.95
735.999	28962.9
736.339	28877.25
736.68	29119.95
737.021	28870.47
737.361	28870.02
737.702	28985.95
738.042	28807.19
738.383	28786.86
738.723	28896.68
739.063	28676.8
739.404	28746.86
739.744	28649.23
740.084	28560.42
740.424	28605.84
740.764	28505.73
741.104	28571.49
741.444	28452.4
741.784	28283.14
742.124	28409.01
742.464	28427.32
742.804	28339.64
743.143	28150.26
743.483	28321.11
743.823	28104.16
744.162	28209.24
744.502	28136.48
744.841	27987.56
745.181	28135.57
745.52	28054.45
745.86	28144.39
746.199	27930.83
746.538	27928.57
746.877	27917.73
747.216	27817.84
747.556	27874.79
747.895	27828.01
748.234	27751.4
748.573	27602.71
748.911	27615.36
749.25	27572.88
749.589	27508.25
749.928	27512.77
750.267	27550.96
750.605	27434.12
750.944	27292.43
751.283	27289.27
751.621	27238.87
751.96	27291.3
752.298	27183.06
752.636	27097.63
752.975	27019.22
753.313	27080.91
753.651	27089.95
753.989	26849.28
754.327	26956.4
754.666	26808.83
755.004	26693.58
755.342	26761.6
755.679	26762.73
756.017	26689.06
756.355	26680.7
756.693	26546.24
757.031	26548.04
757.368	26385.79
757.706	26381.5
758.044	26184.66
