Data from hue_40_FLMS001491_32.txt Node
Date: Mon Feb 06 15:07:48 GMT 2017
User: dcchb
Spectrometer: FLMS00149
Trigger mode: 0
Integration Time (sec): 2.000000E-2
Scans to average: 10
Electric dark correction enabled: true
Nonlinearity correction enabled: false
Boxcar width: 0
XAxis mode: Wavelengths
Number of Pixels in Spectrum: 2048
>>>>>Begin Spectral Data<<<<<
341.393	-16.84
341.776	-16.84
342.16	-16.84
342.543	-78.98
342.927	-76.5
343.31	-71.75
343.693	-70.85
344.077	-52.54
344.46	-62.94
344.843	-59.55
345.226	-34.69
345.61	-19.55
345.993	-25.88
346.376	-8.02
346.759	14.8
347.142	37.85
347.525	42.82
347.908	41.92
348.291	77.4
348.674	90.73
349.057	100.22
349.44	103.61
349.823	127.79
350.206	160.33
350.588	180.67
350.971	198.3
351.354	234.91
351.737	247.11
352.119	257.28
352.502	269.94
352.884	273.33
353.267	283.95
353.65	297.73
354.032	288.02
354.414	300.44
354.797	322.82
355.179	327.79
355.562	339.54
355.944	340.22
356.326	332.31
356.709	355.58
357.091	330.05
357.473	339.54
357.855	331.4
358.238	349.48
358.62	352.19
359.002	334.79
359.384	335.02
359.766	335.02
360.148	329.14
360.53	351.06
360.912	338.41
361.294	329.14
361.676	347.22
362.057	337.96
362.439	329.37
362.821	304.06
363.203	314.46
363.584	332.31
363.966	330.73
364.348	354.68
364.729	335.92
365.111	314.91
365.493	304.06
365.874	336.38
366.256	328.47
366.637	294.34
367.019	312.87
367.4	299.54
367.781	318.3
368.163	324.17
368.544	328.47
368.925	314.91
369.306	310.84
369.688	299.31
370.069	315.81
370.45	299.31
370.831	315.36
371.212	296.83
371.593	310.61
371.974	336.15
372.355	299.77
372.736	310.61
373.117	298.86
373.498	319.2
373.879	309.71
374.26	310.61
374.641	325.08
375.021	312.65
375.402	307
375.783	306.55
376.163	350.39
376.544	324.17
376.925	335.47
377.305	323.04
377.686	333.44
378.066	331.18
378.447	332.31
378.827	332.99
379.208	323.49
379.588	315.58
379.968	322.36
380.349	330.05
380.729	347.45
381.109	344.96
381.489	320.33
381.87	307.45
382.25	316.04
382.63	315.13
383.01	344.06
383.39	347.9
383.77	331.4
384.15	339.99
384.53	325.75
384.91	331.86
385.29	338.64
385.67	369.14
386.049	357.84
386.429	364.17
386.809	363.72
387.189	342.7
387.568	333.66
387.948	356.26
388.328	357.84
388.707	344.28
389.087	323.95
389.466	352.19
389.846	344.28
390.225	361.46
390.605	350.84
390.984	343.83
391.363	339.99
391.743	368.24
392.122	364.4
392.501	369.37
392.881	361.23
393.26	356.71
393.639	353.55
394.018	353.55
394.397	364.17
394.776	379.09
395.155	369.82
395.534	361.01
395.913	351.97
396.292	361.01
396.671	358.75
397.05	375.92
397.429	370.95
397.808	365.53
398.186	371.18
398.565	381.57
398.944	388.8
399.323	354.91
399.701	355.13
400.08	370.05
400.458	365.08
400.837	374.79
401.215	385.87
401.594	392.87
401.972	391.97
402.351	403.72
402.729	396.26
403.107	377.28
403.486	407.33
403.864	385.19
404.242	394.23
404.62	385.41
404.999	373.44
405.377	415.02
405.755	399.2
406.133	405.07
406.511	414.34
406.889	408.01
407.267	414.79
407.645	419.09
408.023	408.01
408.401	401.68
408.779	401.68
409.156	431.06
409.534	416.37
409.912	412.53
410.29	419.99
410.667	416.15
411.045	436.03
411.422	409.37
411.8	429.48
412.178	428.8
412.555	420.21
412.933	434.68
413.31	443.94
413.687	442.59
414.065	449.14
414.442	451.17
414.819	455.47
415.197	464.06
415.574	474.45
415.951	459.08
416.328	466.54
416.705	453.89
417.082	463.6
417.46	466.54
417.837	468.12
418.214	477.84
418.591	466.32
418.967	480.78
419.344	476.48
419.721	471.74
420.098	471.74
420.475	485.98
420.852	493.66
421.228	488.46
421.605	493.89
421.982	520.1
422.358	514.9
422.735	502.25
423.111	500.21
423.488	494.56
423.864	510.16
424.241	504.96
424.617	526.43
424.994	528.23
425.37	526.65
425.746	513.09
426.123	533.21
426.499	521.91
426.875	513.77
427.251	532.08
427.627	527.1
428.003	543.38
428.379	536.14
428.756	532.98
429.132	536.82
429.507	556.48
429.883	553.09
430.259	563.94
430.635	582.02
431.011	572.08
431.387	592.64
431.763	581.34
432.138	587.89
432.514	592.41
432.89	598.29
433.265	625.18
433.641	601.68
434.016	605.97
434.392	600.32
434.767	632.19
435.143	639.87
435.518	623.15
435.894	603.71
436.269	621.34
436.644	600.32
437.02	622.02
437.395	633.99
437.77	652.75
438.145	657.04
438.52	661.79
438.895	664.73
439.271	689.36
439.646	688.23
440.021	700.89
440.395	675.8
440.77	705.86
441.145	669.7
441.52	671.51
441.895	704.5
442.27	703.37
442.645	689.36
443.019	701.34
443.394	684.84
443.769	690.04
444.143	704.73
444.518	688.91
444.892	735.69
445.267	730.72
445.641	736.36
446.016	718.29
446.39	731.62
446.764	732.52
447.139	730.26
447.513	746.08
447.887	730.72
448.262	748.12
448.636	763.93
449.01	777.04
449.384	763.48
449.758	771.84
450.132	795.12
450.506	788.11
450.88	778.62
451.254	788.79
451.628	796.93
452.002	795.8
452.376	797.15
452.75	805.97
453.123	792.86
453.497	808.91
453.871	812.3
454.244	822.46
454.618	820.43
454.992	822.46
455.365	832.41
455.739	857.04
456.112	866.98
456.486	885.74
456.859	874.44
457.232	904.72
457.606	914.89
457.979	889.36
458.352	915.8
458.725	939.98
459.099	937.49
459.472	937.04
459.845	964.38
460.218	965.96
460.591	958.96
460.964	957.83
461.337	990.6
461.71	989.92
462.083	1029.24
462.456	997.83
462.829	1035.34
463.201	1038.5
463.574	1059.52
463.947	1037.37
464.32	1038.96
464.692	1094.77
465.065	1106.75
465.438	1121.21
465.81	1108.11
466.183	1140.42
466.555	1160.53
466.928	1142.46
467.3	1167.31
467.672	1223.58
468.045	1259.29
468.417	1222.68
468.789	1240.08
469.161	1266.75
469.534	1282.57
469.906	1317.82
470.278	1316.24
470.65	1328.44
471.022	1378.83
471.394	1390.58
471.766	1370.7
472.138	1423.58
472.51	1473.52
472.882	1489.34
473.253	1508.55
473.625	1529.56
473.997	1575.44
474.369	1581.31
474.74	1617.25
475.112	1629.9
475.484	1688.43
475.855	1732.72
476.227	1758.48
476.598	1827.18
476.97	1843
477.341	1910.35
477.713	1915.32
478.084	1945.82
478.455	2031.02
478.827	2053.62
479.198	2128.42
479.569	2172.03
479.94	2249.32
480.311	2261.75
480.682	2336.1
481.053	2398.02
481.424	2471.01
481.795	2518.46
482.166	2578.35
482.537	2668.97
482.908	2725.47
483.279	2791.23
483.65	2823.99
484.021	2912.35
484.391	3007.27
484.762	3072.57
485.133	3146.7
485.503	3221.72
485.874	3317.54
486.244	3378.78
486.615	3482.06
486.985	3580.13
487.356	3671.88
487.726	3711.65
488.097	3843.63
488.467	3891.99
488.837	4041.14
489.207	4138.31
489.578	4179.89
489.948	4279.55
490.318	4388.25
490.688	4430.73
491.058	4591.63
491.428	4680.22
491.798	4746.2
492.168	4918.63
492.538	4954.56
492.908	5068.91
493.278	5167.21
493.648	5202.01
494.017	5345.96
494.387	5444.72
494.757	5512.74
495.126	5653.75
495.496	5670.7
495.866	5809.68
496.235	5954.31
496.605	5957.92
496.974	6102.55
497.344	6156.79
497.713	6241.3
498.082	6321.98
498.452	6422.99
498.821	6444.24
499.19	6586.83
499.559	6616.44
499.928	6759.71
500.298	6833.61
500.667	6942.3
501.036	6954.51
501.405	7081.96
501.774	7100.27
502.143	7227.95
502.512	7240.6
502.88	7393.59
503.249	7473.36
503.618	7537.54
503.987	7563.76
504.356	7600.82
504.724	7752
505.093	7772.11
505.462	7916.29
505.83	7946.57
506.199	8015.95
506.567	8121.93
506.936	8170.75
507.304	8269.27
507.672	8325.32
508.041	8385.88
508.409	8450.96
508.777	8538.19
509.145	8620.9
509.514	8668.13
509.882	8695.25
510.25	8805.76
510.618	8916.49
510.986	8938.64
511.354	9041.23
511.722	9058.41
512.09	9210.94
512.458	9218.4
512.826	9263.37
513.193	9367.55
513.561	9324.16
513.929	9451.39
514.297	9553.08
514.664	9526.19
515.032	9659.97
515.4	9718.5
515.767	9772.06
516.135	9801.44
516.502	9734.55
516.869	9932.51
517.237	10001.21
517.604	10071.49
517.972	10118.04
518.339	10179.28
518.706	10208.88
519.073	10250.92
519.44	10347.41
519.808	10427.41
520.175	10522.1
520.542	10605.03
520.909	10663.11
521.276	10702.88
521.643	10741.53
522.009	10806.61
522.376	10932.48
522.743	10939.03
523.11	11044.57
523.477	11207.95
523.843	11208.41
524.21	11311.45
524.577	11421.06
524.943	11413.15
525.31	11520.26
525.676	11664.67
526.043	11594.16
526.409	11755.74
526.776	11823.98
527.142	11878.67
527.508	11986.24
527.874	12034.37
528.241	12065.78
528.607	12168.38
528.973	12272.11
529.339	12292.22
529.705	12433.68
530.071	12561.36
530.437	12526.34
530.803	12526.79
531.169	12700.57
531.535	12673.45
531.901	12752.32
532.267	12731.76
532.632	12898.53
532.998	13005.87
533.364	13020.79
533.73	13110.73
534.095	13167.9
534.461	13239.09
534.826	13251.97
535.192	13242.48
535.557	13423.04
535.923	13422.81
536.288	13404.51
536.653	13544.16
537.019	13498.97
537.384	13631.39
537.749	13677.49
538.114	13698.28
538.479	13762.01
538.845	13865.96
539.21	13726.76
539.575	13876.58
539.94	13908
540.305	14056.24
540.67	14037.26
541.034	14120.87
541.399	14173.98
541.764	14202
542.129	14267.99
542.494	14306.63
542.858	14369.68
543.223	14471.6
543.587	14558.83
543.952	14515.89
544.316	14584.36
544.681	14527.64
545.045	14612.38
545.41	14783.91
545.774	14856.67
546.138	14778.93
546.503	14924.01
546.867	14911.81
547.231	15058.25
547.595	15047.17
547.959	15156.32
548.324	15140.96
548.688	15122.65
549.052	15204.68
549.416	15262.76
549.779	15270.45
550.143	15372.59
550.507	15452.59
550.871	15573.04
551.235	15541.17
551.599	15623.66
551.962	15676.31
552.326	15721.06
552.689	15759.25
553.053	15780.26
553.417	15810.09
553.78	15992.91
554.143	15945.68
554.507	15996.98
554.87	16105.9
555.234	16290.76
555.597	16116.98
555.96	16244.21
556.323	16307.03
556.686	16330.53
557.05	16467.48
557.413	16519.23
557.776	16541.6
558.139	16687.81
558.502	16655.49
558.865	16732.1
559.228	16838.54
559.59	16872.66
559.953	16897.52
560.316	17080.34
560.679	17037.41
561.041	17199.21
561.404	17212.32
561.767	17337.96
562.129	17267.46
562.492	17515.81
562.854	17436.04
563.217	17456.15
563.579	17544.74
563.941	17653.43
564.304	17792.64
564.666	17821.79
565.028	17880.77
565.39	17952.41
565.753	17972.52
566.115	18106.53
566.477	18171.16
566.839	18144.95
567.201	18310.82
567.563	18351.04
567.925	18453.87
568.287	18385.62
568.648	18506.07
569.01	18605.95
569.372	18717.81
569.734	18791.94
570.095	18819.05
570.457	18893.4
570.819	18937.92
571.18	19002.33
571.542	19134.07
571.903	19166.61
572.265	19197.12
572.626	19299.04
572.987	19405.25
573.349	19478.24
573.71	19518.47
574.071	19605.25
574.432	19739.25
574.794	19833.04
575.155	19930.44
575.516	19890.21
575.877	20055.4
576.238	20172.92
576.599	20261.73
576.96	20400.71
577.32	20449.29
577.681	20504.66
578.042	20732
578.403	20802.05
578.763	20843.41
579.124	20910.07
579.485	21069.62
579.845	21143.96
580.206	21336.5
580.566	21456.27
580.927	21460.79
581.287	21688.13
581.648	21820.33
582.008	22083.37
582.368	22010.61
582.728	22237.27
583.089	22283.14
583.449	22408.11
583.809	22601.55
584.169	22843.58
584.529	22889
584.889	23260.07
585.249	23290.12
585.609	23381.42
585.969	23613.96
586.329	23743.9
586.688	23922.42
587.048	24043.77
587.408	24293.26
587.768	24334.39
588.127	24589.97
588.487	24726.92
588.846	24966.69
589.206	25055.27
589.565	25133.24
589.925	25565.32
590.284	25542.27
590.643	25767.8
591.003	26027
591.362	26198.52
591.721	26375.92
592.08	26600.09
592.44	26810.26
592.799	27036.24
593.158	27064.71
593.517	27293.18
593.876	27539.28
594.235	27586.73
594.593	27732.72
594.952	28092.03
595.311	28071.92
595.67	28300.61
596.029	28605.24
596.387	28805.01
596.746	28943.53
597.104	29025.56
597.463	29127.48
597.822	29342.84
598.18	29489.73
598.538	29545.1
598.897	29993.22
599.255	29807.69
599.613	30381.46
599.972	30311.63
600.33	30595.69
600.688	30600.44
601.046	30858.06
601.404	30994.78
601.762	31160.88
602.12	31456.01
602.478	31580.98
602.836	31647.64
603.194	31646.06
603.552	31894.19
603.91	31773.97
604.268	32139.83
604.625	32140.96
604.983	32276.78
605.341	32438.36
605.698	32610.1
606.056	32786.14
606.413	32787.5
606.771	33074.5
607.128	33165.12
607.485	33000.6
607.843	33322.4
608.2	33399.23
608.557	33751.32
608.914	33559.91
609.272	34021.82
609.629	34022.72
609.986	34214.81
610.343	34195.82
610.7	34489.15
611.057	34560.79
611.414	34516.72
611.771	34806.2
612.127	34852.76
612.484	34872.42
612.841	35176.36
613.198	35045.75
613.554	35076.25
613.911	35300.43
614.267	35441.67
614.624	35399.63
614.98	35489.58
615.337	35727.31
615.693	35789.68
616.05	35716.24
616.406	35967.08
616.762	36092.5
617.118	36015.21
617.475	36091.59
617.831	36262.21
618.187	36273.51
618.543	36462.43
618.899	36636.21
619.255	36684.35
619.611	36737.45
619.967	36934.28
620.323	36979.93
620.678	36827.17
621.034	36795.08
621.39	36957.79
621.746	36851.8
622.101	37324.33
622.457	37050.66
622.812	37221.06
623.168	37294.05
623.523	37205.01
623.879	37520.26
624.234	37234.61
624.589	37493.36
624.945	37415.85
625.3	37577.2
625.655	37625.11
626.01	37632.8
626.365	37701.95
626.72	37640.93
627.075	37644.77
627.43	37597.09
627.785	37589.41
628.14	37858.1
628.495	37769.74
628.85	37827.82
629.205	37748.72
629.559	37927.93
629.914	37721.16
630.269	37774.26
630.623	37567.03
630.978	37752.79
631.332	37930.64
631.687	37918.66
632.041	37819.46
632.396	37936.74
632.75	37761.83
633.104	37876.18
633.459	37718.67
633.813	37726.13
634.167	37853.58
634.521	37701.27
634.875	37857.42
635.229	37716.18
635.583	37679.57
635.937	37689.97
636.291	37618.11
636.645	37687.94
636.999	37585.57
637.352	37717.09
637.706	37503.76
638.06	37552.8
638.413	37603.87
638.767	37504.66
639.121	37484.33
639.474	37371.79
639.828	37461.05
640.181	37497.66
640.534	37437.32
640.888	37285.23
641.241	37117.56
641.594	37323.43
641.947	37363.2
642.301	37293.82
642.654	37360.71
643.007	37340.15
643.36	37244.33
643.713	37223.77
644.066	37361.84
644.419	37221.51
644.771	36866.04
645.124	36586.27
645.477	36540.4
645.83	36277.8
646.182	36258.82
646.535	36084.59
646.888	36231.7
647.24	35939.73
647.593	36169.78
647.945	36125.04
648.298	35988.77
648.65	36042.56
649.002	35870.36
649.355	35845.95
649.707	35865.16
650.059	36009.56
650.411	36492.94
650.763	36491.36
651.115	36917.33
651.467	36761.63
651.819	36705.14
652.171	36685.48
652.523	36582.43
652.875	36634.18
653.227	36473.28
653.578	36768.19
653.93	36622.65
654.282	36630.79
654.633	36397.8
654.985	36548.3
655.337	36543.56
655.688	36494.52
656.039	36671.92
656.391	36351.47
656.742	36359.16
657.094	36439.38
657.445	36569.32
657.796	36516.67
658.147	36299.95
658.498	36412.94
658.849	36440.06
659.2	36317.12
659.551	36273.06
659.902	36410.46
660.253	36286.39
660.604	36370.68
660.955	36137.24
661.306	36246.39
661.656	36257.46
662.007	36189.22
662.358	36253.4
662.708	36244.81
663.059	36186.28
663.409	36008.66
663.76	36271.02
664.11	36269.89
664.461	36206.39
664.811	36383.11
665.161	36133.85
665.511	36184.25
665.862	36116.9
666.212	36188.99
666.562	36285.94
666.912	36126.62
667.262	36109.67
667.612	36166.62
667.962	36249.1
668.312	36047.98
668.662	36333.85
669.011	36046.4
669.361	36148.99
669.711	36125.72
670.06	36023.35
670.41	35904.71
670.76	35981.31
671.109	36199.61
671.459	36020.86
671.808	35949
672.157	35966.4
672.507	35753.75
672.856	35850.02
673.205	35891.15
673.554	35910.13
673.904	35804.82
674.253	35916.91
674.602	36022.89
674.951	35370.71
675.3	35158.51
675.649	35806.63
675.998	35664.94
676.346	35757.82
676.695	35946.06
677.044	35597.14
677.393	35640.08
677.741	35782.67
678.09	35636.01
678.438	35686.63
678.787	35667.42
679.135	35583.36
679.484	35313.31
679.832	35475.34
680.181	35341.56
680.529	35546.75
680.877	35405.06
681.225	35316.25
681.573	35493.87
681.922	35275.12
682.27	35195.35
682.618	35051.62
682.966	35050.94
683.314	35099.98
683.661	34987.22
684.009	34915.81
684.357	34769.14
684.705	34738.18
685.053	34683.27
685.4	34869.48
685.748	34542.48
686.095	34481.47
686.443	34401.02
686.79	34429.26
687.138	34490.96
687.485	34404.63
687.832	34387.01
688.18	34263.84
688.527	34102.04
688.874	34147.92
689.221	34072.44
689.568	33956.51
689.915	33925.32
690.262	33951.99
690.609	33851.88
690.956	33657.99
691.303	33725.1
691.65	33658.89
691.997	33563.52
692.344	33480.36
692.69	33317.88
693.037	33405.79
693.383	33054.16
693.73	33315.17
694.077	32971.22
694.423	33086.47
694.769	32908.17
695.116	32791.12
695.462	32744.34
695.808	32661.63
696.155	32746.6
696.501	32561.97
696.847	32610.1
697.193	32275.87
697.539	32391.8
697.885	32021.64
698.231	32006.73
698.577	32050.12
698.923	31955.88
699.269	31846.96
699.614	31598.83
699.96	31748.2
700.306	31727.87
700.651	31515.67
700.997	31460.08
701.342	31450.59
701.688	31398.84
702.033	31236.58
702.379	31157.03
702.724	31225.73
703.069	31240.42
703.415	30707.33
703.76	30864.61
704.105	30898.96
704.45	30765.86
704.795	30751.62
705.14	30432.99
705.485	30548.01
705.83	30277.06
706.175	30380.78
706.52	30260.33
706.865	30231.41
707.209	30146.44
707.554	30028.02
707.899	30145.99
708.243	29975.37
708.588	29896.05
708.932	29722.95
709.277	29733.34
709.621	29680.91
709.966	29566.57
710.31	29657.19
710.654	29323.86
710.998	29425.78
711.342	29390.53
711.687	29403.86
712.031	29204.09
712.375	29159.12
712.719	29172.23
713.063	29095.39
713.407	29197.54
713.75	28988.05
714.094	29008.84
714.438	28972.01
714.782	28821.28
715.125	28737.89
715.469	28738.34
715.812	28791.9
716.156	28513.26
716.499	28558.46
716.843	28433.49
717.186	28341.06
717.53	28537.22
717.873	28468.29
718.216	28366.37
718.559	28263.55
718.902	28105.14
719.246	28169.32
719.589	28061.52
719.932	27947.85
720.275	27877.12
720.617	27904.69
720.96	27810.91
721.303	27807.52
721.646	27800.74
721.989	27763.45
722.331	27828.08
722.674	27592.83
723.016	27608.43
723.359	27581.31
723.701	27668.99
724.044	27445.72
724.386	27368.43
724.729	27436.68
725.071	27356.23
725.413	27291.15
725.755	27340.86
726.097	27205.5
726.439	26906.75
726.782	27110.81
727.124	27136.57
727.465	26930.48
727.807	26992.17
728.149	26919.18
728.491	26945.39
728.833	26850.48
729.175	26817.49
729.516	26657.04
729.858	26716.02
730.199	26656.14
730.541	26585.18
730.882	26615.01
731.224	26684.84
731.565	26488.91
731.906	26412.07
732.248	26451.39
732.589	26274.68
732.93	26212.76
733.271	26351.51
733.612	26377.05
733.953	26154.68
734.294	26243.49
734.635	26193.1
734.976	26198.52
735.317	25985.19
735.658	26002.59
735.999	26164.85
736.339	25912.88
736.68	26101.57
737.021	25768.02
737.361	25780.45
737.702	25911.75
738.042	25890.05
738.383	25744.29
738.723	25757.4
739.063	25628.82
739.404	25753.56
739.744	25617.29
740.084	25462.04
740.424	25534.36
740.764	25445.32
741.104	25593.79
741.444	25363.74
741.784	25349.5
742.124	25518.09
742.464	25330.07
742.804	25302.27
743.143	25204.2
743.483	25183.86
743.823	25100.47
744.162	25091.43
744.502	25136.63
744.841	24980.25
745.181	25157.42
745.52	24968.04
745.86	25038.55
746.199	24928.05
746.538	24927.37
746.877	24919.01
747.216	24912
747.556	24784.55
747.895	24927.37
748.234	24796.07
748.573	24649.63
748.911	24681.27
749.25	24676.53
749.589	24522.18
749.928	24472.46
750.267	24609.86
750.605	24503.65
750.944	24401.51
751.283	24464.33
751.621	24593.14
751.96	24245.13
752.298	24291
752.636	24220.49
752.975	24211.91
753.313	24017.56
753.651	24104.11
753.989	24022.08
754.327	24059.82
754.666	23959.03
755.004	23893.72
755.342	23860.5
755.679	23837
756.017	23682.88
756.355	23855.98
756.693	23665.25
757.031	23653.28
757.368	23494.18
