Data from hue_300_FLMS001491_00075.txt Node
Date: Tue Feb 07 15:51:11 GMT 2017
User: dcchb
Spectrometer: FLMS00149
Trigger mode: 0
Integration Time (sec): 2.000000E-2
Scans to average: 10
Electric dark correction enabled: true
Nonlinearity correction enabled: false
Boxcar width: 0
XAxis mode: Wavelengths
Number of Pixels in Spectrum: 2048
>>>>>Begin Spectral Data<<<<<
341.393	-14.11
341.776	-14.11
342.16	-14.11
342.543	-49.14
342.927	-66.99
343.31	-59.31
343.693	-49.36
344.077	-52.75
344.46	-63.37
344.843	-59.31
345.226	-51.85
345.61	-40.78
345.993	-13.43
346.376	-12.53
346.759	23.63
347.142	25.66
347.525	45.55
347.908	38.54
348.291	74.25
348.674	86.68
349.057	108.37
349.44	121.25
349.823	142.95
350.206	165.32
350.588	191.31
350.971	180.01
351.354	223.4
351.737	245.77
352.119	259.56
352.502	255.94
352.884	237.63
353.267	289.61
353.65	282.83
354.032	280.57
354.414	309.72
354.797	299.55
355.179	326.9
355.562	305.2
355.944	321.47
356.326	328.48
356.709	326.9
357.091	323.51
357.473	337.75
357.855	321.7
358.238	335.94
358.62	342.49
359.002	333.45
359.384	324.86
359.766	346.33
360.148	332.77
360.53	332.55
360.912	333.45
361.294	330.74
361.676	346.33
362.057	333.68
362.439	327.12
362.821	322.83
363.203	306.33
363.584	297.52
363.966	323.06
364.348	319.67
364.729	318.76
365.111	302.72
365.493	330.97
365.874	299.33
366.256	333.23
366.637	306.11
367.019	312.89
367.4	313.57
367.781	325.54
368.163	311.98
368.544	329.61
368.925	316.28
369.306	327.8
369.688	313.34
370.069	320.12
370.45	305.2
370.831	314.92
371.212	314.02
371.593	326.45
371.974	325.99
372.355	312.89
372.736	300.23
373.117	320.34
373.498	303.62
373.879	320.34
374.26	303.62
374.641	318.31
375.021	321.25
375.402	311.31
375.783	318.76
376.163	300.01
376.544	309.05
376.925	325.99
377.305	346.78
377.686	336.16
378.066	325.32
378.447	348.14
378.827	341.14
379.208	318.31
379.588	325.09
379.968	317.63
380.349	332.32
380.729	340.01
381.109	334.81
381.489	332.77
381.87	323.28
382.25	342.72
382.63	332.1
383.01	344.52
383.39	329.38
383.77	337.07
384.15	339.33
384.53	363.28
384.91	356.95
385.29	332.1
385.67	348.14
386.049	331.19
386.429	339.55
386.809	320.8
387.189	358.76
387.568	342.72
387.948	365.09
388.328	365.54
388.707	353.79
389.087	361.93
389.466	357.86
389.846	374.58
390.225	345.2
390.605	384.3
390.984	371.64
391.363	376.39
391.743	377.97
392.122	380
392.501	379.33
392.881	354.69
393.26	392.21
393.639	372.77
394.018	374.81
394.397	393.11
394.776	383.39
395.155	382.04
395.534	362.38
395.913	391.76
396.292	399.44
396.671	402.6
397.05	391.53
397.429	400.34
397.808	366.9
398.186	394.02
398.565	400.79
398.944	394.24
399.323	402.83
399.701	404.41
400.08	400.79
400.458	427.23
400.837	413.68
401.215	438.99
401.594	411.19
401.972	420
402.351	456.16
402.729	440.12
403.107	427.23
403.486	434.69
403.864	435.14
404.242	433.11
404.62	431.75
404.999	435.6
405.377	444.41
405.755	455.93
406.133	451.41
406.511	448.02
406.889	476.72
407.267	466.56
407.645	459.32
408.023	481.24
408.401	457.06
408.779	486.22
409.156	511.75
409.534	498.65
409.912	505.42
410.29	507.91
410.667	521.92
411.045	529.6
411.422	561.24
411.8	538.87
412.178	540
412.555	556.72
412.933	554.69
413.31	568.47
413.687	587.46
414.065	607.12
414.442	615.03
414.819	590.62
415.197	622.26
415.574	612.09
415.951	626.33
416.328	634.91
416.705	638.53
417.082	649.15
417.46	651.86
417.837	676.49
418.214	665.87
418.591	695.25
418.967	674.01
419.344	694.35
419.721	724.4
420.098	712.88
420.475	716.72
420.852	714.91
421.228	730.73
421.605	759.66
421.982	779.09
422.358	756.94
422.735	766.43
423.111	764.63
423.488	790.16
423.864	830.84
424.241	808.92
424.617	820.22
424.994	839.88
425.37	835.36
425.746	858.86
426.123	851.86
426.499	893.89
426.875	879.43
427.251	890.5
427.627	906.54
428.003	908.58
428.379	926.43
428.756	939.76
429.132	938.18
429.507	956.49
429.883	934.57
430.259	1011.85
430.635	1000.55
431.011	995.58
431.387	1004.17
431.763	1013.43
432.138	1031.96
432.514	1038.07
432.89	1062.25
433.265	1061.12
433.641	1099.31
434.016	1077.61
434.392	1110.61
434.767	1122.36
435.143	1120.1
435.518	1149.93
435.894	1145.18
436.269	1168.46
436.644	1202.81
437.02	1177.05
437.395	1202.81
437.77	1199.64
438.145	1245.29
438.52	1227.44
438.895	1213.65
439.271	1240.09
439.646	1266.76
440.021	1270.15
440.395	1281
440.77	1243.26
441.145	1284.39
441.52	1309.92
441.895	1308.12
442.27	1311.96
442.645	1304.5
443.019	1302.01
443.394	1343.59
443.769	1340.43
444.143	1323.93
444.518	1353.99
444.892	1353.99
445.267	1366.87
445.641	1373.42
446.016	1361.22
446.39	1378.85
446.764	1358.74
447.139	1383.82
447.513	1376.36
447.887	1410.49
448.262	1393.76
448.636	1422.46
449.01	1438.06
449.384	1446.87
449.758	1440.32
450.132	1447.77
450.506	1466.98
450.88	1462.01
451.254	1472.18
451.628	1459.75
452.002	1466.76
452.376	1490.71
452.75	1473.76
453.123	1505.85
453.497	1521.67
453.871	1521.22
454.244	1531.16
454.618	1539.07
454.992	1535.91
455.365	1551.5
455.739	1603.25
456.112	1616.36
456.486	1619.75
456.859	1613.42
457.232	1631.04
457.606	1616.81
457.979	1657.94
458.352	1681.89
458.725	1655.68
459.099	1668.56
459.472	1699.29
459.845	1692.51
460.218	1706.75
460.591	1729.12
460.964	1724.15
461.337	1759.63
461.71	1789.46
462.083	1792.4
462.456	1792.85
462.829	1811.6
463.201	1832.85
463.574	1806.41
463.947	1862.45
464.32	1873.3
464.692	1869.23
465.065	1886.18
465.438	1899.29
465.81	1906.52
466.183	1927.76
466.555	1969.34
466.928	1963.24
467.3	1969.79
467.672	1992.39
468.045	2008.21
468.417	2031.71
468.789	2036.91
469.161	2040.53
469.534	2098.38
469.906	2101.77
470.278	2086.17
470.65	2131.14
471.022	2139.96
471.394	2190.8
471.766	2152.61
472.138	2217.02
472.51	2246.4
472.882	2239.84
473.253	2258.6
473.625	2280.75
473.997	2343.57
474.369	2313.96
474.74	2361.87
475.112	2381.08
475.484	2398.93
475.855	2432.83
476.227	2441.19
476.598	2491.14
476.97	2508.54
477.341	2564.58
477.713	2522.09
478.084	2575.43
478.455	2623.11
478.827	2616.1
479.198	2643.67
479.569	2707.4
479.94	2746.72
480.311	2752.15
480.682	2812.48
481.053	2838.24
481.424	2850.9
481.795	2882.99
482.166	2906.72
482.537	2912.14
482.908	2964.57
483.279	2980.16
483.65	3047.5
484.021	3104.45
484.391	3106.26
484.762	3107.62
485.133	3109.2
485.503	3147.84
485.874	3227.61
486.244	3169.54
486.615	3252.47
486.985	3300.61
487.356	3320.94
487.726	3318.91
488.097	3420.83
488.467	3400.49
488.837	3428.74
489.207	3473.48
489.578	3492.01
489.948	3534.72
490.318	3589.64
490.688	3605.46
491.058	3597.77
491.428	3617.21
491.798	3687.71
492.168	3720.26
492.538	3769.75
492.908	3745.34
493.278	3818.78
493.648	3807.26
494.017	3835.96
494.387	3857.65
494.757	3882.06
495.126	3920.02
495.496	3892.23
495.866	3942.4
496.235	3988.5
496.605	4040.92
496.974	3988.5
497.344	4055.61
497.713	4028.5
498.082	4061.49
498.452	4126.35
498.821	4130.87
499.19	4077.76
499.559	4147.59
499.928	4134.48
500.298	4169.73
500.667	4217.42
501.036	4211.09
501.405	4218.55
501.774	4247.02
502.143	4235.95
502.512	4258.32
502.88	4303.29
503.249	4286.34
503.618	4324.99
503.987	4340.35
504.356	4306
504.724	4353.68
505.093	4388.94
505.462	4408.6
505.83	4388.26
506.199	4425.77
506.567	4492.21
506.936	4475.04
507.304	4549.39
507.672	4515.94
508.041	4524.08
508.409	4538.31
508.777	4526.56
509.145	4545.09
509.514	4544.41
509.882	4615.15
510.25	4602.72
510.618	4624.86
510.986	4621.02
511.354	4641.36
511.722	4682.04
512.09	4687.69
512.458	4700.57
512.826	4704.64
513.193	4724.52
513.561	4814.24
513.929	4751.19
514.297	4804.97
514.664	4796.16
515.032	4797.52
515.4	4800.9
515.767	4844.75
516.135	4824.86
516.502	4835.71
516.869	4864.18
517.237	4881.81
517.604	4801.81
517.972	4842.71
518.339	4897.17
518.706	4890.17
519.073	4882.03
519.44	4937.85
519.808	5000.67
520.175	5025.98
520.542	5008.13
520.909	5072.31
521.276	5056.27
521.643	5054.91
522.009	5064.17
522.376	5084.51
522.743	5070.5
523.11	5168.8
523.477	5167.67
523.843	5186.88
524.21	5206.32
524.577	5291.51
524.943	5249.48
525.31	5285.64
525.676	5310.95
526.043	5381.68
526.409	5333.55
526.776	5384.39
527.142	5431.17
527.508	5451.06
527.874	5508.68
528.241	5471.17
528.607	5465.29
528.973	5555.69
529.339	5537.38
529.705	5633.43
530.071	5594.33
530.437	5654.22
530.803	5667.32
531.169	5689.02
531.535	5659.87
531.901	5661
532.267	5737.6
532.632	5774.21
532.998	5745.51
533.364	5802.46
533.73	5839.3
534.095	5828.22
534.461	5884.04
534.826	5895.57
535.192	5975.11
535.557	5920.65
535.923	5912.97
536.288	6042
536.653	5980.53
537.019	5978.5
537.384	6037.03
537.749	6072.06
538.114	6109.8
538.479	6120.64
538.845	6185.5
539.21	6116.58
539.575	6153.19
539.94	6176.91
540.305	6220.98
540.67	6244.71
541.034	6284.48
541.399	6290.13
541.764	6304.37
542.129	6345.95
542.494	6289.23
542.858	6389.56
543.223	6385.27
543.587	6443.12
543.952	6410.35
544.316	6480.63
544.681	6474.99
545.045	6520.41
545.41	6509.56
545.774	6561.76
546.138	6640.4
546.503	6596.34
546.867	6607.19
547.231	6667.75
547.595	6717.01
547.959	6744.58
548.324	6697.58
548.688	6758.37
549.052	6818.7
549.416	6741.87
549.779	6821.87
550.143	6828.2
550.507	6880.17
550.871	6886.27
551.235	6884.69
551.599	6927.85
551.962	6925.37
552.326	6961.53
552.689	6964.92
553.053	6962.66
553.417	6975.54
553.78	7090.34
554.143	7087.4
554.507	7083.56
554.87	7076.1
555.234	7156.1
555.597	7138.24
555.96	7180.28
556.323	7198.81
556.686	7206.72
557.05	7342.08
557.413	7186.6
557.776	7244.68
558.139	7299.6
558.502	7317.22
558.865	7355.41
559.228	7333.95
559.59	7394.28
559.953	7382.98
560.316	7500.72
560.679	7465.47
561.041	7491
561.404	7508.4
561.767	7571.91
562.129	7502.53
562.492	7569.42
562.854	7617.55
563.217	7618.68
563.579	7605.58
563.941	7674.95
564.304	7702.52
564.666	7758.12
565.028	7766.48
565.39	7728.51
565.753	7801.73
566.115	7794.05
566.477	7844.21
566.839	7903.42
567.201	7909.3
567.563	7931.22
567.925	8029.52
568.287	7989.75
568.648	8008.05
569.01	8069.75
569.372	8053.02
569.734	8091.67
570.095	8160.36
570.457	8166.92
570.819	8188.16
571.18	8222.96
571.542	8291.66
571.903	8270.87
572.265	8357.87
572.626	8434.71
572.987	8483.97
573.349	8458.66
573.71	8512.45
574.071	8540.24
574.432	8628.37
574.794	8734.59
575.155	8755.38
575.516	8786.34
575.877	8877.86
576.238	8920.8
576.599	9003.51
576.96	9078.53
577.32	9128.7
577.681	9270.62
578.042	9272.2
578.403	9432.42
578.763	9484.17
579.124	9618.41
579.485	9652.98
579.845	9872.64
580.206	9928.45
580.566	10028.79
580.927	10141.78
581.287	10302
581.648	10433.98
582.008	10628.55
582.368	10750.13
582.728	10945.38
583.089	11001.19
583.449	11178.14
583.809	11420.17
584.169	11594.62
584.529	11757.11
584.889	11988.74
585.249	12114.84
585.609	12313.25
585.969	12468.05
586.329	12790.53
586.688	12960.24
587.048	13212.21
587.408	13403.84
587.768	13655.36
588.127	13878.86
588.487	14105.97
588.846	14497.83
589.206	14602.68
589.565	14872.05
589.925	15217.58
590.284	15446.05
590.643	15740.73
591.003	15944.57
591.362	16360.15
591.721	16469.3
592.08	16842.85
592.44	17268.15
592.799	17417.3
593.158	17784.74
593.517	18018.64
593.876	18302.47
594.235	18610.94
594.593	18928.44
594.952	19241.2
595.311	19446.62
595.67	19775.2
596.029	20175.64
596.387	20485.92
596.746	20817.88
597.104	20927.49
597.463	21261.71
597.822	21656.96
598.18	21855.6
598.538	22164.29
598.897	22550.95
599.255	22636.82
599.613	23220.99
599.972	23449.45
600.33	23790.91
600.688	23891.93
601.046	24243.78
601.404	24656.2
601.762	24903.88
602.12	25313.59
602.478	25428.39
602.836	25733.91
603.194	25891.2
603.552	26137.29
603.91	26448.25
604.268	26759.65
604.625	26995.35
604.983	27372.06
605.341	27411.84
605.698	27746.29
606.056	28143.57
606.413	28216.56
606.771	28553.27
607.128	28830.1
607.485	28936.99
607.843	29079.36
608.2	29408.62
608.557	29669.86
608.914	29866.91
609.272	30172.44
609.629	30300.57
609.986	30620.56
610.343	30846.32
610.7	31014
611.057	31342.35
611.414	31404.5
611.771	31586.64
612.127	31913.41
612.484	32050.81
612.841	32146.4
613.198	32474.98
613.554	32540.74
613.911	32887.62
614.267	32973.72
614.624	33183.44
614.98	33423.2
615.337	33670.43
615.693	33627.04
616.05	33834.04
616.406	34135.73
616.762	34086.91
617.118	34215.5
617.475	34342.27
617.831	34578.2
618.187	34709.5
618.543	34882.37
618.899	35177.73
619.255	35150.62
619.611	35132.54
619.967	35492.08
620.323	35645.07
620.678	35574.33
621.034	35600.55
621.39	35782.01
621.746	35738.17
622.101	36295.67
622.457	36237.14
622.812	36383.58
623.168	36396.91
623.523	36625.6
623.879	36649.78
624.234	36701.99
624.589	36839.84
624.945	36807.97
625.3	37060.62
625.655	37152.37
626.01	37030.79
626.365	37129.77
626.72	37191.92
627.075	37210.22
627.43	37284.57
627.785	37379.03
628.14	37370.22
628.495	37480.72
628.85	37514.39
629.205	37425.36
629.559	37709.87
629.914	37648.63
630.269	37592.58
630.623	37678.91
630.978	37652.7
631.332	37877.55
631.687	37770.21
632.041	37741.73
632.396	37849.75
632.75	37673.03
633.104	37827.83
633.459	37745.58
633.813	37833.03
634.167	37740.83
634.521	37922.29
634.875	37881.39
635.229	37825.57
635.583	37691.57
635.937	37856.53
636.291	37920.26
636.645	37934.5
636.999	37781.05
637.352	37807.72
637.706	37706.93
638.06	37913.03
638.413	37817.89
638.767	37787.83
639.121	37807.95
639.474	37739.93
639.828	37804.1
640.181	37791.22
640.534	37772.47
640.888	37739.25
641.241	37487.05
641.594	37816.31
641.947	37901.05
642.301	37685.69
642.654	37773.37
643.007	37712.13
643.36	37746.48
643.713	37681.62
644.066	37895.18
644.419	37612.25
644.771	37378.81
645.124	37069.21
645.477	36915.31
645.83	36847.29
646.182	36857.01
646.535	36610.92
646.888	36643.23
647.24	36500.86
647.593	36720.29
647.945	36725.72
648.298	36479.39
648.65	36500.41
649.002	36425.16
649.355	36516.91
649.707	36463.12
650.059	36796
650.411	37073.28
650.763	37190.34
651.115	37625.35
651.467	37442.08
651.819	37460.61
652.171	37288.41
652.523	37243.22
652.875	37253.84
653.227	37134.29
653.578	37400.95
653.93	37190.11
654.282	37145.82
654.633	37057.23
654.985	37302.88
655.337	37231.46
655.688	37265.59
656.039	37373.61
656.391	37014.75
656.742	37065.14
657.094	37191.69
657.445	37264.68
657.796	37200.96
658.147	37116.21
658.498	37209.77
658.849	37139.72
659.2	37054.75
659.551	37110.79
659.902	37191.01
660.253	37159.15
660.604	37231.69
660.955	36973.39
661.306	37201.63
661.656	37070.11
662.007	37134.52
662.358	37166.16
662.708	37102.43
663.059	36980.85
663.409	36760.06
663.76	37190.11
664.11	37019.27
664.461	37122.31
664.811	37082.09
665.161	37012.71
665.511	36955.54
665.862	37067.85
666.212	37229.88
666.562	37161.64
666.912	37157.79
667.262	36930.91
667.612	36925.26
667.962	37041.19
668.312	36958.25
668.662	37157.12
669.011	37096.78
669.361	36967.74
669.711	36970.45
670.06	36899.5
670.41	36968.65
670.76	36735.21
671.109	36935.65
671.459	36876.22
671.808	36897.91
672.157	36900.4
672.507	36683.23
672.856	36714.19
673.205	36711.25
673.554	36802.78
673.904	36693.4
674.253	36886.61
674.602	36675.55
674.951	36308.32
675.3	36055
675.649	36600.52
675.998	36509
676.346	36630.8
676.695	36709.44
677.044	36386.74
677.393	36555.78
677.741	36668.99
678.09	36512.84
678.438	36532.95
678.787	36506.96
679.135	36409.11
679.484	36202.34
679.832	36266.52
680.181	36092.06
680.529	36442.56
680.877	36135.22
681.225	36193.98
681.573	36432.84
681.922	36123.7
682.27	35866.75
682.618	35993.98
682.966	35837.6
683.314	35814.55
683.661	36013.87
684.009	35733.65
684.357	35644.61
684.705	35661.56
685.053	35726.42
685.4	35664.27
685.748	35455.24
686.095	35558.06
686.443	35281.46
686.79	35293.21
687.138	35304.06
687.485	35287.56
687.832	35164.4
688.18	35074.01
688.527	34993.11
688.874	34928.02
689.221	34859.32
689.568	34826.78
689.915	34816.61
690.262	34775.94
690.609	34631.76
690.956	34596.28
691.303	34599.67
691.65	34319
691.997	34370.07
692.344	34026.8
692.69	34117.87
693.037	34220.24
693.383	33840.14
693.73	33884.43
694.077	33787.49
694.423	33783.65
694.769	33712.91
695.116	33601.05
695.462	33648.28
695.808	33618
696.155	33608.73
696.501	33270.89
696.847	33239.71
697.193	33130.33
697.539	33018.92
697.885	32810.11
698.231	32733.28
698.577	32934.85
698.923	32702.32
699.269	32648.08
699.614	32583.68
699.96	32450.8
700.306	32309.11
700.651	32258.71
700.997	32212.84
701.342	32123.12
701.688	32231.6
702.033	32005.84
702.379	31924.26
702.724	31821.21
703.069	31756.58
703.415	31546.19
703.76	31566.53
704.105	31525.85
704.45	31479.75
704.795	31302.81
705.14	31106.65
705.485	31085.86
705.83	31142.81
706.175	30985.75
706.52	30962.93
706.865	30924.96
707.209	30887.22
707.554	30753.22
707.899	30828.02
708.243	30653.11
708.588	30618.53
708.932	30394.81
709.277	30342.61
709.621	30512.55
709.966	30205.21
710.31	30409.05
710.654	30095.16
710.998	30195.94
711.342	30114.14
711.687	30049.51
712.031	29818.33
712.375	29754.37
712.719	29831.21
713.063	29668.05
713.407	29849.96
713.75	29679.8
714.094	29681.83
714.438	29661.95
714.782	29650.65
715.125	29382.18
715.469	29358.45
715.812	29276.87
716.156	29175.63
716.499	29129.76
716.843	29167.5
717.186	29117.1
717.53	29157.33
717.873	29138.57
718.216	28891.57
718.559	28877.56
718.902	28611.8
719.246	28834.4
719.589	28677.79
719.932	28532.94
720.275	28613.39
720.617	28548.08
720.96	28654.74
721.303	28483.22
721.646	28516.89
721.989	28405.03
722.331	28451.81
722.674	28320.51
723.016	28379.04
723.359	28223.79
723.701	28208.42
724.044	28148.77
724.386	27834.2
724.729	28069.9
725.071	28090.01
725.413	27856.8
725.755	28023.12
726.097	27845.04
726.439	27753.07
726.782	27732.73
727.124	27875.33
727.465	27630.59
727.807	27648.89
728.149	27706.29
728.491	27586.29
728.833	27637.59
729.175	27498.39
729.516	27470.14
729.858	27385.17
730.199	27452.96
730.541	27276.7
730.882	27372.97
731.224	27369.58
731.565	27221.11
731.906	27365.51
732.248	27340.43
732.589	27143.14
732.93	27151.73
733.271	27102.24
733.612	27186.53
733.953	27113.09
734.294	27041.68
734.635	26980.43
734.976	26973.2
735.317	26862.7
735.658	26779.31
735.999	26745.41
736.339	26744.96
736.68	26741.8
737.021	26716.03
737.361	26629.48
737.702	26704.06
738.042	26724.62
738.383	26571.86
738.723	26675.13
739.063	26457.06
739.404	26643.49
739.744	26481.24
740.084	26501.13
740.424	26504.06
740.764	26426.32
741.104	26554.23
741.444	26161.7
741.784	26267.23
742.124	26303.84
742.464	26121.02
742.804	26136.16
743.143	26090.06
743.483	26168.25
743.823	26079.89
744.162	25994.7
744.502	26062.04
744.841	25862.5
745.181	26024.75
745.52	25873.12
745.86	25935.72
746.199	25881.71
746.538	25810.75
746.877	25872.89
747.216	25904.76
747.556	25867.92
747.895	25777.53
748.234	25804.65
748.573	25785.21
748.911	25671.32
749.25	25782.27
749.589	25571.21
749.928	25568.95
750.267	25592.45
750.605	25549.96
750.944	25425
751.283	25465.67
751.621	25404.88
751.96	25345.22
752.298	25328.05
752.636	25375.28
752.975	25222.74
753.313	25200.59
753.651	25382.51
753.989	25152.23
754.327	25182.52
754.666	25126.02
755.004	25133.93
755.342	25077.21
755.679	25072.46
756.017	25100.26
756.355	25053.25
756.693	24914.27
757.031	24986.59
757.368	24834.73
757.706	24857.1
758.044	24711.57
758.381	24772.81
758.719	24657.11
759.056	24768.97
759.394	24638.12
