Data from hue_26_FLMS001491_00062.txt Node
Date: Tue Feb 07 17:14:20 GMT 2017
User: dcchb
Spectrometer: FLMS00149
Trigger mode: 0
Integration Time (sec): 2.000000E-2
Scans to average: 10
Electric dark correction enabled: true
Nonlinearity correction enabled: false
Boxcar width: 0
XAxis mode: Wavelengths
Number of Pixels in Spectrum: 2048
>>>>>Begin Spectral Data<<<<<
341.393	-19.91
341.776	-19.91
342.16	-19.91
342.543	-70.08
342.927	-71.44
343.31	-65.11
343.693	-71.89
344.077	-55.85
344.46	-61.27
344.843	-61.5
345.226	-33.25
345.61	-43.87
345.993	-4.77
346.376	-4.77
346.759	-3.87
347.142	28.45
347.525	32.51
347.908	51.04
348.291	81.33
348.674	102.79
349.057	110.03
349.44	124.04
349.823	156.58
350.206	185.96
350.588	215.56
350.971	207.65
351.354	227.76
351.737	248.1
352.119	254.2
352.502	259.85
352.884	287.42
353.267	288.1
353.65	290.36
354.032	286.07
354.414	306.86
354.797	322.9
355.179	314.99
355.562	323.13
355.944	349.79
356.326	343.01
356.709	342.79
357.091	348.44
357.473	342.11
357.855	348.44
358.238	345.95
358.62	345.95
359.002	335.33
359.384	346.86
359.766	326.29
360.148	331.94
360.53	339.17
360.912	359.06
361.294	340.08
361.676	361.77
362.057	350.7
362.439	337.36
362.821	318.61
363.203	344.14
363.584	322
363.966	353.18
364.348	336.69
364.729	330.58
365.111	336.69
365.493	347.31
365.874	312.51
366.256	325.84
366.637	334.88
367.019	321.32
367.4	340.08
367.781	312.96
368.163	349.79
368.544	326.74
368.925	298.95
369.306	323.58
369.688	337.36
370.069	313.41
370.45	312.73
370.831	333.3
371.212	304.6
371.593	316.35
371.974	326.97
372.355	321.77
372.736	349.79
373.117	327.87
373.498	339.4
373.879	336.69
374.26	341.88
374.641	305.27
375.021	345.27
375.402	331.26
375.783	332.17
376.163	360.19
376.544	343.24
376.925	345.27
377.305	336.91
377.686	348.66
378.066	331.26
378.447	345.95
378.827	340.08
379.208	359.51
379.588	371.49
379.968	338.27
380.349	346.4
380.729	357.25
381.109	336.01
381.489	339.17
381.87	355.89
382.25	340.98
382.63	354.99
383.01	372.84
383.39	375.33
383.77	368.78
384.15	376.01
384.53	371.71
384.91	370.13
385.29	383.46
385.67	354.31
386.049	385.27
386.429	365.39
386.809	366.29
387.189	370.36
387.568	363.35
387.948	364.71
388.328	386.63
388.707	380.3
389.087	385.05
389.466	360.41
389.846	401.09
390.225	376.69
390.605	387.53
390.984	396.12
391.363	386.85
391.743	399.28
392.122	403.12
392.501	391.6
392.881	409.23
393.26	391.6
393.639	386.85
394.018	395.89
394.397	430.24
394.776	417.36
395.155	415.33
395.534	411.49
395.913	406.74
396.292	389.11
396.671	406.97
397.05	429.79
397.429	424.14
397.808	418.72
398.186	405.16
398.565	412.16
398.944	416.91
399.323	425.95
399.701	430.69
400.08	422.79
400.458	428.89
400.837	441.09
401.215	425.5
401.594	441.99
401.972	436.12
402.351	444.71
402.729	445.61
403.107	451.03
403.486	453.07
403.864	479.96
404.242	466.85
404.62	440.41
404.999	463.01
405.377	477.93
405.755	463.69
406.133	473.86
406.511	489.45
406.889	477.7
407.267	476.12
407.645	490.58
408.023	474.31
408.401	491.94
408.779	494.42
409.156	480.64
409.534	493.74
409.912	490.13
410.29	501.88
410.667	496.23
411.045	520.86
411.422	500.98
411.8	532.84
412.178	523.57
412.555	533.52
412.933	520.86
413.31	533.29
413.687	538.26
414.065	536.45
414.442	552.5
414.819	541.43
415.197	526.74
415.574	554.31
415.951	574.87
416.328	557.7
416.705	538.49
417.082	567.64
417.46	577.36
417.837	587.3
418.214	592.5
418.591	589.11
418.967	560.86
419.344	603.57
419.721	604.93
420.098	590.92
420.475	594.98
420.852	593.18
421.228	607.87
421.605	604.25
421.982	601.09
422.358	619.62
422.735	621.42
423.111	617.13
423.488	644.02
423.864	658.71
424.241	653.74
424.617	644.02
424.994	637.92
425.37	641.54
425.746	615.1
426.123	651.48
426.499	646.96
426.875	651.48
427.251	669.33
427.627	684.25
428.003	691.7
428.379	681.54
428.756	689.45
429.132	722.44
429.507	716.79
429.883	712.72
430.259	729.44
430.635	745.04
431.011	720.63
431.387	740.74
431.763	726.96
432.138	770.12
432.514	741.42
432.89	761.76
433.265	785.71
433.641	792.04
434.016	795.21
434.392	766.28
434.767	783.91
435.143	801.31
435.518	804.92
435.894	798.14
436.269	832.27
436.644	820.52
437.02	836.56
437.395	837.69
437.77	857.12
438.145	842.89
438.52	846.5
438.895	884.92
439.271	900.29
439.646	877.91
440.021	889.67
440.395	898.48
440.77	895.32
441.145	898.71
441.52	934.18
441.895	904.58
442.27	924.02
442.645	919.04
443.019	930.79
443.394	919.27
443.769	938.25
444.143	972.15
444.518	944.58
444.892	959.49
445.267	957.01
445.641	966.05
446.016	970.12
446.39	969.21
446.764	998.36
447.139	1005.14
447.513	987.29
447.887	1005.6
448.262	1027.74
448.636	1005.37
449.01	1002.88
449.384	1047.85
449.758	1012.6
450.132	1044.46
450.506	1060.96
450.88	1077.91
451.254	1053.28
451.628	1069.32
452.002	1086.95
452.376	1096.44
452.75	1104.35
453.123	1106.16
453.497	1164.23
453.871	1132.6
454.244	1147.06
454.618	1158.13
454.992	1150.68
455.365	1167.4
455.739	1220.05
456.112	1205.59
456.486	1211.01
456.859	1204.23
457.232	1233.61
457.606	1240.62
457.979	1266.61
458.352	1271.12
458.725	1277.45
459.099	1282.2
459.472	1319.71
459.845	1339.6
460.218	1346.6
460.591	1340.05
460.964	1356.32
461.337	1363.1
461.71	1431.57
462.083	1438.58
462.456	1419.14
462.829	1455.3
463.201	1449.65
463.574	1470.44
463.947	1474.51
464.32	1534.39
464.692	1517.67
465.065	1517.9
465.438	1547.73
465.81	1566.48
466.183	1596.99
466.555	1631.34
466.928	1601.74
467.3	1660.04
467.672	1656.43
468.045	1707.5
468.417	1750.43
468.789	1707.27
469.161	1739.81
469.534	1767.61
469.906	1813.26
470.278	1811.22
470.65	1867.27
471.022	1862.97
471.394	1932.58
471.766	1967.38
472.138	1955.17
472.51	1994.5
472.882	1993.59
473.253	2055.74
473.625	2092.57
473.997	2123.08
474.369	2134.83
474.74	2168.28
475.112	2187.71
475.484	2241.72
475.855	2315.39
476.227	2323.75
476.598	2347.25
476.97	2403.07
477.341	2490.75
477.713	2487.36
478.084	2517.42
478.455	2608.49
478.827	2586.57
479.198	2681.26
479.569	2686.45
479.94	2742.05
480.311	2852.55
480.682	2890.52
481.053	2936.17
481.424	2948.59
481.795	3003.96
482.166	3084.64
482.537	3158.53
482.908	3211.19
483.279	3204.63
483.65	3313.33
484.021	3367.11
484.391	3424.74
484.762	3465.64
485.133	3521.01
485.503	3586.32
485.874	3674.68
486.244	3725.3
486.615	3770.72
486.985	3843.49
487.356	3916.7
487.726	3980.43
488.097	4048
488.467	4019.08
488.837	4180.65
489.207	4220.88
489.578	4286.41
489.948	4336.35
490.318	4383.13
490.688	4439.63
491.058	4493.41
491.428	4582.45
491.798	4605.05
492.168	4694.76
492.538	4738.15
492.908	4828.09
493.278	4918.71
493.648	4881.65
494.017	4959.39
494.387	5039.61
494.757	5087.52
495.126	5104.02
495.496	5188.99
495.866	5207.74
496.235	5301.98
496.605	5325.93
496.974	5354.18
497.344	5426.27
497.713	5432.15
498.082	5529.77
498.452	5591.01
498.821	5581.97
499.19	5578.58
499.559	5710.78
499.928	5722.99
500.298	5751.23
500.667	5819.03
501.036	5840.72
501.405	5901.29
501.774	5865.13
502.143	5921.17
502.512	5988.97
502.88	6002.53
503.249	6019.93
503.618	6097.89
503.987	6128.85
504.356	6155.52
504.724	6165.46
505.093	6209.75
505.462	6296.08
505.83	6270.77
506.199	6344.66
506.567	6435.06
506.936	6455.85
507.304	6514.83
507.672	6543.3
508.041	6504.43
508.409	6574.04
508.777	6609.97
509.145	6686.35
509.514	6709.17
509.882	6720.92
510.25	6757.99
510.618	6770.19
510.986	6796.86
511.354	6854.48
511.722	6925.21
512.09	6950.75
512.458	6957.3
512.826	7029.39
513.193	7078.43
513.561	7102.84
513.929	7107.81
514.297	7227.35
514.664	7197.07
515.032	7199.78
515.4	7289.72
515.767	7287.01
516.135	7338.54
516.502	7282.27
516.869	7456.95
517.237	7485.88
517.604	7371.76
517.972	7520.68
518.339	7524.75
518.706	7565.65
519.073	7631.18
519.44	7617.85
519.808	7639.77
520.175	7685.65
520.542	7787.34
520.909	7848.8
521.276	7831.18
521.643	7914.11
522.009	7934.23
522.376	7981.23
522.743	8037.73
523.11	8115.46
523.477	8135.58
523.843	8159.53
524.21	8210.6
524.577	8342.8
524.943	8328.11
525.31	8387.32
525.676	8404.5
526.043	8465.51
526.409	8545.96
526.776	8574.44
527.142	8546.64
527.508	8671.16
527.874	8737.6
528.241	8717.93
528.607	8875.9
528.973	8918.16
529.339	8819.4
529.705	8949.34
530.071	9010.13
530.437	9066.63
530.803	9118.83
531.169	9126.29
531.535	9079.96
531.901	9179.84
532.267	9264.81
532.632	9302.33
532.998	9334.64
533.364	9419.61
533.73	9408.99
534.095	9470.23
534.461	9455.32
534.826	9550.68
535.192	9594.3
535.557	9668.19
535.923	9692.15
536.288	9702.09
536.653	9746.38
537.019	9750.22
537.384	9811.69
537.749	9851.46
538.114	9956.77
538.479	9918.13
538.845	9941.63
539.21	9973.27
539.575	10064.34
539.94	10103.89
540.305	10124
540.67	10177.11
541.034	10215.3
541.399	10241.96
541.764	10241.74
542.129	10373.26
542.494	10423.88
542.858	10359.93
543.223	10381.62
543.587	10409.87
543.952	10545.46
544.316	10566.02
544.681	10617.32
545.045	10587.26
545.41	10706.58
545.774	10721.5
546.138	10750.2
546.503	10820.03
546.867	10810.99
547.231	10881.95
547.595	10904.09
547.959	10938.22
548.324	11003.52
548.688	11008.95
549.052	11009.4
549.416	11031.77
549.779	11109.51
550.143	11193.8
550.507	11209.62
550.871	11326.68
551.235	11269.73
551.599	11366.68
551.962	11384.98
552.326	11378.43
552.689	11539.78
553.053	11443.74
553.417	11505.88
553.78	11645.32
554.143	11540.46
554.507	11671.76
554.87	11619.33
555.234	11754.69
555.597	11747.69
555.96	11738.87
556.323	11821.81
556.686	11881.02
557.05	12003.27
557.413	11954.46
557.776	12021.35
558.139	12040.11
558.502	12067
558.865	12134.34
559.228	12288.24
559.59	12199.88
559.953	12180.67
560.316	12414.56
560.679	12337.95
561.041	12398.52
561.404	12466.76
561.767	12537.95
562.129	12470.38
562.492	12671.05
562.854	12656.36
563.217	12638.06
563.579	12670.15
563.941	12819.52
564.304	12846.19
564.666	12872.63
565.028	12959.86
565.39	12968.22
565.753	12980.87
566.115	13096.58
566.477	13163.69
566.839	13113.53
567.201	13209.34
567.563	13249.11
567.925	13332.5
568.287	13437.81
568.648	13361.43
569.01	13574.53
569.372	13564.81
569.734	13485.27
570.095	13626.96
570.457	13723.68
570.819	13716.45
571.18	13735.88
571.542	13833.96
571.903	13974.52
572.265	13957.57
572.626	13972.26
572.987	14086.38
573.349	14149.43
573.71	14211.58
574.071	14390.1
574.432	14393.72
574.794	14541.96
575.155	14522.08
575.516	14571.11
575.877	14691.56
576.238	14767.49
576.599	14877.32
576.96	14946.02
577.32	15001.39
577.681	15132.91
578.042	15190.31
578.403	15326.57
578.763	15376.29
579.124	15489.06
579.485	15641.82
579.845	15781.03
580.206	15882.94
580.566	16016.5
580.927	16044.75
581.287	16281.13
581.648	16429.37
582.008	16538.52
582.368	16698.74
582.728	16932.63
583.089	17046.98
583.449	17256.47
583.809	17462.79
584.169	17691.03
584.529	17710.24
584.889	18083.79
585.249	18283.78
585.609	18345.7
585.969	18677.45
586.329	18903.88
586.688	19205.79
587.048	19350.65
587.408	19606.69
587.768	19845.78
588.127	20078.54
588.487	20325.09
588.846	20643.5
589.206	20794.23
589.565	21130.72
589.925	21537.03
590.284	21734.32
590.643	22069
591.003	22377.91
591.362	22791.46
591.721	23054.51
592.08	23272.35
592.44	23646.58
592.799	23937.2
593.158	24260.12
593.517	24564.52
593.876	24921.35
594.235	25204.96
594.593	25459.42
594.952	25953.19
595.311	26046.07
595.67	26546.84
596.029	26999.04
596.387	27338.46
596.746	27735.06
597.104	27760.15
597.463	28217.53
597.822	28722.15
598.18	28831.08
598.538	29120.34
598.897	29678.29
599.255	29813.65
599.613	30560.98
599.972	30664.25
600.33	31022.66
600.688	31192.6
601.046	31640.27
601.404	32014.72
601.762	32377.43
602.12	32768.83
602.478	33124.75
602.836	33325.88
603.194	33522.48
603.552	33813.55
603.91	34034.11
604.268	34487.65
604.625	34839.06
604.983	35096.68
605.341	35290.12
605.698	35763.78
606.056	35906.37
606.413	36310.88
606.771	36514.72
607.128	36834.03
607.485	36988.83
607.843	37325.54
608.2	37737.96
608.557	38174.79
608.914	38076.71
609.272	38581.78
609.629	38752.4
609.986	39205.04
610.343	39267.41
610.7	39717.35
611.057	39919.83
611.414	39918.24
611.771	40173.15
612.127	40519.13
612.484	40851.55
612.841	40983.98
613.198	40976.07
613.554	41302.16
613.911	41686.56
614.267	41885.42
614.624	41943.73
614.98	42209.03
615.337	42621
615.693	42653.99
616.05	42653.99
616.406	43136.69
616.762	43119.52
617.118	43281.32
617.475	43455.78
617.831	43686.96
618.187	43809.22
618.543	43905.03
618.899	44329.65
619.255	44341.63
619.611	44388.41
619.967	44640.83
620.323	44769.19
620.678	44823.88
621.034	44885.8
621.39	44988.85
621.746	45005.34
622.101	45481.94
622.457	45324.88
622.812	45561.49
623.168	45889.84
623.523	45888.93
623.879	45955.83
624.234	45794.25
624.589	46042.83
624.945	46150.4
625.3	46228.13
625.655	46396.94
626.01	46382.71
626.365	46549.03
626.72	46629.03
627.075	46570.27
627.43	46697.5
627.785	46574.11
628.14	46823.83
628.495	46843.03
628.85	46797.61
629.205	46746.99
629.559	47080.32
629.914	46891.17
630.269	46979.98
630.623	46963.26
630.978	46829.93
631.332	47014.55
631.687	47194.66
632.041	47122.8
632.396	47189.24
632.75	47172.06
633.104	47285.28
633.459	47113.31
633.813	47141.11
634.167	47225.17
634.521	47205.96
634.875	47193.08
635.229	47211.84
635.583	46976.36
635.937	47114.44
636.291	47141.11
636.645	47168.45
636.999	47133.87
637.352	47203.93
637.706	47005.52
638.06	47243.93
638.413	47133.42
638.767	47028.79
639.121	47200.09
639.474	47048.9
639.828	46995.57
640.181	47138.62
640.534	47123.48
640.888	46909.92
641.241	46867.67
641.594	47001.67
641.947	47076.93
642.301	46981.11
642.654	47005.52
643.007	47024.27
643.36	46927.33
643.713	46776.82
644.066	47048.23
644.419	46917.38
644.771	46549.03
645.124	46212.32
645.477	46209.83
645.83	45912.89
646.182	45758.99
646.535	45777.75
646.888	45877.86
647.24	45557.87
647.593	45810.74
647.945	45746.34
648.298	45604.42
648.65	45484.43
649.002	45355.16
649.355	45453.24
649.707	45597.42
650.059	45813.23
650.411	46223.39
650.763	46292.09
651.115	46614.57
651.467	46511.07
651.819	46585.64
652.171	46413.89
652.523	46333.89
652.875	46265.87
653.227	46234.24
653.578	46652.76
653.93	46331.18
654.282	46197.4
654.633	46124.86
654.985	46246.67
655.337	46257.96
655.688	46310.84
656.039	46383.16
656.391	46212.77
656.742	46198.98
657.094	46192.66
657.445	46316.72
657.796	46314.69
658.147	46172.99
658.498	46320.79
658.849	46244.41
659.2	46214.8
659.551	46121.24
659.902	46190.62
660.253	46192.88
660.604	46155.59
660.955	45985.66
661.306	46179.55
661.656	46095.03
662.007	46160.57
662.358	46110.17
662.708	46067.69
663.059	45930.74
663.409	45803.51
663.76	46168.93
664.11	45982.72
664.461	46047.12
664.811	45975.26
665.161	46007.12
665.511	45881.93
665.862	45991.08
666.212	46063.62
666.562	46091.87
666.912	45961.25
667.262	45949.5
667.612	45937.97
667.962	45892.55
668.312	45941.14
668.662	45999.67
669.011	45980.68
669.361	45922.15
669.711	45815.49
670.06	45839.67
670.41	45772.33
670.76	45715.83
671.109	45947.24
671.459	45609.85
671.808	45803.74
672.157	45863.85
672.507	45472.22
672.856	45522.62
673.205	45557.19
673.554	45882.38
673.904	45563.29
674.253	45810.74
674.602	45589.06
674.951	45092.57
675.3	44907.72
675.649	45548.38
675.998	45414.37
676.346	45486.69
676.695	45686.23
677.044	45234.71
677.393	45399
677.741	45366.69
678.09	45281.04
678.438	45265.22
678.787	45333.24
679.135	45436.52
679.484	45120.14
679.832	45253.47
680.181	45107.49
680.529	45218.44
680.877	44891.45
681.225	44963.76
681.573	45189.52
681.922	44891.22
682.27	44839.7
682.618	44834.95
682.966	44748.4
683.314	44796.76
683.661	44760.6
684.009	44434.74
684.357	44468.63
684.705	44339.6
685.053	44471.8
685.4	44193.84
685.748	44150.22
686.095	44100.28
686.443	43952.94
686.79	43981.41
687.138	44075.42
687.485	43846.95
687.832	43895.09
688.18	43841.08
688.527	43695.32
688.874	43624.81
689.221	43535.32
689.568	43577.13
689.915	43342.11
690.262	43250.81
690.609	43296.69
690.956	43047.2
691.303	43037.03
691.65	42840.65
691.997	42888.56
692.344	42614.44
692.69	42638.17
693.037	42639.08
693.383	42394.56
693.73	42440.66
694.077	42199.77
694.423	42274.57
694.769	42137.85
695.116	42027.34
695.462	41992.77
695.808	41909.83
696.155	41892.2
696.501	41712.55
696.847	41583.06
697.193	41248.6
697.539	41561.82
697.885	41179.45
698.231	41098.55
698.577	41254.48
698.923	41111.43
699.269	40915.28
699.614	40744.44
699.96	40544.67
700.306	40589.41
700.651	40468.74
700.997	40300.83
701.342	40319.59
701.688	40166.37
702.033	40159.37
702.379	40061.07
702.724	39891.35
703.069	40068.07
703.415	39594.86
703.76	39638.48
704.105	39639.83
704.45	39488.42
704.795	39272.39
705.14	39218.83
705.485	39180.18
705.83	39010.7
706.175	39123.69
706.52	38840.53
706.865	38801.66
707.209	38827.88
707.554	38707.88
707.899	38623.36
708.243	38456.14
708.588	38375.91
708.932	38163.71
709.277	38271.73
709.621	38143.83
709.966	38012.31
710.31	38122.36
710.654	37728.92
710.998	37911.29
711.342	37806.89
711.687	37698.42
712.031	37630.62
712.375	37361.02
712.719	37504.52
713.063	37384.53
713.407	37481.25
713.75	37228.37
714.094	37172.78
714.438	37051.65
714.782	37081.03
715.125	36976.17
715.469	37042.16
715.812	36804.88
716.156	36549.97
716.499	36678.56
716.843	36641.49
717.186	36318.56
717.53	36608.5
717.873	36678.78
718.216	36425.91
718.559	36336.64
718.902	36097.33
719.246	36248.06
719.589	36227.49
719.932	36022.98
720.275	36127.16
720.617	35848.07
720.96	35741.63
721.303	35884.9
721.646	35794.74
721.989	35671.8
722.331	35785.47
722.674	35629.54
723.016	35583.89
723.359	35523.33
723.701	35562.2
724.044	35192.27
724.386	35158.82
724.729	35297.8
725.071	35215.99
725.413	35279.95
725.755	35250.57
726.097	35060.29
726.439	34810.36
726.782	34859.62
727.124	34997.47
727.465	34745.72
727.807	34940.07
728.149	34715.9
728.491	34644.94
728.833	34642.45
729.175	34517.26
729.516	34469.12
729.858	34480.65
730.199	34437.48
730.541	34460.99
730.882	34305.74
731.224	34270.94
731.565	34216.93
731.906	34209.24
732.248	34043.6
732.589	33836.82
732.93	33927.44
733.271	33889.25
733.612	33978.29
733.953	34063.48
734.294	33725.41
734.635	33748.01
734.976	33699.65
735.317	33493.1
735.658	33579.43
735.999	33641.8
736.339	33515.02
736.68	33650.61
737.021	33402.71
737.361	33314.12
737.702	33621.23
738.042	33401.35
738.383	33284.29
738.723	33367.23
739.063	33175.82
739.404	33209.95
739.744	33228.7
740.084	33015.37
740.424	33198.19
740.764	33048.14
741.104	33017.18
741.444	32947.13
741.784	32743.07
742.124	32911.2
742.464	32807.92
742.804	32647.93
743.143	32528.16
743.483	32536.74
743.823	32426.24
744.162	32422.62
744.502	32532.68
744.841	32320.03
745.181	32470.3
745.52	32352.79
745.86	32442.28
746.199	32118.68
746.538	32142.18
746.877	32105.34
747.216	32356.64
747.556	32010.2
747.895	32237.09
748.234	31909.64
748.573	32040.49
748.911	31888.85
749.25	31793.26
749.589	31671.46
749.928	31888.62
750.267	31821.51
750.605	31658.35
750.944	31580.38
751.283	31485.25
751.621	31576.09
751.96	31436.21
752.298	31593.04
752.636	31444.12
752.975	31223.33
753.313	31078.93
753.651	31294.29
753.989	31088.65
754.327	31142.2
754.666	30869.67
755.004	31067.4
755.342	30973.17
755.679	30853.62
756.017	30694.53
756.355	30693.4
756.693	30644.14
757.031	30590.81
757.368	30470.58
757.706	30355.78
