Data from hue_40_FLMS001491_95.txt Node
Date: Mon Feb 06 15:08:51 GMT 2017
User: dcchb
Spectrometer: FLMS00149
Trigger mode: 0
Integration Time (sec): 2.000000E-2
Scans to average: 10
Electric dark correction enabled: true
Nonlinearity correction enabled: false
Boxcar width: 0
XAxis mode: Wavelengths
Number of Pixels in Spectrum: 2048
>>>>>Begin Spectral Data<<<<<
341.393	-12.57
341.776	-12.57
342.16	-12.57
342.543	-71.1
342.927	-64.32
343.31	-69.52
343.693	-69.07
344.077	-64.32
344.46	-69.29
344.843	-54.6
345.226	-44.89
345.61	-32.91
345.993	-31.1
346.376	2.57
346.759	15
347.142	29.24
347.525	46.19
347.908	57.94
348.291	74.21
348.674	92.96
349.057	117.6
349.44	115.11
349.823	142.23
350.206	168.67
350.588	204.15
350.971	214.32
351.354	236.01
351.737	244.15
352.119	265.84
352.502	277.82
352.884	288.44
353.267	295.9
353.65	287.31
354.032	322.34
354.414	321.21
354.797	318.04
355.179	309
355.562	337.7
355.944	330.47
356.326	328.44
356.709	335.9
357.091	339.06
357.473	341.54
357.855	341.77
358.238	352.39
358.62	350.13
359.002	331.6
359.384	358.95
359.766	372.73
360.148	349.91
360.53	335.67
360.912	357.14
361.294	376.35
361.676	335.44
362.057	322.56
362.439	350.13
362.821	336.57
363.203	339.28
363.584	338.15
363.966	316.46
364.348	304.71
364.729	332.05
365.111	327.99
365.493	309.46
365.874	327.08
366.256	322.56
366.637	314.65
367.019	314.43
367.4	320.98
367.781	302
368.163	307.2
368.544	333.64
368.925	318.27
369.306	347.19
369.688	333.64
370.069	312.39
370.45	311.49
370.831	305.39
371.212	307.87
371.593	327.53
371.974	305.61
372.355	314.2
372.736	330.02
373.117	309.23
373.498	331.83
373.879	335.9
374.26	345.16
374.641	329.34
375.021	304.26
375.402	337.48
375.783	341.32
376.163	347.87
376.544	342.9
376.925	304.48
377.305	340.19
377.686	328.21
378.066	346.52
378.447	336.12
378.827	341.54
379.208	351.71
379.588	351.49
379.968	343.13
380.349	336.35
380.729	339.74
381.109	358.04
381.489	334.77
381.87	368.21
382.25	346.06
382.63	340.87
383.01	354.88
383.39	348.32
383.77	347.42
384.15	332.28
384.53	364.37
384.91	387.19
385.29	367.53
385.67	348.32
386.049	339.51
386.429	362.79
386.809	367.76
387.189	358.49
387.568	368.44
387.948	342
388.328	373.86
388.707	390.81
389.087	355.56
389.466	369.11
389.846	380.19
390.225	367.31
390.605	389.23
390.984	399.17
391.363	392.39
391.743	387.19
392.122	386.06
392.501	371.37
392.881	399.17
393.26	389
393.639	395.78
394.018	393.29
394.397	386.97
394.776	401.43
395.155	393.52
395.534	386.74
395.913	393.29
396.292	392.62
396.671	409.34
397.05	382.45
397.429	406.63
397.808	415.44
398.186	400.98
398.565	397.14
398.944	393.75
399.323	419.28
399.701	432.62
400.08	411.37
400.458	430.13
400.837	419.96
401.215	410.92
401.594	397.36
401.972	426.51
402.351	420.64
402.729	427.64
403.107	417.25
403.486	429.45
403.864	425.84
404.242	436.46
404.62	430.13
404.999	457.7
405.377	450.02
405.755	433.75
406.133	452.05
406.511	440.98
406.889	433.75
407.267	465.38
407.645	452.05
408.023	466.51
408.401	470.81
408.779	450.47
409.156	471.26
409.534	449.11
409.912	469.68
410.29	470.13
410.667	468.77
411.045	474.87
411.422	479.17
411.8	473.74
412.178	490.69
412.555	470.13
412.933	477.81
413.31	510.81
413.687	504.25
414.065	499.73
414.442	523.46
414.819	519.17
415.197	525.95
415.574	516.68
415.951	514.87
416.328	508.09
416.705	528.21
417.082	556.45
417.46	543.35
417.837	513.29
418.214	519.39
418.591	522.56
418.967	541.09
419.344	544.7
419.721	537.7
420.098	537.25
420.475	554.42
420.852	559.39
421.228	553.97
421.605	563.23
421.982	563.69
422.358	587.19
422.735	566.17
423.111	579.28
423.488	586.06
423.864	597.81
424.241	566.4
424.617	600.75
424.994	601.2
425.37	609.11
425.746	598.71
426.123	612.72
426.499	633.51
426.875	602.78
427.251	595.78
427.627	637.13
428.003	620.18
428.379	621.99
428.756	648.66
429.132	636.68
429.507	662.89
429.883	654.53
430.259	664.02
430.635	665.38
431.011	678.03
431.387	670.35
431.763	689.78
432.138	679.16
432.514	679.39
432.89	669.9
433.265	699.28
433.641	708.31
434.016	715.09
434.392	710.12
434.767	735.21
435.143	743.34
435.518	742.66
435.894	730.69
436.269	781.08
436.644	786.28
437.02	767.07
437.395	763.91
437.77	767.52
438.145	779.05
438.52	784.24
438.895	804.58
439.271	784.92
439.646	834.64
440.021	803
440.395	794.64
440.77	818.37
441.145	818.82
441.52	838.48
441.895	839.61
442.27	842.77
442.645	854.98
443.019	835.77
443.394	843
443.769	848.2
444.143	854.98
444.518	876.9
444.892	833.06
445.267	868.76
445.641	874.86
446.016	880.97
446.39	876.9
446.764	897.01
447.139	863.56
447.513	915.99
447.887	911.25
448.262	908.08
448.636	910.34
449.01	954.41
449.384	923.68
449.758	930.46
450.132	933.62
450.506	939.5
450.88	968.19
451.254	959.16
451.628	968.65
452.002	1002.32
452.376	995.31
452.75	1000.51
453.123	978.14
453.497	1001.64
453.871	1005.71
454.244	1023.11
454.618	1040.28
454.992	1054.75
455.365	1047.74
455.739	1044.13
456.112	1075.31
456.486	1094.29
456.859	1099.26
457.232	1102.88
457.606	1073.95
457.979	1121.86
458.352	1130.22
458.725	1145.59
459.099	1171.13
459.472	1181.07
459.845	1176.1
460.218	1214.52
460.591	1203.89
460.964	1212.71
461.337	1209.54
461.71	1244.12
462.083	1262.88
462.456	1296.77
462.829	1292.71
463.201	1329.32
463.574	1332.93
463.947	1335.64
464.32	1387.62
464.692	1378.81
465.065	1375.64
465.438	1391.46
465.81	1460.61
466.183	1439.82
466.555	1459.03
466.928	1505.13
467.3	1508.07
467.672	1504.68
468.045	1553.94
468.417	1552.81
468.789	1588.29
469.161	1595.3
469.534	1651.79
469.906	1640.04
470.278	1670.78
470.65	1713.71
471.022	1767.72
471.394	1735.86
471.766	1792.81
472.138	1816.76
472.51	1864.67
472.882	1889.3
473.253	1926.81
473.625	1944.89
473.997	2037.32
474.369	2031.44
474.74	2031.67
475.112	2116.19
475.484	2170.65
475.855	2191.44
476.227	2214.04
476.598	2293.58
476.97	2300.82
477.341	2386.46
477.713	2432.34
478.084	2445.67
478.455	2528.61
478.827	2590.98
479.198	2715.49
479.569	2704.42
479.94	2788.94
480.311	2847.02
480.682	2941.7
481.053	3009.27
481.424	3134.01
481.795	3143.05
482.166	3228.47
482.537	3303.05
482.908	3381.46
483.279	3481.12
483.65	3531.97
484.021	3629.37
484.391	3703.94
484.762	3781.91
485.133	3845.18
485.503	3962.01
485.874	4059.87
486.244	4130.15
486.615	4233.65
486.985	4317.94
487.356	4461.21
487.726	4520.87
488.097	4648.32
488.467	4772.61
488.837	4885.15
489.207	4985.72
489.578	5092.61
489.948	5182.32
490.318	5286.95
490.688	5318.14
491.058	5510.9
491.428	5635.87
491.798	5699.82
492.168	5843.09
492.538	5919.7
492.908	6073.82
493.278	6125.12
493.648	6227.49
494.017	6375.74
494.387	6403.53
494.757	6582.74
495.126	6645.56
495.496	6752.9
495.866	6867.25
496.235	7032.89
496.605	7047.81
496.974	7179.33
497.344	7295.26
497.713	7385.43
498.082	7461.58
498.452	7588.59
498.821	7617.74
499.19	7733.44
499.559	7836.04
499.928	7956.94
500.298	8009.59
500.667	8163.71
501.036	8157.16
501.405	8283.03
501.774	8320.54
502.143	8454.33
502.512	8512.18
502.88	8561.44
503.249	8687.99
503.618	8809.12
503.987	8854.99
504.356	8957.82
504.724	8997.36
505.093	9114.42
505.462	9200.29
505.83	9233.51
506.199	9317.35
506.567	9458.59
506.936	9496.11
507.304	9589.44
507.672	9700.17
508.041	9702.43
508.409	9819.71
508.777	9940.84
509.145	10105.81
509.514	10076.43
509.882	10144.68
510.25	10165.69
510.618	10243.21
510.986	10374.73
511.354	10458.79
511.722	10542.41
512.09	10664.21
512.458	10609.3
512.826	10778.11
513.193	10885.45
513.561	10782.17
513.929	10971.55
514.297	11086.12
514.664	11127.93
515.032	11183.29
515.4	11325.21
515.767	11324.08
516.135	11440.24
516.502	11372.44
516.869	11494.02
517.237	11604.75
517.604	11652.43
517.972	11700.34
518.339	11842.03
518.706	11837.74
519.073	11893.78
519.44	11855.59
519.808	12056.04
520.175	12077.51
520.542	12255.36
520.909	12313.43
521.276	12332.87
521.643	12538.96
522.009	12564.05
522.376	12658.06
522.743	12663.03
523.11	12806.98
523.477	12907.54
523.843	12990.25
524.21	13053.75
524.577	13121.1
524.943	13261.88
525.31	13315.21
525.676	13516.57
526.043	13591.14
526.409	13642.44
526.776	13688.99
527.142	13723.34
527.508	13852.15
527.874	13938.48
528.241	14005.14
528.607	13972.15
528.973	14172.37
529.339	14126.49
529.705	14284.45
530.071	14530.32
530.437	14394.73
530.803	14580.94
531.169	14653.71
531.535	14628.63
531.901	14678.34
532.267	14785.46
532.632	14916.3
532.998	14963.53
533.364	15026.58
533.73	15091.44
534.095	15210.53
534.461	15287.59
534.826	15355.16
535.192	15380.92
535.557	15500.02
535.923	15520.81
536.288	15622.27
536.653	15639.45
537.019	15682.84
537.384	15667.47
537.749	15817.3
538.114	15851.19
538.479	15944.98
538.845	15993.11
539.21	15961.92
539.575	16006.9
539.94	16068.36
540.305	16325.08
540.67	16283.05
541.034	16393.55
541.399	16452.08
541.764	16487.33
542.129	16495.02
542.494	16572.3
542.858	16652.75
543.223	16658.4
543.587	16737.05
543.952	16741.79
544.316	16901.56
544.681	16833.99
545.045	17008.9
545.41	17181.33
545.774	17135
546.138	17199.18
546.503	17293.87
546.867	17281.21
547.231	17424.49
547.595	17378.84
547.959	17496.57
548.324	17584.71
548.688	17450.25
549.052	17747.41
549.416	17714.65
549.779	17716.46
550.143	17813.4
550.507	17982.21
550.871	18073.51
551.235	17963.45
551.599	18175.43
551.962	18159.38
552.326	18180.17
552.689	18275.76
553.053	18287.74
553.417	18333.84
553.78	18548.52
554.143	18465.36
554.507	18515.53
554.87	18627.39
555.234	18778.35
555.597	18654.28
555.96	18793.71
556.323	18958.23
556.686	18865.8
557.05	19020.38
557.413	19087.04
557.776	19160.48
558.139	19201.61
558.502	19258.11
558.865	19289.3
559.228	19461.04
559.59	19498.33
559.953	19591.21
560.316	19763.18
560.679	19733.58
561.041	19809.06
561.404	19887.7
561.767	19990.52
562.129	20004.76
562.492	20207.24
562.854	20104.87
563.217	20230.06
563.579	20346.44
563.941	20485.65
564.304	20553.89
564.666	20674.12
565.028	20616.04
565.39	20638.86
565.753	20854.9
566.115	20839.54
566.477	20903.49
566.839	21003.6
567.201	21208.34
567.563	21238.4
567.925	21245.4
568.287	21298.06
568.648	21274.1
569.01	21538.73
569.372	21709.34
569.734	21567.43
570.095	21792.73
570.457	21861.88
570.819	21951.82
571.18	21988.66
571.542	22165.6
571.903	22036.57
572.265	22257.58
572.626	22454.41
572.987	22431.59
573.349	22456.67
573.71	22588.64
574.071	22732.14
574.432	22774.63
574.794	22986.37
575.155	23024.79
575.516	23048.29
575.877	23178.46
576.238	23335.06
576.599	23394.5
576.96	23530.09
577.32	23607.37
577.681	23798.56
578.042	23983.86
578.403	24074.48
578.763	24162.61
579.124	24244.87
579.485	24480.12
579.845	24687.8
580.206	24663.62
580.566	24833.56
580.927	24967.79
581.287	25283.94
581.648	25249.36
582.008	25564.84
582.368	25730.03
582.728	25799.86
583.089	25937.03
583.449	26109.68
583.809	26344.93
584.169	26564.81
584.529	26587.18
584.889	27072.14
585.249	27173.16
585.609	27213.61
585.969	27556.2
586.329	27629.19
586.688	27815.85
587.048	28003.87
587.408	28220.36
587.768	28299.23
588.127	28459
588.487	28638.2
588.846	29111.64
589.206	29061.92
589.565	29276.38
589.925	29656.93
590.284	29806.08
590.643	29957.04
591.003	30345.95
591.362	30615.1
591.721	30682.89
592.08	31029.1
592.44	31172.15
592.799	31337.34
593.158	31490.56
593.517	31668.18
593.876	32004.44
594.235	32151.78
594.593	32335.05
594.952	32650.53
595.311	32629.06
595.67	32960.12
596.029	33288.02
596.387	33355.14
596.746	33605.08
597.104	33693.44
597.463	33903.6
597.822	34146.08
598.18	34206.64
598.538	34440.08
598.897	34646.86
599.255	34587.42
599.613	35220.63
599.972	35074.87
600.33	35357.35
600.688	35334.52
601.046	35620.17
601.404	36029.87
601.762	36020.15
602.12	36371.33
602.478	36433.03
602.836	36671.66
603.194	36496.53
603.552	36885.67
603.91	36758.89
604.268	37078.43
604.625	37188.03
604.983	37419.44
605.341	37477.97
605.698	37725.87
606.056	37952.53
606.413	37796.83
606.771	38264.62
607.128	38310.04
607.485	38245.63
607.843	38436.81
608.2	38762.91
608.557	38979.62
608.914	38848.78
609.272	39159.96
609.629	39304.59
609.986	39641.75
610.343	39419.39
610.7	39804.24
611.057	39733.96
611.414	39809.21
611.771	39787.29
612.127	40136.88
612.484	40266.82
612.841	40498.45
613.198	40426.82
613.554	40410.1
613.911	40816.19
614.267	40844.21
614.624	40686.25
614.98	40881.95
615.337	41284.2
615.693	41094.82
616.05	41279.23
616.406	41511.54
616.762	41427.7
617.118	41470.63
617.475	41601.93
617.831	41818.19
618.187	41847.8
618.543	41897.29
618.899	42149.71
619.255	42193.78
619.611	42164.85
619.967	42272.42
620.323	42448.23
620.678	42372.3
621.034	42273.32
621.39	42296.6
621.746	42348.58
622.101	42991.95
622.457	42646.87
622.812	42790.37
623.168	42768.68
623.523	42942.46
623.879	43065.85
624.234	42825.85
624.589	43047.09
624.945	43052.96
625.3	42995.79
625.655	43115.11
626.01	43163.7
626.365	43250.47
626.72	43266.74
627.075	43147.42
627.43	43165.28
627.785	43235.56
628.14	43327.53
628.495	43420.64
628.85	43379.96
629.205	43193.53
629.559	43502.67
629.914	43380.87
630.269	43483.46
630.623	43329.11
630.978	43188.33
631.332	43426.97
631.687	43535.66
632.041	43350.81
632.396	43664.47
632.75	43328.21
633.104	43383.58
633.459	43265.39
633.813	43265.61
634.167	43344.03
634.521	43274.88
634.875	43327.99
635.229	43442.11
635.583	43153.98
635.937	43229.68
636.291	43172.06
636.645	43287.99
636.999	43169.57
637.352	43227.42
637.706	43159.85
638.06	43291.15
638.413	43098.84
638.767	43035.56
639.121	43176.12
639.474	42897.71
639.828	42850.94
640.181	43022.68
640.534	42979.07
640.888	42806.19
641.241	42788.79
641.594	42725.29
641.947	42930.93
642.301	42869.69
642.654	42907.21
643.007	42698.85
643.36	42842.8
643.713	42687.78
644.066	42971.16
644.419	42594.67
644.771	42297.5
645.124	42045.08
645.477	42013.9
645.83	41768.25
646.182	41667.24
646.535	41421.59
646.888	41493.68
647.24	41308.6
647.593	41561.03
647.945	41462.95
648.298	41188.83
648.65	41278.32
649.002	41101.38
649.355	41298.89
649.707	41360.13
650.059	41384.08
650.411	41840.34
650.763	41917.17
651.115	42351.06
651.467	42103.84
651.819	42237.17
652.171	42071.52
652.523	42084.85
652.875	42107.68
653.227	41982.03
653.578	42086.89
653.93	41988.36
654.282	41861.13
654.633	41857.06
654.985	41904.97
655.337	41778.87
655.688	41846.44
656.039	41989.72
656.391	41641.48
656.742	41798.53
657.094	41835.82
657.445	41909.72
657.796	41693
658.147	41697.29
658.498	41795.6
658.849	41811.41
659.2	41555.83
659.551	41613.23
659.902	41657.75
660.253	41572.1
660.604	41808.25
660.955	41513.34
661.306	41774.35
661.656	41549.05
662.007	41496.39
662.358	41603.06
662.708	41574.13
663.059	41536.39
663.409	41339.11
663.76	41571.42
664.11	41508.82
664.461	41462.27
664.811	41538.43
665.161	41517.64
665.511	41442.61
665.862	41493.23
666.212	41571.42
666.562	41593.34
666.912	41549.95
667.262	41531.2
667.612	41455.04
667.962	41544.08
668.312	41445.32
668.662	41657.75
669.011	41461.59
669.361	41424.53
669.711	41353.12
670.06	41307.25
670.41	41286.23
670.76	41187.7
671.109	41513.34
671.459	41302.28
671.808	41270.64
672.157	41304.76
672.507	41159.45
672.856	41209.85
673.205	41193.58
673.554	41294.59
673.904	41079.46
674.253	41314.7
674.602	41088.72
674.951	40566.93
675.3	40458.46
675.649	41110.64
675.998	41082.62
676.346	41000.59
676.695	41139.34
677.044	40769.86
677.393	40862.97
677.741	40985.67
678.09	40749.07
678.438	40703.87
678.787	40764.89
679.135	40801.72
679.484	40478.12
679.832	40680.6
680.181	40505.46
680.529	40588.4
680.877	40562.86
681.225	40414.16
681.573	40713.59
681.922	40486.48
682.27	40220.04
682.618	40230.21
682.966	40172.14
683.314	40259.82
683.661	40162.87
684.009	39949.77
684.357	39862.09
684.705	39921.07
685.053	39890.56
685.4	39827.96
685.748	39833.39
686.095	39690.11
686.443	39547.52
686.79	39442.21
687.138	39591.36
687.485	39538.48
687.832	39412.83
688.18	39343.91
688.527	39158.38
688.874	39079.06
689.221	39099.85
689.568	39096.68
689.915	38940.08
690.262	39053.52
690.609	38912.96
690.956	38699.41
691.303	38679.97
691.65	38561.1
691.997	38440.43
692.344	38209.02
692.69	38230.72
693.037	38219.19
693.383	37991.63
693.73	38199.76
694.077	37883.38
694.423	37985.98
694.769	37792.09
695.116	37696.04
695.462	37655.37
695.808	37428.25
696.155	37566.33
696.501	37361.36
696.847	37166.79
697.193	37030.98
697.539	37175.15
697.885	36875.95
698.231	36776.07
698.577	36767.48
698.923	36831.21
699.269	36404.1
699.614	36353.71
699.96	36244.78
700.306	36363.65
700.651	36102.64
700.997	35994.39
701.342	36113.03
701.688	35980.83
702.033	35754.17
702.379	35771.57
702.724	35643.44
703.069	35896.99
703.415	35300.63
703.76	35310.12
704.105	35407.06
704.45	35098.82
704.795	34997.13
705.14	35108.54
705.485	35064.47
705.83	34937.7
706.175	34924.14
706.52	34812.95
706.865	34692.28
707.209	34655.44
707.554	34472.85
707.899	34691.15
708.243	34479.63
708.588	34206.42
708.932	34179.53
709.277	34081
709.621	34243.7
709.966	33981.56
710.31	33932.75
710.654	33711.51
710.998	33807.33
711.342	33851.4
711.687	33665.87
712.031	33564.4
712.375	33297.74
712.719	33448.24
713.063	33449.83
713.407	33472.2
713.75	33365.31
714.094	33258.87
714.438	33125.32
714.782	33086.67
715.125	32923.51
715.469	33039.67
715.812	32835.61
716.156	32605.78
716.499	32713.12
716.843	32646.68
717.186	32542.51
717.53	32718.55
717.873	32591.09
718.216	32458.44
718.559	32368.05
718.902	32207.37
719.246	32248.95
719.589	32146.13
719.932	32084.44
720.275	32012.8
720.617	32020.94
720.96	31979.58
721.303	31886.7
721.646	31868.17
721.989	31675.64
722.331	31691.91
722.674	31727.39
723.016	31665.24
723.359	31607.84
723.701	31657.78
724.044	31411.69
724.386	31412.37
724.729	31530.33
725.071	31340.05
725.413	31409.2
725.755	31318.81
726.097	31217.34
726.439	31165.59
726.782	31024.35
727.124	31123.56
727.465	30947.75
727.807	30839.5
728.149	30887.63
728.491	30799.05
728.833	30842.44
729.175	30698.26
729.516	30713.4
729.858	30604.7
730.199	30577.81
730.541	30635.89
730.882	30546.4
731.224	30575.78
731.565	30335.33
731.906	30339.63
732.248	30508.89
732.589	30373.07
732.93	30167.2
733.271	30203.36
733.612	30159.29
733.953	30186.18
734.294	30034.1
734.635	29980.77
734.976	30037.49
735.317	29963.36
735.658	29912.29
735.999	29873.88
736.339	29773.77
736.68	29889.69
737.021	29795.91
737.361	29670.94
737.702	29865.51
738.042	29627.78
738.383	29499.2
738.723	29675.69
739.063	29497.84
739.404	29509.82
739.744	29504.62
740.084	29286.55
740.424	29376.04
740.764	29304.4
741.104	29378.97
741.444	29277.28
741.784	29164.06
742.124	29201.35
742.464	29191.41
742.804	28906.9
743.143	29057.4
743.483	29048.59
743.823	28827.8
744.162	28912.09
744.502	28957.97
744.841	28733.79
745.181	28847.69
745.52	28739.89
745.86	28729.5
746.199	28723.17
746.538	28619.45
746.877	28676.39
747.216	28660.12
747.556	28524.98
747.895	28684.75
748.234	28421.71
748.573	28284.99
748.911	28409.73
749.25	28267.36
749.589	28123.41
749.928	28191.21
750.267	28194.82
750.605	28168.38
750.944	28050.19
751.283	27942.63
751.621	28076.18
751.96	27773.82
752.298	27861.73
752.636	27866.92
752.975	27763.42
753.313	27632.35
753.651	27799.58
753.989	27588.06
754.327	27559.59
754.666	27444.33
755.004	27569.3
755.342	27582.18
755.679	27402.3
756.017	27224.91
756.355	27305.13
756.693	27192.14
