Data from hue_28_FLMS001491_00011.txt Node
Date: Tue Feb 07 17:16:54 GMT 2017
User: dcchb
Spectrometer: FLMS00149
Trigger mode: 0
Integration Time (sec): 2.000000E-2
Scans to average: 10
Electric dark correction enabled: true
Nonlinearity correction enabled: false
Boxcar width: 0
XAxis mode: Wavelengths
Number of Pixels in Spectrum: 2048
>>>>>Begin Spectral Data<<<<<
341.393	-21
341.776	-21
342.16	-21
342.543	-64.84
342.927	-67.55
343.31	-70.72
343.693	-69.59
344.077	-57.84
344.46	-49.48
344.843	-39.31
345.226	-26.88
345.61	-21.91
345.993	-34.79
346.376	-3.6
346.759	-10.61
347.142	29.84
347.525	30.3
347.908	48.83
348.291	73.46
348.674	90.18
349.057	112.1
349.44	118.2
349.823	152.1
350.206	166.11
350.588	177.64
350.971	209.95
351.354	228.93
351.737	228.03
352.119	230.97
352.502	244.53
352.884	271.87
353.267	283.62
353.65	286.11
354.032	297.63
354.414	304.86
354.797	296.96
355.179	298.54
355.562	303.06
355.944	320.68
356.326	328.14
356.709	342.6
357.091	328.59
357.473	345.54
357.855	326.11
358.238	340.12
358.62	348.03
359.002	352.1
359.384	330.63
359.766	348.71
360.148	346.22
360.53	338.54
360.912	337.18
361.294	328.37
361.676	359.78
362.057	333.34
362.439	327.92
362.821	331.98
363.203	322.04
363.584	302.15
363.966	299.89
364.348	308.25
364.729	318.65
365.111	318.2
365.493	306.9
365.874	328.59
366.256	306.9
366.637	333.56
367.019	292.44
367.4	298.76
367.781	303.06
368.163	305.99
368.544	306.22
368.925	309.61
369.306	306.9
369.688	314.13
370.069	301.7
370.45	287.46
370.831	309.38
371.212	300.12
371.593	308.93
371.974	316.16
372.355	294.92
372.736	298.31
373.117	317.29
373.498	291.53
373.879	308.48
374.26	318.42
374.641	300.8
375.021	300.35
375.402	321.59
375.783	311.19
376.163	318.2
376.544	328.82
376.925	304.19
377.305	326.33
377.686	328.37
378.066	330.4
378.447	321.81
378.827	306.22
379.208	324.53
379.588	324.07
379.968	326.79
380.349	331.53
380.729	331.76
381.109	314.13
381.489	320.91
381.87	330.4
382.25	338.54
382.63	350.29
383.01	340.34
383.39	338.31
383.77	320.68
384.15	340.12
384.53	329.95
384.91	338.31
385.29	343.51
385.67	341.93
386.049	355.49
386.429	350.06
386.809	340.57
387.189	355.03
387.568	329.27
387.948	366.33
388.328	353.9
388.707	352.1
389.087	348.25
389.466	380.8
389.846	350.29
390.225	347.8
390.605	348.25
390.984	341.47
391.363	365.88
391.743	372.89
392.122	370.17
392.501	362.04
392.881	380.57
393.26	369.04
393.639	337.18
394.018	369.72
394.397	375.82
394.776	381.92
395.155	362.26
395.534	381.25
395.913	364.98
396.292	374.92
396.671	381.47
397.05	383.28
397.429	384.41
397.808	389.16
398.186	396.16
398.565	383.05
398.944	388.48
399.323	378.31
399.701	376.28
400.08	399.55
400.458	381.47
400.837	406.33
401.215	384.41
401.594	427.57
401.972	421.92
402.351	397.07
402.729	378.54
403.107	403.39
403.486	392.77
403.864	402.94
404.242	404.07
404.62	403.39
404.999	413.56
405.377	416.73
405.755	415.14
406.133	442.26
406.511	430.74
406.889	425.09
407.267	416.27
407.645	428.48
408.023	420.12
408.401	413.11
408.779	440.45
409.156	443.84
409.534	438.42
409.912	425.99
410.29	445.2
410.667	449.49
411.045	433.9
411.422	469.38
411.8	457.86
412.178	468.48
412.555	434.35
412.933	460.12
413.31	462.83
413.687	471.64
414.065	461.24
414.442	454.69
414.819	477.97
415.197	469.83
415.574	481.36
415.951	467.57
416.328	478.42
416.705	484.75
417.082	502.6
417.46	491.3
417.837	489.27
418.214	486.56
418.591	493.33
418.967	506.67
419.344	508.02
419.721	511.19
420.098	489.49
420.475	493.11
420.852	485.88
421.228	515.93
421.605	512.54
421.982	525.2
422.358	519.32
422.735	506.89
423.111	521.36
423.488	500.57
423.864	554.35
424.241	540.34
424.617	545.31
424.994	534.24
425.37	536.5
425.746	550.06
426.123	557.06
426.499	541.47
426.875	551.41
427.251	588.93
427.627	559.55
428.003	545.54
428.379	565.2
428.756	572.43
429.132	561.58
429.507	594.8
429.883	591.41
430.259	602.71
430.635	571.75
431.011	626.44
431.387	619.21
431.763	608.36
432.138	623.95
432.514	613.56
432.89	614.01
433.265	640
433.641	643.16
434.016	648.13
434.392	639.09
434.767	642.48
435.143	659.21
435.518	640.45
435.894	688.58
436.269	671.86
436.644	696.94
437.02	684.74
437.395	662.6
437.77	692.43
438.145	694.46
438.52	717.06
438.895	719.77
439.271	717.28
439.646	728.58
440.021	703.05
440.395	710.05
440.77	724.06
441.145	753.89
441.52	729.49
441.895	738.98
442.27	761.12
442.645	716.15
443.019	758.41
443.394	734.91
443.769	771.75
444.143	760.45
444.518	745.98
444.892	773.55
445.267	772.42
445.641	788.69
446.016	773.1
446.39	801.8
446.764	797.28
447.139	792.76
447.513	798.64
447.887	791.86
448.262	788.92
448.636	788.47
449.01	816.94
449.384	808.58
449.758	821.91
450.132	804.29
450.506	814.68
450.88	864.17
451.254	843.16
451.628	836.83
452.002	859.43
452.376	840.67
452.75	871.4
453.123	879.31
453.497	891.74
453.871	893.1
454.244	897.84
454.618	868.92
454.992	922.7
455.365	895.36
455.739	940.78
456.112	956.15
456.486	939.2
456.859	981.23
457.232	979.88
457.606	956.37
457.979	971.51
458.352	986.43
458.725	1011.96
459.099	1016.48
459.472	1033.89
459.845	1018.97
460.218	1044.05
460.591	1048.12
460.964	1062.59
461.337	1095.8
461.71	1100.32
462.083	1102.58
462.456	1115.69
462.829	1090.15
463.201	1134
463.574	1115.92
463.947	1135.13
464.32	1153.66
464.692	1147.33
465.065	1184.16
465.438	1185.97
465.81	1218.74
466.183	1207.67
466.555	1246.99
466.928	1227.78
467.3	1241.56
467.672	1268
468.045	1289.92
468.417	1320.43
468.789	1307.55
469.161	1332.86
469.534	1374.89
469.906	1379.41
470.278	1392.07
470.65	1402.24
471.022	1432.29
471.394	1445.85
471.766	1480.65
472.138	1486.98
472.51	1548.9
472.882	1531.73
473.253	1571.95
473.625	1571.5
473.997	1620.08
474.369	1619.18
474.74	1648.11
475.112	1735.34
475.484	1727.65
475.855	1759.52
476.227	1769.46
476.598	1876.57
476.97	1847.2
477.341	1880.42
477.713	1938.49
478.084	1918.83
478.455	1983.92
478.827	2041.54
479.198	2064.82
479.569	2114.53
479.94	2145.04
480.311	2179.17
480.682	2204.93
481.053	2280.41
481.424	2340.52
481.795	2371.25
482.166	2385.04
482.537	2447.86
482.908	2540.06
483.279	2530.34
483.65	2606.73
484.021	2623.67
484.391	2686.95
484.762	2754.74
485.133	2792.94
485.503	2804.91
485.874	2872.93
486.244	2884.91
486.615	2984.12
486.985	3033.83
487.356	3117.45
487.726	3135.07
488.097	3204.68
488.467	3241.74
488.837	3272.02
489.207	3355.41
489.578	3420.72
489.948	3486.25
490.318	3495.52
490.688	3561.5
491.058	3652.35
491.428	3657.77
491.798	3730.54
492.168	3840.14
492.538	3851.66
492.908	3899.57
493.278	3945.67
493.648	3971.66
494.017	4021.6
494.387	4079.91
494.757	4160.81
495.126	4151.54
495.496	4211.88
495.866	4282.16
496.235	4352.67
496.605	4365.32
496.974	4364.87
497.344	4423.4
497.713	4495.04
498.082	4503.17
498.452	4601.25
498.821	4581.14
499.19	4616.84
499.559	4676.73
499.928	4718.76
500.298	4732.09
500.667	4777.06
501.036	4814.58
501.405	4839.66
501.774	4852.32
502.143	4905.87
502.512	4961.01
502.88	4994.69
503.249	5005.08
503.618	5027.45
503.987	5043.95
504.356	5120.56
504.724	5145.19
505.093	5149.94
505.462	5138.41
505.83	5205.98
506.199	5286.43
506.567	5262.7
506.936	5303.38
507.304	5335.92
507.672	5404.84
508.041	5404.17
508.409	5446.42
508.777	5494.78
509.145	5549.02
509.514	5515.58
509.882	5573.2
510.25	5540.89
510.618	5626.08
510.986	5619.53
511.354	5688.45
511.722	5713.08
512.09	5752.41
512.458	5719.64
512.826	5824.04
513.193	5875.11
513.561	5802.8
513.929	5855.23
514.297	5942.23
514.664	5962.12
515.032	5954.21
515.4	6001.21
515.767	6066.75
516.135	6041.66
516.502	5991.27
516.869	6115.79
517.237	6186.07
517.604	6148.33
517.972	6113.3
518.339	6214.77
518.706	6251.15
519.073	6262.45
519.44	6239.85
519.808	6279.62
520.175	6278.04
520.542	6371.6
520.909	6363.69
521.276	6416.57
521.643	6476.45
522.009	6492.72
522.376	6530.46
522.743	6537.24
523.11	6590.8
523.477	6614.53
523.843	6701.76
524.21	6724.36
524.577	6759.38
524.943	6796.67
525.31	6826.5
525.676	6818.37
526.043	6906.5
526.409	6951.24
526.776	6933.17
527.142	7009.77
527.508	7042.54
527.874	7054.07
528.241	7080.05
528.607	7087.74
528.973	7172.03
529.339	7204.34
529.705	7216.77
530.071	7297.45
530.437	7307.17
530.803	7380.16
531.169	7403.89
531.535	7426.94
531.901	7415.64
532.267	7442.98
532.632	7493.6
532.998	7567.95
533.364	7562.98
533.73	7614.73
534.095	7715.74
534.461	7607.72
534.826	7708.51
535.192	7821.28
535.557	7813.82
535.923	7825.8
536.288	7858.79
536.653	7881.61
537.019	7875.74
537.384	7928.17
537.749	7957.32
538.114	7974.04
538.479	8040.93
538.845	8074.83
539.21	8097.88
539.575	8080.48
539.94	8109.18
540.305	8227.59
540.67	8168.84
541.034	8233.24
541.399	8323.86
541.764	8300.13
542.129	8312.34
542.494	8402.28
542.858	8386.69
543.223	8404.76
543.587	8488.15
543.952	8522.28
544.316	8507.59
544.681	8525.21
545.045	8549.39
545.41	8612.67
545.774	8641.14
546.138	8664.65
546.503	8701.71
546.867	8674.36
547.231	8785.55
547.595	8806.11
547.959	8789.16
548.324	8859.67
548.688	8881.14
549.052	8969.27
549.416	8941.02
549.779	8984.64
550.143	9008.36
550.507	9053.34
550.871	9051.53
551.235	9023.96
551.599	9215.82
551.962	9129.49
552.326	9230.96
552.689	9331.52
553.053	9233.44
553.417	9258.53
553.78	9364.29
554.143	9302.59
554.507	9416.94
554.87	9412.2
555.234	9467.79
555.597	9375.36
555.96	9474.79
556.323	9487.9
556.686	9572.42
557.05	9549.14
557.413	9611.74
557.776	9632.53
558.139	9721.34
558.502	9714.11
558.865	9769.47
559.228	9796.37
559.59	9790.94
559.953	9823.03
560.316	9888.79
560.679	9872.97
561.041	9970.15
561.404	10018.51
561.767	10044.95
562.129	10028.45
562.492	10166.07
562.854	10093.08
563.217	10151.16
563.579	10159.52
563.941	10200.88
564.304	10255.56
564.666	10381.44
565.028	10320.65
565.39	10404.03
565.753	10429.34
566.115	10451.94
566.477	10502.34
566.839	10518.83
567.201	10568.1
567.563	10580.75
567.925	10601.77
568.287	10604.93
568.648	10683.58
569.01	10755.89
569.372	10852.84
569.734	10816.45
570.095	10840.18
570.457	10955.66
570.819	10940.29
571.18	10982.78
571.542	11077.69
571.903	11043.79
572.265	11151.59
572.626	11207.18
572.987	11227.52
573.349	11279.27
573.71	11404.69
574.071	11430.67
574.432	11502.54
574.794	11637
575.155	11675.41
575.516	11654.85
575.877	11761.96
576.238	11813.49
576.599	11970.32
576.96	12016.2
577.32	12119.92
577.681	12187.04
578.042	12234.72
578.403	12376.64
578.763	12439.69
579.124	12509.97
579.485	12685.56
579.845	12845.55
580.206	12923.97
580.566	12958.32
580.927	13141.36
581.287	13338.87
581.648	13354.47
582.008	13562.14
582.368	13734.12
582.728	13895.02
583.089	14020.44
583.449	14242.13
583.809	14350.37
584.169	14545.17
584.529	14735.67
584.889	15019.73
585.249	15147.41
585.609	15279.61
585.969	15580.62
586.329	15808.19
586.688	16058.12
587.048	16180.61
587.408	16430.77
587.768	16620.37
588.127	16893.81
588.487	17037.76
588.846	17505.99
589.206	17583.05
589.565	17824.18
589.925	18298.06
590.284	18386.42
590.643	18783.02
591.003	19039.74
591.362	19388.66
591.721	19532.16
592.08	19822.09
592.44	20130.78
592.799	20501.85
593.158	20605.12
593.517	21032.23
593.876	21240.36
594.235	21503.86
594.593	21768.03
594.952	22203.72
595.311	22372.76
595.67	22732.3
596.029	23153.53
596.387	23441.88
596.746	23732.72
597.104	23966.16
597.463	24208.87
597.822	24638.91
598.18	24766.82
598.538	24971.11
598.897	25519.57
599.255	25607.02
599.613	26218.53
599.972	26361.58
600.33	26647.68
600.688	26845.86
601.046	27219.64
601.404	27591.15
601.762	27784.37
602.12	28295.77
602.478	28424.35
602.836	28749.54
603.194	28740.95
603.552	29142.75
603.91	29349.3
604.268	29747.48
604.625	29785.9
604.983	30180.24
605.341	30247.13
605.698	30622.71
606.056	30984.51
606.413	31199.65
606.771	31484.84
607.128	31730.48
607.485	31747.2
607.843	31965.5
608.2	32423.57
608.557	32642.09
608.914	32821.3
609.272	33021.52
609.629	33333.37
609.986	33645.91
610.343	33784.44
610.7	34014.94
611.057	34188.72
611.414	34406.79
611.771	34483.85
612.127	34853.56
612.484	35052.88
612.841	35214.91
613.198	35252.42
613.554	35413.32
613.911	35911.39
614.267	35930.82
614.624	36084.04
614.98	36351.6
615.337	36646.28
615.693	36488.55
616.05	36675.66
616.406	37089.89
616.762	37026.84
617.118	37130.56
617.475	37435.87
617.831	37628.86
618.187	37766.93
618.543	37799.02
618.899	38266.35
619.255	38171.89
619.611	38134.15
619.967	38509.06
620.323	38717.19
620.678	38582.05
621.034	38589.73
621.39	38748.83
621.746	38649.62
622.101	39322.14
622.457	39039.21
622.812	39169.83
623.168	39517.39
623.523	39498.86
623.879	39633.1
624.234	39433.55
624.589	39708.57
624.945	39850.27
625.3	39960.55
625.655	39839.64
626.01	40015.01
626.365	40102.01
626.72	40125.06
627.075	40145.63
627.43	40181.1
627.785	40418.16
628.14	40478.05
628.495	40462.45
628.85	40432.4
629.205	40404.6
629.559	40704.93
629.914	40467.65
630.269	40514.2
630.623	40480.53
630.978	40619.29
631.332	40712.84
631.687	40918.94
632.041	40803.01
632.396	40776.57
632.75	40877.13
633.104	40842.56
633.459	40588.55
633.813	40835.55
634.167	40759.39
634.521	40889.33
634.875	40909.45
635.229	40891.82
635.583	40744.25
635.937	40807.98
636.291	40888.88
636.645	40828.77
636.999	40751.03
637.352	40915.55
637.706	40780.64
638.06	40890.69
638.413	40733.86
638.767	40646.18
639.121	40810.24
639.474	40744.48
639.828	40626.29
640.181	40687.08
640.534	40774.99
640.888	40626.29
641.241	40590.81
641.594	40567.31
641.947	40768.43
642.301	40672.84
642.654	40725.27
643.007	40623.35
643.36	40650.47
643.713	40646.63
644.066	40822.44
644.419	40540.19
644.771	40247.32
645.124	39980.21
645.477	39849.36
645.83	39692.3
646.182	39587.45
646.535	39452.08
646.888	39538.64
647.24	39283.05
647.593	39483.95
647.945	39397.4
648.298	39330.05
648.65	39345.65
649.002	39195.59
649.355	39302.03
649.707	39276.27
650.059	39459.77
650.411	39906.31
650.763	40070.15
651.115	40501.1
651.467	40186.3
651.819	40181.56
652.171	40083.25
652.523	40110.6
652.875	40128.68
653.227	39909.47
653.578	40214.32
653.93	40237.37
654.282	39906.08
654.633	39936.82
654.985	40076.7
655.337	40106.53
655.688	39979.08
656.039	40050.71
656.391	39791.28
656.742	40040.09
657.094	40027.66
657.445	40121.45
657.796	40017.94
658.147	39820.66
658.498	39929.81
658.849	39979.3
659.2	39919.42
659.551	39897.27
659.902	39945.18
660.253	39966.42
660.604	39907.44
660.955	39706.54
661.306	39870.15
661.656	39859.76
662.007	39906.31
662.358	39827.44
662.708	39824.96
663.059	39819.98
663.409	39544.29
663.76	40105.63
664.11	39869.25
664.461	39907.89
664.811	39947.21
665.161	39855.69
665.511	39889.81
665.862	39859.53
666.212	39944.05
666.562	39899.08
666.912	39688.01
667.262	39671.06
667.612	39734.11
667.962	39849.59
668.312	39772.98
668.662	39932.3
669.011	39951.28
669.361	39796.03
669.711	39735.24
670.06	39726.88
670.41	39531.4
670.76	39650.27
671.109	39724.17
671.459	39790.38
671.808	39568.47
672.157	39598.52
672.507	39356.72
672.856	39495.25
673.205	39600.1
673.554	39644.85
673.904	39428.13
674.253	39638.75
674.602	39519.43
674.951	39060.91
675.3	38936.17
675.649	39503.61
675.998	39238.76
676.346	39335.03
676.695	39537.28
677.044	39236.72
677.393	39402.59
677.741	39389.71
678.09	39303.39
678.438	39168.48
678.787	39279.21
679.135	39293.22
679.484	39094.35
679.832	39142.71
680.181	39082.38
680.529	39059.1
680.877	38943.62
681.225	38926
681.573	39346.78
681.922	38826.56
682.27	38764.64
682.618	38817.07
682.966	38720.35
683.314	38871.99
683.661	38653.46
684.009	38618.21
684.357	38433.35
684.705	38564.42
685.053	38509.28
685.4	38467.7
685.748	38229.97
686.095	38201.27
686.443	38133.25
686.79	37932.58
687.138	38016.87
687.485	38018.68
687.832	37857.1
688.18	37926.47
688.527	37712.92
688.874	37709.53
689.221	37709.76
689.568	37402.19
689.915	37478.12
690.262	37531.91
690.609	37390.44
690.956	37333.27
691.303	37298.69
691.65	37129.21
691.997	37181.41
692.344	36810.57
692.69	36990.45
693.037	36942.09
693.383	36712.04
693.73	36662.1
694.077	36623.01
694.423	36599.96
694.769	36317.03
695.116	36277.48
695.462	36421.43
695.808	36082.91
696.155	36138.72
696.501	35904.15
696.847	35920.88
697.193	35642.92
697.539	35775.57
697.885	35616.25
698.231	35486.76
698.577	35535.35
698.923	35470.49
699.269	35298.75
699.614	35173.55
699.96	35165.42
700.306	35133.33
700.651	35017.4
700.997	34765.43
701.342	34879.1
701.688	34749.61
702.033	34544.87
702.379	34641.82
702.724	34490.86
703.069	34628.03
703.415	34073.02
703.76	34252.45
704.105	34238.21
704.45	34073.69
704.795	33946.01
705.14	33843.64
705.485	33925.68
705.83	33712.12
706.175	33683.2
706.52	33532.24
706.865	33431.68
707.209	33458.57
707.554	33340.83
707.899	33373.83
708.243	33218.12
708.588	33211.57
708.932	32991.24
709.277	33111.46
709.621	33034.85
709.966	32833.73
710.31	32915.31
710.654	32582.43
710.998	32694.3
711.342	32744.01
711.687	32423.12
712.031	32461.08
712.375	32307.19
712.719	32334.31
713.063	32293.4
713.407	32317.81
713.75	32167.53
714.094	32083.69
714.438	31881.21
714.782	31927.54
715.125	31934.99
715.469	31857.03
715.812	31800.99
716.156	31494.1
716.499	31733.42
716.843	31580.88
717.186	31417.27
717.53	31675.57
717.873	31584.95
718.216	31327.33
718.559	31404.84
718.902	31189.93
719.246	31342.01
719.589	31164.62
719.932	31036.94
720.275	31020.22
720.617	30885.76
720.96	30940.22
721.303	30983.83
721.646	30902.03
721.989	30734.35
722.331	30886.66
722.674	30700
723.016	30831.29
723.359	30721.24
723.701	30759.43
724.044	30416.84
724.386	30203.29
724.729	30510.17
725.071	30328.03
725.413	30295.94
725.755	30349.27
726.097	30201.93
726.439	30125.55
726.782	30133.46
727.124	30200.8
727.465	30123.06
727.807	29980.47
728.149	29905.44
728.491	29853.01
728.833	29902.5
729.175	29795.16
729.516	29809.4
729.858	29798.78
730.199	29700.25
730.541	29807.59
730.882	29573.25
731.224	29722.62
731.565	29523.08
731.906	29566.47
732.248	29599.24
732.589	29460.48
732.93	29313.82
733.271	29324.67
733.612	29310.2
733.953	29397.89
734.294	29225.46
734.635	29095.29
734.976	29193.37
735.317	28987.73
735.658	28912.7
735.999	29012.58
736.339	29035.63
736.68	29119.93
737.021	28918.12
737.361	28822.31
737.702	29014.62
738.042	28791.35
738.383	28736.21
738.723	28864.79
739.063	28691.24
739.404	28715.87
739.744	28728.98
740.084	28538.92
740.424	28584.35
740.764	28555.2
741.104	28499.15
741.444	28406.72
741.784	28273.62
742.124	28447.18
742.464	28353.62
742.804	28306.39
743.143	28239.05
743.483	28262.1
743.823	28101.2
744.162	28064.81
744.502	28073.17
744.841	27846.74
745.181	27942.1
745.52	27997.47
745.86	27964.02
746.199	27825.27
746.538	27912.95
746.877	27895.1
747.216	27804.48
747.556	27720.19
747.895	27784.37
748.234	27684.26
748.573	27656.46
748.911	27601.32
749.25	27618.5
749.589	27439.52
749.928	27460.54
750.267	27539.18
750.605	27385.96
750.944	27458.28
751.283	27389.35
751.621	27350.26
751.96	27293.99
752.298	27127.66
752.636	27187.1
752.975	27125.18
753.313	27024.84
753.651	27189.36
753.989	26971.73
754.327	26929.93
754.666	26695.13
755.004	26891.96
755.342	26766.09
755.679	26730.84
756.017	26577.17
756.355	26734
756.693	26508.24
757.031	26564.97
757.368	26373.11
757.706	26357.29
758.044	26255.59
758.381	26358.87
758.719	26120.01
759.056	26232.77
759.394	26007.92
759.731	25953.46
