Data from hue_50_FLMS001491_61.txt Node
Date: Mon Feb 06 15:10:44 GMT 2017
User: dcchb
Spectrometer: FLMS00149
Trigger mode: 0
Integration Time (sec): 2.000000E-2
Scans to average: 10
Electric dark correction enabled: true
Nonlinearity correction enabled: false
Boxcar width: 0
XAxis mode: Wavelengths
Number of Pixels in Spectrum: 2048
>>>>>Begin Spectral Data<<<<<
341.393	-0.42
341.776	-0.42
342.16	-0.42
342.543	-63.02
342.927	-67.09
343.31	-72.06
343.693	-72.06
344.077	-60.08
344.46	-56.47
344.843	-58.28
345.226	-36.13
345.61	-25.28
345.993	-27.32
346.376	3.64
346.759	26.47
347.142	12.23
347.525	48.61
347.908	47.48
348.291	74.6
348.674	94.72
349.057	99.91
349.44	110.31
349.823	151.21
350.206	148.05
350.588	192.34
350.971	213.13
351.354	225.56
351.737	249.51
352.119	244.99
352.502	264.65
352.884	267.37
353.267	282.73
353.65	294.71
354.032	306.91
354.414	301.72
354.797	301.49
355.179	327.48
355.562	333.8
355.944	332
356.326	322.05
356.709	346.69
357.091	347.59
357.473	357.98
357.855	336.29
358.238	329.06
358.62	325.67
359.002	338.32
359.384	343.07
359.766	330.19
360.148	340.58
360.53	351.43
360.912	347.36
361.294	358.21
361.676	329.29
362.057	338.32
362.439	341.49
362.821	321.38
363.203	327.25
363.584	323.41
363.966	316.4
364.348	325.22
364.729	312.79
365.111	319.79
365.493	333.8
365.874	317.08
366.256	328.61
366.637	319.12
367.019	326.57
367.4	317.99
367.781	322.73
368.163	304.2
368.544	315.95
368.925	328.38
369.306	320.47
369.688	311.43
370.069	307.82
370.45	339
370.831	329.51
371.212	315.73
371.593	322.96
371.974	328.61
372.355	311.43
372.736	332.45
373.117	298.55
373.498	327.03
373.879	316.4
374.26	357.31
374.641	320.25
375.021	330.64
375.402	335.84
375.783	325.67
376.163	339.91
376.544	331.09
376.925	327.03
377.305	326.57
377.686	327.7
378.066	311.43
378.447	305.78
378.827	331.77
379.208	352.56
379.588	338.78
379.968	341.94
380.349	352.11
380.729	348.72
381.109	333.13
381.489	319.34
381.87	348.27
382.25	329.29
382.63	324.54
383.01	353.01
383.39	335.61
383.77	331.09
384.15	329.06
384.53	345.1
384.91	354.6
385.29	342.62
385.67	340.58
386.049	335.61
386.429	332.9
386.809	327.7
387.189	339.45
387.568	356.63
387.948	363.41
388.328	355.05
388.707	347.59
389.087	353.01
389.466	375.39
389.846	358.66
390.225	358.44
390.605	383.52
390.984	358.66
391.363	355.95
391.743	349.4
392.122	344.2
392.501	366.57
392.881	375.16
393.26	361.6
393.639	367.02
394.018	369.28
394.397	352.11
394.776	366.35
395.155	391.2
395.534	381.71
395.913	381.26
396.292	357.08
396.671	393.46
397.05	376.52
397.429	373.35
397.808	386.01
398.186	395.27
398.565	390.53
398.944	366.12
399.323	413.12
399.701	372.22
400.08	400.24
400.458	397.31
400.837	368.15
401.215	378.78
401.594	401.6
401.972	404.99
402.351	409.06
402.729	400.92
403.107	407.48
403.486	391.2
403.864	400.7
404.242	406.8
404.62	394.37
404.999	407.25
405.377	409.73
405.755	413.58
406.133	425.1
406.511	416.06
406.889	417.19
407.267	416.29
407.645	419.68
408.023	399.34
408.401	424.65
408.779	432.11
409.156	428.49
409.534	419.23
409.912	446.8
410.29	425.55
410.667	414.03
411.045	445.89
411.422	439.11
411.8	446.34
412.178	423.75
412.555	450.86
412.933	426.68
413.31	444.08
413.687	453.58
414.065	467.13
414.442	463.07
414.819	466
415.197	443.41
415.574	476.63
415.951	475.95
416.328	487.47
416.705	483.41
417.082	470.3
417.46	503.29
417.837	483.18
418.214	486.12
418.591	471.2
418.967	481.15
419.344	478.66
419.721	504.42
420.098	499.68
420.475	488.6
420.852	507.59
421.228	501.03
421.605	509.85
421.982	526.57
422.358	516.85
422.735	506.68
423.111	513.24
423.488	505.1
423.864	530.64
424.241	498.55
424.617	520.47
424.994	520.24
425.37	526.34
425.746	522.5
426.123	541.26
426.499	526.57
426.875	540.13
427.251	558.88
427.627	548.04
428.003	553.01
428.379	558.21
428.756	551.88
429.132	562.73
429.507	550.97
429.883	556.85
430.259	569.96
430.635	580.35
431.011	567.24
431.387	589.17
431.763	581.71
432.138	608.83
432.514	585.1
432.89	605.66
433.265	598.43
433.641	587.81
434.016	618.54
434.392	625.32
434.767	620.35
435.143	632.78
435.518	626
435.894	614.93
436.269	637.53
436.644	644.31
437.02	655.6
437.395	673.23
437.77	672.1
438.145	657.64
438.52	667.58
438.895	653.12
439.271	696.06
439.646	688.6
440.021	668.49
440.395	694.25
440.77	679.33
441.145	703.74
441.52	682.04
441.895	673
442.27	711.2
442.645	696.28
443.019	716.85
443.394	722.95
443.769	708.94
444.143	734.47
444.518	728.37
444.892	709.84
445.267	749.39
445.641	727.69
446.016	753.23
446.39	685.89
446.764	745.09
447.139	745.32
447.513	750.74
447.887	736.96
448.262	756.17
448.636	776.05
449.01	760.46
449.384	757.07
449.758	770.63
450.132	775.15
450.506	775.38
450.88	805.66
451.254	809.95
451.628	811.31
452.002	818.54
452.376	808.14
452.75	822.61
453.123	825.32
453.497	813.57
453.871	828.26
454.244	849.27
454.618	872.1
454.992	858.99
455.365	841.36
455.739	867.58
456.112	860.57
456.486	900.8
456.859	898.08
457.232	934.24
457.606	911.19
457.979	929.72
458.352	955.26
458.725	950.74
459.099	934.92
459.472	956.84
459.845	970.17
460.218	984.64
460.591	992.09
460.964	983.51
461.337	1023.28
461.71	1019.21
462.083	1047.91
462.456	1045.88
462.829	1031.64
463.201	1061.7
463.574	1100.79
463.947	1122.71
464.32	1123.39
464.692	1108.02
465.065	1106.67
465.438	1139.43
465.81	1158.42
466.183	1152.99
466.555	1227.34
466.928	1237.28
467.3	1197.96
467.672	1250.84
468.045	1262.37
468.417	1275.02
468.789	1297.17
469.161	1326.32
469.534	1308.69
469.906	1378.98
470.278	1406.32
470.65	1374
471.022	1420.33
471.394	1471.4
471.766	1478.63
472.138	1511.63
472.51	1560.44
472.882	1578.29
473.253	1634.11
473.625	1648.12
473.997	1684.73
474.369	1727.67
474.74	1747.1
475.112	1797.27
475.484	1851.05
475.855	1905.51
476.227	1915.68
476.598	1971.28
476.97	2040.43
477.341	2091.95
477.713	2174.21
478.084	2182.57
478.455	2291.04
478.827	2322.45
479.198	2399.29
479.569	2433.41
479.94	2496.91
480.311	2575.78
480.682	2705.04
481.053	2756.34
481.424	2868.2
481.795	2932.38
482.166	2952.04
482.537	3081.53
482.908	3176.89
483.279	3315.65
483.65	3394.74
484.021	3502.54
484.391	3604.91
484.762	3681.74
485.133	3760.61
485.503	3883.32
485.874	4000.83
486.244	4095.97
486.615	4236.08
486.985	4339.35
487.356	4503.19
487.726	4621.83
488.097	4780.92
488.467	4837.64
488.837	5008.26
489.207	5162.83
489.578	5309.72
489.948	5391.07
490.318	5532.99
490.688	5635.59
491.058	5772.53
491.428	5987.89
491.798	6102.47
492.168	6264.95
492.538	6358.73
492.908	6569.8
493.278	6709.46
493.648	6780.41
494.017	6931.82
494.387	7065.15
494.757	7224.02
495.126	7400.96
495.496	7531.13
495.866	7628.98
496.235	7913.94
496.605	7978.12
496.974	8080.27
497.344	8263.31
497.713	8392.35
498.082	8480.71
498.452	8685
498.821	8764.09
499.19	8885.67
499.559	9129.96
499.928	9188.94
500.298	9363.62
500.667	9552.09
501.036	9524.75
501.405	9727.46
501.774	9809.94
502.143	9991.63
502.512	10113.66
502.88	10234.56
503.249	10347.33
503.618	10425.52
503.987	10634.78
504.356	10715.68
504.724	10775.34
505.093	10941.89
505.462	11018.5
505.83	11130.36
506.199	11296
506.567	11474.08
506.936	11532.61
507.304	11695.99
507.672	11833.62
508.041	11904.8
508.409	12048.75
508.777	12202.65
509.145	12278.58
509.514	12408.74
509.882	12488.51
510.25	12625.23
510.618	12709.07
510.986	12817.54
511.354	12996.75
511.722	13038.78
512.09	13256.4
512.458	13263.41
512.826	13493.01
513.193	13578.2
513.561	13596.05
513.929	13760.34
514.297	13905.43
514.664	14029.04
515.032	14038.08
515.4	14158.3
515.767	14282.82
516.135	14467.22
516.502	14405.3
516.869	14663.37
517.237	14747.21
517.604	14751.96
517.972	14883.48
518.339	15026.53
518.706	15113.98
519.073	15098.39
519.44	15344.71
519.808	15572.27
520.175	15601.43
520.542	15669.67
520.909	15877.12
521.276	15854.07
521.643	16010.91
522.009	16179.26
522.376	16300.16
522.743	16313.27
523.11	16571.57
523.477	16755.52
523.843	16817.44
524.21	16954.84
524.577	17022.18
524.943	17058.56
525.31	17254.04
525.676	17470.3
526.043	17561.6
526.409	17779
526.776	17877.07
527.142	17885.89
527.508	17989.61
527.874	18169.95
528.241	18202.94
528.607	18297.4
528.973	18576.94
529.339	18574.46
529.705	18776.03
530.071	18902.36
530.437	18915.69
530.803	19098.74
531.169	19207.21
531.535	19162.69
531.901	19261.67
532.267	19353.19
532.632	19477.93
532.998	19665.73
533.364	19697.59
533.73	19845.16
534.095	19933.06
534.461	20078.82
534.826	20117.47
535.192	20205.37
535.557	20257.12
535.923	20220.97
536.288	20279.5
536.653	20515.65
537.019	20449.43
537.384	20573.95
537.749	20658.02
538.114	20790.89
538.479	20790.44
538.845	20941.85
539.21	20848.52
539.575	21047.84
539.94	21134.61
540.305	21274.95
540.67	21224.1
541.034	21299.81
541.399	21453.02
541.764	21470.88
542.129	21551.33
542.494	21637.2
542.858	21767.37
543.223	21803.97
543.587	21963.07
543.952	21832.22
544.316	21956.51
544.681	22074.48
545.045	22205.32
545.41	22342.72
545.774	22311.31
546.138	22421.36
546.503	22408.48
546.867	22471.3
547.231	22700.67
547.595	22655.93
547.959	22828.13
548.324	22853.89
548.688	22936.83
549.052	22932.53
549.416	23011.4
549.779	23107.22
550.143	23145.41
550.507	23357.83
550.871	23369.81
551.235	23250.04
551.599	23672.17
551.962	23681.44
552.326	23820.64
552.689	23869.46
553.053	23798.5
553.417	23877.59
553.78	24113.74
554.143	24058.6
554.507	24186.74
554.87	24254.31
555.234	24470.35
555.597	24356.22
555.96	24486.84
556.323	24518.71
556.686	24704.69
557.05	24817
557.413	24783.33
557.776	24911.46
558.139	25073.72
558.502	25172.02
558.865	25150.55
559.228	25438.68
559.59	25435.52
559.953	25471.67
560.316	25698.56
560.679	25729.75
561.041	25890.42
561.404	26002.96
561.767	26063.3
562.129	26105.78
562.492	26341.93
562.854	26331.09
563.217	26403.4
563.579	26553
563.941	26675.71
564.304	26827.35
564.666	27031.63
565.028	26975.82
565.39	26936.95
565.753	27185.98
566.115	27357.05
566.477	27462.81
566.839	27610.15
567.201	27651.96
567.563	27729.02
567.925	27857.15
568.287	27965.85
568.648	28030.48
569.01	28167.65
569.372	28299.17
569.734	28257.82
570.095	28465.49
570.457	28638.37
570.819	28597.02
571.18	28748.42
571.542	28889.66
571.903	28900.29
572.265	29074.07
572.626	29141.41
572.987	29159.04
573.349	29418.24
573.71	29475.64
574.071	29357.22
574.432	29593.6
574.794	29918.56
575.155	29873.37
575.516	29731.68
575.877	30034.27
576.238	30167.14
576.599	30365.78
576.96	30331.89
577.32	30463.18
577.681	30603.97
578.042	30626.12
578.403	30778.65
578.763	30820.69
579.124	30979.55
579.485	31170.28
579.845	31232.2
580.206	31386.55
580.566	31383.61
580.927	31468.35
581.287	31676.71
581.648	31593.55
582.008	32017.94
582.368	32003.25
582.728	32122.12
583.089	32196.24
583.449	32243.93
583.809	32310.59
584.169	32471.04
584.529	32559.17
584.889	32977.01
585.249	32913.97
585.609	32790.58
585.969	33074.41
586.329	33160.29
586.688	33370.68
587.048	33424.23
587.408	33575.42
587.768	33717.79
588.127	33794.62
588.487	33786.26
588.846	34201.39
589.206	33881.62
589.565	34180.6
589.925	34413.59
590.284	34323.42
590.643	34589.18
591.003	34738.32
591.362	34989.16
591.721	34909.39
592.08	35025.55
592.44	35304.64
592.799	35254.92
593.158	35251.53
593.517	35467.57
593.876	35592.99
594.235	35625.31
594.593	35777.84
594.952	36011.28
595.311	35856.49
595.67	36185.74
596.029	36388.9
596.387	36518.62
596.746	36594.32
597.104	36511.84
597.463	36567.88
597.822	36810.59
598.18	36673.19
598.538	36733.53
598.897	37088.09
599.255	37006.06
599.613	37617.8
599.972	37381.87
600.33	37512.71
600.688	37460.06
601.046	37586.84
601.404	37934.62
601.762	37975.98
602.12	38150.89
602.478	38211.23
602.836	38263.65
603.194	38105.92
603.552	38408.28
603.91	38283.54
604.268	38520.15
604.625	38498.9
604.983	38697.77
605.341	38605.57
605.698	38831.78
606.056	39015.5
606.413	38992.22
606.771	39192.67
607.128	39238.09
607.485	39247.58
607.843	39208.49
608.2	39419.56
608.557	39550.63
608.914	39573
609.272	39902.48
609.629	39823.84
609.986	40050.5
610.343	39835.37
610.7	40066.55
611.057	40248.24
611.414	40172.53
611.771	40323.04
612.127	40338.18
612.484	40436.25
612.841	40688
613.198	40516.48
613.554	40584.05
613.911	40836.02
614.267	40919.4
614.624	41032.4
614.98	41050.47
615.337	41126.18
615.693	41207.53
616.05	41115.56
616.406	41457.7
616.762	41500.18
617.118	41412.05
617.475	41341.54
617.831	41514.19
618.187	41713.96
618.543	41715.09
618.899	41900.17
619.255	42030.11
619.611	42012.71
619.967	42044.57
620.323	42187.17
620.678	42116.66
621.034	41959.38
621.39	42097.45
621.746	42096.77
622.101	42587.16
622.457	42186.49
622.812	42331.34
623.168	42504.9
623.523	42505.8
623.879	42596.87
624.234	42200.73
624.589	42560.94
624.945	42522.3
625.3	42675.06
625.655	42645.23
626.01	42567.04
626.365	42711
626.72	42764.1
627.075	42724.1
627.43	42572.24
627.785	42593.48
628.14	42721.39
628.495	42669.64
628.85	42680.26
629.205	42627.83
629.559	42972.91
629.914	42686.82
630.269	42702.63
630.623	42643.88
630.978	42619.02
631.332	42803.2
631.687	42872.35
632.041	42602.3
632.396	42775.85
632.75	42665.12
633.104	42649.08
633.459	42492.7
633.813	42457.67
634.167	42447.95
634.521	42555.29
634.875	42555.52
635.229	42473.04
635.583	42441.62
635.937	42423.77
636.291	42423.55
636.645	42306.26
636.999	42306.26
637.352	42516.42
637.706	42221.97
638.06	42394.17
638.413	42355.98
638.767	42185.59
639.121	42337.22
639.474	42004.12
639.828	42097.9
640.181	42169.09
640.534	42140.16
640.888	41943.11
641.241	42034.86
641.594	42054.52
641.947	42152.59
642.301	42021.3
642.654	42063.78
643.007	41861.75
643.36	41991.47
643.713	41849.55
644.066	42062.43
644.419	41739.27
644.771	41485.94
645.124	41170.25
645.477	41131.83
645.83	40918.05
646.182	40867.65
646.535	40614.33
646.888	40573.42
647.24	40412.75
647.593	40769.13
647.945	40703.14
648.298	40386.31
648.65	40499.08
649.002	40274.22
649.355	40386.54
649.707	40466.99
650.059	40567.55
650.411	40979.97
650.763	41123.24
651.115	41422.67
651.467	41364.82
651.819	41337.25
652.171	41233.75
652.523	41173.86
652.875	41140.19
653.227	40957.14
653.578	41219.96
653.93	41172.05
654.282	41037.59
654.633	40939.29
654.985	41070.36
655.337	41018.38
655.688	40974.32
656.039	41089.8
656.391	40720.54
656.742	40855.9
657.094	40796.92
657.445	40931.83
657.796	40977.03
658.147	40785.85
658.498	40862.23
658.849	40810.25
659.2	40668.56
659.551	40637.83
659.902	40814.32
660.253	40777.94
660.604	40798.96
660.955	40563.48
661.306	40747.43
661.656	40596.25
662.007	40647.1
662.358	40612.29
662.708	40665.17
663.059	40672.18
663.409	40419.08
663.76	40685.96
664.11	40670.15
664.461	40674.21
664.811	40620.88
665.161	40693.42
665.511	40684.16
665.862	40630.6
666.212	40677.38
666.562	40664.27
666.912	40538.4
667.262	40374.33
667.612	40450.49
667.962	40560.77
668.312	40516.7
668.662	40709.01
669.011	40470.6
669.361	40390.15
669.711	40401.23
670.06	40389.93
670.41	40241.91
670.76	40350.38
671.109	40485.52
671.459	40274.68
671.808	40220.21
672.157	40321.91
672.507	40189.25
672.856	40123.04
673.205	40240.78
673.554	40368.01
673.904	40292.98
674.253	40298.18
674.602	40290.95
674.951	39570.29
675.3	39553.34
675.649	40088.24
675.998	40039.2
676.346	40060.44
676.695	40254.11
677.044	39806.89
677.393	40057.28
677.741	40087.34
678.09	39928.02
678.438	39946.32
678.787	40015.47
679.135	39944.06
679.484	39606.22
679.832	39855.7
680.181	39476.96
680.529	39708.36
680.877	39620.91
681.225	39514.24
681.573	39811.86
681.922	39430.4
682.27	39397.18
682.618	39519.44
682.966	39266.34
683.314	39278.32
683.661	39212.33
684.009	39075.61
684.357	39009.17
684.705	38957.2
685.053	38957.2
685.4	38941.83
685.748	38851.89
686.095	38719.69
686.443	38714.04
686.79	38591.33
687.138	38660.48
687.485	38666.36
687.832	38481.05
688.18	38606.92
688.527	38426.81
688.874	38205.8
689.221	38333.03
689.568	38113.15
689.915	38061.4
690.262	38001.29
690.609	37887.39
690.956	37786.61
691.303	37670.22
691.65	37726.49
691.997	37597.46
692.344	37405.37
692.69	37419.61
693.037	37277.24
693.383	37041.31
693.73	37196.11
694.077	36925.16
694.423	36910.02
694.769	36623.25
695.116	36693.07
695.462	36705.96
695.808	36511.84
696.155	36550.48
696.501	36423.93
696.847	36325.4
697.193	36125.18
697.539	36293.54
697.885	35944.39
698.231	36040.44
698.577	35816.04
698.923	35914.79
699.269	35688.13
699.614	35514.8
699.96	35400.68
700.306	35591.41
700.651	35358.87
700.997	35422.6
701.342	35202.94
701.688	35144.41
702.033	35097.18
702.379	35003.63
702.724	34924.08
703.069	35035.27
703.415	34526.8
703.76	34627.14
704.105	34684.31
704.45	34510.53
704.795	34303.31
705.14	34169.3
705.485	34199.81
705.83	34058.12
706.175	34042.75
706.52	34043.2
706.865	33838.46
707.209	33797.78
707.554	33674.4
707.899	33825.13
708.243	33514.63
708.588	33540.16
708.932	33445.25
709.277	33366.16
709.621	33321.19
709.966	33155.31
710.31	33120.74
710.654	32937.92
710.998	33020.18
711.342	33071.7
711.687	32895.66
712.031	32751.71
712.375	32578.83
712.719	32631.71
713.063	32645.72
713.407	32762.78
713.75	32554.65
714.094	32453.19
714.438	32371.61
714.782	32363.02
715.125	32381.1
715.469	32370.02
715.812	32204.15
716.156	31936.82
716.499	31976.36
716.843	32051.84
717.186	31791.06
717.53	32017.94
717.873	31925.52
718.216	31921.45
718.559	31688.23
718.902	31539.31
719.246	31669.93
719.589	31513.78
719.932	31358.98
720.275	31290.5
720.617	31385.19
720.96	31300.45
721.303	31265.42
721.646	31329.83
721.989	31068.82
722.331	31196.04
722.674	31009.16
723.016	30946.33
723.359	30857.75
723.701	30954.69
724.044	30739.56
724.386	30636.06
724.729	30651.2
725.071	30536.63
725.413	30528.27
725.755	30552.22
726.097	30337.54
726.439	30333.92
726.782	30352.9
727.124	30530.3
727.465	30201.72
727.807	30272
728.149	30101.16
728.491	30146.35
728.833	30191.55
729.175	30023.87
729.516	30072.68
729.858	29891.9
730.199	29972.8
730.541	29887.15
730.882	29855.74
731.224	29876.53
731.565	29747.27
731.906	29698.46
732.248	29707.04
732.589	29587.05
732.93	29531.68
733.271	29546.37
733.612	29460.27
733.953	29470.89
734.294	29312.25
734.635	29217.57
734.976	29330.1
735.317	29082.65
735.658	29234.29
735.999	29078.36
736.339	29119.71
736.68	29156.32
737.021	28930.34
737.361	28931.7
737.702	29152.26
738.042	28973.5
738.383	28902.32
738.723	29009.43
739.063	28927.86
739.404	28820.51
739.744	28685.38
740.084	28691.48
740.424	28661.42
740.764	28678.37
741.104	28671.59
741.444	28431.6
741.784	28383.91
742.124	28495.1
742.464	28376.91
742.804	28376.23
743.143	28403.35
743.483	28400.19
743.823	28190.47
744.162	28124.26
744.502	28382.78
744.841	28097.37
745.181	28159.74
745.52	28161.77
745.86	28096.46
746.199	27926.07
746.538	27892.18
746.877	28016.92
747.216	27978.05
747.556	27895.79
747.895	27823.48
748.234	27723.82
748.573	27686.08
748.911	27638.4
749.25	27685.85
749.589	27508.23
749.928	27518.4
750.267	27568.12
750.605	27383.72
750.944	27410.15
751.283	27372.42
751.621	27306.65
751.96	27194.57
752.298	27145.53
752.636	27119.09
752.975	27094.46
753.313	26984.63
753.651	27062.82
753.989	26866.89
754.327	26828.7
754.666	26753.22
755.004	26824.18
755.342	26830.51
755.679	26716.84
756.017	26642.04
756.355	26712.32
756.693	26586
757.031	26562.27
757.368	26370.63
