Data from hue_30_FLMS001491_18.txt Node
Date: Mon Feb 06 15:04:50 GMT 2017
User: dcchb
Spectrometer: FLMS00149
Trigger mode: 0
Integration Time (sec): 2.000000E-2
Scans to average: 10
Electric dark correction enabled: true
Nonlinearity correction enabled: false
Boxcar width: 0
XAxis mode: Wavelengths
Number of Pixels in Spectrum: 2048
>>>>>Begin Spectral Data<<<<<
341.393	-17.9
341.776	-17.9
342.16	-17.9
342.543	-56.76
342.927	-72.81
343.31	-62.19
343.693	-61.96
344.077	-68.74
344.46	-43.43
344.843	-63.32
345.226	-27.16
345.61	-25.13
345.993	-21.28
346.376	-30.32
346.759	3.8
347.142	14.87
347.525	53.29
347.908	59.84
348.291	84.7
348.674	81.31
349.057	105.72
349.44	101.42
349.823	149.11
350.206	172.83
350.588	168.99
350.971	213.51
351.354	183.91
351.737	226.17
352.119	251.25
352.502	258.71
352.884	246.73
353.267	305.26
353.65	286.28
354.032	303.23
354.414	298.03
354.797	303
355.179	301.64
355.562	320.18
355.944	309.78
356.326	323.34
356.709	338.48
357.091	337.35
357.473	324.92
357.855	327.41
358.238	359.95
358.62	363.34
359.002	354.75
359.384	335.77
359.766	310.01
360.148	337.12
360.53	350.68
360.912	332.6
361.294	326.73
361.676	333.96
362.057	337.8
362.439	321.98
362.821	334.64
363.203	329.67
363.584	313.62
363.966	341.87
364.348	329.67
364.729	328.76
365.111	330.8
365.493	317.01
365.874	315.43
366.256	302.77
366.637	302.1
367.019	319.27
367.4	331.7
367.781	294.19
368.163	317.01
368.544	298.93
368.925	292.15
369.306	331.02
369.688	303
370.069	302.55
370.45	312.72
370.831	305.49
371.212	318.59
371.593	315.2
371.974	310.91
372.355	324.69
372.736	318.37
373.117	318.59
373.498	299.16
373.879	314.3
374.26	303.68
374.641	301.19
375.021	321.08
375.402	331.7
375.783	328.76
376.163	311.36
376.544	329.67
376.925	311.36
377.305	315.88
377.686	308.42
378.066	329.67
378.447	309.33
378.827	319.5
379.208	324.47
379.588	319.95
379.968	325.37
380.349	349.55
380.729	332.6
381.109	340.97
381.489	321.98
381.87	339.38
382.25	326.95
382.63	319.27
383.01	332.15
383.39	349.1
383.77	331.93
384.15	323.79
384.53	351.13
384.91	333.96
385.29	346.62
385.67	359.95
386.049	338.25
386.429	328.99
386.809	360.17
387.189	324.47
387.568	339.84
387.948	347.97
388.328	341.87
388.707	349.33
389.087	346.39
389.466	360.17
389.846	380.74
390.225	373.51
390.605	355.43
390.984	350.46
391.363	376.22
391.743	334.19
392.122	359.04
392.501	364.24
392.881	362.89
393.26	365.6
393.639	365.6
394.018	371.93
394.397	382.32
394.776	372.6
395.155	372.38
395.534	394.07
395.913	376.22
396.292	387.52
396.671	369.21
397.05	392.94
397.429	384.58
397.808	389.55
398.186	361.53
398.565	386.16
398.944	367.86
399.323	379.38
399.701	394.75
400.08	413.73
400.458	376.67
400.837	406.73
401.215	402.21
401.594	406.27
401.972	379.83
402.351	393.39
402.729	401.53
403.107	369.21
403.486	386.16
403.864	412.38
404.242	409.21
404.62	396.33
404.999	410.12
405.377	385.71
405.755	399.5
406.133	412.83
406.511	400.4
406.889	408.99
407.267	442.66
407.645	426.16
408.023	418.7
408.401	409.89
408.779	440.4
409.156	447.86
409.534	434.75
409.912	408.08
410.29	437.01
410.667	431.13
411.045	438.36
411.422	437.01
411.8	466.61
412.178	457.57
412.555	436.56
412.933	449.66
413.31	464.8
413.687	447.18
414.065	490.11
414.442	474.3
414.819	481.75
415.197	473.84
415.574	486.05
415.951	496.44
416.328	479.04
416.705	490.79
417.082	474.97
417.46	481.75
417.837	489.66
418.214	485.37
418.591	502.32
418.967	505.48
419.344	481.98
419.721	493.28
420.098	501.19
420.475	517.46
420.852	516.33
421.228	517.91
421.605	530.79
421.982	512.94
422.358	531.92
422.735	509.55
423.111	522.43
423.488	524.46
423.864	549.77
424.241	544.12
424.617	535.08
424.994	535.08
425.37	540.51
425.746	537.12
426.123	540.51
426.499	558.36
426.875	580.28
427.251	543.9
427.627	562.65
428.003	585.03
428.379	564.46
428.756	608.76
429.132	571.92
429.507	601.3
429.883	589.32
430.259	585.7
430.635	610.34
431.011	597.23
431.387	616.21
431.763	628.19
432.138	607.63
432.514	622.54
432.89	645.82
433.265	623.67
433.641	665.93
434.016	653.5
434.392	633.39
434.767	670.22
435.143	649.43
435.518	664.35
435.894	676.1
436.269	677.91
436.644	680.62
437.02	674.97
437.395	705.7
437.77	696.44
438.145	698.02
438.52	707.74
438.895	700.28
439.271	706.38
439.646	739.37
440.021	704.57
440.395	721.52
440.77	728.3
441.145	727.85
441.52	734.4
441.895	755.42
442.27	755.42
442.645	777.79
443.019	771.91
443.394	745.02
443.769	748.41
444.143	750.45
444.518	779.37
444.892	760.84
445.267	774.63
445.641	793.16
446.016	777.56
446.39	788.86
446.764	792.25
447.139	788.19
447.513	800.39
447.887	793.38
448.262	826.15
448.636	819.37
449.01	806.26
449.384	821.63
449.758	847.84
450.132	828.64
450.506	857.56
450.88	834.06
451.254	841.07
451.628	847.17
452.002	880.61
452.376	883.55
452.75	867.96
453.123	886.71
453.497	874.96
453.871	904.79
454.244	905.47
454.618	912.02
454.992	918.58
455.365	930.1
455.739	948.18
456.112	937.79
456.486	954.73
456.859	983.66
457.232	991.57
457.606	968.75
457.979	987.28
458.352	1043.55
458.725	1020.04
459.099	1019.14
459.472	1050.78
459.845	1035.64
460.218	1051.91
460.591	1064.11
460.964	1088.52
461.337	1091.91
461.71	1096.2
462.083	1115.86
462.456	1127.61
462.829	1130.55
463.201	1108.63
463.574	1144.79
463.947	1191.11
464.32	1175.07
464.692	1205.35
465.065	1187.72
465.438	1196.08
465.81	1204.22
466.183	1241.28
466.555	1258.46
466.928	1264.11
467.3	1294.39
467.672	1286.93
468.045	1339.13
468.417	1313.82
468.789	1333.26
469.161	1356.98
469.534	1384.78
469.906	1408.06
470.278	1424.55
470.65	1460.48
471.022	1460.48
471.394	1481.73
471.766	1504.32
472.138	1516.53
472.51	1552.23
472.882	1596.98
473.253	1606.24
473.625	1648.73
473.997	1660.03
474.369	1662.74
474.74	1686.01
475.112	1734.6
475.484	1757.2
475.855	1819.34
476.227	1797.65
476.598	1922.84
476.97	1888.72
477.341	1936.63
477.713	1956.74
478.084	1988.61
478.455	2048.27
478.827	2067.25
479.198	2148.38
479.569	2119.22
479.94	2226.11
480.311	2243.74
480.682	2294.36
481.053	2311.99
481.424	2377.75
481.795	2467.69
482.166	2461.81
482.537	2504.52
482.908	2599.66
483.279	2608.48
483.65	2686.67
484.021	2699.77
484.391	2761.92
484.762	2820.22
485.133	2869.03
485.503	2902.03
485.874	2970.5
486.244	3019.77
486.615	3111.06
486.985	3136.15
487.356	3231.51
487.726	3231.29
488.097	3363.03
488.467	3352.41
488.837	3447.55
489.207	3500.2
489.578	3576.36
489.948	3574.1
490.318	3656.36
490.688	3706.07
491.058	3751.5
491.428	3820.87
491.798	3919.18
492.168	3969.57
492.538	4012.96
492.908	4059.96
493.278	4115.1
493.648	4189.45
494.017	4212.73
494.387	4269.68
494.757	4315.32
495.126	4363.68
495.496	4426.96
495.866	4456.11
496.235	4498.14
496.605	4544.47
496.974	4565.26
497.344	4679.16
497.713	4731.13
498.082	4800.51
498.452	4817.91
498.821	4847.06
499.19	4827.4
499.559	4945.14
499.928	4941.3
500.298	5027.17
500.667	5047.73
501.036	5005.48
501.405	5138.13
501.774	5073.72
502.143	5186.94
502.512	5147.62
502.88	5240.05
503.249	5295.41
503.618	5297.22
503.987	5307.39
504.356	5381.06
504.724	5398.91
505.093	5452.92
505.462	5511.23
505.83	5526.82
506.199	5582.18
506.567	5629.87
506.936	5629.19
507.304	5731.33
507.672	5721.39
508.041	5807.26
508.409	5779.47
508.777	5813.82
509.145	5832.35
509.514	5895.85
509.882	5925.23
510.25	5917.99
510.618	6000.93
510.986	6004.09
511.354	6070.53
511.722	6117.54
512.09	6063.75
512.458	6123.19
512.826	6162.73
513.193	6187.59
513.561	6257.65
513.929	6301.49
514.297	6319.11
514.664	6370.86
515.032	6394.82
515.4	6442.05
515.767	6453.57
516.135	6489.05
516.502	6400.69
516.869	6562.5
517.237	6563.4
517.604	6568.82
517.972	6641.59
518.339	6649.27
518.706	6717.97
519.073	6664.19
519.44	6666.9
519.808	6787.35
520.175	6781.93
520.542	6867.57
520.909	6898.53
521.276	6883.17
521.643	6951.19
522.009	6967.23
522.376	6978.98
522.743	7104.86
523.11	7138.3
523.477	7122.26
523.843	7218.98
524.21	7275.7
524.577	7327.67
524.943	7351.4
525.31	7381.01
525.676	7377.16
526.043	7458.97
526.409	7505.07
526.776	7560.66
527.142	7503.26
527.508	7554.79
527.874	7638.63
528.241	7684.28
528.607	7722.47
528.973	7822.35
529.339	7802.01
529.705	7879.3
530.071	7912.74
530.437	7900.99
530.803	7951.61
531.169	8049.01
531.535	8042.46
531.901	8052.63
532.267	8090.82
532.632	8125.85
532.998	8188.44
533.364	8183.02
533.73	8206.3
534.095	8263.92
534.461	8310.25
534.826	8376.91
535.192	8409
535.557	8490.36
535.923	8435.44
536.288	8481.09
536.653	8464.14
537.019	8550.69
537.384	8550.69
537.749	8609.22
538.114	8602.44
538.479	8687.86
538.845	8752.5
539.21	8735.1
539.575	8732.61
539.94	8748.2
540.305	8877.01
540.67	8884.7
541.034	8830.01
541.399	8851.48
541.764	8978.93
542.129	8994.3
542.494	9062.77
542.858	9071.81
543.223	9104.58
543.587	9135.99
543.952	9165.82
544.316	9270.22
544.681	9239.26
545.045	9344.57
545.41	9331.01
545.774	9325.59
546.138	9398.58
546.503	9377.34
546.867	9472.93
547.231	9449.65
547.595	9561.51
547.959	9579.37
548.324	9529.42
548.688	9581.63
549.052	9707.5
549.416	9670.21
549.779	9711.79
550.143	9774.16
550.507	9808.97
550.871	9805.35
551.235	9816.87
551.599	9853.94
551.962	9927.15
552.326	9933.26
552.689	10002.86
553.053	9934.61
553.417	10001.95
553.78	10035.17
554.143	10123.08
554.507	10148.39
554.87	10181.61
555.234	10215.06
555.597	10166.02
555.96	10152.91
556.323	10253.7
556.686	10291.21
557.05	10366.69
557.413	10337.76
557.776	10403.53
558.139	10508.61
558.502	10521.04
558.865	10519.23
559.228	10541.15
559.59	10555.61
559.953	10640.58
560.316	10744.53
560.679	10725.1
561.041	10749.96
561.404	10802.16
561.767	10927.13
562.129	10772.78
562.492	10948.6
562.854	10946.34
563.217	11010.29
563.579	10955.38
563.941	11089.38
564.304	11031.08
564.666	11210.28
565.028	11165.54
565.39	11208.02
565.753	11271.53
566.115	11345.87
566.477	11388.58
566.839	11409.6
567.201	11402.37
567.563	11480.33
567.925	11419.77
568.287	11541.58
568.648	11528.47
569.01	11614.79
569.372	11633.1
569.734	11688.46
570.095	11723.04
570.457	11738.63
570.819	11789.48
571.18	11816.14
571.542	11908.12
571.903	11971.17
572.265	12005.29
572.626	12110.15
572.987	12128.45
573.349	12221.11
573.71	12236.92
574.071	12258.39
574.432	12429.01
574.794	12594.43
575.155	12506.07
575.516	12608.67
575.877	12619.74
576.238	12704.48
576.599	12837.13
576.96	12880.97
577.32	12957.36
577.681	13099.05
578.042	13247.07
578.403	13280.96
578.763	13379.04
579.124	13475.54
579.485	13549.66
579.845	13714.17
580.206	13755.08
580.566	13895.41
580.927	13986.26
581.287	14207.95
581.648	14221.96
582.008	14511.21
582.368	14569.29
582.728	14760.93
583.089	14928.15
583.449	15046.79
583.809	15246.79
584.169	15417.18
584.529	15641.58
584.889	15833.89
585.249	15873.89
585.609	16077.73
585.969	16373.09
586.329	16521.33
586.688	16771.95
587.048	16915.22
587.408	17177.36
587.768	17378.48
588.127	17530.8
588.487	17805.37
588.846	18041.29
589.206	18127.62
589.565	18377.33
589.925	18705
590.284	18888.5
590.643	19182.73
591.003	19435.38
591.362	19646.45
591.721	19898.42
592.08	20119.43
592.44	20404.17
592.799	20687.55
593.158	20881.67
593.517	21198.72
593.876	21501.99
594.235	21650.01
594.593	21900.62
594.952	22210.9
595.311	22379.03
595.67	22650.44
596.029	23107.82
596.387	23235.96
596.746	23570.86
597.104	23793.23
597.463	23944.19
597.822	24249.26
598.18	24477.05
598.538	24588.92
598.897	25091.95
599.255	25048.56
599.613	25580.75
599.972	25685.61
600.33	26027.75
600.688	26086.28
601.046	26468.41
601.404	26665.7
601.762	26862.75
602.12	27181.84
602.478	27401.5
602.836	27573.02
603.194	27707.03
603.552	28019.79
603.91	28083.29
604.268	28365.99
604.625	28616.15
604.983	28852.08
605.341	28962.13
605.698	29330.49
606.056	29505.4
606.413	29641.66
606.771	30015.44
607.128	30129.79
607.485	30231.03
607.843	30282.1
608.2	30763.44
608.557	30964.57
608.914	31124.79
609.272	31299.93
609.629	31426.25
609.986	31774.49
610.343	31773.36
610.7	32254.93
611.057	32137.19
611.414	32311.2
611.771	32417.86
612.127	32641.59
612.484	32848.81
612.841	33077.28
613.198	33078.64
613.554	33209.03
613.911	33512.3
614.267	33591.84
614.624	33705.29
614.98	33874.77
615.337	34147.08
615.693	34155.22
616.05	34144.82
616.406	34522.67
616.762	34575.77
617.118	34507.75
617.475	34687.86
617.831	34935.54
618.187	35188.18
618.543	35086.94
618.899	35453.94
619.255	35450.55
619.611	35452.13
619.967	35628.63
620.323	35804.67
620.678	35854.16
621.034	35775.06
621.39	35850.99
621.746	35909.97
622.101	36287.37
622.457	36127.6
622.812	36189.06
623.168	36525.1
623.523	36515.61
623.879	36690.97
624.234	36398.32
624.589	36726.22
624.945	36945.2
625.3	36872.66
625.655	36875.15
626.01	36998.31
626.365	37074.46
626.72	37120.56
627.075	37118.53
627.43	37058.64
627.785	37198.98
628.14	37155.14
628.495	37246.44
628.85	37319.43
629.205	37196.27
629.559	37503.6
629.914	37205.31
630.269	37429.71
630.623	37358.52
630.978	37375.02
631.332	37537.05
631.687	37688.01
632.041	37334.12
632.396	37582.02
632.75	37573.66
633.104	37598.52
633.459	37485.53
633.813	37379.77
634.167	37470.16
634.521	37582.02
634.875	37585.64
635.229	37531.85
635.583	37430.84
635.937	37424.74
636.291	37433.55
636.645	37410.95
636.999	37375.92
637.352	37405.3
637.706	37405.53
638.06	37555.58
638.413	37503.83
638.767	37379.31
639.121	37593.09
639.474	37294.12
639.828	37321.91
640.181	37385.19
640.534	37370.5
640.888	37408.47
641.241	37131.64
641.594	37291.41
641.947	37399.43
642.301	37231.97
642.654	37234.68
643.007	37276.27
643.36	37299.77
643.713	37235.81
644.066	37303.38
644.419	37161.24
644.771	36772.1
645.124	36606
645.477	36570.97
645.83	36315.84
646.182	36063.42
646.535	36034.04
646.888	36255.95
647.24	35996.53
647.593	36186.8
647.945	36138.44
648.298	35958.56
648.65	35912.23
649.002	35870.88
649.355	35988.39
649.707	36056.64
650.059	36129.86
650.411	36548.6
650.763	36609.62
651.115	36948.36
651.467	36963.96
651.819	36763.06
652.171	36712.66
652.523	36720.12
652.875	36676.28
653.227	36553.35
653.578	36795.83
653.93	36714.92
654.282	36638.32
654.633	36632.21
654.985	36647.36
655.337	36490.52
655.688	36525.78
656.039	36690.29
656.391	36514.25
656.742	36526.68
657.094	36516.74
657.445	36599.67
657.796	36603.97
658.147	36494.82
658.498	36538.21
658.849	36498.21
659.2	36465.21
659.551	36331.66
659.902	36440.58
660.253	36436.97
660.604	36421.37
660.955	36324.43
661.306	36527.81
661.656	36402.16
662.007	36359.91
662.358	36399.23
662.708	36391.77
663.059	36451.2
663.409	36304.54
663.76	36372.11
664.11	36413.46
664.461	36512.22
664.811	36443.52
665.161	36361.71
665.511	36259.12
665.862	36330.3
666.212	36355.39
666.562	36433.58
666.912	36375.5
667.262	36289.85
667.612	36241.26
667.962	36342.5
668.312	36292.34
668.662	36365.33
669.011	36344.99
669.361	36283.3
669.711	36078.11
670.06	36109.29
670.41	36083.75
670.76	36075.62
671.109	36213.69
671.459	36231.32
671.808	36073.13
672.157	36306.8
672.507	36012.34
672.856	35907.26
673.205	36094.15
673.554	36170.76
673.904	36055.28
674.253	36225.22
674.602	36063.42
674.951	35571.23
675.3	35377.11
675.649	35996.98
675.998	36018.45
676.346	35949.75
676.695	36051.44
677.044	35665.69
677.393	35839.47
677.741	35854.83
678.09	35775.74
678.438	35794.72
678.787	35766.02
679.135	35810.99
679.484	35525.35
679.832	35708.62
680.181	35476.99
680.529	35593.82
680.877	35556.08
681.225	35589.98
681.573	35683.99
681.922	35302.76
682.27	35257.79
682.618	35361.97
682.966	35166.49
683.314	35498.46
683.661	35159.26
684.009	34892.83
684.357	35000.17
684.705	34814.86
685.053	34971.92
685.4	34914.52
685.748	34689.67
686.095	34790.23
686.443	34692.83
686.79	34493.29
687.138	34697.12
687.485	34643.34
687.832	34485.6
688.18	34483.57
688.527	34285.61
688.874	34317.93
689.221	34262.11
689.568	34088.55
689.915	34098.72
690.262	34043.81
690.609	34130.13
690.956	33915.45
691.303	33921.78
691.65	33802.46
691.997	33748.67
692.344	33566.31
692.69	33550.94
693.037	33529.02
693.383	33262.59
693.73	33359.31
694.077	33264.62
694.423	33206.32
694.769	33239.54
695.116	32974.01
695.462	32958.87
695.808	32806.33
696.155	32997.06
696.501	32598.65
696.847	32676.39
697.193	32424.64
697.539	32551.19
697.885	32360.46
698.231	32257.41
698.577	32174.48
698.923	32218.55
699.269	31965.9
699.614	31897.2
699.96	31863.53
700.306	31852.68
700.651	31716.41
700.997	31722.74
701.342	31627.83
701.688	31577.66
702.033	31382.64
702.379	31346.7
702.724	31217.44
703.069	31353.71
703.415	30996.2
703.76	31113.94
704.105	31058.35
704.45	30903.55
704.795	30800.5
705.14	30691.35
705.485	30591.02
705.83	30495.65
706.175	30574.52
706.52	30464.92
706.865	30416.56
707.209	30332.27
707.554	30300.18
707.899	30395.99
708.243	30060.41
708.588	30161.88
708.932	29925.95
709.277	29961.88
709.621	30058.83
709.966	29803.24
710.31	29684.37
710.654	29471.05
710.998	29679.63
711.342	29719.63
711.687	29488.9
712.031	29367.55
712.375	29262.92
712.719	29384.72
713.063	29194.22
713.407	29356.47
713.75	29198.29
714.094	29331.84
714.438	29132.07
714.782	29108.57
715.125	28992.64
715.469	28892.31
715.812	28728.69
716.156	28689.6
716.499	28559.88
716.843	28785.87
717.186	28529.6
717.53	28648.7
717.873	28643.05
718.216	28555.14
718.559	28465.2
718.902	28181.14
719.246	28248.25
719.589	28151.08
719.932	28126.68
720.275	28180.01
720.617	28103.63
720.96	27960.58
721.303	28179.56
721.646	28150.18
721.989	27899.79
722.331	28005.55
722.674	27793.58
723.016	27884.87
723.359	27680.13
723.701	27842.39
724.044	27585.67
724.386	27480.82
724.729	27517.65
725.071	27369.63
725.413	27387.94
725.755	27408.5
726.097	27259.58
726.439	27266.36
726.782	27174.16
727.124	27410.08
727.465	27078.57
727.807	27207.6
728.149	27003.32
728.491	26970.55
728.833	27094.61
729.175	26953.6
729.516	26959.7
729.858	26824.34
730.199	26802.64
730.541	26785.92
730.882	26820.27
731.224	26927.84
731.565	26697.79
731.906	26583.44
732.248	26606.26
732.589	26646.26
732.93	26576.89
733.271	26563.33
733.612	26542.54
733.953	26572.14
734.294	26481.97
734.635	26311.81
734.976	26452.14
735.317	26286.95
735.658	26324.01
735.999	26192.49
736.339	26207.4
736.68	26283.79
737.021	26154.98
737.361	25935.32
737.702	26110.68
738.042	26094.19
738.383	25976.45
738.723	26017.58
739.063	25829.56
739.404	25890.12
739.744	25749.79
740.084	25789.79
740.424	25812.61
740.764	25796.57
741.104	25735.78
741.444	25692.39
741.784	25548.44
742.124	25578.04
742.464	25489
742.804	25497.14
743.143	25332.4
743.483	25485.39
743.823	25318.84
744.162	25359.52
744.502	25341.44
744.841	25180.54
745.181	25380.76
745.52	25150.03
745.86	25191.39
746.199	25182.35
746.538	25158.62
746.877	25268.22
747.216	25200.2
747.556	25054.89
747.895	25146.87
748.234	25031.16
748.573	24912.75
748.911	24934.22
749.25	24873.2
749.589	24837.95
749.928	24807.21
750.267	24707.56
750.605	24739.65
750.944	24642.25
751.283	24586.88
751.621	24624.17
751.96	24575.58
752.298	24472.31
752.636	24542.82
752.975	24362.71
753.313	24274.8
753.651	24477.73
753.989	24315.48
754.327	24196.16
754.666	24115.03
755.004	24129.04
755.342	24087.46
755.679	24160.45
756.017	23986.67
756.355	24176.95
756.693	23981.25
757.031	23968.59
757.368	23847.69
757.706	23674.82
758.044	23793.23
758.381	23828.26
758.719	23661.03
759.056	23573.12
