Data from hue_110_FLMS001491_00067.txt Node
Date: Tue Feb 07 17:01:40 GMT 2017
User: dcchb
Spectrometer: FLMS00149
Trigger mode: 0
Integration Time (sec): 2.000000E-2
Scans to average: 10
Electric dark correction enabled: true
Nonlinearity correction enabled: false
Boxcar width: 0
XAxis mode: Wavelengths
Number of Pixels in Spectrum: 2048
>>>>>Begin Spectral Data<<<<<
341.393	-15
341.776	-15
342.16	-15
342.543	-51.38
342.927	-66.98
343.31	-59.74
343.693	-77.14
344.077	-68.33
344.46	-52.51
344.843	-60.42
345.226	-22.68
345.61	-49.35
345.993	-33.98
346.376	12.8
346.759	18.22
347.142	11.21
347.525	36.75
347.908	63.42
348.291	81.72
348.674	79.69
349.057	120.36
349.44	130.99
349.823	122.85
350.206	159.69
350.588	195.84
350.971	195.84
351.354	220.93
351.737	226.12
352.119	242.62
352.502	283.75
352.884	279.68
353.267	289.17
353.65	297.76
354.032	293.69
354.414	306.12
354.797	317.87
355.179	331.43
355.562	326.69
355.944	348.83
356.326	328.04
356.709	331.66
357.091	329.85
357.473	324.88
357.855	340.7
358.238	324.2
358.62	348.38
359.002	320.58
359.384	336.86
359.766	322.39
360.148	341.15
360.53	336.4
360.912	325.78
361.294	324.2
361.676	337.53
362.057	328.95
362.439	351.54
362.821	344.54
363.203	319.23
363.584	319.68
363.966	316.07
364.348	310.64
364.729	310.64
365.111	330.75
365.493	323.07
365.874	311.32
366.256	314.03
366.637	325.1
367.019	290.98
367.4	311.09
367.781	309.06
368.163	321.04
368.544	312.9
368.925	300.92
369.306	317.42
369.688	305.67
370.069	301.6
370.45	303.18
370.831	326.91
371.212	303.41
371.593	344.54
371.974	297.53
372.355	304.54
372.736	317.65
373.117	325.78
373.498	326.91
373.879	331.43
374.26	315.16
374.641	319.91
375.021	306.57
375.402	300.02
375.783	311.09
376.163	305.22
376.544	313.35
376.925	319.91
377.305	324.43
377.686	319
378.066	330.75
378.447	312.9
378.827	344.09
379.208	335.73
379.588	336.18
379.968	327.36
380.349	349.28
380.729	334.6
381.109	322.39
381.489	337.31
381.87	332.79
382.25	331.88
382.63	331.43
383.01	342.73
383.39	353.8
383.77	340.47
384.15	333.69
384.53	346.12
384.91	359.91
385.29	377.98
385.67	322.39
386.049	374.82
386.429	360.13
386.809	341.38
387.189	366.23
387.568	349.28
387.948	382.5
388.328	337.99
388.707	367.82
389.087	349.96
389.466	366.46
389.846	363.52
390.225	376.4
390.605	377.31
390.984	392.67
391.363	361.04
391.743	369.85
392.122	372.79
392.501	365.1
392.881	381.83
393.26	373.24
393.639	381.37
394.018	387.93
394.397	371.88
394.776	398.32
395.155	396.74
395.534	402.16
395.913	388.61
396.292	407.59
396.671	382.5
397.05	398.1
397.429	382.28
397.808	380.02
398.186	400.13
398.565	391.54
398.944	374.59
399.323	400.58
399.701	416.18
400.08	416.85
400.458	406.23
400.837	404.42
401.215	416.85
401.594	417.53
401.972	421.6
402.351	418.66
402.729	435.61
403.107	436.29
403.486	421.83
403.864	425.67
404.242	421.37
404.62	422.95
404.999	429.06
405.377	422.95
405.755	427.02
406.133	407.36
406.511	439.9
406.889	446.68
407.267	449.17
407.645	456.4
408.023	435.38
408.401	466.57
408.779	442.62
409.156	452.33
409.534	433.8
409.912	469.06
410.29	486.68
410.667	459.11
411.045	479.45
411.422	471.99
411.8	482.61
412.178	465.89
412.555	489.39
412.933	473.35
413.31	510.41
413.687	487.36
414.065	478.55
414.442	487.13
414.819	498.21
415.197	509.05
415.574	500.92
415.951	528.49
416.328	518.77
416.705	516.74
417.082	537.08
417.46	541.14
417.837	528.49
418.214	510.86
418.591	527.81
418.967	511.54
419.344	532.78
419.721	537.08
420.098	534.14
420.475	565.78
420.852	565.55
421.228	536.17
421.605	570.97
421.982	569.62
422.358	568.71
422.735	549.73
423.111	563.06
423.488	573.69
423.864	583.63
424.241	595.15
424.617	568.71
424.994	589.28
425.37	605.55
425.746	607.13
426.123	599.67
426.499	593.35
426.875	605.78
427.251	631.99
427.627	624.76
428.003	655.04
428.379	632.67
428.756	644.42
429.132	640.8
429.507	670.86
429.883	663.63
430.259	640.35
430.635	653.91
431.011	667.02
431.387	692.1
431.763	687.81
432.138	697.75
432.514	722.16
432.89	699.56
433.265	718.77
433.641	721.7
434.016	716.73
434.392	727.58
434.767	735.26
435.143	759.22
435.518	749.05
435.894	771.19
436.269	764.19
436.644	772.55
437.02	771.65
437.395	796.96
437.77	792.89
438.145	790.63
438.52	791.76
438.895	796.96
439.271	807.8
439.646	801.02
440.021	835.15
440.395	829.72
440.77	812.32
441.145	833.34
441.52	849.38
441.895	866.79
442.27	862.27
442.645	867.92
443.019	869.04
443.394	859.55
443.769	885.09
444.143	876.5
444.518	901.13
444.892	871.3
445.267	896.16
445.641	910.4
446.016	915.15
446.39	909.27
446.764	946.11
447.139	919.67
447.513	956.73
447.887	936.16
448.262	949.27
448.636	941.13
449.01	945.88
449.384	965.77
449.758	953.79
450.132	984.52
450.506	981.13
450.88	994.69
451.254	1008.7
451.628	1010.06
452.002	1018.65
452.376	1011.19
452.75	1025.88
453.123	1039.66
453.497	1066.33
453.871	1074.92
454.244	1071.53
454.618	1082.37
454.992	1092.77
455.365	1089.15
455.739	1121.69
456.112	1154.24
456.486	1167.57
456.859	1132.77
457.232	1206.44
457.606	1180.22
457.979	1193.56
458.352	1216.38
458.725	1208.92
459.099	1234.91
459.472	1256.15
459.845	1270.84
460.218	1280.79
460.591	1301.35
460.964	1312.42
461.337	1330.28
461.71	1364.85
462.083	1382.7
462.456	1384.96
462.829	1353.33
463.201	1418.86
463.574	1418.18
463.947	1460.22
464.32	1481.46
464.692	1504.28
465.065	1508.35
465.438	1518.75
465.81	1565.98
466.183	1606.43
466.555	1617.95
466.928	1606.88
467.3	1629.93
467.672	1666.31
468.045	1705.18
468.417	1737.5
468.789	1743.6
469.161	1742.69
469.534	1790.38
469.906	1888.45
470.278	1864.95
470.65	1919.41
471.022	1944.04
471.394	2027.88
471.766	2006.42
472.138	2042.12
472.51	2095.45
472.882	2137.49
473.253	2203.93
473.625	2214.77
473.997	2287.09
474.369	2331.15
474.74	2323.24
475.112	2444.82
475.484	2482.56
475.855	2504.71
476.227	2584.93
476.598	2666.51
476.97	2717.13
477.341	2792.61
477.713	2858.6
478.084	2891.82
478.455	2965.94
478.827	3061.3
479.198	3152.83
479.569	3195.99
479.94	3328.42
480.311	3366.15
480.682	3501.97
481.053	3565.02
481.424	3674.39
481.795	3748.07
482.166	3882.75
482.537	3912.35
482.908	4069.86
483.279	4156.64
483.65	4301.27
484.021	4443.41
484.391	4586.01
484.762	4646.57
485.133	4742.39
485.503	4840.24
485.874	5001.82
486.244	5044.08
486.615	5215.82
486.985	5353.22
487.356	5552.54
487.726	5621.46
488.097	5809.48
488.467	5910.27
488.837	6066.2
489.207	6151.84
489.578	6344.16
489.948	6503.02
490.318	6650.14
490.688	6708.67
491.058	6875.67
491.428	7055.55
491.798	7131.25
492.168	7419.16
492.538	7479.94
492.908	7605.14
493.278	7807.85
493.648	7856.21
494.017	8037.67
494.387	8193.82
494.757	8317.89
495.126	8495.74
495.496	8566.92
495.866	8694.15
496.235	8866.35
496.605	9031.77
496.974	9149.96
497.344	9273.12
497.713	9339.33
498.082	9496.84
498.452	9632.88
498.821	9704.29
499.19	9839.43
499.559	9991.97
499.928	10083.27
500.298	10157.16
500.667	10376.14
501.036	10376.37
501.405	10559.64
501.774	10599.18
502.143	10732.74
502.512	10831.72
502.88	10920.98
503.249	11000.08
503.618	11109
503.987	11244.59
504.356	11365.49
504.724	11358.03
505.093	11485.49
505.462	11545.37
505.83	11624.24
506.199	11650
506.567	11929.09
506.936	11944.23
507.304	12086.83
507.672	12132.25
508.041	12297.22
508.409	12269.88
508.777	12378.35
509.145	12501.51
509.514	12473.03
509.882	12567.04
510.25	12558.46
510.618	12765.68
510.986	12793.7
511.354	12881.16
511.722	13012.68
512.09	13090.19
512.458	13026.69
512.826	13165.67
513.193	13206.8
513.561	13330.19
513.929	13361.82
514.297	13454.48
514.664	13488.83
515.032	13499.22
515.4	13633.68
515.767	13616.51
516.135	13687.24
516.502	13696.28
516.869	13851.08
517.237	13823.28
517.604	13927.46
517.972	13928.36
518.339	13996.84
518.706	14103.73
519.073	14025.08
519.44	14080.45
519.808	14207.23
520.175	14186.66
520.542	14324.96
520.909	14369.03
521.276	14364.74
521.643	14473.88
522.009	14478.18
522.376	14531.51
522.743	14621.9
523.11	14748.91
523.477	14814.21
523.843	14801.56
524.21	14952.29
524.577	14999.97
524.943	14925.17
525.31	15055.34
525.676	15014.44
526.043	15095.56
526.409	15201.78
526.776	15236.58
527.142	15213.07
527.508	15187.76
527.874	15274.54
528.241	15296.46
528.607	15372.62
528.973	15389.79
529.339	15436.35
529.705	15427.08
530.071	15546.4
530.437	15587.3
530.803	15506.63
531.169	15505.5
531.535	15457.81
531.901	15522.44
532.267	15496.91
532.632	15580.97
532.998	15569.45
533.364	15567.42
533.73	15589.11
534.095	15618.94
534.461	15638.37
534.826	15629.56
535.192	15616.23
535.557	15623.46
535.923	15602.67
536.288	15486.74
536.653	15576.91
537.019	15466.63
537.384	15519.28
537.749	15456.46
538.114	15463.24
538.479	15442.22
538.845	15467.98
539.21	15386.86
539.575	15369.68
539.94	15387.99
540.305	15383.01
540.67	15373.75
541.034	15457.59
541.399	15358.61
541.764	15276.8
542.129	15287.42
542.494	15263.24
542.858	15249.46
543.223	15285.84
543.587	15279.06
543.952	15135.11
544.316	15149.12
544.681	15128.56
545.045	15094.21
545.41	15143.47
545.774	15120.2
546.138	15056.47
546.503	15037.03
546.867	14970.14
547.231	15035.45
547.595	14933.08
547.959	14957.26
548.324	14948.45
548.688	14864.61
549.052	14911.16
549.416	14909.81
549.779	14813.76
550.143	14886.98
550.507	14847.43
550.871	14802.92
551.235	14722.92
551.599	14795.46
551.962	14753.43
552.326	14727.44
552.689	14771.05
553.053	14582.81
553.417	14622.58
553.78	14769.92
554.143	14591.85
554.507	14690.83
554.87	14622.81
555.234	14704.39
555.597	14465.07
555.96	14611.28
556.323	14595.46
556.686	14548.46
557.05	14587.1
557.413	14548.91
557.776	14544.39
558.139	14541.68
558.502	14500.32
558.865	14535.58
559.228	14556.37
559.59	14542.81
559.953	14577.84
560.316	14633.2
560.679	14574
561.041	14588.23
561.404	14708.68
561.767	14691.28
562.129	14605.63
562.492	14724.5
562.854	14579.64
563.217	14647.67
563.579	14717.95
563.941	14769.47
564.304	14752.52
564.666	14823.25
565.028	14764.05
565.39	14739.87
565.753	14791.84
566.115	14821.45
566.477	14821.9
566.839	14789.81
567.201	14883.37
567.563	14911.61
567.925	14927.66
568.287	14876.81
568.648	14968.11
569.01	15011.05
569.372	15029.12
569.734	14981.89
570.095	15003.59
570.457	15074.32
570.819	15016.47
571.18	15060.76
571.542	15075
571.903	15050.37
572.265	15160.65
572.626	15092.4
572.987	15147.99
573.349	15235.67
573.71	15216.46
574.071	15140.31
574.432	15194.32
574.794	15236.35
575.155	15212.17
575.516	15227.76
575.877	15205.84
576.238	15217.82
576.599	15263.69
576.96	15260.3
577.32	15321.09
577.681	15219.63
578.042	15324.03
578.403	15322.9
578.763	15285.16
579.124	15280.64
579.485	15405.84
579.845	15425.5
580.206	15339.62
580.566	15296.46
580.927	15317.93
581.287	15289
581.648	15329.46
582.008	15417.36
582.368	15323.13
582.728	15323.35
583.089	15305.28
583.449	15244.71
583.809	15323.58
584.169	15335.33
584.529	15230.93
584.889	15341.66
585.249	15242.23
585.609	15235.45
585.969	15242.9
586.329	15186.86
586.688	15269.57
587.048	15168.78
587.408	15198.39
587.768	15183.92
588.127	15091.72
588.487	15090.59
588.846	15178.27
589.206	15078.84
589.565	15097.82
589.925	15091.04
590.284	15086.3
590.643	15080.42
591.003	15188.67
591.362	15182.11
591.721	15159.06
592.08	15023.93
592.44	15206.07
592.799	15169.23
593.158	15080.2
593.517	15096.47
593.876	15102.57
594.235	15067.77
594.593	15030.71
594.952	15157.48
595.311	14926.3
595.67	15007.2
596.029	15109.35
596.387	15051.5
596.746	15148.67
597.104	14973.76
597.463	14895.34
597.822	14986.19
598.18	14976.92
598.538	14905.06
598.897	14980.76
599.255	14879.07
599.613	14996.58
599.972	14950.71
600.33	15030.93
600.688	14974.21
601.046	15025.28
601.404	15088.56
601.762	15054.21
602.12	15074.55
602.478	14996.36
602.836	15105.28
603.194	14962.23
603.552	15019.18
603.91	14923.59
604.268	15031.84
604.625	14963.14
604.983	14979.41
605.341	15068.22
605.698	15071.84
606.056	15089.24
606.413	15004.04
606.771	15125.85
607.128	15009.46
607.485	15005.4
607.843	15044.72
608.2	15014.66
608.557	15118.84
608.914	15057.6
609.272	15140.53
609.629	15098.28
609.986	15056.24
610.343	15072.97
610.7	15216.24
611.057	15130.59
611.414	15104.83
611.771	15095.11
612.127	15184.6
612.484	15114.09
612.841	15225.5
613.198	15117.94
613.554	15267.99
613.911	15308.44
614.267	15273.19
614.624	15215.56
614.98	15189.8
615.337	15421.43
615.693	15373.75
616.05	15356.12
616.406	15383.92
616.762	15373.75
617.118	15423.46
617.475	15303.24
617.831	15331.04
618.187	15377.82
618.543	15423.24
618.899	15517.47
619.255	15517.93
619.611	15379.4
619.967	15412.17
620.323	15490.36
620.678	15422.11
621.034	15396.8
621.39	15422.56
621.746	15341.21
622.101	15485.38
622.457	15392.96
622.812	15408.1
623.168	15426.4
623.523	15419.62
623.879	15539.85
624.234	15374.43
624.589	15432.73
624.945	15371.71
625.3	15381.88
625.655	15423.92
626.01	15393.86
626.365	15484.48
626.72	15457.36
627.075	15449.45
627.43	15325.16
627.785	15436.8
628.14	15439.96
628.495	15451.03
628.85	15412.84
629.205	15379.4
629.559	15449
629.914	15440.87
630.269	15351.15
630.623	15364.03
630.978	15272.06
631.332	15383.92
631.687	15326.74
632.041	15291.26
632.396	15280.87
632.75	15280.42
633.104	15280.64
633.459	15198.84
633.813	15159.74
634.167	15225.28
634.521	15140.31
634.875	15182.79
635.229	15095.79
635.583	15063.25
635.937	15096.02
636.291	15072.74
636.645	15198.16
636.999	15072.51
637.352	15071.38
637.706	15030.48
638.06	15049.69
638.413	15043.14
638.767	14924.49
639.121	14985.06
639.474	14931.27
639.828	14959.75
640.181	14867.32
640.534	14907.77
640.888	14835.01
641.241	14782.58
641.594	14857.83
641.947	14845.85
642.301	14807.89
642.654	14909.35
643.007	14795.23
643.36	14868
643.713	14683.37
644.066	14867.32
644.419	14733.77
644.771	14661.68
645.124	14562.24
645.477	14517.5
645.83	14478.86
646.182	14408.35
646.535	14354.57
646.888	14327.22
647.24	14155.7
647.593	14338.52
647.945	14386.2
648.298	14247.68
648.65	14159.09
649.002	14178.3
649.355	14265.08
649.707	14312.31
650.059	14435.69
650.411	14529.25
650.763	14566.76
651.115	14630.49
651.467	14650.38
651.819	14614.9
652.171	14583.03
652.523	14564.5
652.875	14530.61
653.227	14558.4
653.578	14611.73
653.93	14510.04
654.282	14640.21
654.633	14530.38
654.985	14496.26
655.337	14590.49
655.688	14643.82
656.039	14620.32
656.391	14510.72
656.742	14573.54
657.094	14555.24
657.445	14711.84
657.796	14610.38
658.147	14585.52
658.498	14584.84
658.849	14590.72
659.2	14620.1
659.551	14657.38
659.902	14624.62
660.253	14675.69
660.604	14620.32
660.955	14537.16
661.306	14606.76
661.656	14662.35
662.007	14664.39
662.358	14660.77
662.708	14624.84
663.059	14778.74
663.409	14569.02
663.76	14632.52
664.11	14677.72
664.461	14591.4
664.811	14612.86
665.161	14624.62
665.511	14637.5
665.862	14639.08
666.212	14676.14
666.562	14662.81
666.912	14635.69
667.262	14685.86
667.612	14626.88
667.962	14631.85
668.312	14602.92
668.662	14745.52
669.011	14710.71
669.361	14676.14
669.711	14606.31
670.06	14637.04
670.41	14588.01
670.76	14519.31
671.109	14636.82
671.459	14594.79
671.808	14524.51
672.157	14565.18
672.507	14552.53
672.856	14453.09
673.205	14551.4
673.554	14582.58
673.904	14541.45
674.253	14555.46
674.602	14521.79
674.951	14352.76
675.3	14243.83
675.649	14477.5
675.998	14390.27
676.346	14426.88
676.695	14481.57
677.044	14341.23
677.393	14433.89
677.741	14405.86
678.09	14416.71
678.438	14319.76
678.787	14303.49
679.135	14334.45
679.484	14162.93
679.832	14299.88
680.181	14170.62
680.529	14238.18
680.877	14167
681.225	14131.75
681.573	14199.54
681.922	14080
682.27	14046.33
682.618	13986.67
682.966	14067.57
683.314	14158.19
683.661	13936.72
684.009	13971.98
684.357	13934.01
684.705	13919.78
685.053	13908.02
685.4	13814.92
685.748	13817.41
686.095	13852.88
686.443	13749.38
686.79	13701.7
687.138	13766.78
687.485	13755.94
687.832	13650.4
688.18	13633.23
688.527	13609.05
688.874	13545.77
689.221	13491.76
689.568	13445.21
689.915	13506
690.262	13488.37
690.609	13413.57
690.956	13362.95
691.303	13287.48
691.65	13288.38
691.997	13275.5
692.344	13158.21
692.69	13106.24
693.037	13152.79
693.383	13048.84
693.73	13055.84
694.077	12923.87
694.423	12931.55
694.769	12860.82
695.116	12863.08
695.462	12739.24
695.808	12748.73
696.155	12788.28
696.501	12673.71
696.847	12707.38
697.193	12532.69
697.539	12597.55
697.885	12490.21
698.231	12359.36
698.577	12398.01
698.923	12352.36
699.269	12340.38
699.614	12304.9
699.96	12217.9
700.306	12224.68
700.651	12091.57
700.997	12156.43
701.342	12063.1
701.688	12047.73
702.033	12049.09
702.379	11949.66
702.724	11908.98
703.069	11903.56
703.415	11794.41
703.76	11763.45
704.105	11777.68
704.45	11780.17
704.795	11661.3
705.14	11640.06
705.485	11606.16
705.83	11532.49
706.175	11522.1
706.52	11501.08
706.865	11440.52
707.209	11429.22
707.554	11332.72
707.899	11392.61
708.243	11341.54
708.588	11316.23
708.932	11212.5
709.277	11207.76
709.621	11250.47
709.966	11205.04
710.31	11238.94
710.654	11099.74
710.998	11049.79
711.342	11105.16
711.687	11037.59
712.031	10981.55
712.375	10978.61
712.719	10971.6
713.063	10991.26
713.407	10952.4
713.75	10841.66
714.094	10908.78
714.438	10861.78
714.782	10931.38
715.125	10749.24
715.469	10835.34
715.812	10792.85
716.156	10665.62
716.499	10746.98
716.843	10666.75
717.186	10730.71
717.53	10690.48
717.873	10697.94
718.216	10655.68
718.559	10615
718.902	10565.06
719.246	10539.07
719.589	10579.07
719.932	10488.23
720.275	10471.05
720.617	10533.2
720.96	10532.52
721.303	10502.46
721.646	10465.4
721.989	10518.73
722.331	10464.5
722.674	10457.49
723.016	10472.18
723.359	10386.31
723.701	10442.58
724.044	10360.09
724.386	10339.08
724.729	10351.28
725.071	10324.62
725.413	10286.65
725.755	10263.6
726.097	10386.08
726.439	10265.41
726.782	10257.27
727.124	10286.42
727.465	10217.5
727.807	10225.41
728.149	10132.3
728.491	10166.88
728.833	10224.96
729.175	10128.01
729.516	10202.36
729.858	10164.17
730.199	10172.53
730.541	10175.92
730.882	10231.51
731.224	10274.45
731.565	10150.16
731.906	10197.84
732.248	10209.82
732.589	10145.86
732.93	10042.14
733.271	10104.06
733.612	10025.87
733.953	10167.78
734.294	10137.5
734.635	10118.29
734.976	10242.36
735.317	10094.34
735.658	10166.88
735.999	10071.51
736.339	10088.24
736.68	10172.53
737.021	10125.98
737.361	10139.99
737.702	10202.36
738.042	10096.6
738.383	10206.65
738.723	10149.48
739.063	10182.25
739.404	10258.85
739.744	10258.63
740.084	10198.74
740.424	10192.42
740.764	10226.54
741.104	10309.02
741.444	10217.5
741.784	10133.89
742.124	10231.28
742.464	10290.27
742.804	10234.9
743.143	10285.07
743.483	10354.9
743.823	10373.2
744.162	10353.32
744.502	10423.37
744.841	10423.82
745.181	10469.7
745.52	10481
745.86	10568.9
746.199	10627.43
746.538	10676.47
746.877	10709.92
747.216	10760.99
747.556	10803.47
747.895	10773.87
748.234	10861.1
748.573	10936.58
748.911	10912.4
749.25	11039.62
749.589	11044.6
749.928	11105.61
750.267	11201.2
750.605	11237.13
750.944	11340.18
751.283	11424.7
751.621	11486.62
751.96	11490.01
752.298	11666.05
752.636	11826.27
752.975	11835.31
753.313	11957.11
753.651	12044.8
753.989	12146.26
754.327	12318.24
754.666	12310.33
755.004	12597.1
755.342	12692.69
755.679	12736.08
756.017	12796.64
756.355	13047.93
756.693	13095.16
