Data from hue_340_FLMS001491_19.txt Node
Date: Mon Feb 06 15:42:22 GMT 2017
User: dcchb
Spectrometer: FLMS00149
Trigger mode: 0
Integration Time (sec): 2.000000E-2
Scans to average: 10
Electric dark correction enabled: true
Nonlinearity correction enabled: false
Boxcar width: 0
XAxis mode: Wavelengths
Number of Pixels in Spectrum: 2048
>>>>>Begin Spectral Data<<<<<
341.393	-4.56
341.776	-4.56
342.16	-4.56
342.543	-37.78
342.927	-59.7
343.31	-59.48
343.693	-71.9
344.077	-64.67
344.46	-54.05
344.843	-53.37
345.226	-47.5
345.61	-25.35
345.993	-28.29
346.376	9.67
346.759	21.65
347.142	23.46
347.525	28.43
347.908	62.78
348.291	65.04
348.674	99.16
349.057	94.42
349.44	146.39
349.823	128.77
350.206	169.44
350.588	201.99
350.971	219.39
351.354	204.92
351.737	237.24
352.119	247.86
352.502	242.66
352.884	290.12
353.267	277.46
353.65	310.46
354.032	307.07
354.414	302.1
354.797	317.01
355.179	327.18
355.562	330.12
355.944	344.13
356.326	354.3
356.709	346.16
357.091	337.35
357.473	321.76
357.855	340.29
358.238	338.71
358.62	336.67
359.002	358.82
359.384	353.62
359.766	349.55
360.148	345.26
360.53	365.6
360.912	331.93
361.294	333.06
361.676	338.25
362.057	336.22
362.439	307.52
362.821	330.57
363.203	323.79
363.584	329.21
363.966	327.18
364.348	332.6
364.729	325.37
365.111	321.98
365.493	346.16
365.874	327.63
366.256	333.51
366.637	319.05
367.019	324.92
367.4	316.33
367.781	310.46
368.163	314.3
368.544	300.06
368.925	327.41
369.306	338.03
369.688	296
370.069	305.26
370.45	310.23
370.831	330.57
371.212	302.77
371.593	298.03
371.974	311.81
372.355	326.05
372.736	336.9
373.117	295.32
373.498	314.3
373.879	327.63
374.26	332.6
374.641	315.66
375.021	310.46
375.402	318.14
375.783	309.1
376.163	334.41
376.544	325.15
376.925	327.63
377.305	327.86
377.686	329.67
378.066	328.08
378.447	332.6
378.827	320.63
379.208	317.92
379.588	330.12
379.968	349.33
380.349	320.18
380.729	321.98
381.109	324.47
381.489	335.99
381.87	341.64
382.25	345.94
382.63	335.09
383.01	320.85
383.39	343
383.77	319.95
384.15	343.68
384.53	355.2
384.91	313.85
385.29	326.28
385.67	341.42
386.049	342.1
386.429	346.16
386.809	348.65
387.189	338.48
387.568	359.95
387.948	363.56
388.328	341.87
388.707	347.07
389.087	354.75
389.466	350.23
389.846	355.2
390.225	382.55
390.605	378.03
390.984	356.11
391.363	346.16
391.743	344.13
392.122	353.62
392.501	384.81
392.881	369.67
393.26	383.45
393.639	370.8
394.018	377.57
394.397	359.5
394.776	351.59
395.155	363.34
395.534	362.43
395.913	353.62
396.292	380.06
396.671	351.36
397.05	384.81
397.429	377.57
397.808	381.64
398.186	371.93
398.565	380.74
398.944	379.83
399.323	386.39
399.701	391.59
400.08	386.84
400.458	372.6
400.837	391.13
401.215	395.2
401.594	394.52
401.972	397.24
402.351	390.23
402.729	377.35
403.107	403.79
403.486	416.44
403.864	425.03
404.242	416.9
404.62	404.01
404.999	391.13
405.377	424.35
405.755	435.88
406.133	424.81
406.511	413.28
406.889	419.83
407.267	441.08
407.645	418.48
408.023	429.78
408.401	440.4
408.779	439.04
409.156	443.79
409.534	461.19
409.912	453.05
410.29	434.97
410.667	456.44
411.045	444.24
411.422	459.38
411.8	452.83
412.178	467.52
412.555	485.37
412.933	459.38
413.31	500.74
413.687	500.51
414.065	494.63
414.442	485.59
414.819	505.48
415.197	498.7
415.574	500.28
415.951	500.96
416.328	504.8
416.705	508.19
417.082	519.94
417.46	521.07
417.837	539.15
418.214	550.9
418.591	542.99
418.967	541.64
419.344	554.75
419.721	530.11
420.098	548.64
420.475	566.04
420.852	549.77
421.228	561.07
421.605	578.25
421.982	592.26
422.358	560.85
422.735	568.76
423.111	587.06
423.488	572.15
423.864	588.19
424.241	602.88
424.617	604.46
424.994	606.27
425.37	604.24
425.746	614.63
426.123	615.31
426.499	608.98
426.875	611.24
427.251	634.74
427.627	646.04
428.003	648.3
428.379	642.43
428.756	655.76
429.132	655.08
429.507	663.22
429.883	661.18
430.259	686.04
430.635	671.35
431.011	718.13
431.387	709.77
431.763	692.37
432.138	724.01
432.514	700.05
432.89	720.16
433.265	736.21
433.641	724.46
434.016	763.1
434.392	765.59
434.767	771.24
435.143	749.54
435.518	769.65
435.894	763.33
436.269	789.99
436.644	792.25
437.02	790.67
437.395	784.12
437.77	811.24
438.145	818.02
438.52	825.02
438.895	827.96
439.271	803.55
439.646	834.96
440.021	852.14
440.395	850.56
440.77	850.33
441.145	874.74
441.52	852.82
441.895	860.05
442.27	874.96
442.645	874.96
443.019	870.22
443.394	878.58
443.769	898.92
444.143	874.74
444.518	893.27
444.892	866.83
445.267	911.35
445.641	894.85
446.016	931.01
446.39	929.42
446.764	926.26
447.139	912.02
447.513	926.94
447.887	911.57
448.262	928.52
448.636	938.24
449.01	948.63
449.384	966.26
449.758	927.39
450.132	947.05
450.506	966.94
450.88	965.36
451.254	954.73
451.628	966.71
452.002	974.4
452.376	1001.97
452.75	991.34
453.123	964.45
453.497	1015.07
453.871	989.99
454.244	1005.13
454.618	1026.82
454.992	1040.61
455.365	1032.25
455.739	1056.43
456.112	1060.49
456.486	1100.72
456.859	1060.72
457.232	1119.48
457.606	1111.11
457.979	1080.61
458.352	1136.88
458.725	1107.05
459.099	1116.76
459.472	1124
459.845	1173.94
460.218	1156.99
460.591	1142.75
460.964	1177.55
461.337	1187.27
461.71	1199.47
462.083	1225.24
462.456	1224.78
462.829	1217.55
463.201	1246.03
463.574	1223.43
463.947	1261.62
464.32	1278.57
464.692	1295.97
465.065	1273.82
465.438	1298.23
465.81	1322.86
466.183	1313.82
466.555	1356.08
466.928	1353.59
467.3	1347.72
467.672	1366.93
468.045	1412.8
468.417	1411.45
468.789	1413.03
469.161	1435.4
469.534	1442.63
469.906	1465.91
470.278	1467.26
470.65	1508.62
471.022	1509.97
471.394	1534.38
471.766	1572.8
472.138	1542.29
472.51	1605.79
472.882	1611.44
473.253	1600.82
473.625	1625.9
473.997	1657.54
474.369	1668.84
474.74	1683.08
475.112	1734.15
475.484	1731.44
475.855	1770.76
476.227	1790.19
476.598	1848.95
476.97	1859.34
477.341	1889.17
477.713	1916.74
478.084	1906.35
478.455	1972.56
478.827	1972.34
479.198	2013.69
479.569	2052.56
479.94	2061.37
480.311	2077.42
480.682	2088.49
481.053	2200.35
481.424	2188.6
481.795	2242.84
482.166	2255.72
482.537	2301.59
482.908	2346.34
483.279	2332.33
483.65	2378.43
484.021	2428.37
484.391	2445.54
484.762	2443.74
485.133	2435.6
485.503	2527.8
485.874	2532.77
486.244	2589.27
486.615	2592.21
486.985	2668.81
487.356	2721.47
487.726	2727.57
488.097	2784.52
488.467	2821.13
488.837	2823.16
489.207	2881.92
489.578	2884.4
489.948	2958.75
490.318	3007.11
490.688	2966.21
491.058	3011.86
491.428	3049.59
491.798	3129.82
492.168	3120.1
492.538	3143.15
492.908	3158.07
493.278	3228.8
493.648	3222.92
494.017	3282.58
494.387	3305.63
494.757	3355.58
495.126	3363.94
495.496	3365.52
495.866	3365.07
496.235	3411.85
496.605	3428.34
496.974	3486.65
497.344	3486.65
497.713	3479.64
498.082	3537.94
498.452	3572.29
498.821	3588.56
499.19	3587.89
499.559	3645.51
499.928	3650.03
500.298	3623.14
500.667	3725.06
501.036	3684.61
501.405	3677.83
501.774	3686.87
502.143	3740.2
502.512	3744.94
502.88	3735.68
503.249	3773.87
503.618	3821.1
503.987	3855.68
504.356	3852.51
504.724	3885.51
505.093	3854.77
505.462	3894.32
505.83	3895.67
506.199	3953.53
506.567	3997.82
506.936	3960.08
507.304	4037.14
507.672	4015.67
508.041	4064.03
508.409	4090.25
508.777	4065.39
509.145	4120.3
509.514	4130.92
509.882	4107.19
510.25	4123.69
510.618	4154.2
510.986	4150.36
511.354	4170.47
511.722	4234.65
512.09	4252.73
512.458	4222.22
512.826	4284.82
513.193	4248.89
513.561	4278.94
513.929	4270.81
514.297	4349
514.664	4342.89
515.032	4335.89
515.4	4395.77
515.767	4348.54
516.135	4386.28
516.502	4412.72
516.869	4442.33
517.237	4473.74
517.604	4420.18
517.972	4443.91
518.339	4483.68
518.706	4492.27
519.073	4510.35
519.44	4521.19
519.808	4568.88
520.175	4580.4
520.542	4547.86
520.909	4578.82
521.276	4594.41
521.643	4650.91
522.009	4669.67
522.376	4683.45
522.743	4687.97
523.11	4648.87
523.477	4755.76
523.843	4767.06
524.21	4840.73
524.577	4818.59
524.943	4824.46
525.31	4875.99
525.676	4922.09
526.043	4919.38
526.409	4934.07
526.776	4935.2
527.142	4970.67
527.508	5006.83
527.874	5036.44
528.241	5048.41
528.607	5067.85
528.973	5067.4
529.339	5121.63
529.705	5132.48
530.071	5199.82
530.437	5182.19
530.803	5273.04
531.169	5213.38
531.535	5241.4
531.901	5279.82
532.267	5343.77
532.632	5340.38
532.998	5292.02
533.364	5370.66
533.73	5415.86
534.095	5428.06
534.461	5480.72
534.826	5527.04
535.192	5455.41
535.557	5506.71
535.923	5552.35
536.288	5538.34
536.653	5598
537.019	5536.76
537.384	5593.03
537.749	5646.36
538.114	5692.92
538.479	5721.84
538.845	5715.06
539.21	5707.38
539.575	5721.84
539.94	5756.19
540.305	5807.49
540.67	5806.81
541.034	5842.06
541.399	5868.05
541.764	5875.51
542.129	5903.98
542.494	5882.51
542.858	5981.27
543.223	5961.61
543.587	6003.64
543.952	6008.39
544.316	6026.24
544.681	6061.27
545.045	6038.89
545.41	6115.5
545.774	6098.33
546.138	6111.66
546.503	6135.84
546.867	6180.13
547.231	6206.35
547.595	6244.31
547.959	6217.2
548.324	6297.87
548.688	6294.93
549.052	6280.47
549.416	6357.76
549.779	6365.44
550.143	6396.17
550.507	6410.18
550.871	6431.88
551.235	6437.53
551.599	6499.22
551.962	6473.46
552.326	6530.86
552.689	6554.14
553.053	6591.2
553.417	6555.04
553.78	6724.3
554.143	6609.5
554.507	6595.94
554.87	6633.91
555.234	6721.81
555.597	6670.97
555.96	6688.14
556.323	6767.92
556.686	6755.03
557.05	6760.46
557.413	6792.32
557.776	6791.64
558.139	6821.47
558.502	6865.77
558.865	6838.2
559.228	6903.5
559.59	6880.23
559.953	6910.51
560.316	7023.73
560.679	7022.82
561.041	7030.96
561.404	7130.84
561.767	7153.89
562.129	7091.07
562.492	7174.68
562.854	7116.15
563.217	7229.37
563.579	7191.18
563.941	7234.57
564.304	7266.21
564.666	7300.56
565.028	7289.71
565.39	7268.47
565.753	7353.89
566.115	7406.32
566.477	7387.56
566.839	7452.42
567.201	7485.64
567.563	7470.5
567.925	7500.78
568.287	7521.12
568.648	7522.7
569.01	7649.7
569.372	7639.98
569.734	7651.73
570.095	7633.66
570.457	7744.39
570.819	7759.98
571.18	7755.23
571.542	7790.26
571.903	7879.52
572.265	7865.74
572.626	7977.15
572.987	7966.3
573.349	8024.61
573.71	8079.29
574.071	8098.73
574.432	8127.88
574.794	8215.33
575.155	8316.8
575.516	8307.31
575.877	8352.73
576.238	8428.89
576.599	8496.68
576.96	8507.98
577.32	8589.56
577.681	8673.4
578.042	8774.64
578.403	8870.68
578.763	8879.95
579.124	8983.68
579.485	9048.99
579.845	9173.73
580.206	9277.68
580.566	9323.33
580.927	9467.73
581.287	9586.82
581.648	9636.31
582.008	9810.32
582.368	10003.54
582.728	10094.61
583.089	10245.79
583.449	10415.95
583.809	10552
584.169	10697.98
584.529	10828.15
584.889	11055.71
585.249	11164.64
585.609	11334.35
585.969	11572.99
586.329	11746.09
586.688	11942.24
587.048	12098.85
587.408	12275.12
587.768	12536.58
588.127	12779.06
588.487	12903.12
588.846	13217.01
589.206	13352.37
589.565	13635.53
589.925	13827.39
590.284	14133.82
590.643	14249.07
591.003	14526.81
591.362	14986.91
591.721	15150.29
592.08	15362.94
592.44	15704.86
592.799	15928.35
593.158	16224.39
593.517	16356.14
593.876	16803.81
594.235	17092.62
594.593	17311.59
594.952	17644.01
595.311	17774.63
595.67	18044.23
596.029	18575.74
596.387	18776.64
596.746	19024.32
597.104	19240.36
597.463	19590.18
597.822	19905.65
598.18	20014.35
598.538	20449.82
598.897	20725.51
599.255	20856.13
599.613	21400.52
599.972	21486.85
600.33	21828.31
600.688	21963.9
601.046	22364.12
601.404	22717.1
601.762	22904.67
602.12	23392.34
602.478	23449.28
602.836	23804.53
603.194	23873.23
603.552	24190.51
603.91	24401.35
604.268	24671.85
604.625	24804.5
604.983	25185.06
605.341	25451.04
605.698	25732.16
606.056	25965.15
606.413	26217.12
606.771	26403.78
607.128	26740.27
607.485	26903.43
607.843	27168.73
608.2	27368.28
608.557	27638.33
608.914	27742.05
609.272	28116.05
609.629	28276.5
609.986	28545.65
610.343	28534.8
610.7	29041
611.057	29082.13
611.414	29334.78
611.771	29480.99
612.127	29823.81
612.484	29950.13
612.841	30194.87
613.198	30201.2
613.554	30455.43
613.911	30740.84
614.267	30916.66
614.624	31023.32
614.98	31169.76
615.337	31480.94
615.693	31545.57
616.05	31654.94
616.406	31979.23
616.762	31963.18
617.118	32033.69
617.475	32176.74
617.831	32591.19
618.187	32614.92
618.543	32813.78
618.899	33023.27
619.255	33134.91
619.611	33160.44
619.967	33456.25
620.323	33457.38
620.678	33597.49
621.034	33599.53
621.39	33656.47
621.746	33727.88
622.101	34142.79
622.457	33940.08
622.812	34150.02
623.168	34219.4
623.523	34296.23
623.879	34559.27
624.234	34535.32
624.589	34679.27
624.945	34738.03
625.3	34772.83
625.655	34929.89
626.01	34932.82
626.365	34994.52
626.72	35092.37
627.075	35259.37
627.43	35193.61
627.785	35276.77
628.14	35398.12
628.495	35419.14
628.85	35471.12
629.205	35311.8
629.559	35667.95
629.914	35446.71
630.269	35654.84
630.623	35680.83
630.978	35636.76
631.332	35658.23
631.687	35815.29
632.041	35715.63
632.396	35840.6
632.75	35642.18
633.104	35862.29
633.459	35632.69
633.813	35736.42
634.167	35729.41
634.521	35871.33
634.875	35922.85
635.229	35832.01
635.583	35740.03
635.937	35762.18
636.291	35834.95
636.645	35895.06
636.999	35752.24
637.352	35881.27
637.706	35840.37
638.06	35919.92
638.413	35849.64
638.767	35797.66
639.121	35788.17
639.474	35554.05
639.828	35851.9
640.181	35773.71
640.534	35663.65
640.888	35699.13
641.241	35654.16
641.594	35667.04
641.947	35824.1
642.301	35717.89
642.654	35695.97
643.007	35752.69
643.36	35728.96
643.713	35666.59
644.066	35954.49
644.419	35695.74
644.771	35365.81
645.124	35172.14
645.477	35069.77
645.83	34766.5
646.182	34701.42
646.535	34637.92
646.888	34807.86
647.24	34603.79
647.593	34804.01
647.945	34715.88
648.298	34609.44
648.65	34550.46
649.002	34474.76
649.355	34654.19
649.707	34684.47
650.059	34822.09
650.411	35089.66
650.763	35168.3
651.115	35653.94
651.467	35429.53
651.819	35485.35
652.171	35404
652.523	35272.48
652.875	35274.06
653.227	35222.08
653.578	35378.91
653.93	35240.39
654.282	35133.27
654.633	35098.02
654.985	35269.09
655.337	35286.94
655.688	35203.78
656.039	35351.12
656.391	35054.4
656.742	35156.77
657.094	35196.77
657.445	35178.02
657.796	35195.64
658.147	34980.51
658.498	35043.33
658.849	35129.66
659.2	34952.26
659.551	34947.97
659.902	35168.75
660.253	34997.68
660.604	35128.75
660.955	34961.98
661.306	34952.48
661.656	34983.67
662.007	35081.3
662.358	34941.19
662.708	34999.04
663.059	35059.37
663.409	34775.54
663.76	35036.55
664.11	34972.82
664.461	35060.73
664.811	34978.7
665.161	34987.74
665.511	34924.69
665.862	34984.12
666.212	35020.96
666.562	35075.19
666.912	35049.21
667.262	34941.86
667.612	34889.66
667.962	34981.86
668.312	34974.41
668.662	35173.5
669.011	34922.88
669.361	34924.69
669.711	35019.15
670.06	34779.61
670.41	34769.66
670.76	34834.52
671.109	34850.34
671.459	34813.96
671.808	34864.8
672.157	34888.53
672.507	34652.15
672.856	34632.72
673.205	34818.03
673.554	34775.99
673.904	34629.33
674.253	34837.46
674.602	34612.38
674.951	34250.81
675.3	34029.12
675.649	34619.61
675.998	34604.25
676.346	34540.07
676.695	34691.7
677.044	34449.67
677.393	34675.88
677.741	34567.64
678.09	34416.68
678.438	34422.33
678.787	34444.48
679.135	34483.57
679.484	34276.57
679.832	34398.83
680.181	34153.64
680.529	34373.97
680.877	34259.4
681.225	34120.64
681.573	34387.08
681.922	34183.47
682.27	34026.18
682.618	34238.83
682.966	33982.57
683.314	34003.13
683.661	33965.62
684.009	33820.76
684.357	33842.46
684.705	33756.81
685.053	33775.57
685.4	33580.32
685.748	33486.99
686.095	33639.3
686.443	33418.06
686.79	33411.96
687.138	33491.28
687.485	33510.04
687.832	33214
688.18	33313.21
688.527	33195.24
688.874	33144.4
689.221	33086.09
689.568	32885.42
689.915	32964.51
690.262	32929.26
690.609	32828.7
690.956	32733.56
691.303	32646.1
691.65	32591.19
691.997	32464.87
692.344	32319.11
692.69	32306.45
693.037	32380.58
693.383	32121.15
693.73	32248.38
694.077	31921.83
694.423	32019.45
694.769	31884.54
695.116	31805
695.462	31816.52
695.808	31732
696.155	31720.48
696.501	31633.48
696.847	31511.67
697.193	31320.49
697.539	31403.88
697.885	31245.24
698.231	31141.06
698.577	31074.39
698.923	31066.94
699.269	30904.23
699.614	30679.6
699.96	30655.65
700.306	30689.32
700.651	30608.64
700.997	30460.17
701.342	30399.84
701.688	30387.41
702.033	30253.63
702.379	30208.88
702.724	30227.19
703.069	30160.97
703.415	29862.9
703.76	29972.05
704.105	29881.66
704.45	29713.3
704.795	29613.64
705.14	29544.49
705.485	29638.27
705.83	29605.51
706.175	29539.07
706.52	29511.27
706.865	29332.07
707.209	29349.02
707.554	29187.89
707.899	29265.85
708.243	29063.15
708.588	28978.4
708.932	28855.47
709.277	28834.23
709.621	28968.69
709.966	28755.59
710.31	28799.88
710.654	28509.49
710.998	28638.53
711.342	28621.35
711.687	28434.46
712.031	28340.46
712.375	28204.87
712.719	28197.18
713.063	28231.98
713.407	28346.33
713.75	28071.99
714.094	28157.41
714.438	28090.97
714.782	28078.54
715.125	27943.4
715.469	27993.57
715.812	27867.02
716.156	27683.52
716.499	27760.13
716.843	27822.73
717.186	27594.94
717.53	27698.66
717.873	27681.94
718.216	27547.71
718.559	27567.14
718.902	27255.29
719.246	27345.68
719.589	27183.65
719.932	27116.76
720.275	27235.4
720.617	27125.12
720.96	27107.04
721.303	27096.65
721.646	27024.33
721.989	26751.8
722.331	26914.28
722.674	26837.44
723.016	26848.74
723.359	26928.52
723.701	26881.96
724.044	26596.09
724.386	26588.19
724.729	26668.63
725.071	26634.74
725.413	26547.73
725.755	26616.88
726.097	26494.18
726.439	26321.07
726.782	26350
727.124	26448.75
727.465	26318.59
727.807	26201.3
728.149	26136.45
728.491	26118.37
728.833	26072.94
729.175	26045.83
729.516	26017.8
729.858	25978.71
730.199	26022.55
730.541	25996.34
730.882	25906.85
731.224	25996.79
731.565	25850.58
731.906	25756.57
732.248	25792.27
732.589	25701.2
732.93	25557.48
733.271	25604.93
733.612	25645.39
733.953	25674.08
734.294	25383.47
734.635	25437.71
734.976	25586.4
735.317	25327.2
735.658	25278.39
735.999	25250.37
736.339	25235
736.68	25310.25
737.021	25251.05
737.361	25173.31
737.702	25280.42
738.042	25053.08
738.383	25062.8
738.723	25172.18
739.063	25073.87
739.404	25010.15
739.744	25008.79
740.084	24915.23
740.424	24903.48
740.764	24908.91
741.104	24887.21
741.444	24901.45
741.784	24758.63
742.124	24733.54
742.464	24632.98
742.804	24618.29
743.143	24571.74
743.483	24630.5
743.823	24420.56
744.162	24418.07
744.502	24503.04
744.841	24459.65
745.181	24460.78
745.52	24363.61
745.86	24356.61
746.199	24303.73
746.538	24169.27
746.877	24316.38
747.216	24287.91
747.556	24180.56
747.895	24202.71
748.234	24086.56
748.573	24022.83
748.911	23926.33
749.25	24014.47
749.589	23980.8
749.928	23903.96
750.267	23914.58
750.605	23967.24
750.944	23855.83
751.283	23699.45
751.621	23822.16
751.96	23570.86
752.298	23709.84
752.636	23699.45
752.975	23539.9
753.313	23515.72
753.651	23602.73
753.989	23441.15
754.327	23324.99
754.666	23216.07
755.004	23385.56
755.342	23295.39
755.679	23163.42
756.017	23089.97
756.355	23090.65
756.693	23053.14
757.031	23129.74
757.368	22898.56
757.706	22866.7
758.044	22943.08
758.381	22882.75
758.719	22722.52
759.056	22789.41
759.394	22696.08
759.731	22599.59
760.068	22583.09
760.405	22344.91
760.743	22350.33
