Data from hue_280_FLMS001491_00024.txt Node
Date: Tue Feb 07 15:55:03 GMT 2017
User: dcchb
Spectrometer: FLMS00149
Trigger mode: 0
Integration Time (sec): 2.000000E-2
Scans to average: 10
Electric dark correction enabled: true
Nonlinearity correction enabled: false
Boxcar width: 0
XAxis mode: Wavelengths
Number of Pixels in Spectrum: 2048
>>>>>Begin Spectral Data<<<<<
341.393	-12.54
341.776	-12.54
342.16	-12.54
342.543	-40.79
342.927	-58.87
343.31	-71.75
343.693	-66.78
344.077	-62.48
344.46	-61.35
344.843	-51.41
345.226	-47.34
345.61	-18.19
345.993	-20.68
346.376	1.24
346.759	1.02
347.142	25.42
347.525	48.7
347.908	59.09
348.291	65.87
348.674	83.5
349.057	115.14
349.44	122.6
349.823	130.96
350.206	167.11
350.588	176.83
350.971	217.73
351.354	209.82
351.737	212.54
352.119	263.38
352.502	263.61
352.884	265.87
353.267	271.74
353.65	275.59
354.032	311.29
354.414	278.98
354.797	319.88
355.179	300.44
355.562	328.24
355.944	303.38
356.326	325.3
356.709	343.83
357.091	326.43
357.473	354.91
357.855	308.58
358.238	334.57
358.62	315.58
359.002	321.01
359.384	336.83
359.766	341.12
360.148	332.31
360.53	334.12
360.912	335.92
361.294	357.17
361.676	330.73
362.057	309.03
362.439	322.59
362.821	326.43
363.203	331.4
363.584	342.7
363.966	313.78
364.348	333.44
364.729	284.4
365.111	324.4
365.493	320.1
365.874	306.32
366.256	304.29
366.637	309.26
367.019	334.57
367.4	310.39
367.781	302.48
368.163	304.96
368.544	303.38
368.925	298.41
369.306	318.52
369.688	308.81
370.069	302.25
370.45	295.92
370.831	302.25
371.212	319.88
371.593	289.6
371.974	314.91
372.355	317.84
372.736	308.13
373.117	325.98
373.498	298.64
373.879	301.35
374.26	317.62
374.641	313.1
375.021	298.41
375.402	319.43
375.783	319.88
376.163	321.46
376.544	321.23
376.925	327.11
377.305	322.82
377.686	332.76
378.066	337.28
378.447	330.73
378.827	329.6
379.208	307.68
379.588	323.72
379.968	330.5
380.349	333.66
380.729	324.4
381.109	337.73
381.489	333.89
381.87	337.96
382.25	323.27
382.63	335.7
383.01	333.21
383.39	335.25
383.77	340.89
384.15	334.57
384.53	339.99
384.91	346.77
385.29	346.32
385.67	336.38
386.049	360.1
386.429	356.04
386.809	342.02
387.189	345.41
387.568	374.11
387.948	351.06
388.328	341.35
388.707	361.91
389.087	363.72
389.466	350.39
389.846	361.01
390.225	363.04
390.605	355.81
390.984	352.19
391.363	357.84
391.743	387.22
392.122	358.75
392.501	393.77
392.881	352.42
393.26	383.83
393.639	386.54
394.018	362.14
394.397	392.65
394.776	366.88
395.155	384.51
395.534	391.74
395.913	367.56
396.292	396.49
396.671	389.26
397.05	393.32
397.429	388.8
397.808	397.84
398.186	394.68
398.565	408.92
398.944	417.73
399.323	408.92
399.701	413.89
400.08	421.12
400.458	422.93
400.837	427.9
401.215	433.1
401.594	412.53
401.972	419.09
402.351	410.27
402.729	460.44
403.107	414.34
403.486	416.15
403.864	443.49
404.242	431.97
404.62	442.81
404.999	448.69
405.377	471.96
405.755	448.91
406.133	434.9
406.511	461.57
406.889	455.02
407.267	482.36
407.645	495.69
408.023	495.47
408.401	495.69
408.779	473.32
409.156	511.74
409.534	476.26
409.912	498.18
410.29	497.05
410.667	511.51
411.045	559.65
411.422	530.95
411.8	543.38
412.178	545.41
412.555	572.75
412.933	565.97
413.31	546.31
413.687	565.75
414.065	593.77
414.442	591.51
414.819	598.52
415.197	591.06
415.574	596.71
415.951	615.92
416.328	612.75
416.705	606.88
417.082	622.24
417.46	648.23
417.837	643.71
418.214	655.01
418.591	678.29
418.967	658.63
419.344	672.64
419.721	677.61
420.098	680.1
420.475	686.42
420.852	681
421.228	697.04
421.605	719.64
421.982	713.99
422.358	745.18
422.735	732.3
423.111	774.56
423.488	756.7
423.864	757.38
424.241	780.88
424.617	787.44
424.994	787.21
425.37	798.28
425.746	818.85
426.123	835.12
426.499	822.46
426.875	857.27
427.251	865.63
427.627	868.79
428.003	885.74
428.379	872.18
428.756	898.39
429.132	924.61
429.507	930.94
429.883	932.29
430.259	928.45
430.635	943.14
431.011	940.2
431.387	966.87
431.763	975.68
432.138	996.47
432.514	1006.64
432.89	1014.32
433.265	1011.16
433.641	1059.75
434.016	1049.8
434.392	1069.01
434.767	1097.71
435.143	1089.35
435.518	1116.69
435.894	1124.38
436.269	1139.07
436.644	1154.66
437.02	1169.12
437.395	1206.41
437.77	1214.54
438.145	1206.86
438.52	1221.55
438.895	1229.01
439.271	1249.57
439.646	1253.87
440.021	1259.74
440.395	1297.48
440.77	1265.16
441.145	1314.2
441.52	1316.01
441.895	1315.11
442.27	1365.73
442.645	1325.73
443.019	1376.8
443.394	1378.83
443.769	1366.63
444.143	1386.29
444.518	1417.02
444.892	1391.71
445.267	1397.14
445.641	1427.42
446.016	1415.44
446.39	1430.81
446.764	1470.13
447.139	1464.93
447.513	1424.03
447.887	1452.5
448.262	1459.06
448.636	1498.38
449.01	1495.67
449.384	1503.12
449.758	1494.31
450.132	1499.96
450.506	1485.27
450.88	1538.83
451.254	1531.15
451.628	1547.64
452.002	1542.9
452.376	1578.83
452.75	1539.73
453.123	1598.04
453.497	1605.49
453.871	1634.42
454.244	1651.37
454.618	1674.42
454.992	1680.75
455.365	1659.96
455.739	1722.1
456.112	1742.89
456.486	1705.38
456.859	1761.65
457.232	1754.87
457.606	1741.76
457.979	1807.52
458.352	1810.46
458.725	1831.25
459.099	1832.16
459.472	1869.89
459.845	1878.03
460.218	1872.15
460.591	1877.8
460.964	1900.4
461.337	1925.94
461.71	1956.67
462.083	1974.52
462.456	1970.23
462.829	1961.42
463.201	2035.99
463.574	1987.86
463.947	2042.32
464.32	2064.47
464.692	2092.04
465.065	2080.28
465.438	2134.52
465.81	2107.4
466.183	2173.39
466.555	2188.08
466.928	2215.65
467.3	2177.91
467.672	2246.61
468.045	2290.45
468.417	2275.53
468.789	2286.38
469.161	2312.59
469.534	2334.97
469.906	2360.05
470.278	2413.61
470.65	2377
471.022	2453.61
471.394	2466.94
471.766	2478.24
472.138	2510.33
472.51	2536.54
472.882	2602.3
473.253	2583.1
473.625	2668.07
473.997	2677.56
474.369	2664.9
474.74	2733.83
475.112	2741.96
475.484	2780.15
475.855	2829.64
476.227	2816.99
476.598	2907.61
476.97	2932.01
477.341	3009.75
477.713	2996.87
478.084	3013.37
478.455	3071.44
478.827	3067.15
479.198	3156.64
479.569	3151.67
479.94	3246.13
480.311	3255.39
480.682	3311.66
481.053	3376.97
481.424	3415.16
481.795	3412
482.166	3460.14
482.537	3495.61
482.908	3569.96
483.279	3573.13
483.65	3608.61
484.021	3658.32
484.391	3694.48
484.762	3723.4
485.133	3786
485.503	3765.21
485.874	3861.48
486.244	3897.86
486.615	3929.28
486.985	3985.77
487.356	3977.41
487.726	4102.83
488.097	4094.92
488.467	4117.29
488.837	4208.82
489.207	4213.56
489.578	4211.75
489.948	4287.91
490.318	4352.54
490.688	4364.74
491.058	4400.22
491.428	4461.01
491.798	4476.83
492.168	4563.38
492.538	4577.85
492.908	4628.69
493.278	4653.78
493.648	4647.9
494.017	4774.9
494.387	4741.46
494.757	4773.32
495.126	4795.92
495.496	4835.69
495.866	4840.21
496.235	4881.11
496.605	4912.75
496.974	4876.59
497.344	4931.73
497.713	4997.5
498.082	5022.35
498.452	5046.53
498.821	5063.71
499.19	5070.94
499.559	5093.76
499.928	5109.13
500.298	5109.13
500.667	5173.54
501.036	5135.35
501.405	5234.33
501.774	5189.13
502.143	5193.42
502.512	5251.5
502.88	5293.31
503.249	5310.48
503.618	5308.22
503.987	5328.79
504.356	5336.7
504.724	5399.52
505.093	5426.19
505.462	5391.61
505.83	5442
506.199	5468.67
506.567	5554.77
506.936	5524.71
507.304	5538.27
507.672	5528.33
508.041	5558.61
508.409	5588.44
508.777	5645.39
509.145	5661.43
509.514	5705.73
509.882	5732.62
510.25	5642.22
510.618	5671.38
510.986	5708.21
511.354	5755.89
511.722	5796.34
512.09	5851.94
512.458	5793.86
512.826	5838.6
513.193	5844.25
513.561	5806.29
513.929	5948.88
514.297	5963.8
514.664	5945.72
515.032	5956.57
515.4	5944.82
515.767	5924.25
516.135	6005.83
516.502	5961.99
516.869	6037.92
517.237	5990.24
517.604	6043.12
517.972	6102.55
518.339	6077.47
518.706	6099.84
519.073	6136
519.44	6139.39
519.808	6173.74
520.175	6159.5
520.542	6214.19
520.909	6219.38
521.276	6227.75
521.643	6215.77
522.009	6278.82
522.376	6306.16
522.743	6341.87
523.11	6406.72
523.477	6386.84
523.843	6422.32
524.21	6453.28
524.577	6465.03
524.943	6473.39
525.31	6539.38
525.676	6572.37
526.043	6616.44
526.409	6611.46
526.776	6629.32
527.142	6656.66
527.508	6614.63
527.874	6698.92
528.241	6704.12
528.607	6766.26
528.973	6791.35
529.339	6782.76
529.705	6849.88
530.071	6867.05
530.437	6907.28
530.803	6879.93
531.169	6992.92
531.535	6912.25
531.901	6939.59
532.267	7001.06
532.632	7011.45
532.998	7054.84
533.364	7056.88
533.73	7024.34
534.095	7085.35
534.461	7097.1
534.826	7157.44
535.192	7095.97
535.557	7129.87
535.923	7135.29
536.288	7196.31
536.653	7187.49
537.019	7144.11
537.384	7203.09
537.749	7235.18
538.114	7258.91
538.479	7229.98
538.845	7246.25
539.21	7295.97
539.575	7303.88
539.94	7333.71
540.305	7369.41
540.67	7319.02
541.034	7357.66
541.399	7368.28
541.764	7366.47
542.129	7337.1
542.494	7442.63
542.858	7468.17
543.223	7437.43
543.587	7529.63
543.952	7408.28
544.316	7520.37
544.681	7517.43
545.045	7525.11
545.41	7524.89
545.774	7599.24
546.138	7561.5
546.503	7585.68
546.867	7647.6
547.231	7614.38
547.595	7658.44
547.959	7638.56
548.324	7615.05
548.688	7646.69
549.052	7675.84
549.416	7728.95
549.779	7698.89
550.143	7708.16
550.507	7701.38
550.871	7751.32
551.235	7755.39
551.599	7747.93
551.962	7815.27
552.326	7796.29
552.689	7851.21
553.053	7804.88
553.417	7811.43
553.78	7933.92
554.143	7867.7
554.507	7932.33
554.87	7942.05
555.234	7962.84
555.597	7880.58
555.96	7956.06
556.323	7994.71
556.686	7953.35
557.05	8008.26
557.413	7983.63
557.776	8016.4
558.139	8123.52
558.502	8013.91
558.865	8106.11
559.228	8141.59
559.59	8106.57
559.953	8151.09
560.316	8260.91
560.679	8263.62
561.041	8307.69
561.404	8317.86
561.767	8351.08
562.129	8356.05
562.492	8363.96
562.854	8355.15
563.217	8371.64
563.579	8419.1
563.941	8426.56
564.304	8443.96
564.666	8494.8
565.028	8521.7
565.39	8552.43
565.753	8531.64
566.115	8630.85
566.477	8605.54
566.839	8621.58
567.201	8710.84
567.563	8645.76
567.925	8801.46
568.287	8798.98
568.648	8711.52
569.01	8809.6
569.372	8867.68
569.734	8865.64
570.095	8961.69
570.457	8964.4
570.819	8945.41
571.18	8956.94
571.542	9077.84
571.903	9035.81
572.265	9087.78
572.626	9131.4
572.987	9125.97
573.349	9163.26
573.71	9176.59
574.071	9193.32
574.432	9280.55
574.794	9313.31
575.155	9355.35
575.516	9342.24
575.877	9343.6
576.238	9423.14
576.599	9521.9
576.96	9469.69
577.32	9513.08
577.681	9605.28
578.042	9640.31
578.403	9568.67
578.763	9683.25
579.124	9709.46
579.485	9744.04
579.845	9837.14
580.206	9775.9
580.566	9884.82
580.927	9869.01
581.287	9988.1
581.648	10010.25
582.008	10125.95
582.368	10119.85
582.728	10172.73
583.089	10170.92
583.449	10229.67
583.809	10281.42
584.169	10382.21
584.529	10332.27
584.889	10487.97
585.249	10428.77
585.609	10467.41
585.969	10615.2
586.329	10669.66
586.688	10701.98
587.048	10750.56
587.408	10779.94
587.768	10807.74
588.127	10915.98
588.487	10960.5
588.846	11064.45
589.206	11072.59
589.565	11175.64
589.925	11320.27
590.284	11237.56
590.643	11346.03
591.003	11456.76
591.362	11525.69
591.721	11545.35
592.08	11627.15
592.44	11683.42
592.799	11725.45
593.158	11731.78
593.517	11885
593.876	11957.09
594.235	11938.78
594.593	12104.2
594.952	12141.49
595.311	12129.51
595.67	12282.73
596.029	12303.52
596.387	12357.53
596.746	12449.05
597.104	12433.91
597.463	12498.32
597.822	12633
598.18	12566.56
598.538	12645.2
598.897	12744.64
599.255	12704.19
599.613	12883.39
599.972	12864.41
600.33	12845.42
600.688	12917.06
601.046	13018.75
601.404	13132.42
601.762	13150.28
602.12	13232.76
602.478	13233.21
602.836	13276.6
603.194	13237.28
603.552	13316.82
603.91	13279.54
604.268	13445.86
604.625	13376.03
604.983	13460.32
605.341	13442.25
605.698	13571.73
606.056	13614.44
606.413	13606.99
606.771	13699.19
607.128	13752.75
607.485	13784.16
607.843	13674.33
608.2	13803.37
608.557	13805.63
608.914	13817.38
609.272	13940.99
609.629	13880.43
609.986	14088.1
610.343	14055.34
610.7	14131.49
611.057	14091.49
611.414	14166.52
611.771	14149.57
612.127	14191.15
612.484	14240.19
612.841	14316.12
613.198	14324.71
613.554	14310.25
613.911	14333.75
614.267	14409.45
614.624	14390.7
614.98	14409.23
615.337	14522.67
615.693	14503.23
616.05	14495.55
616.406	14552.72
616.762	14592.95
617.118	14597.02
617.475	14537.81
617.831	14699.39
618.187	14636.56
618.543	14701.87
618.899	14840.63
619.255	14699.39
619.611	14766.73
619.967	14808.09
620.323	14847.63
620.678	14778.26
621.034	14794.53
621.39	14827.75
621.746	14747.75
622.101	14986.16
622.457	14818.25
622.812	14814.19
623.168	14832.94
623.523	14935.31
623.879	14910
624.234	14835.66
624.589	14844.69
624.945	14920.62
625.3	14915.43
625.655	14974.86
626.01	14899.83
626.365	14977.35
626.72	14941.87
627.075	14990
627.43	15050.34
627.785	14936.22
628.14	14965.14
628.495	14927.86
628.85	15013.05
629.205	14823.68
629.559	15044.92
629.914	14899.16
630.269	14947.06
630.623	14950.68
630.978	14886.95
631.332	14892.83
631.687	14952.94
632.041	14921.75
632.396	14956.78
632.75	14889.89
633.104	14826.62
633.459	14877.46
633.813	14899.61
634.167	14795.66
634.521	14833.17
634.875	14853.73
635.229	14849.67
635.583	14711.82
635.937	14744.13
636.291	14736.45
636.645	14854.41
636.999	14729.22
637.352	14764.47
637.706	14664.59
638.06	14691.25
638.413	14644.02
638.767	14678.15
639.121	14697.58
639.474	14627.07
639.828	14643.8
640.181	14564.93
640.534	14645.83
640.888	14593.85
641.241	14531.03
641.594	14534.65
641.947	14580.75
642.301	14558.83
642.654	14545.49
643.007	14596.11
643.36	14511.6
643.713	14536
644.066	14584.36
644.419	14493.52
644.771	14354.54
645.124	14253.75
645.477	14269.12
645.83	14187.76
646.182	14150.48
646.535	14059.4
646.888	14185.95
647.24	14029.8
647.593	14105.05
647.945	14084.04
648.298	14040.65
648.65	13980.54
649.002	14030.48
649.355	14029.12
649.707	14068.9
650.059	14058.27
650.411	14257.82
650.763	14172.85
651.115	14523.8
651.467	14421.88
651.819	14355.44
652.171	14317.02
652.523	14390.02
652.875	14352.96
653.227	14272.05
653.578	14419.62
653.93	14346.63
654.282	14296.69
654.633	14247.87
654.985	14318.38
655.337	14400.64
655.688	14363.8
656.039	14458.49
656.391	14236.35
656.742	14432.05
657.094	14352.05
657.445	14399.51
657.796	14387.76
658.147	14412.84
658.498	14358.61
658.849	14418.26
659.2	14347.76
659.551	14381.66
659.902	14426.63
660.253	14498.49
660.604	14417.59
660.955	14364.26
661.306	14489
661.656	14512.73
662.007	14443.35
662.358	14424.59
662.708	14544.59
663.059	14515.44
663.409	14372.39
663.76	14528.54
664.11	14533.29
664.461	14534.42
664.811	14484.48
665.161	14429.11
665.511	14368.55
665.862	14444.7
666.212	14559.05
666.562	14482.22
666.912	14563.35
667.262	14422.78
667.612	14458.72
667.962	14408.1
668.312	14399.96
668.662	14605.83
669.011	14369
669.361	14505.72
669.711	14518.6
670.06	14470.92
670.41	14398.6
670.76	14364.26
671.109	14461.88
671.459	14406.74
671.808	14357.93
672.157	14459.62
672.507	14288.78
672.856	14267.08
673.205	14338.27
673.554	14449.45
673.904	14385.95
674.253	14319.96
674.602	14239.06
674.951	14142.34
675.3	14057.6
675.649	14371.94
675.998	14196.58
676.346	14292.39
676.695	14319.06
677.044	14110.93
677.393	14213.52
677.741	14254.43
678.09	14218.95
678.438	14199.29
678.787	14146.18
679.135	14217.14
679.484	14005.17
679.832	14146.63
680.181	14020.99
680.529	14084.26
680.877	14098.05
681.225	13992.74
681.573	14133.07
681.922	14030.7
682.27	13958.84
682.618	13968.11
682.966	13860.31
683.314	13923.36
683.661	13937.37
684.009	13868
684.357	13770.15
684.705	13759.07
685.053	13791.61
685.4	13790.03
685.748	13726.76
686.095	13685.4
686.443	13584.61
686.79	13558.63
687.138	13655.12
687.485	13568.12
687.832	13535.12
688.18	13501.68
688.527	13430.49
688.874	13438.18
689.221	13400.89
689.568	13371.06
689.915	13307.79
690.262	13297.84
690.609	13232.31
690.956	13211.74
691.303	13151.41
691.65	13130.16
691.997	13101.24
692.344	12995.25
692.69	12923.16
693.037	12938.08
693.383	12928.81
693.73	12957.06
694.077	12802.71
694.423	12882.94
694.769	12821.92
695.116	12744.41
695.462	12698.99
695.808	12694.69
696.155	12665.32
696.501	12563.62
696.847	12555.26
697.193	12443.85
697.539	12433.01
697.885	12424.65
698.231	12420.58
698.577	12361.14
698.923	12318.43
699.269	12306.68
699.614	12137.42
699.96	12102.62
700.306	12099.23
700.651	12020.59
700.997	12058.1
701.342	12015.62
701.688	11934.49
702.033	11894.72
702.379	11830.76
702.724	11880.03
703.069	11845.23
703.415	11675.96
703.76	11679.35
704.105	11637.1
704.45	11655.63
704.795	11577.66
705.14	11504.9
705.485	11457.44
705.83	11438.68
706.175	11464.67
706.52	11476.87
706.865	11381.96
707.209	11389.64
707.554	11310.78
707.899	11349.42
708.243	11267.84
708.588	11233.04
708.932	11168.63
709.277	11157.11
709.621	11117.79
709.966	11021.29
710.31	11115.53
710.654	10926.61
710.998	11012.48
711.342	10935.42
711.687	10936.55
712.031	10882.54
712.375	10889.32
712.719	10832.14
713.063	10850.22
713.407	10903.1
713.75	10804.8
714.094	10753.28
714.438	10744.46
714.782	10795.31
715.125	10680.74
715.469	10722.54
715.812	10654.97
716.156	10675.99
716.499	10574.3
716.843	10614.52
717.186	10524.13
717.53	10656.1
717.873	10638.48
718.216	10523.23
718.559	10591.7
718.902	10528.42
719.246	10530.01
719.589	10504.92
719.932	10369.56
720.275	10460.85
720.617	10417.69
720.96	10424.92
721.303	10354.42
721.646	10423.57
721.989	10364.13
722.331	10436
722.674	10331.82
723.016	10380.63
723.359	10320.97
723.701	10383.34
724.044	10313.97
724.386	10292.95
724.729	10323.91
725.071	10264.7
725.413	10208.21
725.755	10216.34
726.097	10232.84
726.439	10157.36
726.782	10153.07
727.124	10273.29
727.465	10147.42
727.807	10227.64
728.149	10155.33
728.491	10160.52
728.833	10176.79
729.175	10160.75
729.516	10165.04
729.858	10097.25
730.199	10121.43
730.541	10106.74
730.882	10099.96
731.224	10163.01
731.565	10138.38
731.906	10138.15
732.248	10158.26
732.589	10110.58
732.93	10080.98
733.271	10110.58
733.612	10190.35
733.953	10111.26
734.294	10121.88
734.635	10069.23
734.976	10111.03
735.317	10077.14
735.658	10136.8
735.999	10137.25
736.339	10094.08
736.68	10077.59
737.021	10099.28
737.361	10089.34
737.702	10171.14
738.042	10103.8
738.383	10059.96
738.723	10160.3
739.063	10094.31
739.404	10157.36
739.744	10137.02
740.084	10142.9
740.424	10236.91
740.764	10201.2
741.104	10235.1
741.444	10158.94
741.784	10166.17
742.124	10215.89
742.464	10202.56
742.804	10251.14
743.143	10267.19
743.483	10263.35
743.823	10314.19
744.162	10330.69
744.502	10318.94
744.841	10325.04
745.181	10445.94
745.52	10496.11
745.86	10501.53
746.199	10539.95
746.538	10592.83
746.877	10662.66
747.216	10676.67
747.556	10723.67
747.895	10751.92
748.234	10784.91
748.573	10782.65
748.911	10894.52
749.25	10960.5
749.589	11012.03
749.928	11123.21
750.267	11118.46
750.605	11254.28
750.944	11285.92
751.283	11288.18
751.621	11436.42
751.96	11518.45
752.298	11585.8
752.636	11711.44
752.975	11771.1
753.313	11823.76
753.651	11942.85
753.989	12139.45
754.327	12153.69
754.666	12240.92
755.004	12350.75
755.342	12534.7
755.679	12602.04
756.017	12720.91
756.355	12884.07
756.693	12932.43
757.031	13107.34
757.368	13224.17
757.706	13300.78
758.044	13376.94
758.381	13507.1
758.719	13642.92
759.056	13864.61
759.394	14086.75
759.731	14029.8
