Data from hue_250_FLMS001491_00043.txt Node
Date: Tue Feb 07 16:01:01 GMT 2017
User: dcchb
Spectrometer: FLMS00149
Trigger mode: 0
Integration Time (sec): 2.000000E-2
Scans to average: 10
Electric dark correction enabled: true
Nonlinearity correction enabled: false
Boxcar width: 0
XAxis mode: Wavelengths
Number of Pixels in Spectrum: 2048
>>>>>Begin Spectral Data<<<<<
341.393	-15.78
341.776	-15.78
342.16	-15.78
342.543	-41.31
342.927	-52.39
343.31	-79.96
343.693	-52.39
344.077	-64.14
344.46	-56.23
344.843	-58.26
345.226	-32.5
345.61	-28.43
345.993	-17.13
346.376	-12.39
346.759	16.54
347.142	42.3
347.525	31.23
347.908	38.91
348.291	82.07
348.674	71.23
349.057	119.14
349.44	139.25
349.823	154.39
350.206	155.97
350.588	187.38
350.971	214.05
351.354	206.82
351.737	210.66
352.119	241.17
352.502	243.65
352.884	257.89
353.267	275.29
353.65	266.25
354.032	286.36
354.414	314.16
354.797	295.4
355.179	324.78
355.562	331.11
355.944	320.71
356.326	338.79
356.709	335.4
357.091	323.42
357.473	327.49
357.855	357.77
358.238	338.56
358.62	336.98
359.002	350.54
359.384	334.04
359.766	335.63
360.148	358.23
360.53	348.96
360.912	327.49
361.294	327.04
361.676	332.91
362.057	326.36
362.439	325.01
362.821	329.53
363.203	329.75
363.584	331.79
363.966	348.28
364.348	306.93
364.729	321.84
365.111	319.36
365.493	348.06
365.874	304.67
366.256	304.44
366.637	315.74
367.019	298.34
367.4	295.18
367.781	316.42
368.163	302.86
368.544	311.9
368.925	327.27
369.306	315.51
369.688	296.08
370.069	318
370.45	307.15
370.831	314.38
371.212	305.35
371.593	308.96
371.974	332.69
372.355	296.76
372.736	317.55
373.117	316.42
373.498	310.54
373.879	317.32
374.26	299.24
374.641	321.39
375.021	316.19
375.402	292.01
375.783	293.14
376.163	309.86
376.544	320.03
376.925	318.23
377.305	333.59
377.686	320.94
378.066	334.95
378.447	346.47
378.827	318.45
379.208	334.27
379.588	339.47
379.968	316.42
380.349	342.86
380.729	319.13
381.109	326.36
381.489	320.03
381.87	343.76
382.25	336.08
382.63	334.95
383.01	329.07
383.39	332.91
383.77	334.04
384.15	319.36
384.53	340.37
384.91	352.58
385.29	362.29
385.67	338.79
386.049	343.54
386.429	346.7
386.809	334.72
387.189	357.32
387.568	374.5
387.948	339.69
388.328	344.67
388.707	354.38
389.087	371.11
389.466	360.71
389.846	369.07
390.225	369.07
390.605	352.8
390.984	362.52
391.363	371.33
391.743	376.98
392.122	376.98
392.501	374.5
392.881	390.31
393.26	380.6
393.639	385.12
394.018	390.77
394.397	361.61
394.776	389.41
395.155	387.83
395.534	374.95
395.913	402.07
396.292	415.4
396.671	389.18
397.05	407.49
397.429	408.85
397.808	391.22
398.186	389.86
398.565	393.48
398.944	407.94
399.323	411.11
399.701	394.61
400.08	395.74
400.458	414.95
400.837	401.84
401.215	415.17
401.594	399.13
401.972	425.12
402.351	411.78
402.729	430.31
403.107	425.57
403.486	423.76
403.864	414.27
404.242	450.65
404.62	446.58
404.999	428.73
405.377	456.98
405.755	449.52
406.133	478.45
406.511	460.6
406.889	469.63
407.267	456.53
407.645	461.95
408.023	479.8
408.401	489.97
408.779	484.78
409.156	494.49
409.534	491.78
409.912	488.62
410.29	509.18
410.667	505.11
411.045	516.64
411.422	533.81
411.8	539.92
412.178	542.63
412.555	551.67
412.933	553.93
413.31	545.11
413.687	569.52
414.065	562.51
414.442	550.54
414.819	573.13
415.197	574.72
415.574	593.25
415.951	588.05
416.328	629.4
416.705	619.24
417.082	588.28
417.46	613.59
417.837	626.92
418.214	637.99
418.591	633.47
418.967	652
419.344	653.58
419.721	653.81
420.098	644.09
420.475	654.71
420.852	682.74
421.228	699.23
421.605	697.65
421.982	699.01
422.358	708.72
422.735	741.72
423.111	743.98
423.488	753.47
423.864	755.05
424.241	757.54
424.617	747.14
424.994	772.23
425.37	806.12
425.746	776.07
426.123	824.88
426.499	815.84
426.875	814.94
427.251	849.96
427.627	846.8
428.003	868.27
428.379	849.51
428.756	871.66
429.132	872.34
429.507	913.46
429.883	894.48
430.259	919.34
430.635	896.74
431.011	924.99
431.387	944.42
431.763	964.99
432.138	948.49
432.514	974.93
432.89	979.9
433.265	1006.57
433.641	1018.55
434.016	1048.6
434.392	1032.11
434.767	1083.18
435.143	1066.68
435.518	1108.49
435.894	1121.14
436.269	1126.79
436.644	1116.4
437.02	1164.31
437.395	1136.74
437.77	1176.73
438.145	1197.98
438.52	1206.34
438.895	1245.66
439.271	1210.63
439.646	1256.28
440.021	1264.64
440.395	1270.52
440.77	1267.58
441.145	1312.55
441.52	1335.83
441.895	1307.8
442.27	1346.9
442.645	1369.72
443.019	1381.25
443.394	1327.01
443.769	1386.67
444.143	1404.3
444.518	1432.32
444.892	1414.02
445.267	1393.23
445.641	1440
446.016	1430.29
446.39	1450.63
446.764	1452.66
447.139	1457.86
447.513	1505.54
447.887	1489.04
448.262	1491.53
448.636	1495.37
449.01	1508.25
449.384	1532.66
449.758	1551.41
450.132	1567.01
450.506	1557.52
450.88	1543.5
451.254	1572.66
451.628	1608.59
452.002	1638.64
452.376	1600.45
452.75	1663.73
453.123	1641.36
453.497	1684.29
453.871	1692.65
454.244	1739.21
454.618	1742.82
454.992	1738.3
455.365	1760.45
455.739	1813.55
456.112	1825.31
456.486	1823.5
456.859	1829.37
457.232	1863.27
457.606	1834.12
457.979	1877.06
458.352	1913.66
458.725	1943.49
459.099	1955.92
459.472	1969.48
459.845	2004.06
460.218	2014.68
460.591	2002.02
460.964	2044.73
461.337	2079.08
461.71	2095.13
462.083	2119.76
462.456	2145.3
462.829	2128.57
463.201	2165.41
463.574	2185.3
463.947	2229.36
464.32	2292.64
464.692	2254.67
465.065	2296.93
465.438	2314.11
465.81	2334.22
466.183	2374.9
466.555	2417.83
466.928	2408.11
467.3	2407.44
467.672	2461.22
468.045	2511.61
468.417	2488.11
468.789	2511.16
469.161	2578.05
469.534	2618.05
469.906	2676.58
470.278	2669.8
470.65	2674.55
471.022	2744.83
471.394	2773.75
471.766	2789.35
472.138	2835.22
472.51	2876.58
472.882	2942.11
473.253	2922.68
473.625	2977.82
473.997	3022.34
474.369	3028.89
474.74	3080.41
475.112	3117.02
475.484	3149.34
475.855	3187.3
476.227	3251.03
476.598	3324.02
476.97	3355.66
477.341	3397.47
477.713	3428.43
478.084	3445.38
478.455	3561.98
478.827	3566.95
479.198	3644.69
479.569	3658.7
479.94	3743.67
480.311	3759.04
480.682	3827.96
481.053	3872.03
481.424	3924.68
481.795	3970.11
482.166	4042.65
482.537	4079.48
482.908	4190.21
483.279	4216.2
483.65	4276.31
484.021	4362.19
484.391	4380.27
484.762	4379.81
485.133	4412.36
485.503	4506.59
485.874	4507.49
486.244	4606.25
486.615	4643.99
486.985	4713.36
487.356	4809.41
487.726	4803.53
488.097	4898.9
488.467	4938.22
488.837	5055.95
489.207	5060.25
489.578	5095.73
489.948	5180.7
490.318	5216.85
490.688	5216.85
491.058	5273.12
491.428	5365.78
491.798	5362.39
492.168	5486.68
492.538	5505.43
492.908	5540.24
493.278	5621.59
493.648	5603.74
494.017	5705.43
494.387	5708.37
494.757	5738.2
495.126	5840.11
495.496	5827.01
495.866	5853
496.235	5888.02
496.605	5960.56
496.974	5969.83
497.344	5983.61
497.713	6042.6
498.082	6123.27
498.452	6148.81
498.821	6169.82
499.19	6131.18
499.559	6209.82
499.928	6224.06
500.298	6272.65
500.667	6372.76
501.036	6277.17
501.405	6362.59
501.774	6356.26
502.143	6414.56
502.512	6456.37
502.88	6487.78
503.249	6398.52
503.618	6510.83
503.987	6531.4
504.356	6571.62
504.724	6496.82
505.093	6624.27
505.462	6626.99
505.83	6660.43
506.199	6681.67
506.567	6727.78
506.936	6730.49
507.304	6774.33
507.672	6785.4
508.041	6845.96
508.409	6848.22
508.777	6939.75
509.145	6915.34
509.514	6960.76
509.882	6966.86
510.25	6984.27
510.618	7002.12
510.986	7010.03
511.354	7050.03
511.722	7065.39
512.09	7129.12
512.458	7093.64
512.826	7142.45
513.193	7178.84
513.561	7156.69
513.929	7202.56
514.297	7259.96
514.664	7205.73
515.032	7274.43
515.4	7308.78
515.767	7293.64
516.135	7316.23
516.502	7317.14
516.869	7417.93
517.237	7427.42
517.604	7384.25
517.972	7444.37
518.339	7461.32
518.706	7381.77
519.073	7482.56
519.44	7538.6
519.808	7588.54
520.175	7511.48
520.542	7618.15
520.909	7586.51
521.276	7660.41
521.643	7672.83
522.009	7688.88
522.376	7683.23
522.743	7704.47
523.11	7744.02
523.477	7766.62
523.843	7767.75
524.21	7868.08
524.577	7885.71
524.943	7889.1
525.31	7918.93
525.676	7966.61
526.043	7912.83
526.409	7982.21
526.776	7991.02
527.142	7967.06
527.508	8007.06
527.874	8010.45
528.241	8172.48
528.607	8107.85
528.973	8171.35
529.339	8098.59
529.705	8174.29
530.071	8187.62
530.437	8150.11
530.803	8229.43
531.169	8260.62
531.535	8215.65
531.901	8247.06
532.267	8205.7
532.632	8231.46
532.998	8226.49
533.364	8260.39
533.73	8275.98
534.095	8295.64
534.461	8313.95
534.826	8306.26
535.192	8307.62
535.557	8307.62
535.923	8398.92
536.288	8299.71
536.653	8314.85
537.019	8250.67
537.384	8311.91
537.749	8356.88
538.114	8352.82
538.479	8281.86
538.845	8329.31
539.21	8299.26
539.575	8403.89
539.94	8335.19
540.305	8398.24
540.67	8373.61
541.034	8342.2
541.399	8332.93
541.764	8350.78
542.129	8324.34
542.494	8313.72
542.858	8381.29
543.223	8318.69
543.587	8426.04
543.952	8269.2
544.316	8348.07
544.681	8321.18
545.045	8289.99
545.41	8377.22
545.774	8359.14
546.138	8382.19
546.503	8334.06
546.867	8368.64
547.231	8344
547.595	8368.64
547.959	8366.83
548.324	8344.23
548.688	8341.97
549.052	8366.6
549.416	8359.37
549.779	8423.55
550.143	8306.94
550.507	8360.73
550.871	8358.01
551.235	8314.63
551.599	8336.77
551.962	8342.42
552.326	8417.45
552.689	8383.1
553.053	8341.52
553.417	8353.04
553.78	8427.84
554.143	8369.09
554.507	8417.22
554.87	8373.61
555.234	8408.18
555.597	8405.02
555.96	8461.74
556.323	8414.06
556.686	8447.73
557.05	8462.42
557.413	8438.46
557.776	8420.84
558.139	8474.85
558.502	8538.12
558.865	8521.4
559.228	8594.62
559.59	8587.39
559.953	8537.45
560.316	8542.42
560.679	8571.34
561.041	8606.37
561.404	8722.75
561.767	8639.36
562.129	8646.59
562.492	8775.4
562.854	8767.72
563.217	8740.83
563.579	8773.6
563.941	8780.83
564.304	8838.68
564.666	8842.07
565.028	8894.05
565.39	8904.22
565.753	8913.93
566.115	8919.81
566.477	8959.13
566.839	8961.39
567.201	9025.34
567.563	9038.45
567.925	9089.75
568.287	9076.64
568.648	9019.24
569.01	9138.11
569.372	9144.21
569.734	9102.85
570.095	9135.62
570.457	9212.23
570.819	9216.52
571.18	9259.23
571.542	9292
571.903	9238.67
572.265	9289.52
572.626	9352.79
572.987	9372.68
573.349	9342.62
573.71	9394.6
574.071	9433.47
574.432	9414.26
574.794	9454.71
575.155	9475.27
575.516	9450.87
575.877	9541.94
576.238	9586.91
576.599	9520.92
576.96	9575.38
577.32	9651.09
577.681	9591.65
578.042	9671.43
578.403	9699.45
578.763	9644.31
579.124	9689.05
579.485	9710.3
579.845	9835.72
580.206	9710.52
580.566	9806.56
580.927	9764.53
581.287	9805.21
581.648	9758.66
582.008	9813.34
582.368	9794.81
582.728	9829.84
583.089	9826.45
583.449	9840.24
583.809	9917.52
584.169	9926.56
584.529	9947.35
584.889	10068.03
585.249	9947.8
585.609	9902.38
585.969	10014.92
586.329	9968.59
586.688	9996.84
587.048	9953.68
587.408	10025.09
587.768	10006.78
588.127	9998.65
588.487	9931.08
588.846	10087.23
589.206	10055.6
589.565	10002.49
589.925	10096.95
590.284	10091.98
590.643	10155.03
591.003	10073.9
591.362	10092.66
591.721	10156.61
592.08	10049.72
592.44	10221.69
592.799	10231.19
593.158	10190.96
593.517	10169.94
593.876	10263.05
594.235	10245.2
594.593	10256.5
594.952	10283.84
595.311	10197.29
595.67	10241.58
596.029	10277.51
596.387	10289.94
596.746	10331.97
597.104	10292.65
597.463	10207.68
597.822	10265.76
598.18	10274.35
598.538	10248.13
598.897	10317.06
599.255	10245.87
599.613	10362.03
599.972	10296.49
600.33	10329.49
600.688	10332.43
601.046	10413.1
601.404	10327.68
601.762	10389.15
602.12	10370.84
602.478	10447.9
602.836	10453.1
603.194	10421.01
603.552	10423.27
603.91	10313.44
604.268	10380.33
604.625	10416.04
604.983	10415.81
605.341	10402.48
605.698	10414.46
606.056	10468.69
606.413	10380.11
606.771	10463.27
607.128	10501.46
607.485	10471.18
607.843	10494.46
608.2	10518.64
608.557	10490.39
608.914	10491.07
609.272	10566.09
609.629	10509.82
609.986	10545.98
610.343	10529.48
610.7	10635.47
611.057	10577.84
611.414	10595.24
611.771	10625.75
612.127	10656.49
612.484	10529.03
612.841	10623.27
613.198	10609.48
613.554	10607.45
613.911	10680.44
614.267	10655.81
614.624	10612.19
614.98	10660.78
615.337	10752.98
615.693	10704.39
616.05	10689.48
616.406	10771.51
616.762	10660.78
617.118	10764.05
617.475	10715.69
617.831	10743.49
618.187	10823.26
618.543	10811.06
618.899	10778.29
619.255	10783.26
619.611	10799.98
619.967	10852.19
620.323	10854.22
620.678	10821.23
621.034	10793.88
621.39	10750.72
621.746	10811.74
622.101	10950.94
622.457	10857.38
622.812	10845.63
623.168	10939.42
623.523	10877.95
623.879	10814
624.234	10763.15
624.589	10853.32
624.945	10863.03
625.3	10844.28
625.655	10677.28
626.01	10800.21
626.365	10903.26
626.72	10803.83
627.075	10811.28
627.43	10743.04
627.785	10747.56
628.14	10799.76
628.495	10801.11
628.85	10785.75
629.205	10757.73
629.559	10796.59
629.914	10719.08
630.269	10769.02
630.623	10699.42
630.978	10749.82
631.332	10795.46
631.687	10811.96
632.041	10710.27
632.396	10690.16
632.75	10616.03
633.104	10713.21
633.459	10640.44
633.813	10562.93
634.167	10589.37
634.521	10592.76
634.875	10642.25
635.229	10617.84
635.583	10554.57
635.937	10550.5
636.291	10521.57
636.645	10520.67
636.999	10507.34
637.352	10496.04
637.706	10437.51
638.06	10522.25
638.413	10492.87
638.767	10474.34
639.121	10483.61
639.474	10418.3
639.828	10477.73
640.181	10436.38
640.534	10423.5
640.888	10371.52
641.241	10339.21
641.594	10387.34
641.947	10378.53
642.301	10375.14
642.654	10369.26
643.007	10357.28
643.36	10342.6
643.713	10312.09
644.066	10369.94
644.419	10264.63
644.771	10223.73
645.124	10178.53
645.477	10154.8
645.83	10063.51
646.182	9985.32
646.535	9994.58
646.888	9967.46
647.24	9897.64
647.593	9983.28
647.945	9962.94
648.298	9970.18
648.65	9908.93
649.002	9890.4
649.355	9970.4
649.707	9880.69
650.059	9953.9
650.411	10074.35
650.763	10094.69
651.115	10219.89
651.467	10147.8
651.819	10179.66
652.171	10181.7
652.523	10177.18
652.875	10098.08
653.227	10063.96
653.578	10203.39
653.93	10163.16
654.282	10021.7
654.633	10021.7
654.985	10115.93
655.337	10080.68
655.688	10040
656.039	10151.87
656.391	10082.26
656.742	10093.11
657.094	10084.07
657.445	10136.95
657.796	10063.73
658.147	10126.33
658.498	10095.82
658.849	10113
659.2	10085.88
659.551	9986.22
659.902	10045.2
660.253	10061.7
660.604	10119.78
660.955	10067.35
661.306	10120
661.656	10087.46
662.007	10054.69
662.358	9984.41
662.708	10100.79
663.059	10096.73
663.409	10017.18
663.76	10156.39
664.11	10118.87
664.461	10174.01
664.811	10117.74
665.161	10079.78
665.511	10070.29
665.862	10022.15
666.212	10070.74
666.562	10016.05
666.912	10063.28
667.262	10031.64
667.612	10021.93
667.962	10070.51
668.312	10054.24
668.662	10143.96
669.011	10008.82
669.361	10052.89
669.711	10012.89
670.06	9928.82
670.41	9981.93
670.76	10011.08
671.109	10012.66
671.459	10067.57
671.808	9978.09
672.157	9923.4
672.507	9956.62
672.856	9887.47
673.205	9985.54
673.554	9933.57
673.904	9898.54
674.253	9978.54
674.602	9929.27
674.951	9838.65
675.3	9769.73
675.649	9956.84
675.998	9889.95
676.346	9931.53
676.695	9869.84
677.044	9828.03
677.393	9842.95
677.741	9883.62
678.09	9882.72
678.438	9832.55
678.787	9909.16
679.135	9917.75
679.484	9874.13
679.832	9830.07
680.181	9784.42
680.529	9759.11
680.877	9727.47
681.225	9694.7
681.573	9844.53
681.922	9715.72
682.27	9708.94
682.618	9711.2
682.966	9644.99
683.314	9713.23
683.661	9531.32
684.009	9662.61
684.357	9537.64
684.705	9500.36
685.053	9573.58
685.4	9538.55
685.748	9519.79
686.095	9499
686.443	9419.68
686.79	9496.52
687.138	9465.56
687.485	9413.13
687.832	9401.83
688.18	9353.69
688.527	9323.19
688.874	9290.42
689.221	9314.6
689.568	9277.54
689.915	9274.6
690.262	9282.96
690.609	9273.7
690.956	9201.38
691.303	9169.97
691.65	9158.67
691.997	9128.16
692.344	9080.26
692.69	9104.89
693.037	9069.18
693.383	8973.37
693.73	8996.87
694.077	8950.32
694.423	8950.09
694.769	8899.24
695.116	8873.26
695.462	8908.51
695.808	8857.89
696.155	8808.85
696.501	8749.87
696.847	8766.14
697.193	8717.1
697.539	8734.73
697.885	8630.32
698.231	8600.27
698.577	8559.82
698.923	8599.14
699.269	8521.63
699.614	8525.02
699.96	8515.75
700.306	8438.69
700.651	8452.02
700.997	8432.14
701.342	8382.19
701.688	8372.7
702.033	8370.67
702.379	8318.47
702.724	8325.47
703.069	8344.23
703.415	8230.56
703.76	8236.89
704.105	8213.16
704.45	8210.9
704.795	8174.74
705.14	8034.41
705.485	8071.02
705.83	8020.85
706.175	8118.7
706.52	7977.23
706.865	7987.63
707.209	7977.23
707.554	7885.26
707.899	7943.56
708.243	7919.61
708.588	7900.4
708.932	7837.58
709.277	7858.14
709.621	7823.11
709.966	7791.93
710.31	7821.53
710.654	7627.19
710.998	7747.86
711.342	7739.95
711.687	7697.47
712.031	7586.51
712.375	7614.98
712.719	7688.2
713.063	7668.77
713.407	7666.06
713.75	7540.41
714.094	7571.59
714.438	7541.31
714.782	7498.15
715.125	7539.96
715.469	7588.77
715.812	7495.21
716.156	7458.15
716.499	7501.09
716.843	7491.37
717.186	7413.63
717.53	7461.09
717.873	7441.2
718.216	7468.09
718.559	7406.63
718.902	7339.28
719.246	7337.48
719.589	7326.86
719.932	7286.4
720.275	7326.63
720.617	7278.5
720.96	7280.75
721.303	7294.31
721.646	7267.2
721.989	7264.94
722.331	7324.37
722.674	7193.53
723.016	7267.65
723.359	7189.23
723.701	7225.62
724.044	7192.17
724.386	7209.12
724.729	7159.4
725.071	7194.66
725.413	7175.9
725.755	7152.17
726.097	7094.32
726.439	7102.91
726.782	7155.56
727.124	7211.38
727.465	7117.6
727.807	7142
728.149	7114.88
728.491	7097.03
728.833	7126.86
729.175	7162.79
729.516	7076.92
729.858	7095.22
730.199	7097.71
730.541	7061.55
730.882	7059.29
731.224	7068.78
731.565	7037.15
731.906	7093.64
732.248	7066.3
732.589	7015.23
732.93	7076.24
733.271	7035.34
733.612	7029.01
733.953	7046.86
734.294	7078.05
734.635	6989.69
734.976	7044.15
735.317	7044.83
735.658	7080.76
735.999	7028.78
736.339	7022
736.68	7018.61
737.021	7029.24
737.361	6988.33
737.702	7013.64
738.042	7037.15
738.383	6983.59
738.723	6999.18
739.063	7013.19
739.404	6992.4
739.744	7015.23
740.084	7003.47
740.424	7044.6
740.764	6989.01
741.104	7066.75
741.444	7099.97
741.784	7013.42
742.124	7103.13
742.464	7106.3
742.804	7075.34
743.143	7100.19
743.483	7092.74
743.823	7084.83
744.162	7109.23
744.502	7130.25
744.841	7103.81
745.181	7212.51
745.52	7128.67
745.86	7209.57
746.199	7224.26
746.538	7169.12
746.877	7276.91
747.216	7272.85
747.556	7252.06
747.895	7318.49
748.234	7335.89
748.573	7390.13
748.911	7409.79
749.25	7443.01
749.589	7424.25
749.928	7513.52
750.267	7683.46
750.605	7592.39
750.944	7641.88
751.283	7684.36
751.621	7797.8
751.96	7786.05
752.298	7833.06
752.636	7930.46
752.975	7925.48
753.313	7962.32
753.651	8080.28
753.989	8192.14
754.327	8196.89
754.666	8245.93
755.004	8339.48
755.342	8410.67
755.679	8445.24
756.017	8565.92
756.355	8705.35
756.693	8645.69
757.031	8880.03
757.368	8886.81
757.706	8996.42
758.044	9066.02
758.381	9164.1
758.719	9216.52
759.056	9289.06
759.394	9441.15
759.731	9494.48
760.068	9555.72
760.405	9679.56
760.743	9714.14
761.08	9924.53
761.417	9909.84
761.754	10017.41
762.091	10144.63
762.428	10271.86
762.765	10285.87
763.102	10457.17
763.438	10490.61
763.775	10577.39
764.112	10717.27
764.449	10839.08
764.785	10948.68
