Data from hue_200_FLMS001491_00034.txt Node
Date: Tue Feb 07 16:43:11 GMT 2017
User: dcchb
Spectrometer: FLMS00149
Trigger mode: 0
Integration Time (sec): 2.000000E-2
Scans to average: 10
Electric dark correction enabled: true
Nonlinearity correction enabled: false
Boxcar width: 0
XAxis mode: Wavelengths
Number of Pixels in Spectrum: 2048
>>>>>Begin Spectral Data<<<<<
341.393	-12.51
341.776	-12.51
342.16	-12.51
342.543	-70.37
342.927	-59.29
343.31	-72.63
343.693	-59.74
344.077	-57.71
344.46	-62.23
344.843	-59.07
345.226	-50.93
345.61	-39.63
345.993	-15.45
346.376	0.59
346.759	9.18
347.142	24.77
347.525	63.42
347.908	44.43
348.291	78.33
348.674	94.6
349.057	102.06
349.44	127.6
349.823	147.71
350.206	163.3
350.588	172.34
350.971	220.02
351.354	208.27
351.737	233.13
352.119	244.2
352.502	259.12
352.884	276.52
353.267	300.7
353.65	283.3
354.032	281.04
354.414	287.14
354.797	295.5
355.179	323.52
355.562	344.31
355.944	307.7
356.326	343.86
356.709	349.51
357.091	340.25
357.473	333.69
357.855	355.16
358.238	329.17
358.62	328.27
359.002	332.56
359.384	342.51
359.766	339.12
360.148	353.13
360.53	328.72
360.912	352.67
361.294	343.86
361.676	337.99
362.057	340.02
362.439	338.44
362.821	327.14
363.203	330.3
363.584	321.71
363.966	322.39
364.348	322.17
364.729	329.85
365.111	321.94
365.493	325.78
365.874	324.2
366.256	322.84
366.637	322.39
367.019	297.31
367.4	319
367.781	308.83
368.163	324.88
368.544	310.64
368.925	323.75
369.306	314.48
369.688	323.75
370.069	316.07
370.45	321.71
370.831	320.36
371.212	324.88
371.593	316.97
371.974	340.7
372.355	325.56
372.736	316.74
373.117	307.25
373.498	337.08
373.879	323.52
374.26	325.56
374.641	310.42
375.021	327.82
375.402	316.97
375.783	311.55
376.163	334.37
376.544	338.89
376.925	344.54
377.305	348.38
377.686	340.25
378.066	316.74
378.447	335.27
378.827	344.76
379.208	335.5
379.588	350.87
379.968	348.15
380.349	361.04
380.729	333.69
381.109	325.1
381.489	329.4
381.87	341.38
382.25	345.67
382.63	341.38
383.01	348.38
383.39	368.95
383.77	352
384.15	360.81
384.53	359
384.91	361.71
385.29	358.78
385.67	368.27
386.049	367.36
386.429	367.14
386.809	385.44
387.189	350.64
387.568	334.6
387.948	359.91
388.328	382.5
388.707	373.01
389.087	340.25
389.466	349.28
389.846	381.37
390.225	370.98
390.605	385.22
390.984	401.03
391.363	364.43
391.743	389.74
392.122	392.45
392.501	393.35
392.881	386.35
393.26	364.88
393.639	391.54
394.018	386.12
394.397	385.67
394.776	390.19
395.155	382.28
395.534	379.11
395.913	391.32
396.292	404.65
396.671	402.84
397.05	407.14
397.429	433.58
397.808	425.44
398.186	404.65
398.565	429.73
398.944	425.89
399.323	417.31
399.701	426.8
400.08	411.2
400.458	444.2
400.837	444.65
401.215	424.54
401.594	452.33
401.972	454.59
402.351	438.55
402.729	456.4
403.107	445.1
403.486	465.21
403.864	465.21
404.242	481.48
404.62	492.33
404.999	478.77
405.377	482.61
405.755	493.01
406.133	504.31
406.511	477.87
406.889	492.33
407.267	497.53
407.645	512.9
408.023	522.61
408.401	534.82
408.779	535.27
409.156	535.27
409.534	537.08
409.912	559
410.29	537.75
410.667	573.01
411.045	571.2
411.422	593.35
411.8	603.74
412.178	619.33
412.555	632.44
412.933	626.34
413.31	613.23
413.687	640.12
414.065	649.62
414.442	680.8
414.819	672.67
415.197	695.26
415.574	729.84
415.951	715.6
416.328	723.06
416.705	741.82
417.082	740.46
417.46	757.41
417.837	770.97
418.214	760.35
418.591	781.59
418.967	791.53
419.344	797.63
419.721	817.07
420.098	838.76
420.475	858.88
420.852	817.75
421.228	866.33
421.605	862.49
421.982	896.61
422.358	909.95
422.735	959.66
423.111	937.29
423.488	959.89
423.864	996.73
424.241	997.86
424.617	1005.31
424.994	1009.38
425.37	1056.61
425.746	1073.79
426.123	1103.84
426.499	1100
426.875	1126.89
427.251	1114.24
427.627	1127.8
428.003	1163.5
428.379	1205.99
428.756	1202.82
429.132	1201.01
429.507	1234.23
429.883	1247.79
430.259	1258.87
430.635	1284.63
431.011	1255.93
431.387	1290.73
431.763	1307.68
432.138	1349.03
432.514	1372.99
432.89	1378.18
433.265	1419.54
433.641	1436.71
434.016	1464.51
434.392	1500.89
434.767	1567.78
435.143	1532.3
435.518	1602.58
435.894	1622.7
436.269	1631.96
436.644	1652.3
437.02	1686.65
437.395	1689.81
437.77	1727.55
438.145	1779.53
438.52	1771.17
438.895	1828.34
439.271	1890.04
439.646	1894.78
440.021	1916.7
440.395	1938.4
440.77	1940.66
441.145	1939.3
441.52	2018.85
441.895	2014.78
442.27	2060.88
442.645	2099.75
443.019	2101.55
443.394	2107.88
443.769	2150.82
444.143	2131.16
444.518	2180.42
444.892	2196.92
445.267	2226.52
445.641	2237.14
446.016	2287.54
446.39	2291.61
446.764	2329.8
447.139	2309.46
447.513	2353.98
447.887	2375.22
448.262	2386.97
448.636	2397.14
449.01	2409.57
449.384	2447.31
449.758	2469.45
450.132	2531.83
450.506	2504.71
450.88	2502
451.254	2540.87
451.628	2602.78
452.002	2605.5
452.376	2645.95
452.75	2666.29
453.123	2676.46
453.497	2738.37
453.871	2742.67
454.244	2788.32
454.618	2804.36
454.992	2815.66
455.365	2830.35
455.739	2942.21
456.112	2965.94
456.486	2999.84
456.859	2985.83
457.232	3025.37
457.606	3040.51
457.979	3070.57
458.352	3166.16
458.725	3197.12
459.099	3189.89
459.472	3267.17
459.845	3322.77
460.218	3325.03
460.591	3338.81
460.964	3338.81
461.337	3427.62
461.71	3515.53
462.083	3549.65
462.456	3539.94
462.829	3585.81
463.201	3668.29
463.574	3678.01
463.947	3719.59
464.32	3778.12
464.692	3819.93
465.065	3835.97
465.438	3870.77
465.81	3964.56
466.183	3983.77
466.555	4066.93
466.928	4095.4
467.3	4071.22
467.672	4194.83
468.045	4299.46
468.417	4258.79
468.789	4315.51
469.161	4376.98
469.534	4449.97
469.906	4531.32
470.278	4567.7
470.65	4575.39
471.022	4713.24
471.394	4744.42
471.766	4800.47
472.138	4883.4
472.51	4971.99
472.882	5009.5
473.253	5082.49
473.625	5198.42
473.997	5263.05
474.369	5289.72
474.74	5372.43
475.112	5406.1
475.484	5524.06
475.855	5657.17
476.227	5642.48
476.598	5806.32
476.97	5865.52
477.341	5963.83
477.713	6021.9
478.084	6040.66
478.455	6201.79
478.827	6304.61
479.198	6425.73
479.569	6478.39
479.94	6614.43
480.311	6712.73
480.682	6832.96
481.053	6936.91
481.424	6988.88
481.795	7053.29
482.166	7202.44
482.537	7275.88
482.908	7466.39
483.279	7473.84
483.65	7658.24
484.021	7792.7
484.391	7865.47
484.762	7894.17
485.133	7950.89
485.503	8087.84
485.874	8201.28
486.244	8323.99
486.615	8388.17
486.985	8489.41
487.356	8625.68
487.726	8741.83
488.097	8866.35
488.467	8921.71
488.837	9101.37
489.207	9173.69
489.578	9325.77
489.948	9379.33
490.318	9469.72
490.688	9515.15
491.058	9618.19
491.428	9741.35
491.798	9882.14
492.168	9999.65
492.538	10010.73
492.908	10103.15
493.278	10145.64
493.648	10231.06
494.017	10314.9
494.387	10453.65
494.757	10444.16
495.126	10593.31
495.496	10626.3
495.866	10630.82
496.235	10832.62
496.605	10844.38
496.974	10816.13
497.344	10969.12
497.713	10980.42
498.082	11055.44
498.452	11209.11
498.821	11189.68
499.19	11247.76
499.559	11294.99
499.928	11290.47
500.298	11336.11
500.667	11523.23
501.036	11414.76
501.405	11578.37
501.774	11543.34
502.143	11583.11
502.512	11663.56
502.88	11676.67
503.249	11653.39
503.618	11759.61
503.987	11795.31
504.356	11770.23
504.724	11928.87
505.093	11812.03
505.462	11891.58
505.83	11945.82
506.199	12057.68
506.567	12114.85
506.936	12106.72
507.304	12302.19
507.672	12276.2
508.041	12283.89
508.409	12291.34
508.777	12344
509.145	12413.6
509.514	12354.39
509.882	12364.11
510.25	12373.6
510.618	12513.71
510.986	12516.65
511.354	12580.6
511.722	12565.23
512.09	12623.99
512.458	12624.44
512.826	12744.21
513.193	12673.93
513.561	12704.44
513.929	12760.03
514.297	12807.04
514.664	12872.35
515.032	12906.69
515.4	12907.6
515.767	12976.75
516.135	12996.18
516.502	12783.31
516.869	13030.53
517.237	13068.5
517.604	12920.48
517.972	13090.87
518.339	13113.47
518.706	13034.83
519.073	12943.53
519.44	13086.58
519.808	13198.21
520.175	13081.38
520.542	13246.12
520.909	13250.19
521.276	13117.54
521.643	13272.33
522.009	13219.45
522.376	13317.31
522.743	13306.91
523.11	13391.88
523.477	13423.07
523.843	13418.77
524.21	13439.56
524.577	13538.54
524.943	13474.82
525.31	13490.18
525.676	13565.43
526.043	13512.55
526.409	13570.86
526.776	13643.4
527.142	13576.96
527.508	13621.93
527.874	13654.92
528.241	13665.54
528.607	13568.37
528.973	13656.05
529.339	13669.16
529.705	13689.05
530.071	13661.48
530.437	13679.1
530.803	13627.35
531.169	13614.7
531.535	13571.54
531.901	13549.16
532.267	13602.95
532.632	13624.64
532.998	13498.32
533.364	13504.64
533.73	13494.93
534.095	13584.42
534.461	13475.95
534.826	13418.09
535.192	13496.74
535.557	13485.66
535.923	13355.72
536.288	13393.91
536.653	13397.76
537.019	13303.29
537.384	13296.74
537.749	13290.87
538.114	13251.54
538.479	13182.85
538.845	13144.65
539.21	13066.46
539.575	13146.24
539.94	12995.73
540.305	13058.1
540.67	12954.83
541.034	13003.19
541.399	12951.67
541.764	12917.99
542.129	12910.54
542.494	12788.05
542.858	12747.6
543.223	12706.93
543.587	12765.46
543.952	12704.67
544.316	12599.13
544.681	12530.43
545.045	12534.27
545.41	12584.9
545.774	12497.44
546.138	12446.37
546.503	12371.12
546.867	12372.25
547.231	12332.02
547.595	12302.42
547.959	12293.15
548.324	12231.23
548.688	12072.14
549.052	12127.73
549.416	12129.09
549.779	11988.53
550.143	11985.59
550.507	12013.61
550.871	11908.75
551.235	11905.82
551.599	11913.73
551.962	11977.91
552.326	11797.35
552.689	11787.63
553.053	11765.03
553.417	11694.75
553.78	11767.29
554.143	11687.97
554.507	11672.38
554.87	11693.62
555.234	11724.8
555.597	11590.12
555.96	11564.81
556.323	11511.48
556.686	11486.84
557.05	11549.89
557.413	11520.06
557.776	11464.47
558.139	11512.15
558.502	11440.29
558.865	11419.05
559.228	11457.47
559.59	11488.43
559.953	11510.57
560.316	11457.24
560.679	11319.39
561.041	11385.38
561.404	11434.19
561.767	11427.86
562.129	11412.72
562.492	11404.14
562.854	11434.64
563.217	11313.29
563.579	11345.15
563.941	11406.62
564.304	11382.21
564.666	11482.33
565.028	11353.29
565.39	11369.56
565.753	11397.81
566.115	11438.94
566.477	11443.91
566.839	11376.57
567.201	11518.26
567.563	11396.9
567.925	11478.71
568.287	11443.91
568.648	11454.08
569.01	11520.97
569.372	11493.4
569.734	11441.87
570.095	11554.64
570.457	11518.48
570.819	11535.88
571.18	11508.31
571.542	11547.86
571.903	11476.22
572.265	11575.43
572.626	11603.45
572.987	11591.02
573.349	11538.59
573.71	11623.56
574.071	11597.12
574.432	11582.21
574.794	11609.1
575.155	11547.86
575.516	11651.59
575.877	11664.69
576.238	11637.8
576.599	11648.65
576.96	11579.05
577.32	11663.11
577.681	11735.2
578.042	11764.8
578.403	11683
578.763	11696.78
579.124	11758.02
579.485	11751.92
579.845	11770.91
580.206	11686.61
580.566	11684.13
580.927	11647.52
581.287	11757.57
581.648	11721.41
582.008	11679.83
582.368	11679.83
582.728	11697.69
583.089	11660.63
583.449	11636.45
583.809	11644.81
584.169	11774.97
584.529	11668.08
584.889	11711.02
585.249	11636.22
585.609	11679.83
585.969	11700.85
586.329	11640.74
586.688	11647.52
587.048	11627.63
587.408	11656.33
587.768	11572.94
588.127	11617.24
588.487	11608.65
588.846	11674.64
589.206	11580.18
589.565	11645.94
589.925	11541.53
590.284	11575.66
590.643	11583.11
591.003	11645.48
591.362	11625.37
591.721	11524.58
592.08	11544.02
592.44	11634.41
592.799	11582.66
593.158	11507.86
593.517	11503.34
593.876	11535.21
594.235	11457.69
594.593	11545.6
594.952	11545.83
595.311	11479.16
595.67	11540.85
596.029	11540.4
596.387	11541.53
596.746	11513.28
597.104	11483
597.463	11424.93
597.822	11458.37
598.18	11541.76
598.538	11455.43
598.897	11600.97
599.255	11383.12
599.613	11577.24
599.972	11519.39
600.33	11499.27
600.688	11482.78
601.046	11536.79
601.404	11577.01
601.762	11534.08
602.12	11538.59
602.478	11570.01
602.836	11494.98
603.194	11430.8
603.552	11483.23
603.91	11468.09
604.268	11514.64
604.625	11480.74
604.983	11477.58
605.341	11441.42
605.698	11541.53
606.056	11538.14
606.413	11479.61
606.771	11546.96
607.128	11507.41
607.485	11499.05
607.843	11568.65
608.2	11633.06
608.557	11498.82
608.914	11495.88
609.272	11559.84
609.629	11546.96
609.986	11645.71
610.343	11552.38
610.7	11669.44
611.057	11602.1
611.414	11575.66
611.771	11606.16
612.127	11707.86
612.484	11605.26
612.841	11602.32
613.198	11636.22
613.554	11630.57
613.911	11669.66
614.267	11690.23
614.624	11686.84
614.98	11662.43
615.337	11733.84
615.693	11732.49
616.05	11693.17
616.406	11769.78
616.762	11729.32
617.118	11720.29
617.475	11715.09
617.831	11723.67
618.187	11760.28
618.543	11821.53
618.899	11888.64
619.255	11814.97
619.611	11774.97
619.967	11770
620.323	11894.52
620.678	11761.64
621.034	11746.73
621.39	11802.99
621.746	11723.45
622.101	11899.49
622.457	11843.9
622.812	11798.93
623.168	11795.09
623.523	11791.7
623.879	11783.56
624.234	11664.02
624.589	11753.28
624.945	11769.1
625.3	11781.3
625.655	11711.47
626.01	11829.89
626.365	11764.8
626.72	11733.84
627.075	11817.91
627.43	11694.52
627.785	11711.02
628.14	11709.44
628.495	11648.2
628.85	11736.78
629.205	11715.09
629.559	11768.42
629.914	11584.7
630.269	11698.82
630.623	11664.24
630.978	11598.25
631.332	11701.98
631.687	11649.33
632.041	11588.76
632.396	11631.7
632.75	11630.8
633.104	11572.27
633.459	11516.67
633.813	11543.34
634.167	11496.34
634.521	11546.5
634.875	11472.38
635.229	11404.59
635.583	11445.72
635.937	11387.64
636.291	11447.98
636.645	11401.2
636.999	11441.2
637.352	11470.35
637.706	11322.33
638.06	11382.21
638.413	11354.87
638.767	11387.64
639.121	11323.91
639.474	11225.38
639.828	11320.3
640.181	11254.53
640.534	11284.59
640.888	11266.29
641.241	11150.13
641.594	11235.55
641.947	11219.06
642.301	11233.07
642.654	11285.04
643.007	11203.69
643.36	11198.72
643.713	11226.96
644.066	11209.11
644.419	11118.04
644.771	11134.31
645.124	11074.2
645.477	10944.94
645.83	10931.38
646.182	10812.06
646.535	10813.42
646.888	10813.64
647.24	10737.94
647.593	10792.4
647.945	10769.58
648.298	10768.9
648.65	10787.65
649.002	10754.89
649.355	10756.02
649.707	10739.75
650.059	10817.03
650.411	10923.24
650.763	10943.81
651.115	10940.64
651.467	11040.75
651.819	11045.95
652.171	10969.8
652.523	11024.26
652.875	11001.89
653.227	10963.24
653.578	10989
653.93	11060.42
654.282	11005.73
654.633	10896.58
654.985	10995.33
655.337	10947.2
655.688	10940.42
656.039	11080.53
656.391	10922.79
656.742	11005.5
657.094	11017.7
657.445	11055.44
657.796	11051.6
658.147	11006.18
658.498	11049.34
658.849	10955.79
659.2	11008.44
659.551	10970.02
659.902	10996.01
660.253	11029
660.604	11046.18
660.955	11002.79
661.306	11042.34
661.656	11052.51
662.007	11038.27
662.358	11028.55
662.708	11057.7
663.059	11093.18
663.409	11015.22
663.76	10996.91
664.11	11015.22
664.461	11117.36
664.811	11045.95
665.161	11041.21
665.511	10959.63
665.862	11023.13
666.212	11049.34
666.562	11075.78
666.912	11112.39
667.262	11082.34
667.612	11033.75
667.962	11053.41
668.312	11049.79
668.662	11047.31
669.011	11033.98
669.361	11026.52
669.711	10996.91
670.06	10971.6
670.41	10981.55
670.76	11062.9
671.109	10994.2
671.459	11006.41
671.808	10961.66
672.157	11003.47
672.507	10963.47
672.856	10877.6
673.205	10990.36
673.554	10951.72
673.904	10917.59
674.253	10970.93
674.602	10911.49
674.951	10787.43
675.3	10724.15
675.649	10900.19
675.998	10860.19
676.346	10871.95
676.695	10871.04
677.044	10864.49
677.393	10829.69
677.741	10810.48
678.09	10841.89
678.438	10762.12
678.787	10813.19
679.135	10756.69
679.484	10681.22
679.832	10760.99
680.181	10650.48
680.529	10744.49
680.877	10645.06
681.225	10681.22
681.573	10672.4
681.922	10606.19
682.27	10584.5
682.618	10648.67
682.966	10597.6
683.314	10562.8
683.661	10561.9
684.009	10501.33
684.357	10489.36
684.705	10483.93
685.053	10413.43
685.4	10425.86
685.748	10326.42
686.095	10344.28
686.443	10337.27
686.79	10306.76
687.138	10311.06
687.485	10295.01
687.832	10206.2
688.18	10259.98
688.527	10232.19
688.874	10140.21
689.221	10121.46
689.568	10138.86
689.915	10073.32
690.262	10132.76
690.609	10021.8
690.956	9996.49
691.303	9982.48
691.65	9930.95
691.997	9909.49
692.344	9791.52
692.69	9786.1
693.037	9793.78
693.383	9720.11
693.73	9746.55
694.077	9662.03
694.423	9680.79
694.769	9732.77
695.116	9667.23
695.462	9630.17
695.808	9575.71
696.155	9554.47
696.501	9455.94
696.847	9461.14
697.193	9421.81
697.539	9382.72
697.885	9328.03
698.231	9304.98
698.577	9340.69
698.923	9277.64
699.269	9196.96
699.614	9130.75
699.96	9135.27
700.306	9148.83
700.651	9128.71
700.997	9020.24
701.342	9044.88
701.688	9039
702.033	8916.29
702.379	8936.4
702.724	8937.76
703.069	8885.56
703.415	8887.14
703.76	8856.41
704.105	8828.84
704.45	8806.69
704.795	8753.81
705.14	8688.5
705.485	8685.11
705.83	8703.64
706.175	8643.76
706.52	8609.18
706.865	8538.9
707.209	8583.87
707.554	8538.45
707.899	8518.34
708.243	8450.54
708.588	8493.03
708.932	8385.23
709.277	8363.76
709.621	8376.19
709.966	8287.15
710.31	8418.68
710.654	8254.61
710.998	8303.43
711.342	8296.65
711.687	8254.84
712.031	8238.79
712.375	8130.77
712.719	8242.64
713.063	8212.13
713.407	8187.27
713.75	8136.65
714.094	8131.23
714.438	8127.39
714.782	8097.1
715.125	8079.48
715.469	8064.11
715.812	8006.94
716.156	8043.32
716.499	7985.47
716.843	8048.07
717.186	7963.77
717.53	7966.71
717.873	8000.83
718.216	7974.85
718.559	7897.56
718.902	7876.77
719.246	7910.89
719.589	7862.31
719.932	7805.36
720.275	7833.38
720.617	7848.75
720.96	7844.68
721.303	7877.9
721.646	7846.49
721.989	7799.26
722.331	7842.65
722.674	7787.96
723.016	7790.44
723.359	7766.26
723.701	7769.2
724.044	7762.87
724.386	7694.18
724.729	7715.87
725.071	7694.85
725.413	7675.42
725.755	7715.19
726.097	7710.9
726.439	7639.71
726.782	7666.83
727.124	7639.94
727.465	7649.43
727.807	7620.73
728.149	7685.14
728.491	7573.5
728.833	7642.88
729.175	7646.27
729.516	7629.77
729.858	7613.73
730.199	7666.83
730.541	7665.93
730.882	7632.71
731.224	7581.86
731.565	7614.63
731.906	7599.49
732.248	7614.63
732.589	7706.61
732.93	7571.92
733.271	7609.88
733.612	7669.54
733.953	7634.97
734.294	7603.33
734.635	7622.77
734.976	7654.18
735.317	7576.21
735.658	7573.5
735.999	7585.7
736.339	7595.2
736.68	7578.47
737.021	7666.83
737.361	7608.98
737.702	7713.38
738.042	7629.09
738.383	7636.78
738.723	7617.79
739.063	7650.11
739.404	7713.84
739.744	7633.84
740.084	7612.14
740.424	7696.44
740.764	7685.36
741.104	7734.4
741.444	7706.61
741.784	7726.04
742.124	7735.08
742.464	7764.46
742.804	7770.11
743.143	7813.04
743.483	7825.47
743.823	7825.25
744.162	7817.56
744.502	7874.28
744.841	7908.18
745.181	7960.61
745.52	7929.42
745.86	8031.12
746.199	8058.23
746.538	8042.87
746.877	8107.5
747.216	8119.7
747.556	8266.36
747.895	8266.59
748.234	8252.35
748.573	8295.06
748.911	8429.3
749.25	8435.4
749.589	8471.78
749.928	8595.4
750.267	8617.32
750.605	8697.31
750.944	8758.56
751.283	8820.02
751.621	8956.52
751.96	9023.86
752.298	9083.29
752.636	9172.78
752.975	9256.62
753.313	9399.89
753.651	9513.79
753.989	9576.61
754.327	9712.65
754.666	9781.35
755.004	9961.91
755.342	10132.08
755.679	10128.24
756.017	10308.57
756.355	10491.39
756.693	10697.04
757.031	10790.59
757.368	10905.17
757.706	11048.89
758.044	11149
758.381	11420.18
