Data from hue_28_FLMS001491_00028.txt Node
Date: Tue Feb 07 17:17:04 GMT 2017
User: dcchb
Spectrometer: FLMS00149
Trigger mode: 0
Integration Time (sec): 2.000000E-2
Scans to average: 10
Electric dark correction enabled: true
Nonlinearity correction enabled: false
Boxcar width: 0
XAxis mode: Wavelengths
Number of Pixels in Spectrum: 2048
>>>>>Begin Spectral Data<<<<<
341.393	-4.04
341.776	-4.04
342.16	-4.04
342.543	-71.16
342.927	-68.22
343.31	-77.48
343.693	-67.99
344.077	-68.22
344.46	-40.65
344.843	-50.14
345.226	-39.74
345.61	-29.8
345.993	-0.88
346.376	-36.13
346.759	-2.23
347.142	44.55
347.525	34.6
347.908	47.03
348.291	76.64
348.674	85.22
349.057	125.22
349.44	143.3
349.823	151.44
350.206	172.45
350.588	200.93
350.971	202.73
351.354	239.34
351.737	248.84
352.119	248.61
352.502	254.03
352.884	299.46
353.267	298.1
353.65	314.6
354.032	322.73
354.414	292.9
354.797	314.6
355.179	314.14
355.562	328.38
355.944	336.06
356.326	326.35
356.709	334.93
357.091	346.69
357.473	362.05
357.855	339.23
358.238	339.68
358.62	344.65
359.002	345.1
359.384	328.38
359.766	320.92
360.148	361.6
360.53	357.31
360.912	354.14
361.294	333.58
361.676	347.82
362.057	340.36
362.439	311.66
362.821	328.83
363.203	337.65
363.584	326.8
363.966	317.99
364.348	341.49
364.729	327.7
365.111	333.35
365.493	324.77
365.874	317.76
366.256	327.93
366.637	315.73
367.019	307.14
367.4	331.77
367.781	321.83
368.163	336.97
368.544	324.31
368.925	320.92
369.306	329.74
369.688	325.9
370.069	324.09
370.45	342.39
370.831	334.26
371.212	321.38
371.593	329.96
371.974	322.96
372.355	321.38
372.736	315.73
373.117	322.28
373.498	328.16
373.879	315.5
374.26	309.62
374.641	339
375.021	307.82
375.402	331.09
375.783	346.91
376.163	370.41
376.544	314.6
376.925	326.57
377.305	341.26
377.686	324.54
378.066	329.74
378.447	343.52
378.827	344.43
379.208	345.56
379.588	345.78
379.968	342.84
380.349	338.55
380.729	364.31
381.109	337.42
381.489	328.83
381.87	354.82
382.25	338.32
382.63	360.7
383.01	354.37
383.39	345.33
383.77	349.62
384.15	369.06
384.53	350.53
384.91	327.93
385.29	349.85
385.67	349.17
386.049	365.67
386.429	366.12
386.809	342.17
387.189	352.56
387.568	356.63
387.948	357.08
388.328	374.03
388.707	346.01
389.087	374.26
389.466	358.44
389.846	393.46
390.225	366.12
390.605	404.09
390.984	375.39
391.363	390.98
391.743	366.35
392.122	397.08
392.501	385.33
392.881	398.44
393.26	374.71
393.639	379
394.018	378.78
394.397	377.19
394.776	391.88
395.155	403.41
395.534	387.81
395.913	385.1
396.292	402.28
396.671	393.01
397.05	393.46
397.429	424.88
397.808	393.46
398.186	414.93
398.565	405.89
398.944	409.96
399.323	393.69
399.701	409.06
400.08	407.48
400.458	420.36
400.837	425.55
401.215	425.33
401.594	420.58
401.972	428.94
402.351	426.46
402.729	417.87
403.107	417.42
403.486	426.91
403.864	440.02
404.242	433.92
404.62	416.51
404.999	430.07
405.377	442.28
405.755	433.92
406.133	469.17
406.511	432.79
406.889	453.35
407.267	483.86
407.645	456.51
408.023	475.95
408.401	472.11
408.779	462.39
409.156	444.99
409.534	482.05
409.912	440.92
410.29	484.31
410.667	482.05
411.045	492.67
411.422	469.85
411.8	463.29
412.178	481.37
412.555	499.68
412.933	503.97
413.31	504.42
413.687	506
414.065	500.13
414.442	491.99
414.819	506.68
415.197	505.78
415.574	499.22
415.951	512.33
416.328	527.47
416.705	530.18
417.082	519.34
417.46	515.04
417.837	525.21
418.214	521.37
418.591	530.64
418.967	552.78
419.344	553.46
419.721	536.06
420.098	557.98
420.475	554.59
420.852	560.92
421.228	568.6
421.605	582.61
421.982	566.79
422.358	552.1
422.735	582.39
423.111	587.81
423.488	589.17
423.864	593.01
424.241	601.82
424.617	585.78
424.994	592.33
425.37	576.51
425.746	581.48
426.123	632.33
426.499	604.08
426.875	598.2
427.251	610.63
427.627	608.37
428.003	618.77
428.379	625.77
428.756	642.5
429.132	632.78
429.507	646.56
429.883	641.37
430.259	669.84
430.635	646.11
431.011	651.99
431.387	685.43
431.763	673
432.138	686.79
432.514	710.97
432.89	704.87
433.265	708.03
433.641	696.51
434.016	709.84
434.392	730.63
434.767	732.66
435.143	729.95
435.518	762.04
435.894	766.34
436.269	748.26
436.644	775.38
437.02	758.65
437.395	770.18
437.77	775.15
438.145	783.51
438.52	775.15
438.895	786.45
439.271	796.17
439.646	812.44
440.021	795.26
440.395	790.06
440.77	800.69
441.145	829.61
441.52	837.07
441.895	820.8
442.27	812.66
442.645	837.07
443.019	834.81
443.394	840.01
443.769	859.89
444.143	857.63
444.518	864.41
444.892	868.93
445.267	855.15
445.641	886.56
446.016	884.3
446.39	877.75
446.764	881.81
447.139	890.85
447.513	899.89
447.887	863.51
448.262	886.11
448.636	913.68
449.01	924.3
449.384	912.09
449.758	944.64
450.132	930.4
450.506	936.27
450.88	953.22
451.254	948.7
451.628	965.2
452.002	984.64
452.376	967.91
452.75	984.41
453.123	988.02
453.497	992.32
453.871	1007.46
454.244	997.97
454.618	1072.99
454.992	1040.23
455.365	1045.65
455.739	1084.75
456.112	1095.37
456.486	1091.75
456.859	1094.91
457.232	1079.55
457.606	1114.8
457.979	1124.29
458.352	1110.28
458.725	1183.95
459.099	1176.04
459.472	1179.43
459.845	1168.36
460.218	1197.96
460.591	1221.92
460.964	1212.88
461.337	1243.16
461.71	1271.86
462.083	1281.35
462.456	1277.28
462.829	1236.83
463.201	1284.74
463.574	1303.27
463.947	1327.9
464.32	1357.28
464.692	1355.47
465.065	1367.9
465.438	1397.96
465.81	1411.06
466.183	1382.14
466.555	1474.34
466.928	1458.52
467.3	1468.69
467.672	1468.92
468.045	1504.85
468.417	1516.15
468.789	1527.22
469.161	1541.91
469.534	1583.72
469.906	1644.05
470.278	1622.81
470.65	1654
471.022	1661.23
471.394	1705.07
471.766	1721.79
472.138	1750.26
472.51	1771.51
472.882	1823.94
473.253	1821.68
473.625	1825.07
473.997	1865.74
474.369	1937.38
474.74	1919.07
475.112	1997.72
475.484	1994.78
475.855	2011.27
476.227	2058.05
476.598	2143.25
476.97	2150.48
477.341	2234.55
477.713	2230.7
478.084	2275.9
478.455	2316.8
478.827	2314.32
479.198	2397.25
479.569	2453.75
479.94	2529.23
480.311	2529.68
480.682	2583.92
481.053	2654.42
481.424	2715.89
481.795	2772.61
482.166	2785.72
482.537	2823.46
482.908	2901.65
483.279	2933.28
483.65	2992.94
484.021	3083.79
484.391	3104.81
484.762	3150.91
485.133	3184.58
485.503	3219.6
485.874	3291.92
486.244	3342.54
486.615	3472.93
486.985	3470.22
487.356	3587.96
487.726	3601.29
488.097	3711.8
488.467	3708.86
488.837	3806.48
489.207	3887.84
489.578	3944.33
489.948	3973.03
490.318	4022.75
490.688	4050.54
491.058	4156.98
491.428	4234.27
491.798	4258.45
492.168	4362.4
492.538	4374.83
492.908	4455.73
493.278	4491.21
493.648	4544.99
494.017	4541.38
494.387	4636.06
494.757	4695.27
495.126	4744.99
495.496	4796.29
495.866	4778.21
496.235	4892.78
496.605	4934.81
496.974	4942.72
497.344	4991.31
497.713	5008.26
498.082	5110.63
498.452	5160.8
498.821	5220.23
499.19	5199.89
499.559	5283.51
499.928	5307.46
500.298	5323.05
500.667	5368.02
501.036	5406.21
501.405	5454.35
501.774	5529.15
502.143	5516.49
502.512	5586.1
502.88	5581.58
503.249	5640.78
503.618	5699.09
503.987	5696.38
504.356	5754
504.724	5784.51
505.093	5738.63
505.462	5795.58
505.83	5836.94
506.199	5939.53
506.567	5952.41
506.936	5933.88
507.304	6067.44
507.672	6104.95
508.041	6097.04
508.409	6152.86
508.777	6174.33
509.145	6238.28
509.514	6218.85
509.882	6273.54
510.25	6253.88
510.618	6356.25
510.986	6345.17
511.354	6439.63
511.722	6487.54
512.09	6460.42
512.458	6493.64
512.826	6545.84
513.193	6589.01
513.561	6574.77
513.929	6645.73
514.297	6683.92
514.664	6704.48
515.032	6646.41
515.4	6749.68
515.767	6767.08
516.135	6804.37
516.502	6881.2
516.869	6871.49
517.237	6883.69
517.604	6862.22
517.972	6992.16
518.339	6965.04
518.706	7023.12
519.073	7027.41
519.44	7088.2
519.808	7091.59
520.175	7108.09
520.542	7228.99
520.909	7256.33
521.276	7228.09
521.643	7301.31
522.009	7373.85
522.376	7393.73
522.743	7414.52
523.11	7451.81
523.477	7570.68
523.843	7569.32
524.21	7649.77
524.577	7640.96
524.943	7715.08
525.31	7765.47
525.676	7764.34
526.043	7837.56
526.409	7847.51
526.776	7982.19
527.142	7924.79
527.508	7994.62
527.874	8052.47
528.241	8063.32
528.607	8099.48
528.973	8260.83
529.339	8124.33
529.705	8323.43
530.071	8345.57
530.437	8329.98
530.803	8411.78
531.169	8399.58
531.535	8429.41
531.901	8456.08
532.267	8517.32
532.632	8566.36
532.998	8621.95
533.364	8590.99
533.73	8611.33
534.095	8766.35
534.461	8777.42
534.826	8744.21
535.192	8841.83
535.557	8873.24
535.923	8976.74
536.288	8951.43
536.653	8928.61
537.019	8987.81
537.384	9017.19
537.749	9026.91
538.114	9044.08
538.479	9084.99
538.845	9120.92
539.21	9140.8
539.575	9218.32
539.94	9218.77
540.305	9317.07
540.67	9281.14
541.034	9343.51
541.399	9417.63
541.764	9401.59
542.129	9484.3
542.494	9449.5
542.858	9559.1
543.223	9615.14
543.587	9614.69
543.952	9647.91
544.316	9698.08
544.681	9703.05
545.045	9752.31
545.41	9842.26
545.774	9830.96
546.138	9840
546.503	9883.61
546.867	9897.17
547.231	10005.19
547.595	9956.83
547.959	10077.28
548.324	10038.18
548.688	10082.48
549.052	10131.29
549.416	10183.49
549.779	10127.45
550.143	10199.76
550.507	10223.26
550.871	10290.15
551.235	10291.51
551.599	10360.21
551.962	10429.81
552.326	10406.31
552.689	10531.95
553.053	10448.12
553.417	10506.87
553.78	10583.25
554.143	10597.72
554.507	10693.76
554.87	10650.82
555.234	10772.85
555.597	10651.95
555.96	10746.64
556.323	10783.47
556.686	10878.84
557.05	10850.59
557.413	10877.26
557.776	10920.65
558.139	11002.9
558.502	11004.48
558.865	11035.67
559.228	11094.88
559.59	11151.83
559.953	11192.95
560.316	11244.48
560.679	11266.17
561.041	11281.31
561.404	11392.5
561.767	11460.29
562.129	11341.2
562.492	11463.46
562.854	11487.86
563.217	11498.71
563.579	11554.3
563.941	11627.29
564.304	11631.13
564.666	11713.17
565.028	11808.98
565.39	11798.81
565.753	11845.37
566.115	11847.85
566.477	11914.97
566.839	11935.76
567.201	11983.67
567.563	12028.19
567.925	12100.05
568.287	12106.83
568.648	12121.29
569.01	12248.97
569.372	12350.21
569.734	12280.61
570.095	12331.68
570.457	12399.25
570.819	12430.44
571.18	12508.85
571.542	12611.67
571.903	12589.75
572.265	12609.87
572.626	12712.24
572.987	12802.4
573.349	12842.18
573.71	12874.94
574.071	13041.49
574.432	12981.38
574.794	13218.66
575.155	13211.66
575.516	13217.53
575.877	13232.9
576.238	13335.95
576.599	13447.36
576.96	13491.88
577.32	13664.53
577.681	13701.59
578.042	13833.79
578.403	13944.75
578.763	14073.1
579.124	14119.43
579.485	14255.47
579.845	14402.14
580.206	14460.89
580.566	14573.43
580.927	14668.34
581.287	14918.51
581.648	15023.36
582.008	15210.93
582.368	15333.41
582.728	15495.44
583.089	15699.73
583.449	15824.92
583.809	15917.58
584.169	16164.12
584.529	16283.22
584.889	16699.25
585.249	16651.34
585.609	16953.48
585.969	17202.51
586.329	17372.23
586.688	17669.17
587.048	17845.89
587.408	18076.16
587.768	18385.08
588.127	18590.5
588.487	18715.24
588.846	19192.29
589.206	19314.1
589.565	19513.41
589.925	19870.47
590.284	20116.56
590.643	20418.25
591.003	20753.61
591.362	20992.7
591.721	21194.05
592.08	21650.76
592.44	21936.17
592.799	22245.55
593.158	22516.05
593.517	22618.19
593.876	22956.03
594.235	23246.87
594.593	23558.5
594.952	24028.1
595.311	24155.1
595.67	24516.9
596.029	24930.67
596.387	25209.76
596.746	25475.52
597.104	25770.2
597.463	26043.64
597.822	26451.08
598.18	26461.93
598.538	26879.77
598.897	27245.87
599.255	27354.11
599.613	28038.39
599.972	28116.8
600.33	28528.32
600.688	28744.81
601.046	29061.19
601.404	29526.48
601.762	29681.51
602.12	30074.27
602.478	30309.06
602.836	30491.43
603.194	30709.5
603.552	31026.33
603.91	31286.44
604.268	31598.97
604.625	31720.78
604.983	32068.11
605.341	32197.6
605.698	32568.44
606.056	32882.55
606.413	33071.7
606.771	33380.62
607.128	33755.52
607.485	33740.38
607.843	34103.99
608.2	34486.35
608.557	34809.96
608.914	34853.12
609.272	35102.16
609.629	35339.89
609.986	35733.1
610.343	35653.55
610.7	36268.91
611.057	36287.66
611.414	36485.4
611.771	36506.19
612.127	36820.76
612.484	36942.56
612.841	37247.64
613.198	37404.47
613.554	37543.22
613.911	37957.45
614.267	38156.77
614.624	38107.05
614.98	38418.68
615.337	38727.37
615.693	38830.42
616.05	38888.05
616.406	39316.28
616.762	39236.28
617.118	39481.7
617.475	39551.3
617.831	39840.79
618.187	39900
618.543	39937.74
618.899	40311.74
619.255	40424.05
619.611	40439.19
619.967	40634.67
620.323	40847.99
620.678	40782.01
621.034	40908.56
621.39	41050.7
621.746	40945.62
622.101	41403.91
622.457	41116.01
622.812	41425.15
623.168	41705.37
623.523	41662.89
623.879	41929.1
624.234	41724.58
624.589	41962.31
624.945	42150.11
625.3	42069.43
625.655	42128.86
626.01	42316.88
626.365	42361.4
626.72	42394.39
627.075	42438.91
627.43	42354.39
627.785	42420.38
628.14	42444.11
628.495	42792.35
628.85	42585.12
629.205	42633.26
629.559	42952.12
629.914	42746.93
630.269	42847.94
630.623	42802.07
630.978	42757.32
631.332	43172.68
631.687	43130.65
632.041	43100.14
632.396	43084.77
632.75	42961.61
633.104	43146.92
633.459	43049.52
633.813	42972.91
634.167	43112.12
634.521	42965.45
634.875	43120.25
635.229	43063.53
635.583	42860.14
635.937	43062.62
636.291	43085.45
636.645	43100.14
636.999	42993.02
637.352	43088.39
637.706	42854.04
638.06	43096.3
638.413	43090.87
638.767	42924.1
639.121	42966.81
639.474	42705.35
639.828	42886.81
640.181	43008.39
640.534	42934.49
640.888	43044.55
641.241	42801.61
641.594	42817.89
641.947	42943.53
642.301	42846.36
642.654	42915.51
643.007	42836.19
643.36	42862.63
643.713	42777.89
644.066	42987.15
644.419	42842.74
644.771	42505.13
645.124	42139.26
645.477	42132.48
645.83	41821.53
646.182	41804.8
646.535	41645.03
646.888	41690.46
647.24	41558.26
647.593	41811.58
647.945	41636.9
648.298	41501.76
648.65	41608.43
649.002	41263.8
649.355	41518.03
649.707	41479.84
650.059	41758.48
650.411	42158.92
650.763	42144.68
651.115	42560.27
651.467	42425.81
651.819	42510.55
652.171	42431.45
652.523	42399.14
652.875	42365.02
653.227	42125.7
653.578	42440.72
653.93	42326.6
654.282	42182.65
654.633	42115.08
654.985	42239.6
655.337	42118.92
655.688	42210.67
656.039	42386.26
656.391	42054.29
656.742	42232.82
657.094	42166.15
657.445	42312.36
657.796	42201.18
658.147	42144.46
658.498	42074.4
658.849	42183.33
659.2	42186.26
659.551	42092.25
659.902	42194.17
660.253	42005.7
660.604	42086.61
660.955	41912.37
661.306	42221.74
661.656	41910.79
662.007	42014.29
662.358	41958.92
662.708	42034.4
663.059	42071.69
663.409	41889.32
663.76	42123.44
664.11	42099.26
664.461	42080.73
664.811	42140.39
665.161	42040.05
665.511	41952.82
665.862	41969.55
666.212	42094.06
666.562	42114.85
666.912	41931.36
667.262	41937.23
667.612	41961.41
667.962	41903.33
668.312	41885.71
668.662	42170.44
669.011	41943.78
669.361	41754.41
669.711	41787.63
670.06	41827.4
670.41	41872.15
670.76	41663.57
671.109	41821.3
671.459	41802.32
671.808	41677.58
672.157	41853.17
672.507	41547.64
672.856	41667.63
673.205	41622.44
673.554	41807.29
673.904	41563.46
674.253	41687.75
674.602	41640.74
674.951	41076.01
675.3	40962.79
675.649	41501.31
675.998	41488.65
676.346	41507.86
676.695	41675.54
677.044	41211.37
677.393	41429.45
677.741	41437.36
678.09	41467.64
678.438	41378.6
678.787	41338.83
679.135	41459.5
679.484	41160.98
679.832	41320.75
680.181	41149.45
680.529	41163.69
680.877	41099.29
681.225	41080.76
681.573	41367.75
681.922	41063.13
682.27	40819.07
682.618	40985.39
682.966	40908.33
683.314	41049.12
683.661	40919.63
684.009	40645.74
684.357	40429.93
684.705	40558.28
685.053	40524.39
685.4	40553.09
685.748	40207.33
686.095	40201.68
686.443	40124.17
686.79	40061.8
687.138	40257.27
687.485	40118.75
687.832	40006.66
688.18	40083.04
688.527	39609.38
688.874	39852.54
689.221	39688.7
689.568	39618.87
689.915	39550.63
690.262	39663.62
690.609	39364.19
690.956	39287.13
691.303	39224.08
691.65	39114.03
691.997	39095.5
692.344	38817.31
692.69	38875.62
693.037	38964.65
693.383	38598.56
693.73	38828.39
694.077	38386.36
694.423	38564.44
694.769	38367.83
695.116	38229.98
695.462	38262.53
695.808	38233.37
696.155	38324.9
696.501	37925.81
696.847	37979.37
697.193	37637.91
697.539	37816.44
697.885	37420.29
698.231	37331.25
698.577	37408.76
698.923	37455.09
699.269	37237.69
699.614	37039.51
699.96	37137.13
700.306	36990.02
700.651	36857.14
700.997	36807.65
701.342	36669.57
701.688	36637.48
702.033	36511.38
702.379	36584.38
702.724	36438.84
703.069	36494.89
703.415	36158.4
703.76	36154.11
704.105	36164.95
704.45	36041.57
704.795	35847.67
705.14	35787.11
705.485	35544.86
705.83	35503.5
706.175	35637.96
706.52	35432.77
706.865	35294.02
707.209	35294.92
707.554	35063.29
707.899	35227.12
708.243	35028.94
708.588	34983.06
708.932	34833.91
709.277	34883.18
709.621	34823.29
709.966	34603.64
710.31	34620.81
710.654	34397.54
710.998	34395.28
711.342	34456.52
711.687	34398.67
712.031	34088.85
712.375	33958.46
712.719	34164.55
713.063	34068.29
713.407	34155.74
713.75	33885.69
714.094	33799.37
714.438	33739.03
714.782	33765.47
715.125	33601.18
715.469	33800.27
715.812	33566.38
716.156	33379.72
716.499	33348.3
716.843	33465.14
717.186	33301.07
717.53	33406.38
717.873	33340.39
718.216	33284.12
718.559	33113.28
718.902	32920.97
719.246	32864.93
719.589	32890.46
719.932	32829.45
720.275	32866.06
720.617	32713.52
720.96	32534.54
721.303	32643.24
721.646	32523.01
721.989	32372.51
722.331	32532.96
722.674	32440.98
723.016	32333.87
723.359	32327.54
723.701	32403.24
724.044	32154.21
724.386	31944.05
724.729	32173.65
725.071	32000.77
725.413	31983.82
725.755	31960.54
726.097	31826.76
726.439	31672.87
726.782	31801
727.124	31940.43
727.465	31644.17
727.807	31623.38
728.149	31621.12
728.491	31542.02
728.833	31614.56
729.175	31493.21
729.516	31366.66
729.858	31375.47
730.199	31363.5
730.541	31382.93
730.882	31283.05
731.224	31281.24
731.565	31161.92
731.906	30988.82
732.248	31102.49
732.589	30976.16
732.93	30854.81
733.271	30926.45
733.612	30848.93
733.953	30965.09
734.294	30869.27
734.635	30748.37
734.976	30735.27
735.317	30663.63
735.658	30660.24
735.999	30677.19
736.339	30563.07
736.68	30685.78
737.021	30443.97
737.361	30345.9
737.702	30614.82
738.042	30506.34
738.383	30370.98
738.723	30363.98
739.063	30369.85
739.404	30419.12
739.744	30201.04
740.084	30005.57
740.424	30257.09
740.764	30064.55
741.104	30217.76
741.444	29957.66
741.784	29848.96
742.124	29898.23
742.464	29951.11
742.804	29866.81
743.143	29806.25
743.483	29705.24
743.823	29608.06
744.162	29641.96
744.502	29703.65
744.841	29426.37
745.181	29666.14
745.52	29514.73
745.86	29575.07
746.199	29357.9
746.538	29385.47
746.877	29425.92
747.216	29340.05
747.556	29363.32
747.895	29342.31
748.234	29319.03
748.573	29074.74
748.911	29175.98
749.25	29082.2
749.589	28983.67
749.928	29068.87
750.267	29062.09
750.605	29044.01
750.944	28966.5
751.283	28818.48
751.621	28963.56
751.96	28714.08
752.298	28621.2
752.636	28751.14
752.975	28529
753.313	28406.96
753.651	28623.91
753.989	28496.91
754.327	28477.47
754.666	28247.2
755.004	28279.96
755.342	28284.93
755.679	28248.1
756.017	28140.98
756.355	28181.43
756.693	28114.09
757.031	28031.61
757.368	27935.11
757.706	27934.43
758.044	27737.38
758.381	27768.56
758.719	27603.82
