Data from hue_22_FLMS001491_00089.txt Node
Date: Tue Feb 07 17:10:47 GMT 2017
User: dcchb
Spectrometer: FLMS00149
Trigger mode: 0
Integration Time (sec): 2.000000E-2
Scans to average: 10
Electric dark correction enabled: true
Nonlinearity correction enabled: false
Boxcar width: 0
XAxis mode: Wavelengths
Number of Pixels in Spectrum: 2048
>>>>>Begin Spectral Data<<<<<
341.393	-27.37
341.776	-27.37
342.16	-27.37
342.543	-77.99
342.927	-87.48
343.31	-61.04
343.693	-87.26
344.077	-71.21
344.46	-78.22
344.843	-48.16
345.226	-35.96
345.61	-27.82
345.993	-4.77
346.376	10.59
346.759	19.18
347.142	17.82
347.525	46.75
347.908	62.34
348.291	86.3
348.674	73.42
349.057	98.05
349.44	128.78
349.823	135.34
350.206	156.58
350.588	200.19
350.971	207.2
351.354	228.44
351.737	242.9
352.119	249.46
352.502	269.12
352.884	268.21
353.267	289.68
353.65	303.92
354.032	288.78
354.414	318.83
354.797	314.31
355.179	314.77
355.562	331.94
355.944	310.25
356.326	319.51
356.709	320.87
357.091	331.04
357.473	353.18
357.855	343.69
358.238	345.95
358.62	335.33
359.002	340.98
359.384	337.82
359.766	349.12
360.148	358.38
360.53	341.66
360.912	328.32
361.294	339.62
361.676	332.39
362.057	330.13
362.439	315.9
362.821	323.13
363.203	316.57
363.584	321.77
363.966	314.77
364.348	318.83
364.729	335.78
365.111	333.07
365.493	319.74
365.874	325.39
366.256	323.13
366.637	340.98
367.019	336.23
367.4	322
367.781	322.9
368.163	309.57
368.544	308.66
368.925	314.54
369.306	322.9
369.688	306.4
370.069	300.98
370.45	320.19
370.831	324.03
371.212	320.87
371.593	310.25
371.974	304.82
372.355	304.6
372.736	307.99
373.117	299.85
373.498	324.93
373.879	336.01
374.26	290.81
374.641	310.7
375.021	327.42
375.402	345.5
375.783	338.49
376.163	331.04
376.544	322.45
376.925	327.65
377.305	330.36
377.686	340.75
378.066	310.25
378.447	309.79
378.827	332.39
379.208	348.21
379.588	358.15
379.968	324.26
380.349	310.92
380.729	350.47
381.109	364.93
381.489	321.09
381.87	333.75
382.25	339.62
382.63	345.95
383.01	324.03
383.39	333.75
383.77	369
384.15	343.47
384.53	331.94
384.91	369.45
385.29	371.71
385.67	372.39
386.049	361.54
386.429	345.27
386.809	352.5
387.189	348.89
387.568	367.65
387.948	354.54
388.328	388.44
388.707	380.98
389.087	369.45
389.466	365.84
389.846	371.04
390.225	361.32
390.605	363.13
390.984	383.92
391.363	373.75
391.743	365.39
392.122	366.74
392.501	382.56
392.881	378.04
393.26	373.07
393.639	403.12
394.018	377.36
394.397	391.83
394.776	381.43
395.155	397.48
395.534	397.02
395.913	393.18
396.292	406.74
396.671	400.41
397.05	409
397.429	387.98
397.808	399.28
398.186	399.28
398.565	432.73
398.944	391.15
399.323	397.7
399.701	371.04
400.08	408.77
400.458	411.03
400.837	413.07
401.215	421.88
401.594	404.71
401.972	422.11
402.351	404.48
402.729	438.83
403.107	430.47
403.486	424.37
403.864	439.73
404.242	436.8
404.62	429.34
404.999	435.21
405.377	435.89
405.755	448.32
406.133	445.16
406.511	427.08
406.889	436.34
407.267	441.77
407.645	448.32
408.023	459.17
408.401	463.91
408.779	446.51
409.156	452.16
409.534	448.1
409.912	457.13
410.29	467.08
410.667	469.11
411.045	454.65
411.422	477.25
411.8	477.47
412.178	497.81
412.555	496.91
412.933	516.79
413.31	504.59
413.687	497.36
414.065	490.58
414.442	515.89
414.819	497.13
415.197	494.87
415.574	526.06
415.951	519.96
416.328	491.26
416.705	507.76
417.082	548.43
417.46	524.25
417.837	529.9
418.214	544.14
418.591	535.32
418.967	511.6
419.344	548.21
419.721	545.04
420.098	564.48
420.475	542.33
420.852	545.49
421.228	557.02
421.605	538.94
421.982	544.36
422.358	571.48
422.735	569.22
423.111	573.97
423.488	573.97
423.864	596.57
424.241	598.83
424.617	594.53
424.994	589.79
425.37	624.81
425.746	587.3
426.123	616.68
426.499	593.85
426.875	608.32
427.251	626.85
427.627	643.34
428.003	627.3
428.379	615.32
428.756	624.36
429.132	644.25
429.507	658.03
429.883	677.92
430.259	681.08
430.635	679.5
431.011	673.17
431.387	671.59
431.763	683.8
432.138	672.04
432.514	696.22
432.89	695.55
433.265	719.73
433.641	728.54
434.016	715.21
434.392	733.96
434.767	743.91
435.143	762.44
435.518	743.46
435.894	769.67
436.269	761.31
436.644	751.59
437.02	760.86
437.395	792.72
437.77	780.06
438.145	806.28
438.52	781.42
438.895	775.54
439.271	816.67
439.646	792.49
440.021	813.96
440.395	835.2
440.77	814.41
441.145	840.4
441.52	827.52
441.895	838.37
442.27	859.16
442.645	853.28
443.019	891.93
443.394	845.15
443.769	870.68
444.143	868.42
444.518	863.23
444.892	869.33
445.267	877.24
445.641	888.99
446.016	884.24
446.39	897.12
446.764	898.25
447.139	928.08
447.513	912.72
447.887	917.91
448.262	942.55
448.636	929.44
449.01	940.96
449.384	974.86
449.758	947.07
450.132	949.78
450.506	959.04
450.88	956.56
451.254	980.28
451.628	998.14
452.002	990.23
452.376	988.65
452.75	991.36
453.123	977.35
453.497	1017.35
453.871	1018.93
454.244	1045.59
454.618	1072.71
454.992	1057.57
455.365	1040.17
455.739	1089.21
456.112	1107.29
456.486	1093.95
456.859	1125.59
457.232	1111.13
457.606	1120.39
457.979	1140.96
458.352	1180.05
458.725	1156.78
459.099	1156.78
459.472	1180.51
459.845	1218.02
460.218	1223.89
460.591	1229.77
460.964	1220.96
461.337	1261.86
461.71	1267.74
462.083	1305.47
462.456	1290.11
462.829	1281.75
463.201	1324.23
463.574	1321.74
463.947	1340.05
464.32	1408.07
464.692	1390.44
465.065	1391.12
465.438	1418.69
465.81	1443.1
466.183	1469.99
466.555	1474.28
466.928	1489.2
467.3	1493.04
467.672	1495.3
468.045	1545.69
468.417	1537.56
468.789	1576.65
469.161	1592.7
469.534	1600.16
469.906	1653.49
470.278	1649.87
470.65	1685.35
471.022	1673.37
471.394	1734.16
471.766	1779.13
472.138	1752.02
472.51	1790.66
472.882	1835.63
473.253	1832.01
473.625	1889.19
473.997	1890.54
474.369	1969.19
474.74	1970.77
475.112	1960.37
475.484	2024.1
475.855	2051.44
476.227	2072.91
476.598	2121.5
476.97	2156.98
477.341	2223.42
477.713	2227.71
478.084	2249.18
478.455	2305.45
478.827	2367.37
479.198	2387.48
479.569	2402.17
479.94	2505.67
480.311	2538.89
480.682	2561.49
481.053	2627.02
481.424	2686.23
481.795	2707.02
482.166	2772.78
482.537	2807.58
482.908	2903.4
483.279	2893.45
483.65	2942.72
484.021	3041.7
484.391	3085.77
484.762	3088.25
485.133	3120.79
485.503	3196.95
485.874	3281.92
486.244	3309.94
486.615	3340
486.985	3433.78
487.356	3487.11
487.726	3521.91
488.097	3572.99
488.467	3586.54
488.837	3690.27
489.207	3739.08
489.578	3789.93
489.948	3877.16
490.318	3918.96
490.688	3936.14
491.058	4011.17
491.428	4036.25
491.798	4085.06
492.168	4189.92
492.538	4212.74
492.908	4267.66
493.278	4331.38
493.648	4335
494.017	4433.75
494.387	4483.92
494.757	4498.38
495.126	4501.77
495.496	4584.03
495.866	4592.85
496.235	4698.83
496.605	4723.24
496.974	4743.35
497.344	4795.78
497.713	4803.24
498.082	4896.11
498.452	4969.56
498.821	4939.95
499.19	4958.94
499.559	5031.7
499.928	5098.14
500.298	5095.88
500.667	5106.73
501.036	5193.73
501.405	5210
501.774	5198.93
502.143	5264.47
502.512	5323.22
502.88	5299.72
503.249	5332.71
503.618	5391.02
503.987	5407.97
504.356	5454.07
504.724	5462.65
505.093	5473.05
505.462	5467.4
505.83	5519.6
506.199	5555.76
506.567	5655.42
506.936	5620.61
507.304	5741.06
507.672	5742.65
508.041	5771.35
508.409	5831.46
508.777	5895.18
509.145	5873.26
509.514	5866.94
509.882	5959.82
510.25	5939.25
510.618	5980.83
510.986	6003.2
511.354	6100.38
511.722	6094.95
512.09	6139.92
512.458	6153.93
512.826	6200.03
513.193	6223.76
513.561	6243.88
513.929	6258.56
514.297	6326.81
514.664	6346.25
515.032	6366.81
515.4	6430.76
515.767	6412.23
516.135	6425.57
516.502	6417.66
516.869	6533.13
517.237	6528.16
517.604	6506.02
517.972	6599.35
518.339	6600.25
518.706	6613.36
519.073	6676.63
519.44	6700.36
519.808	6819.23
520.175	6791.66
520.542	6792.11
520.909	6867.59
521.276	6887.47
521.643	6890.41
522.009	6986
522.376	7005.21
522.743	6962.95
523.11	7045.21
523.477	7135.83
523.843	7210.86
524.21	7233.91
524.577	7283.17
524.943	7289.27
525.31	7320.23
525.676	7358.87
526.043	7414.47
526.409	7503.05
526.776	7555.48
527.142	7504.18
527.508	7623.73
527.874	7659.43
528.241	7648.58
528.607	7755.47
528.973	7759.09
529.339	7816.94
529.705	7862.36
530.071	7897.39
530.437	7848.35
530.803	8067.1
531.169	7976.94
531.535	8017.61
531.901	8022.81
532.267	8079.31
532.632	8156.82
532.998	8164.73
533.364	8285.63
533.73	8271.84
534.095	8389.58
534.461	8364.05
534.826	8424.38
535.192	8363.14
535.557	8462.35
535.923	8442.01
536.288	8474.78
536.653	8608.56
537.019	8544.38
537.384	8566.98
537.749	8571.95
538.114	8708.22
538.479	8692.62
538.845	8729.46
539.21	8715.9
539.575	8815.56
539.94	8841.55
540.305	8893.75
540.67	8921.09
541.034	8913.86
541.399	8957.48
541.764	8944.82
542.129	8967.42
542.494	9057.81
542.858	9149.11
543.223	9128.77
543.587	9136
543.952	9160.63
544.316	9237.02
544.681	9307.3
545.045	9328.54
545.41	9357.24
545.774	9407.86
546.138	9406.73
546.503	9447.18
546.867	9475.43
547.231	9520.85
547.595	9539.83
547.959	9660.96
548.324	9628.19
548.688	9663.45
549.052	9636.55
549.416	9655.99
549.779	9738.92
550.143	9771.01
550.507	9855.31
550.871	9805.59
551.235	9844.01
551.599	9952.03
551.962	9956.77
552.326	9952.25
552.689	9966.49
553.053	9947.73
553.417	10017.56
553.78	10177.33
554.143	10065.92
554.507	10100.72
554.87	10157.9
555.234	10271.34
555.597	10309.08
555.96	10280.83
556.323	10365.35
556.686	10348.17
557.05	10463.65
557.413	10498.23
557.776	10527.83
558.139	10465.23
558.502	10550.88
558.865	10537.1
559.228	10711.1
559.59	10638.56
559.953	10647.38
560.316	10797.43
560.679	10746.13
561.041	10838.78
561.404	10910.42
561.767	10953.36
562.129	10882.85
562.492	11013.69
562.854	10952.68
563.217	10961.49
563.579	11090.53
563.941	11128.94
564.304	11146.57
564.666	11190.19
565.028	11286.45
565.39	11294.36
565.753	11375.04
566.115	11365.1
566.477	11468.14
566.839	11454.59
567.201	11528.48
567.563	11492.32
567.925	11596.73
568.287	11620.23
568.648	11727.8
569.01	11733
569.372	11772.09
569.734	11830.62
570.095	11804.41
570.457	11944.06
570.819	11945.42
571.18	11965.08
571.542	12065.42
571.903	12074.46
572.265	12161.46
572.626	12181.35
572.987	12264.96
573.349	12346.54
573.71	12379.53
574.071	12358.29
574.432	12531.62
574.794	12575.23
575.155	12566.42
575.516	12551.05
575.877	12773.87
576.238	12794.89
576.599	12877.15
576.96	12956.92
577.32	13035.34
577.681	13148.55
578.042	13231.04
578.403	13353.74
578.763	13367.98
579.124	13483.01
579.485	13672.38
579.845	13752.38
580.206	13817.91
580.566	13896.56
580.927	14088.64
581.287	14125.25
581.648	14300.16
582.008	14514.84
582.368	14562.3
582.728	14741.96
583.089	14936.53
583.449	14960.26
583.809	15239.35
584.169	15402.96
584.529	15533.57
584.889	15889.05
585.249	15927.01
585.609	16067.8
585.969	16315.02
586.329	16505.75
586.688	16672.08
587.048	16932.86
587.408	17075.91
587.768	17394.77
588.127	17621.88
588.487	17833.85
588.846	18053.51
589.206	18230.68
589.565	18552.48
589.925	18870.21
590.284	19141.84
590.643	19453.47
591.003	19782.28
591.362	20024.76
591.721	20305.88
592.08	20514.46
592.44	20882.59
592.799	21114.44
593.158	21405.06
593.517	21703.13
593.876	22049.56
594.235	22272.38
594.593	22666.27
594.952	23013.83
595.311	23204.33
595.67	23614.49
596.029	24048.6
596.387	24295.6
596.746	24670.51
597.104	24940.11
597.463	25209.48
597.822	25659.18
598.18	25817.37
598.538	26129
598.897	26660.74
599.255	26628.42
599.613	27392.92
599.972	27464.79
600.33	27807.38
600.688	28072.23
601.046	28508.15
601.404	28881.92
601.762	29154.23
602.12	29466.09
602.478	29880.09
602.836	30181.33
603.194	30163.47
603.552	30654.76
603.91	30816.34
604.268	31241.18
604.625	31392.14
604.983	31819.25
605.341	31861.51
605.698	32348.95
606.056	32663.75
606.413	32911.2
606.771	33245.43
607.128	33458.08
607.485	33624.85
607.843	33854.22
608.2	34281.1
608.557	34643.35
608.914	34612.39
609.272	35171.48
609.629	35350.23
609.986	35668.64
610.343	35814.62
610.7	36154.5
611.057	36344.55
611.414	36637.43
611.771	36846.23
612.127	36962.62
612.484	37319.67
612.841	37497.52
613.198	37599.44
613.554	37818.41
613.911	38287.33
614.267	38281.45
614.624	38356.03
614.98	38642.12
615.337	38874.66
615.693	39157.59
616.05	39181.09
616.406	39660.4
616.762	39595.31
617.118	39737.46
617.475	39971.58
617.831	40102.65
618.187	40399.59
618.543	40520.04
618.899	40863.08
619.255	40845
619.611	40959.8
619.967	41237.31
620.323	41456.96
620.678	41419.22
621.034	41456.28
621.39	41655.37
621.746	41700.57
622.101	42320.89
622.457	41991.18
622.812	42096.27
623.168	42432.3
623.523	42440.89
623.879	42704.39
624.234	42479.31
624.589	42638.4
624.945	42757.94
625.3	42874.78
625.655	43064.15
626.01	42908.45
626.365	43141.89
626.72	43109.35
627.075	43201.55
627.43	43296.23
627.785	43192.28
628.14	43472.95
628.495	43489.9
628.85	43476.79
629.205	43545.72
629.559	43817.12
629.914	43770.35
630.269	43781.65
630.623	43732.16
630.978	43779.61
631.332	43948.42
631.687	44027.74
632.041	43915.43
632.396	43975.09
632.75	43936.9
633.104	44036.55
633.459	43901.42
633.813	44069.55
634.167	44008.53
634.521	44006.27
634.875	44045.37
635.229	44008.76
635.583	43955.88
635.937	43956.33
636.291	44102.31
636.645	43968.99
636.999	43903.22
637.352	44046.95
637.706	43838.37
638.06	44102.99
638.413	43986.39
638.767	43913.39
639.121	44144.57
639.474	43853.06
639.828	43818.48
640.181	43923.56
640.534	43981.87
640.888	43902.77
641.241	43744.58
641.594	43885.37
641.947	43982.32
642.301	43903.68
642.654	43888.08
643.007	43818.93
643.36	43912.04
643.713	43813.28
644.066	43978.7
644.419	43709.78
644.771	43598.83
645.124	43250.81
645.477	43170.59
645.83	42865.51
646.182	42862.35
646.535	42664.84
646.888	42918.84
647.24	42483.6
647.593	42877.26
647.945	42711.39
648.298	42531.06
648.65	42599.53
649.002	42385.52
649.355	42624.84
649.707	42566.31
650.059	42785.97
650.411	43301.21
650.763	43208.78
651.115	43611.03
651.467	43512.5
651.819	43390.92
652.171	43337.14
652.523	43368.32
652.875	43271.15
653.227	43250.13
653.578	43466.85
653.93	43224.6
654.282	43159.74
654.633	43168.33
654.985	43296.23
655.337	43437.7
655.688	43195.9
656.039	43449.45
656.391	43024.38
656.742	43113.64
657.094	43091.72
657.445	43238.16
657.796	43105.05
658.147	43032.06
658.498	43179.4
658.849	43280.64
659.2	43079.07
659.551	43096.01
659.902	43133.98
660.253	43092.4
660.604	43126.3
660.955	42765.85
661.306	43105.96
661.656	42996.58
662.007	43139.85
662.358	43023.02
662.708	43050.59
663.059	42985.73
663.409	42714.55
663.76	43224.82
664.11	43049.69
664.461	43132.17
664.811	43092.62
665.161	43110.93
665.511	42832.97
665.862	42829.35
666.212	43139.85
666.562	43009.01
666.912	43021.89
667.262	42849.01
667.612	42970.59
667.962	42932.18
668.312	42873.19
668.662	43069.57
669.011	42995.68
669.361	42852.4
669.711	42887.88
670.06	42934.89
670.41	42830.48
670.76	42749.36
671.109	42872.97
671.459	42886.98
671.808	42857.15
672.157	42940.54
672.507	42629.81
672.856	42628.91
673.205	42688.79
673.554	42741.45
673.904	42625.97
674.253	42892.86
674.602	42693.31
674.951	42059.43
675.3	41829.15
675.649	42488.8
675.998	42580.1
676.346	42462.81
676.695	42584.16
677.044	42385.07
677.393	42483.15
677.741	42495.58
678.09	42499.65
678.438	42499.19
678.787	42442.02
679.135	42386.88
679.484	42065.76
679.832	42297.16
680.181	41929.94
680.529	42203.38
680.877	42033.89
681.225	41999.55
681.573	42253.78
681.922	41967.23
682.27	41898.53
682.618	41803.62
682.966	41903.05
683.314	41756.16
683.661	41863.96
684.009	41621.7
684.357	41477.07
684.705	41445.66
685.053	41510.52
685.4	41412.44
685.748	41169.51
686.095	41329.05
686.443	41021.72
686.79	41077.76
687.138	41237.08
687.485	41085.9
687.832	41071.66
688.18	41085.9
688.527	40845.45
688.874	40757.09
689.221	40779.01
689.568	40636.19
689.915	40465.8
690.262	40537.89
690.609	40418.12
690.956	40324.56
691.303	40197.33
691.65	40025.59
691.997	40023.33
692.344	39811.81
692.69	39839.6
693.037	39888.87
693.383	39479.39
693.73	39587.18
694.077	39233.74
694.423	39383.57
694.769	39323.68
695.116	39142.22
695.462	39217.92
695.808	39122.11
696.155	39140.41
696.501	38864.71
696.847	38900.42
697.193	38558.28
697.539	38764.15
697.885	38429.7
698.231	38218.18
698.577	38307.67
698.923	38240.32
699.269	38086.2
699.614	37846.21
699.96	37840.11
700.306	37852.08
700.651	37834.01
700.997	37754.01
701.342	37514.01
701.688	37566.89
702.033	37445.09
702.379	37360.12
702.724	37297.97
703.069	37416.39
703.415	36924.42
703.76	36997.64
704.105	36979.34
704.45	36920.58
704.795	36791.55
705.14	36525.11
705.485	36525.57
705.83	36592.91
706.175	36438.56
706.52	36364.44
706.865	36238.34
707.209	36270.43
707.554	36107.04
707.899	36206.25
708.243	35946.82
708.588	35818.69
708.932	35575.31
709.277	35677
709.621	35586.83
709.966	35347.74
710.31	35479.94
710.654	35202.21
710.998	35358.82
711.342	35287.63
711.687	35070.46
712.031	34979.39
712.375	35027.53
712.719	34867.53
713.063	34971.93
713.407	34970.35
713.75	34753.86
714.094	34789.11
714.438	34573.53
714.782	34580.98
715.125	34512.51
715.469	34722.45
715.812	34338.73
716.156	34193.2
716.499	34088.79
716.843	34232.52
717.186	34044.05
717.53	34253.99
717.873	34227.55
718.216	34111.84
718.559	33874.34
718.902	33672.31
719.246	33711.18
719.589	33588.69
719.932	33494.23
720.275	33507.11
720.617	33564.74
720.96	33428.7
721.303	33454.46
721.646	33435.48
721.989	33267.57
722.331	33357.74
722.674	33187.57
723.016	33233.9
723.359	33183.51
723.701	33235.26
724.044	32948.94
724.386	32835.49
724.729	32995.94
725.071	32835.72
725.413	32916.85
725.755	32860.35
726.097	32550.3
726.439	32523.86
726.782	32528.83
727.124	32784.42
727.465	32506.01
727.807	32516.63
728.149	32428.72
728.491	32396.63
728.833	32303.76
729.175	32175.17
729.516	32174.49
729.858	32160.26
730.199	32149.18
730.541	32061.5
730.882	32023.54
731.224	32128.84
731.565	31911
731.906	31849.3
732.248	31883.43
732.589	31758.23
732.93	31679.36
733.271	31663.55
733.612	31666.48
733.953	31649.31
734.294	31569.31
734.635	31438.02
734.976	31539.03
735.317	31428.52
735.658	31457.9
735.999	31354.4
736.339	31306.49
736.68	31381.52
737.021	31326.15
737.361	31185.14
737.702	31200.51
738.042	31123.9
738.383	31007.97
738.723	31054.3
739.063	30986.05
739.404	30944.24
739.744	30908.31
740.084	30707.19
740.424	30908.31
740.764	30741.31
741.104	30823.79
741.444	30702.89
741.784	30558.26
742.124	30584.48
742.464	30607.3
742.804	30532.95
743.143	30445.05
743.483	30404.6
743.823	30325.73
744.162	30365.95
744.502	30233.75
744.841	30147.43
745.181	30392.39
745.52	30200.31
745.86	30250.7
746.199	30160.53
746.538	30077.15
746.877	30228.1
747.216	30188.78
747.556	29999.41
747.895	30136.13
748.234	29897.49
748.573	29751.28
748.911	29837.38
749.25	29790.15
749.589	29794.89
749.928	29669.7
750.267	29728.68
750.605	29681
750.944	29558.06
751.283	29482.13
751.621	29455.69
751.96	29336.38
752.298	29407.11
752.636	29392.19
752.975	29296.6
753.313	29124.63
753.651	29221.58
753.989	28902.26
754.327	28955.82
754.666	28924.41
755.004	28925.99
755.342	28856.61
755.679	28936.61
756.017	28638.09
756.355	28805.32
756.693	28598.54
757.031	28660.01
757.368	28511.54
757.706	28409.85
758.044	28358.77
758.381	28403.52
758.719	28228.38
759.056	28264.54
