Data from hue_90_FLMS001491_48.txt Node
Date: Mon Feb 06 15:25:12 GMT 2017
User: dcchb
Spectrometer: FLMS00149
Trigger mode: 0
Integration Time (sec): 2.000000E-2
Scans to average: 10
Electric dark correction enabled: true
Nonlinearity correction enabled: false
Boxcar width: 0
XAxis mode: Wavelengths
Number of Pixels in Spectrum: 2048
>>>>>Begin Spectral Data<<<<<
341.393	-7.4
341.776	-7.4
342.16	-7.4
342.543	-61.41
342.927	-64.35
343.31	-43.33
343.693	-75.42
344.077	-87.4
344.46	-63.9
344.843	-58.25
345.226	-63.67
345.61	-19.6
345.993	-0.85
346.376	-0.62
346.759	0.28
347.142	40.51
347.525	30.79
347.908	61.98
348.291	71.92
348.674	92.03
349.057	115.53
349.44	131.58
349.823	126.38
350.206	159.83
350.588	193.95
350.971	216.77
351.354	227.4
351.737	241.63
352.119	236.89
352.502	268.52
352.884	266.49
353.267	281.63
353.65	274.17
354.032	301.52
354.414	311.46
354.797	313.95
355.179	309.65
355.562	314.4
355.944	335.19
356.326	331.12
356.709	331.57
357.091	322.08
357.473	343.32
357.855	337.22
358.238	370.22
358.62	333.16
359.002	333.61
359.384	345.81
359.766	328.86
360.148	354.17
360.53	341.52
360.912	324.12
361.294	351.23
361.676	333.16
362.057	354.62
362.439	325.7
362.821	328.64
363.203	318.69
363.584	320.5
363.966	343.78
364.348	341.74
364.729	325.7
365.111	292.93
365.493	316.88
365.874	302.87
366.256	309.43
366.637	308.52
367.019	308.52
367.4	313.72
367.781	314.62
368.163	322.08
368.544	325.7
368.925	326.15
369.306	340.16
369.688	322.53
370.069	309.43
370.45	312.14
370.831	303.55
371.212	316.43
371.593	309.43
371.974	322.53
372.355	337
372.736	320.95
373.117	318.47
373.498	331.57
373.879	326.38
374.26	322.53
374.641	303.55
375.021	318.47
375.402	326.6
375.783	319.37
376.163	333.83
376.544	334.96
376.925	321.63
377.305	339.26
377.686	327.28
378.066	318.69
378.447	324.12
378.827	332.7
379.208	336.77
379.588	327.96
379.968	323.66
380.349	329.09
380.729	361.85
381.109	358.69
381.489	339.48
381.87	317.34
382.25	341.29
382.63	346.71
383.01	356.21
383.39	360.05
383.77	353.04
384.15	332.25
384.53	328.64
384.91	355.53
385.29	331.35
385.67	337.22
386.049	356.66
386.429	360.05
386.809	350.56
387.189	346.71
387.568	353.49
387.948	351.01
388.328	384.68
388.707	369.31
389.087	385.58
389.466	384.91
389.846	372.93
390.225	367.28
390.605	358.24
390.984	385.58
391.363	367.96
391.743	375.87
392.122	382.87
392.501	369.31
392.881	391.68
393.26	388.07
393.639	374.74
394.018	393.72
394.397	383.55
394.776	407.05
395.155	391.23
395.534	394.62
395.913	399.37
396.292	395.98
396.671	392.81
397.05	385.58
397.429	412.93
397.808	395.75
398.186	385.58
398.565	404.34
398.944	392.81
399.323	379.71
399.701	407.05
400.08	382.87
400.458	409.09
400.837	424.9
401.215	396.43
401.594	427.84
401.972	422.64
402.351	417.9
402.729	428.52
403.107	404.34
403.486	408.41
403.864	414.28
404.242	443.89
404.62	434.17
404.999	438.92
405.377	439.14
405.755	447.73
406.133	431.01
406.511	443.89
406.889	442.98
407.267	432.36
407.645	450.67
408.023	447.95
408.401	446.15
408.779	447.5
409.156	478.01
409.534	457.45
409.912	454.06
410.29	467.39
410.667	473.04
411.045	467.16
411.422	464.9
411.8	475.98
412.178	493.83
412.555	491.12
412.933	459.25
413.31	462.64
413.687	457.67
414.065	494.05
414.442	499.7
414.819	494.28
415.197	498.35
415.574	515.3
415.951	530.66
416.328	508.07
416.705	510.55
417.082	491.79
417.46	504.68
417.837	511.68
418.214	539.93
418.591	514.17
418.967	518.69
419.344	542.42
419.721	518.69
420.098	527.73
420.475	532.92
420.852	524.34
421.228	555.97
421.605	537.9
421.982	552.36
422.358	564.11
422.735	555.07
423.111	575.41
423.488	542.64
423.864	544.45
424.241	565.24
424.617	553.49
424.994	558.01
425.37	564.56
425.746	568.86
426.123	594.17
426.499	581.06
426.875	592.58
427.251	589.65
427.627	614.96
428.003	599.81
428.379	612.92
428.756	618.8
429.132	620.83
429.507	633.94
429.883	620.61
430.259	659.93
430.635	638.68
431.011	631.9
431.387	653.6
431.763	679.59
432.138	641.62
432.514	676.42
432.89	677.1
433.265	687.95
433.641	678.68
434.016	696.99
434.392	706.48
434.767	711.22
435.143	692.24
435.518	711.9
435.894	706.48
436.269	713.26
436.644	754.61
437.02	734.27
437.395	765.46
437.77	747.38
438.145	770.66
438.52	760.04
438.895	757.78
439.271	782.86
439.646	764.33
440.021	780.83
440.395	772.24
440.77	780.83
441.145	801.62
441.52	821.05
441.895	793.71
442.27	793.71
442.645	801.84
443.019	833.03
443.394	812.01
443.769	829.87
444.143	810.66
444.518	831.9
444.892	843.65
445.267	863.99
445.641	857.66
446.016	861.95
446.39	882.52
446.764	869.19
447.139	846.14
447.513	883.2
447.887	857.66
448.262	842.07
448.636	863.99
449.01	924.1
449.384	892.24
449.758	895.4
450.132	892.91
450.506	931.78
450.88	936.3
451.254	938.79
451.628	932.24
452.002	943.31
452.376	953.48
452.75	961.84
453.123	958.45
453.497	982.63
453.871	997.54
454.244	1018.11
454.618	1003.87
454.992	1004.1
455.365	1010.2
455.739	1036.64
456.112	1040.26
456.486	1026.02
456.859	1074.15
457.232	1082.97
457.606	1090.65
457.979	1115.28
458.352	1095.17
458.725	1136.52
459.099	1150.08
459.472	1156.41
459.845	1170.2
460.218	1182.62
460.591	1185.34
460.964	1198.44
461.337	1234.6
461.71	1262.17
462.083	1277.31
462.456	1266.46
462.829	1256.97
463.201	1290.64
463.574	1315.95
463.947	1288.38
464.32	1323.41
464.692	1366.8
465.065	1365.9
465.438	1416.29
465.81	1414.71
466.183	1455.84
466.555	1483.86
466.928	1478.21
467.3	1491.54
467.672	1506.68
468.045	1551.43
468.417	1556.17
468.789	1572.9
469.161	1602.95
469.534	1607.7
469.906	1655.61
470.278	1706.9
470.65	1708.71
471.022	1756.17
471.394	1773.34
471.766	1795.94
472.138	1782.83
472.51	1863.28
472.882	1953.68
473.253	1956.39
473.625	2002.04
473.997	2030.29
474.369	2056.95
474.74	2119.55
475.112	2159.32
475.484	2216.5
475.855	2238.87
476.227	2292.43
476.598	2395.47
476.97	2387.56
477.341	2471.4
477.713	2550.05
478.084	2604.73
478.455	2691.06
478.827	2726.99
479.198	2801.56
479.569	2867.78
479.94	2944.61
480.311	3015.57
480.682	3115.91
481.053	3229.8
481.424	3321.55
481.795	3351.83
482.166	3484.03
482.537	3540.98
482.908	3669.56
483.279	3717.7
483.65	3835.89
484.021	3960.18
484.391	4076.56
484.762	4134.19
485.133	4234.07
485.503	4355.2
485.874	4471.35
486.244	4576.89
486.615	4724
486.985	4882.41
487.356	4979.59
487.726	5066.59
488.097	5233.59
488.467	5306.81
488.837	5523.08
489.207	5564.66
489.578	5746.35
489.948	5819.56
490.318	6024.08
490.688	6052.1
491.058	6201.93
491.428	6403.96
491.798	6495.03
492.168	6671.52
492.538	6775.47
492.908	6933.21
493.278	7048.91
493.648	7190.6
494.017	7288
494.387	7428.34
494.757	7561.44
495.126	7734.32
495.496	7808.21
495.866	7947.87
496.235	8059.05
496.605	8219.95
496.974	8276.45
497.344	8431.7
497.713	8580.85
498.082	8639.83
498.452	8849.77
498.821	8851.12
499.19	8870.78
499.559	9138.57
499.928	9146.03
500.298	9311
500.667	9438.45
501.036	9493.82
501.405	9607.94
501.774	9666.47
502.143	9805.45
502.512	9889.29
502.88	9962.96
503.249	10045.22
503.618	10167.7
503.987	10199.11
504.356	10292.44
504.724	10453.11
505.093	10412.89
505.462	10507.12
505.83	10543.28
506.199	10626.22
506.567	10896.04
506.936	10857.62
507.304	11023.5
507.672	11094
508.041	11051.29
508.409	11224.17
508.777	11228.46
509.145	11392.07
509.514	11444.73
509.882	11447.21
510.25	11564.27
510.618	11600.88
510.986	11637.72
511.354	11682.69
511.722	11748.9
512.09	11897.37
512.458	11890.82
512.826	11908.67
513.193	11976.69
513.561	12041.32
513.929	12131.04
514.297	12240.64
514.664	12282.45
515.032	12308.66
515.4	12341.88
515.767	12411.03
516.135	12436.57
516.502	12311.15
516.869	12488.09
517.237	12572.38
517.604	12533.51
517.972	12655.09
518.339	12686.73
518.706	12712.26
519.073	12731.7
519.44	12725.6
519.808	12834.75
520.175	12786.84
520.542	12924.69
520.909	12885.82
521.276	12931.02
521.643	13017.57
522.009	13011.24
522.376	13005.36
522.743	13104.57
523.11	13155.42
523.477	13244.45
523.843	13171.91
524.21	13370.1
524.577	13366.48
524.943	13377.11
525.31	13392.92
525.676	13519.25
526.043	13451.68
526.409	13488.52
526.776	13575.52
527.142	13563.32
527.508	13529.64
527.874	13669.75
528.241	13715.4
528.607	13612.58
528.973	13702.75
529.339	13585.24
529.705	13760.37
530.071	13743.2
530.437	13730.99
530.803	13766.7
531.169	13741.16
531.535	13708.62
531.901	13741.16
532.267	13778.23
532.632	13756.53
532.998	13780.49
533.364	13696.19
533.73	13690.54
534.095	13798.11
534.461	13700.26
534.826	13730.99
535.192	13696.87
535.557	13738.9
535.923	13675.4
536.288	13625.23
536.653	13680.37
537.019	13623.2
537.384	13531
537.749	13669.75
538.114	13613.48
538.479	13594.05
538.845	13531.45
539.21	13454.39
539.575	13508.63
539.94	13406.03
540.305	13444.22
540.67	13413.94
541.034	13408.07
541.399	13436.77
541.764	13368.74
542.129	13328.52
542.494	13292.36
542.858	13246.49
543.223	13195.64
543.587	13240.61
543.952	13167.17
544.316	13149.32
544.681	13202.65
545.045	13129.43
545.41	13131.24
545.774	13022.31
546.138	13011.47
546.503	13060.73
546.867	12949.77
547.231	13022.99
547.595	12920.39
547.959	12881.75
548.324	12907.97
548.688	12908.42
549.052	12846.05
549.416	12745.26
549.779	12782.09
550.143	12721.08
550.507	12724.02
550.871	12703.23
551.235	12678.59
551.599	12634.98
551.962	12714.98
552.326	12641.31
552.689	12703
553.053	12540.97
553.417	12560.63
553.78	12602.21
554.143	12575.09
554.507	12590.91
554.87	12572.61
555.234	12566.73
555.597	12447.86
555.96	12459.62
556.323	12536.9
556.686	12390.01
557.05	12457.58
557.413	12365.38
557.776	12448.77
558.139	12413.52
558.502	12448.99
558.865	12464.59
559.228	12380.3
559.59	12380.3
559.953	12428.66
560.316	12532.38
560.679	12463.23
561.041	12477.92
561.404	12460.97
561.767	12533.51
562.129	12394.53
562.492	12431.82
562.854	12382.78
563.217	12482.67
563.579	12448.32
563.941	12440.41
564.304	12508.65
564.666	12544.36
565.028	12470.46
565.39	12502.1
565.753	12543
566.115	12523.34
566.477	12612.61
566.839	12531.7
567.201	12585.71
567.563	12542.1
567.925	12608.31
568.287	12601.08
568.648	12631.81
569.01	12637.46
569.372	12718.82
569.734	12568.09
570.095	12661.19
570.457	12647.18
570.819	12713.62
571.18	12701.19
571.542	12777.8
571.903	12780.51
572.265	12725.82
572.626	12725.82
572.987	12799.04
573.349	12821.64
573.71	12819.15
574.071	12804.69
574.432	12807.63
574.794	12873.84
575.155	12932.15
575.516	12712.94
575.877	12836.56
576.238	12793.84
576.599	12902.09
576.96	12822.54
577.32	12812.15
577.681	12906.38
578.042	12875.42
578.403	12861.41
578.763	12810.12
579.124	12897.12
579.485	12847.63
579.845	12963.33
580.206	12885.82
580.566	12893.28
580.927	12936.21
581.287	12927.63
581.648	12849.66
582.008	12863.67
582.368	12887.4
582.728	12827.29
583.089	12909.1
583.449	12858.25
583.809	12770.12
584.169	12893.73
584.529	12794.52
584.889	12837.69
585.249	12841.98
585.609	12692.83
585.969	12867.51
586.329	12788.42
586.688	12746.39
587.048	12676.33
587.408	12769.21
587.768	12679.5
588.127	12712.94
588.487	12717.46
588.846	12731.02
589.206	12681.98
589.565	12675.2
589.925	12767.4
590.284	12687.63
590.643	12699.16
591.003	12692.83
591.362	12725.82
591.721	12700.51
592.08	12692.15
592.44	12700.29
592.799	12704.58
593.158	12554.98
593.517	12627.07
593.876	12652.38
594.235	12710.91
594.593	12579.39
594.952	12628.88
595.311	12627.3
595.67	12600.86
596.029	12705.71
596.387	12644.92
596.746	12690.34
597.104	12606.05
597.463	12598.82
597.822	12561.76
598.18	12530.12
598.538	12565.15
598.897	12532.61
599.255	12504.81
599.613	12674.07
599.972	12651.7
600.33	12520.18
600.688	12533.06
601.046	12603.79
601.404	12581.87
601.762	12535.09
602.12	12580.97
602.478	12523.34
602.836	12573.74
603.194	12551.59
603.552	12606.5
603.91	12463.91
604.268	12647.86
604.625	12489.67
604.983	12567.64
605.341	12557.92
605.698	12577.13
606.056	12611.7
606.413	12558.14
606.771	12530.12
607.128	12665.03
607.485	12564.7
607.843	12620.97
608.2	12590.46
608.557	12680.85
608.914	12640.63
609.272	12646.28
609.629	12612.83
609.986	12733.51
610.343	12669.78
610.7	12705.03
611.057	12734.18
611.414	12725.15
611.771	12707.07
612.127	12758.14
612.484	12675.66
612.841	12818.02
613.198	12616.22
613.554	12725.37
613.911	12800.85
614.267	12749.33
614.624	12753.17
614.98	12768.99
615.337	12863.67
615.693	12852.6
616.05	12764.47
616.406	12938.93
616.762	12898.02
617.118	12831.13
617.475	12950.9
617.831	12898.93
618.187	12867.51
618.543	12892.82
618.899	12961.3
619.255	12918.81
619.611	12961.75
619.967	12897.8
620.323	12987.96
620.678	12897.57
621.034	12846.72
621.39	12945.7
621.746	12882.43
622.101	13069.77
622.457	12880.4
622.812	12905.25
623.168	12965.14
623.523	13008.98
623.879	12990.9
624.234	12938.25
624.589	12918.81
624.945	12944.57
625.3	13016.89
625.655	12913.16
626.01	12939.15
626.365	12961.75
626.72	12889.21
627.075	12951.81
627.43	12926.04
627.785	12799.04
628.14	12903.67
628.495	12940.28
628.85	12863
629.205	12886.27
629.559	12921.52
629.914	12837.91
630.269	12878.14
630.623	12901.19
630.978	12778.7
631.332	12795.43
631.687	12837.91
632.041	12771.02
632.396	12862.77
632.75	12775.09
633.104	12841.75
633.459	12728.99
633.813	12760.85
634.167	12717.91
634.521	12708.42
634.875	12755.88
635.229	12622.1
635.583	12649.89
635.937	12619.61
636.291	12635.43
636.645	12597.92
636.999	12580.29
637.352	12593.85
637.706	12605.15
638.06	12660.51
638.413	12580.52
638.767	12568.77
639.121	12594.98
639.474	12514.98
639.828	12453.51
640.181	12494.64
640.534	12448.99
640.888	12463.23
641.241	12474.3
641.594	12440.63
641.947	12476.11
642.301	12401.76
642.654	12359.96
643.007	12393.4
643.36	12363.35
643.713	12409.9
644.066	12433.4
644.419	12293.07
644.771	12282.67
645.124	12088.33
645.477	12039.97
645.83	12039.29
646.182	11992.74
646.535	11996.8
646.888	12125.39
647.24	11854.66
647.593	12032.28
647.945	12037.25
648.298	11993.87
648.65	11992.74
649.002	11902.57
649.355	12004.03
649.707	11933.98
650.059	12000.87
650.411	12097.59
650.763	12063.47
651.115	12241.54
651.467	12231.83
651.819	12240.86
652.171	12252.62
652.523	12131.94
652.875	12285.16
653.227	12152.05
653.578	12225.95
653.93	12253.07
654.282	12169.91
654.633	12199.74
654.985	12163.13
655.337	12194.31
655.688	12195.89
656.039	12234.31
656.391	12161.32
656.742	12128.1
657.094	12210.13
657.445	12195.44
657.796	12232.28
658.147	12138.95
658.498	12156.35
658.849	12206.97
659.2	12182.34
659.551	12190.24
659.902	12245.84
660.253	12188.21
660.604	12274.99
660.955	12157.7
661.306	12200.41
661.656	12219.4
662.007	12240.41
662.358	12165.16
662.708	12185.95
663.059	12216.68
663.409	12185.72
663.76	12264.37
664.11	12249.23
664.461	12267.3
664.811	12292.39
665.161	12186.18
665.511	12242.67
665.862	12247.64
666.212	12329.45
666.562	12273.18
666.912	12330.58
667.262	12313.86
667.612	12255.1
667.962	12314.31
668.312	12296.46
668.662	12390.69
669.011	12338.72
669.361	12288.55
669.711	12297.13
670.06	12254.2
670.41	12243.35
670.76	12188.44
671.109	12306.4
671.459	12253.97
671.808	12290.35
672.157	12225.5
672.507	12237.47
672.856	12203.8
673.205	12224.59
673.554	12184.14
673.904	12172.39
674.253	12270.69
674.602	12158.61
674.951	12056.46
675.3	11924.71
675.649	12188.66
675.998	12058.72
676.346	12087.87
676.695	12170.13
677.044	11957.03
677.393	12071.6
677.741	12138.95
678.09	11997.93
678.438	12080.42
678.787	12004.49
679.135	12017.59
679.484	11966.52
679.832	11945.05
680.181	11914.09
680.529	11962.45
680.877	11897.14
681.225	11889.46
681.573	11943.92
681.922	11884.49
682.27	11811.05
682.618	11871.16
682.966	11754.1
683.314	11796.58
683.661	11710.94
684.009	11691.05
684.357	11703.7
684.705	11670.71
685.053	11672.97
685.4	11618.28
685.748	11548
686.095	11565.63
686.443	11551.62
686.79	11531.73
687.138	11568.57
687.485	11604.05
687.832	11451.05
688.18	11489.47
688.527	11409.93
688.874	11334.67
689.221	11334
689.568	11311.85
689.915	11269.59
690.262	11250.83
690.609	11196.82
690.956	11156.37
691.303	11156.15
691.65	11036.83
691.997	11027.34
692.344	11009.48
692.69	11004.06
693.037	11014
693.383	10871.41
693.73	10978.98
694.077	10893.56
694.423	10843.16
694.769	10801.81
695.116	10745.99
695.462	10765.65
695.808	10761.81
696.155	10684.75
696.501	10603.85
696.847	10629.38
697.193	10521.36
697.539	10529.95
697.885	10448.14
698.231	10476.84
698.577	10426.67
698.923	10399.56
699.269	10313.01
699.614	10256.28
699.96	10235.04
700.306	10177.64
700.651	10197.08
700.997	10132.9
701.342	10157.3
701.688	10108.94
702.033	10009.96
702.379	9988.49
702.724	9933.13
703.069	10011.77
703.415	9873.92
703.76	9904.65
704.105	9896.75
704.45	9834.37
704.795	9769.97
705.14	9772.68
705.485	9732.68
705.83	9692.23
706.175	9638.45
706.52	9625.79
706.865	9648.39
707.209	9623.31
707.554	9578.56
707.899	9613.59
708.243	9547.38
708.588	9544.21
708.932	9419.47
709.277	9456.98
709.621	9397.32
709.966	9369.08
710.31	9365.69
710.654	9282.98
710.998	9309.42
711.342	9317.78
711.687	9265.12
712.031	9274.16
712.375	9205.69
712.719	9217.22
713.063	9131.12
713.407	9184
713.75	9123.88
714.094	9144
714.438	9076.43
714.782	9074.39
715.125	9035.53
715.469	9125.24
715.812	8987.84
716.156	8965.7
716.499	9017.45
716.843	9024.9
717.186	8985.13
717.53	8996.2
717.873	8981.06
718.216	8971.57
718.559	8972.93
718.902	8846.83
719.246	8935.64
719.589	8842.76
719.932	8792.59
720.275	8868.07
720.617	8855.19
720.96	8834.17
721.303	8822.65
721.646	8836.21
721.989	8732.03
722.331	8834.4
722.674	8702.65
723.016	8677.79
723.359	8731.8
723.701	8667.63
724.044	8705.59
724.386	8697.23
724.729	8757.79
725.071	8638.47
725.413	8666.95
725.755	8703.1
726.097	8632.37
726.439	8601.86
726.782	8586.72
727.124	8693.61
727.465	8657
727.807	8591.69
728.149	8632.82
728.491	8546.27
728.833	8608.87
729.175	8559.83
729.516	8541.75
729.858	8554.86
730.199	8570.45
730.541	8595.99
730.882	8600.51
731.224	8618.36
731.565	8522.54
731.906	8583.11
732.248	8595.76
732.589	8572.71
732.93	8498.82
733.271	8498.82
733.612	8563.22
733.953	8526.84
734.294	8490.45
734.635	8520.28
734.976	8549.89
735.317	8545.82
735.658	8585.82
735.999	8546.27
736.339	8534.52
736.68	8556.44
737.021	8522.77
737.361	8500.85
737.702	8529.78
738.042	8550.79
738.383	8567.06
738.723	8570.68
739.063	8596.67
739.404	8614.75
739.744	8545.82
740.084	8545.82
740.424	8631.02
740.764	8587.63
741.104	8613.62
741.444	8583.79
741.784	8588.53
742.124	8636.67
742.464	8652.94
742.804	8692.03
743.143	8681.86
743.483	8744.69
743.823	8715.76
744.162	8816.55
744.502	8807.51
744.841	8793.27
745.181	8905.59
745.52	8897.9
745.86	8897.22
746.199	8919.82
746.538	8979.93
746.877	8973.61
747.216	9085.02
747.556	9035.07
747.895	9170.44
748.234	9219.02
748.573	9244.11
748.911	9319.36
749.25	9313.26
749.589	9446.14
749.928	9490.43
750.267	9662.18
750.605	9590.31
750.944	9681.61
751.283	9727.03
751.621	9850.19
751.96	9860.59
752.298	9984.2
752.636	10108.72
752.975	10121.82
753.313	10255.61
753.651	10353
753.989	10450.63
754.327	10535.82
754.666	10618.76
755.004	10773.56
755.342	10848.81
755.679	11021.91
756.017	11052.2
756.355	11238.41
756.693	11350.94
757.031	11500.32
757.368	11580.09
757.706	11698.73
758.044	11963.13
758.381	12056.69
758.719	12242.67
759.056	12365.38
759.394	12477.47
759.731	12601.76
