Data from hue_160_FLMS001491_00096.txt Node
Date: Tue Feb 07 16:51:57 GMT 2017
User: dcchb
Spectrometer: FLMS00149
Trigger mode: 0
Integration Time (sec): 2.000000E-2
Scans to average: 10
Electric dark correction enabled: true
Nonlinearity correction enabled: false
Boxcar width: 0
XAxis mode: Wavelengths
Number of Pixels in Spectrum: 2048
>>>>>Begin Spectral Data<<<<<
341.393	4.48
341.776	4.48
342.16	4.48
342.543	-64.45
342.927	-43.66
343.31	-73.71
343.693	-57.22
344.077	-67.39
344.46	-66.71
344.843	-56.09
345.226	-31.91
345.61	-27.84
345.993	-15.64
346.376	-12.25
346.759	14.42
347.142	9.67
347.525	21.88
347.908	75.21
348.291	93.51
348.674	85.15
349.057	108.88
349.44	115.89
349.823	136.23
350.206	166.96
350.588	201.31
350.971	214.64
351.354	222.55
351.737	222.32
352.119	260.06
352.502	278.82
352.884	281.98
353.267	259.84
353.65	298.25
354.032	312.49
354.414	283.79
354.797	307.29
355.179	315.43
355.562	318.37
355.944	324.02
356.326	338.03
356.709	328.54
357.091	342.77
357.473	347.07
357.855	327.63
358.238	347.75
358.62	356.11
359.002	347.29
359.384	331.25
359.766	352.26
360.148	315.43
360.53	352.04
360.912	316.79
361.294	324.24
361.676	332.15
362.057	365.82
362.439	332.15
362.821	329.67
363.203	337.35
363.584	324.02
363.966	304.58
364.348	324.24
364.729	333.28
365.111	310.46
365.493	305.49
365.874	319.27
366.256	307.07
366.637	324.69
367.019	313.85
367.4	298.71
367.781	309.1
368.163	320.85
368.544	328.99
368.925	302.1
369.306	323.56
369.688	305.49
370.069	316.11
370.45	314.98
370.831	331.7
371.212	300.51
371.593	317.92
371.974	321.53
372.355	313.17
372.736	308.42
373.117	326.73
373.498	324.69
373.879	321.76
374.26	328.76
374.641	321.31
375.021	300.51
375.402	324.69
375.783	324.47
376.163	314.53
376.544	324.92
376.925	322.89
377.305	328.08
377.686	339.61
378.066	317.46
378.447	324.69
378.827	327.41
379.208	336.9
379.588	325.82
379.968	332.6
380.349	330.34
380.729	326.05
381.109	331.93
381.489	348.42
381.87	333.96
382.25	349.78
382.63	334.41
383.01	366.05
383.39	345.03
383.77	354.07
384.15	338.25
384.53	323.34
384.91	343.45
385.29	367.86
385.67	341.42
386.049	341.64
386.429	370.34
386.809	346.16
387.189	365.37
387.568	348.2
387.948	351.13
388.328	359.27
388.707	350.23
389.087	344.81
389.466	357.01
389.846	347.29
390.225	374.19
390.605	382.77
390.984	355.43
391.363	362.21
391.743	384.13
392.122	368.76
392.501	363.34
392.881	356.33
393.26	389.55
393.639	376.9
394.018	403.79
394.397	368.54
394.776	387.29
395.155	366.5
395.534	381.42
395.913	391.59
396.292	380.29
396.671	388.2
397.05	386.84
397.429	380.74
397.808	373.96
398.186	394.52
398.565	404.69
398.944	381.19
399.323	383.45
399.701	392.72
400.08	391.59
400.458	399.04
400.837	389.55
401.215	391.81
401.594	385.26
401.972	386.61
402.351	396.11
402.729	410.34
403.107	385.26
403.486	411.7
403.864	424.35
404.242	402.66
404.62	418.03
404.999	430.45
405.377	410.79
405.755	424.13
406.133	413.05
406.511	411.02
406.889	427.29
407.267	447.63
407.645	420.29
408.023	421.64
408.401	434.07
408.779	432.49
409.156	456.67
409.534	447.86
409.912	474.07
410.29	459.15
410.667	471.81
411.045	457.8
411.422	471.58
411.8	465.03
412.178	464.35
412.555	464.58
412.933	472.49
413.31	494.41
413.687	491.47
414.065	503.45
414.442	496.67
414.819	512.03
415.197	491.47
415.574	491.7
415.951	506.61
416.328	513.39
416.705	500.96
417.082	513.16
417.46	506.16
417.837	515.65
418.214	508.19
418.591	514.75
418.967	533.95
419.344	526.72
419.721	526.05
420.098	539.83
420.475	541.86
420.852	543.67
421.228	531.47
421.605	543.67
421.982	552.26
422.358	555.88
422.735	564.69
423.111	559.94
423.488	557.68
423.864	575.54
424.241	555.2
424.617	576.67
424.994	609.66
425.37	587.96
425.746	586.38
426.123	606.95
426.499	610.34
426.875	617.12
427.251	602.88
427.627	620.73
428.003	620.28
428.379	616.21
428.756	642.65
429.132	629.77
429.507	628.19
429.883	641.97
430.259	641.07
430.635	651.92
431.011	647.17
431.387	671.35
431.763	687.17
432.138	665.93
432.514	685.14
432.89	690.33
433.265	706.83
433.641	728.53
434.016	706.38
434.392	707.51
434.767	721.75
435.143	734.18
435.518	738.7
435.894	746.83
436.269	739.6
436.644	750.67
437.02	762.88
437.395	758.58
437.77	789.99
438.145	804.46
438.52	811.91
438.895	791.8
439.271	802.65
439.646	821.86
440.021	816.89
440.395	831.57
440.77	822.08
441.145	846.72
441.52	847.39
441.895	862.08
442.27	856.43
442.645	857.79
443.019	869.77
443.394	850.56
443.769	889.65
444.143	878.58
444.518	903.66
444.892	875.41
445.267	916.09
445.641	897.79
446.016	901.85
446.39	891.91
446.764	923.55
447.139	934.85
447.513	936.66
447.887	935.75
448.262	950.89
448.636	932.14
449.01	964
449.384	986.82
449.758	985.02
450.132	1006.03
450.506	971.68
450.88	998.12
451.254	995.86
451.628	989.54
452.002	1021.85
452.376	1025.47
452.75	1039.03
453.123	1048.52
453.497	1054.17
453.871	1098.46
454.244	1087.39
454.618	1092.81
454.992	1120.61
455.365	1080.38
455.739	1131.91
456.112	1148.63
456.486	1159.25
456.859	1163.09
457.232	1193.6
457.606	1183.2
457.979	1202.41
458.352	1206.48
458.725	1223.88
459.099	1259.36
459.472	1278.57
459.845	1291.22
460.218	1288.96
460.591	1289.87
460.964	1321.05
461.337	1348.4
461.71	1358.57
462.083	1377.55
462.456	1371.45
462.829	1413.25
463.201	1440.6
463.574	1396.98
463.947	1441.73
464.32	1468.17
464.692	1478.34
465.065	1509.3
465.438	1492.8
465.81	1532.35
466.183	1556.75
466.555	1589.97
466.928	1623.64
467.3	1591.55
467.672	1640.59
468.045	1709.52
468.417	1722.4
468.789	1716.75
469.161	1741.15
469.534	1782.51
469.906	1836.97
470.278	1825.22
470.65	1888.04
471.022	1953.13
471.394	1984.54
471.766	2000.36
472.138	1991.54
472.51	2055.72
472.882	2103.18
473.253	2157.64
473.625	2180.24
473.997	2236.73
474.369	2299.33
474.74	2326.9
475.112	2371.65
475.484	2445.32
475.855	2457.07
476.227	2527.12
476.598	2587.91
476.97	2638.08
477.341	2743.16
477.713	2800.11
478.084	2830.39
478.455	2944.29
478.827	2959.43
479.198	3116.49
479.569	3150.16
479.94	3270.38
480.311	3298.63
480.682	3429.02
481.053	3483.71
481.424	3572.29
481.795	3691.16
482.166	3759.86
482.537	3870.14
482.908	3939.74
483.279	4043.24
483.65	4178.15
484.021	4313.74
484.391	4373.4
484.762	4478.94
485.133	4520.97
485.503	4649.1
485.874	4817.91
486.244	4897.91
486.615	5021.52
486.985	5134.74
487.356	5235.3
487.726	5311.46
488.097	5557.55
488.467	5622.63
488.837	5791.22
489.207	5853.14
489.578	6030.08
489.948	6150.53
490.318	6304.65
490.688	6359.34
491.058	6520.69
491.428	6673
491.798	6774.02
492.168	6944.41
492.538	6979.21
492.908	7126.1
493.278	7263.04
493.648	7355.47
494.017	7564.28
494.387	7621.68
494.757	7742.8
495.126	7860.77
495.496	7929.24
495.866	8035
496.235	8158.39
496.605	8317.25
496.974	8425.05
497.344	8494.88
497.713	8617.13
498.082	8768.77
498.452	8834.75
498.821	8943.45
499.19	9001.08
499.559	9158.81
499.928	9225.03
500.298	9291.92
500.667	9437.45
501.036	9464.79
501.405	9617.56
501.774	9655.75
502.143	9682.41
502.512	9803.09
502.88	9941.62
503.249	9978.68
503.618	10016.42
503.987	10124.89
504.356	10206.69
504.724	10226.58
505.093	10303.64
505.462	10377.54
505.83	10422.73
506.199	10557.42
506.567	10658.89
506.936	10565.78
507.304	10776.85
507.672	10858.2
508.041	10864.53
508.409	10941.59
508.777	11108.82
509.145	11189.72
509.514	11121.93
509.882	11164.18
510.25	11188.36
510.618	11259.32
510.986	11307.23
511.354	11384.97
511.722	11441.69
512.09	11599.65
512.458	11470.84
512.826	11585.87
513.193	11685.98
513.561	11656.83
513.929	11702.93
514.297	11852.75
514.664	11870.38
515.032	11886.2
515.4	11991.51
515.767	11905.41
516.135	12023.37
516.502	11852.3
516.869	12120.77
517.237	12130.26
517.604	12084.39
517.972	12164.16
518.339	12230.82
518.706	12229.92
519.073	12194.89
519.44	12315.79
519.808	12375.68
520.175	12240.77
520.542	12393.08
520.909	12458.16
521.276	12369.58
521.643	12504.04
522.009	12507.88
522.376	12574.77
522.743	12588.55
523.11	12583.13
523.477	12722.56
523.843	12666.74
524.21	12757.14
524.577	12831.48
524.943	12899.05
525.31	12857.02
525.676	12940.63
526.043	12876.68
526.409	12948.77
526.776	13046.62
527.142	12992.38
527.508	12964.81
527.874	13001.2
528.241	13064.02
528.607	13026.28
528.973	13088.43
529.339	13003.68
529.705	13117.8
530.071	13184.92
530.437	13142.89
530.803	13130.69
531.169	13112.38
531.535	13007.75
531.901	13018.6
532.267	13041.2
532.632	13071.93
532.998	13080.52
533.364	13005.94
533.73	13018.82
534.095	13123.23
534.461	12928.21
534.826	13084.81
535.192	13029.9
535.557	12975.89
535.923	12943.8
536.288	13011.59
536.653	12958.03
537.019	12977.02
537.384	12890.01
537.749	12891.82
538.114	12890.47
538.479	12840.07
538.845	12863.8
539.21	12777.93
539.575	12771.83
539.94	12718.95
540.305	12735.44
540.67	12716.69
541.034	12675.56
541.399	12676.46
541.764	12634.2
542.129	12620.64
542.494	12507.88
542.858	12566.18
543.223	12512.17
543.587	12532.96
543.952	12370.93
544.316	12445.73
544.681	12384.26
545.045	12365.28
545.41	12366.86
545.774	12367.99
546.138	12251.39
546.503	12291.16
546.867	12157.15
547.231	12296.81
547.595	12216.81
547.959	12154.67
548.324	12165.29
548.688	12059.53
549.052	12070.83
549.416	12016.36
549.779	12032.64
550.143	11911.51
550.507	11961.9
550.871	11935.01
551.235	11935.24
551.599	11873.09
551.962	11864.28
552.326	11849.36
552.689	11799.65
553.053	11737.5
553.417	11745.19
553.78	11926.2
554.143	11800.55
554.507	11714.45
554.87	11823.83
555.234	11828.35
555.597	11663.38
555.96	11688.69
556.323	11688.92
556.686	11664.51
557.05	11644.4
557.413	11662.48
557.776	11716.71
558.139	11709.48
558.502	11686.43
558.865	11613.44
559.228	11624.06
559.59	11637.17
559.953	11611.4
560.316	11704.28
560.679	11613.21
561.041	11687.79
561.404	11673.32
561.767	11723.27
562.129	11573.44
562.492	11721.01
562.854	11736.6
563.217	11600.1
563.579	11627.45
563.941	11726.43
564.304	11677.39
564.666	11784.05
565.028	11755.35
565.39	11754.68
565.753	11752.42
566.115	11745.86
566.477	11754.9
566.839	11772.76
567.201	11850.27
567.563	11741.34
567.925	11851.4
568.287	11851.4
568.648	11810.95
569.01	11891.85
569.372	11897.05
569.734	11836.93
570.095	11835.35
570.457	11950.38
570.819	11868.57
571.18	11874.22
571.542	11917.16
571.903	11870.83
572.265	11944.28
572.626	11996.93
572.987	12014.33
573.349	11995.35
573.71	11946.99
574.071	11984.5
574.432	12074.22
574.794	11993.09
575.155	12031.51
575.516	11961
575.877	12066.31
576.238	12068.34
576.599	12101.56
576.96	12041.22
577.32	12026.08
577.681	12092.3
578.042	12081.67
578.403	12073.54
578.763	12091.17
579.124	12108.79
579.485	12222.01
579.845	12087.1
580.206	12184.72
580.566	12172.74
580.927	12095.01
581.287	12082.13
581.648	12022.24
582.008	12084.39
582.368	12103.14
582.728	12135.46
583.089	12087.55
583.449	12069.7
583.809	12032.41
584.169	11997.83
584.529	11957.84
584.889	12151.95
585.249	12029.02
585.609	11934.11
585.969	11981.56
586.329	11990.38
586.688	12005.07
587.048	11976.37
587.408	11983.37
587.768	11968.68
588.127	11931.62
588.487	11998.06
588.846	11988.79
589.206	11947.89
589.565	11929.36
589.925	12034.44
590.284	12009.59
590.643	11976.59
591.003	11910.83
591.362	11958.29
591.721	11967.33
592.08	11906.54
592.44	11953.09
592.799	11876.26
593.158	11844.39
593.517	11892.07
593.876	11924.84
594.235	11890.27
594.593	11840.78
594.952	11824.28
595.311	11773.66
595.67	11841.45
596.029	11937.5
596.387	11926.88
596.746	11908.8
597.104	11797.39
597.463	11817.27
597.822	11908.12
598.18	11799.42
598.538	11831.51
598.897	11897.05
599.255	11739.76
599.613	11874.45
599.972	11814.34
600.33	11833.77
600.688	11797.16
601.046	11881.23
601.404	11882.36
601.762	11867.22
602.12	11838.74
602.478	11773.21
602.836	11804.84
603.194	11751.29
603.552	11808.01
603.91	11825.18
604.268	11832.64
604.625	11833.54
604.983	11816.37
605.341	11714.9
605.698	11814.34
606.056	11862.7
606.413	11824.28
606.771	12011.39
607.128	11881
607.485	11855.69
607.843	11880.1
608.2	11901.79
608.557	11888.23
608.914	11925.29
609.272	11899.76
609.629	11967.33
609.986	11995.35
610.343	11872.64
610.7	12039.19
611.057	11973.43
611.414	11962.81
611.771	11942.02
612.127	12018.4
612.484	12008.68
612.841	12100.88
613.198	11944.5
613.554	11976.59
613.911	12086.42
614.267	12064.05
614.624	11974.56
614.98	12015.46
615.337	12057.95
615.693	12025.86
616.05	12067.66
616.406	12087.1
616.762	12045.52
617.118	12079.19
617.475	12095.68
617.831	12199.18
618.187	12164.38
618.543	12102.92
618.899	12283.93
619.255	12233.31
619.611	12192.86
619.967	12269.47
620.323	12232.86
620.678	12203.48
621.034	12223.82
621.39	12169.81
621.746	12230.37
622.101	12268.56
622.457	12203.03
622.812	12212.29
623.168	12200.31
623.523	12187.66
623.879	12255.91
624.234	12147.89
624.589	12183.59
624.945	12183.59
625.3	12199.64
625.655	12185.17
626.01	12190.82
626.365	12215
626.72	12182.69
627.075	12136.14
627.43	12174.33
627.785	12150.82
628.14	12197.83
628.495	12142.01
628.85	12066.31
629.205	12124.84
629.559	12174.55
629.914	12092.52
630.269	12110.37
630.623	12089.81
630.978	12050.04
631.332	12167.1
631.687	12090.04
632.041	12064.05
632.396	12089.81
632.75	12015.69
633.104	11991.51
633.459	11894.79
633.813	11962.81
634.167	11962.35
634.521	11966.2
634.875	12044.16
635.229	11981.34
635.583	11921.45
635.937	11872.19
636.291	11795.81
636.645	11864.73
636.999	11912.86
637.352	11867.44
637.706	11763.04
638.06	11853.43
638.413	11836.03
638.767	11780.21
639.121	11777.73
639.474	11784.05
639.828	11779.31
640.181	11829.03
640.534	11716.71
640.888	11746.99
641.241	11762.36
641.594	11721.01
641.947	11649.82
642.301	11596.26
642.654	11657.28
643.007	11700.67
643.36	11684.4
643.713	11598.75
644.066	11681.91
644.419	11543.61
644.771	11516.72
645.124	11476.72
645.477	11387
645.83	11317.17
646.182	11273.79
646.535	11288.93
646.888	11313.56
647.24	11180.45
647.593	11289.38
647.945	11283.28
648.298	11258.64
648.65	11206.89
649.002	11226.33
649.355	11326.21
649.707	11226.56
650.059	11335.7
650.411	11394.69
650.763	11495.7
651.115	11518.98
651.467	11478.53
651.819	11468.13
652.171	11530.05
652.523	11409.38
652.875	11532.99
653.227	11410.73
653.578	11520.56
653.93	11476.94
654.282	11420
654.633	11449.83
654.985	11426.55
655.337	11499.99
655.688	11525.3
656.039	11468.36
656.391	11437.85
656.742	11427.23
657.094	11503.84
657.445	11509.71
657.796	11509.49
658.147	11525.08
658.498	11447.79
658.849	11500.22
659.2	11509.71
659.551	11435.82
659.902	11489.83
660.253	11486.44
660.604	11562.14
660.955	11463.84
661.306	11493.67
661.656	11575.47
662.007	11543.16
662.358	11482.59
662.708	11569.37
663.059	11589.48
663.409	11492.76
663.76	11535.47
664.11	11520.56
664.461	11487.34
664.811	11546.77
665.161	11455.25
665.511	11405.53
665.862	11497.73
666.212	11495.93
666.562	11528.24
666.912	11497.73
667.262	11562.59
667.612	11530.28
667.962	11536.83
668.312	11451.86
668.662	11469.94
669.011	11548.35
669.361	11485.76
669.711	11511.52
670.06	11542.25
670.41	11558.98
670.76	11520.11
671.109	11458.19
671.459	11463.39
671.808	11479.43
672.157	11522.14
672.507	11408.7
672.856	11491.63
673.205	11432.65
673.554	11497.96
673.904	11362.6
674.253	11514.68
674.602	11446.21
674.951	11292.77
675.3	11137.74
675.649	11398.98
675.998	11358.98
676.346	11474.46
676.695	11458.64
677.044	11323.73
677.393	11347.23
677.741	11363.27
678.09	11238.31
678.438	11238.76
678.787	11276.27
679.135	11305.88
679.484	11252.77
679.832	11304.52
680.181	11228.36
680.529	11184.52
680.877	11198.08
681.225	11137.29
681.573	11214.13
681.922	11111.08
682.27	11061.36
682.618	11100.68
682.966	11001.02
683.314	11051.42
683.661	11032.89
684.009	10992.44
684.357	10961.7
684.705	10973.91
685.053	10925.77
685.4	10951.76
685.748	10851.88
686.095	10834.7
686.443	10823.18
686.79	10885.1
687.138	10898.88
687.485	10850.75
687.832	10772.1
688.18	10721.71
688.527	10648.72
688.874	10663.18
689.221	10641.94
689.568	10628.38
689.915	10573.46
690.262	10564.88
690.609	10474.71
690.956	10523.75
691.303	10510.19
691.65	10445.11
691.997	10436.75
692.344	10325.56
692.69	10304.77
693.037	10326.24
693.383	10218.22
693.73	10234.72
694.077	10185
694.423	10173.25
694.769	10194.27
695.116	10128.73
695.462	10103.42
695.808	10089.41
696.155	10038.34
696.501	9933.03
696.847	9983.42
697.193	9921.28
697.539	9920.15
697.885	9889.87
698.231	9807.38
698.577	9815.97
698.923	9762.19
699.269	9725.8
699.614	9695.52
699.96	9684.67
700.306	9608.29
700.651	9549.99
700.997	9514.28
701.342	9546.15
701.688	9504.34
702.033	9437.9
702.379	9449.2
702.724	9486.71
703.069	9462.76
703.415	9262.76
703.76	9345.93
704.105	9262.76
704.45	9246.72
704.795	9240.62
705.14	9211.47
705.485	9149.32
705.83	9145.71
706.175	9148.64
706.52	9060.51
706.865	9041.08
707.209	9025.71
707.554	8953.39
707.899	9034.97
708.243	8953.62
708.588	8953.62
708.932	8886.96
709.277	8846.96
709.621	8834.3
709.966	8812.38
710.31	8791.82
710.654	8729.9
710.998	8747.3
711.342	8731.03
711.687	8728.32
712.031	8641.99
712.375	8658.94
712.719	8666.4
713.063	8624.82
713.407	8689.67
713.75	8638.15
714.094	8601.77
714.438	8583.23
714.782	8531.03
715.125	8519.28
715.469	8494.2
715.812	8484.25
716.156	8484.71
716.499	8476.12
716.843	8465.05
717.186	8407.19
717.53	8434.76
717.873	8455.1
718.216	8478.15
718.559	8324.48
718.902	8355.9
719.246	8361.32
719.589	8379.17
719.932	8358.16
720.275	8325.39
720.617	8341.21
720.96	8314.54
721.303	8269.12
721.646	8274.32
721.989	8166.97
722.331	8220.98
722.674	8226.63
723.016	8254.43
723.359	8220.31
723.701	8279.06
724.044	8198.84
724.386	8147.99
724.729	8173.3
725.071	8228.89
725.413	8194.32
725.755	8162.23
726.097	8191.61
726.439	8153.87
726.782	8162.45
727.124	8192.06
727.465	8154.09
727.807	8129.01
728.149	8155
728.491	8129.01
728.833	8174.66
729.175	8117.48
729.516	8151.16
729.858	8098.73
730.199	8133.98
730.541	8100.99
730.882	8080.2
731.224	8146.86
731.565	8052.85
731.906	8112.51
732.248	8049.24
732.589	8043.59
732.93	8082.91
733.271	8054.89
733.612	8045.4
733.953	8086.98
734.294	8090.14
734.635	8013.98
734.976	8031.38
735.317	8029.35
735.658	8075.45
735.999	8079.29
736.339	8040.65
736.68	8067.32
737.021	8092.63
737.361	8017.6
737.702	8119.07
738.042	8085.39
738.383	8032.97
738.723	8164.71
739.063	8109.12
739.404	8110.48
739.744	8129.69
740.084	8106.41
740.424	8151.16
740.764	8086.07
741.104	8172.17
741.444	8104.38
741.784	8173.08
742.124	8198.61
742.464	8220.98
742.804	8303.47
743.143	8253.98
743.483	8249.91
743.823	8241.77
744.162	8249.01
744.502	8312.96
744.841	8324.48
745.181	8418.27
745.52	8434.31
745.86	8399.06
746.199	8521.09
746.538	8511.37
746.877	8535.78
747.216	8605.38
747.556	8625.49
747.895	8623.69
748.234	8669.11
748.573	8733.74
748.911	8780.29
749.25	8852.61
749.589	8868.43
749.928	8917.92
750.267	9031.13
750.605	9017.12
750.944	9155.2
751.283	9221.86
751.621	9207.17
751.96	9341.63
752.298	9467.05
752.636	9559.03
752.975	9582.53
753.313	9727.39
753.651	9822.98
753.989	9907.04
754.327	9982.52
754.666	10033.59
755.004	10131.22
755.342	10307.48
755.679	10405.79
756.017	10466.12
756.355	10702.95
756.693	10748.38
757.031	10910.18
757.368	11030.63
757.706	11170.06
758.044	11295.71
758.381	11439.43
758.719	11547
759.056	11757.84
759.394	11904.28
