Data from hue_36_FLMS001491_00048.txt Node
Date: Tue Feb 07 17:29:52 GMT 2017
User: dcchb
Spectrometer: FLMS00149
Trigger mode: 0
Integration Time (sec): 2.000000E-2
Scans to average: 10
Electric dark correction enabled: true
Nonlinearity correction enabled: false
Boxcar width: 0
XAxis mode: Wavelengths
Number of Pixels in Spectrum: 2048
>>>>>Begin Spectral Data<<<<<
341.393	2.95
341.776	2.95
342.16	2.95
342.543	-51.96
342.927	-63.94
343.31	-82.24
343.693	-49.25
344.077	-69.14
344.46	-54.45
344.843	-70.27
345.226	-28.46
345.61	-23.71
345.993	-5.86
346.376	-25.52
346.759	-3.6
347.142	21.93
347.525	56.74
347.908	49.5
348.291	85.66
348.674	100.8
349.057	97.86
349.44	131.08
349.823	140.35
350.206	155.49
350.588	207.69
350.971	202.49
351.354	230.74
351.737	223.51
352.119	265.54
352.502	258.99
352.884	299.67
353.267	285.66
353.65	331.53
354.032	298.54
354.414	310.97
354.797	329.95
355.179	329.95
355.562	329.95
355.944	351.87
356.326	333.11
356.709	364.52
357.091	351.19
357.473	332.43
357.855	344.86
358.238	344.86
358.62	353
359.002	353.45
359.384	347.58
359.766	357.52
360.148	319.33
360.53	325.88
360.912	341.7
361.294	334.02
361.676	331.3
362.057	343.96
362.439	331.76
362.821	327.46
363.203	321.36
363.584	317.75
363.966	322.94
364.348	355.71
364.729	340.57
365.111	328.14
365.493	329.05
365.874	319.1
366.256	296.05
366.637	344.64
367.019	313.68
367.4	314.36
367.781	316.62
368.163	326.56
368.544	327.24
368.925	308.03
369.306	324.3
369.688	317.29
370.069	316.62
370.45	324.3
370.831	311.19
371.212	322.72
371.593	330.63
371.974	331.53
372.355	326.56
372.736	314.36
373.117	342.15
373.498	321.36
373.879	323.4
374.26	327.69
374.641	303.51
375.021	329.5
375.402	336.05
375.783	333.56
376.163	341.47
376.544	324.53
376.925	348.03
377.305	330.17
377.686	347.8
378.066	333.34
378.447	337.86
378.827	322.49
379.208	331.76
379.588	340.8
379.968	317.97
380.349	337.41
380.729	332.66
381.109	332.89
381.489	348.48
381.87	369.72
382.25	360.91
382.63	365.88
383.01	348.48
383.39	353.9
383.77	357.52
384.15	368.37
384.53	346.67
384.91	338.54
385.29	338.31
385.67	346.9
386.049	351.64
386.429	364.3
386.809	374.47
387.189	374.47
387.568	354.36
387.948	362.94
388.328	363.17
388.707	364.75
389.087	356.39
389.466	361.81
389.846	375.6
390.225	369.95
390.605	374.47
390.984	373.34
391.363	375.37
391.743	353
392.122	367.91
392.501	379.44
392.881	361.36
393.26	378.08
393.639	384.64
394.018	396.84
394.397	397.52
394.776	366.11
395.155	381.7
395.534	393.22
395.913	377.18
396.292	375.15
396.671	385.31
397.05	410.62
397.429	389.61
397.808	387.12
398.186	407.01
398.565	402.04
398.944	397.52
399.323	398.42
399.701	419.21
400.08	385.54
400.458	401.59
400.837	392.55
401.215	398.65
401.594	409.49
401.972	410.4
402.351	430.29
402.729	407.91
403.107	419.66
403.486	415.37
403.864	437.06
404.242	416.73
404.62	416.27
404.999	412.66
405.377	422.83
405.755	410.62
406.133	413.79
406.511	421.02
406.889	407.24
407.267	416.5
407.645	430.06
408.023	441.36
408.401	435.26
408.779	432.32
409.156	439.55
409.534	457.18
409.912	452.88
410.29	437.97
410.667	476.16
411.045	439.78
411.422	455.6
411.8	470.28
412.178	465.54
412.555	469.61
412.933	454.01
413.31	451.75
413.687	465.99
414.065	491.3
414.442	468.25
414.819	482.94
415.197	493.56
415.574	487.01
415.951	507.35
416.328	495.82
416.705	480.91
417.082	506.44
417.46	486.1
417.837	503.05
418.214	522.03
418.591	490.85
418.967	511.41
419.344	515.93
419.721	511.41
420.098	491.53
420.475	509.15
420.852	527.23
421.228	522.71
421.605	527.01
421.982	530.85
422.358	529.72
422.735	519.77
423.111	527.91
423.488	526.33
423.864	542.37
424.241	547.57
424.617	539.43
424.994	559.1
425.37	566.55
425.746	569.04
426.123	557.06
426.499	584.86
426.875	596.61
427.251	586.67
427.627	579.43
428.003	578.53
428.379	572.43
428.756	593.22
429.132	593.67
429.507	606.33
429.883	600.22
430.259	624.4
430.635	613.33
431.011	600.45
431.387	601.58
431.763	639.55
432.138	635.25
432.514	649.49
432.89	652.88
433.265	656.49
433.641	660.56
434.016	663.05
434.392	669.83
434.767	673.89
435.143	688.58
435.518	665.31
435.894	661.47
436.269	700.33
436.644	682.93
437.02	691.52
437.395	702.82
437.77	723.84
438.145	728.58
438.52	728.81
438.895	686.55
439.271	715.48
439.646	720.45
440.021	755.02
440.395	714.35
440.77	752.76
441.145	730.39
441.52	766.77
441.895	757.96
442.27	786.89
442.645	750.28
443.019	776.94
443.394	753.44
443.769	772.65
444.143	783.27
444.518	782.14
444.892	775.36
445.267	780.11
445.641	791.86
446.016	808.58
446.39	798.86
446.764	814.46
447.139	805.87
447.513	838.18
447.887	829.37
448.262	803.61
448.636	833.44
449.01	833.89
449.384	839.77
449.758	845.42
450.132	833.44
450.506	846.77
450.88	842.03
451.254	858.52
451.628	879.77
452.002	897.62
452.376	881.57
452.75	886.77
453.123	900.56
453.497	911.85
453.871	898.07
454.244	917.5
454.618	936.03
454.992	936.26
455.365	953.89
455.739	963.83
456.112	979.65
456.486	990.5
456.859	968.58
457.232	985.07
457.606	967.45
457.979	992.98
458.352	1005.86
458.725	1036.37
459.099	1021.91
459.472	1051.29
459.845	1078.18
460.218	1078.18
460.591	1062.81
460.964	1088.35
461.337	1103.71
461.71	1110.72
462.083	1108.01
462.456	1127.22
462.829	1129.02
463.201	1163.83
463.574	1157.95
463.947	1196.82
464.32	1207.89
464.692	1208.8
465.065	1223.48
465.438	1225.52
465.81	1291.05
466.183	1270.26
466.555	1286.53
466.928	1297.16
467.3	1310.49
467.672	1329.24
468.045	1348.68
468.417	1346.87
468.789	1400.2
469.161	1393.42
469.534	1426.87
469.906	1427.55
470.278	1499.18
470.65	1458.28
471.022	1500.09
471.394	1530.37
471.766	1522.01
472.138	1568.56
472.51	1604.04
472.882	1646.98
473.253	1674.77
473.625	1693.3
473.997	1742.57
474.369	1742.79
474.74	1790.48
475.112	1845.39
475.484	1864.6
475.855	1893.3
476.227	1921.55
476.598	2010.36
476.97	2042.67
477.341	2060.3
477.713	2091.94
478.084	2150.01
478.455	2228.43
478.827	2261.65
479.198	2330.8
479.569	2324.7
479.94	2434.98
480.311	2480.85
480.682	2556.11
481.053	2618.7
481.424	2673.62
481.795	2761.52
482.166	2813.5
482.537	2882.65
482.908	2974.63
483.279	3005.13
483.65	3113.6
484.021	3173.26
484.391	3251.45
484.762	3304.79
485.133	3387.5
485.503	3485.8
485.874	3603.99
486.244	3693.02
486.615	3752.91
486.985	3831.78
487.356	3938.22
487.726	4029.96
488.097	4079.91
488.467	4144.76
488.837	4280.81
489.207	4408.03
489.578	4461.37
489.948	4598.76
490.318	4725.99
490.688	4765.09
491.058	4837.85
491.428	4989.94
491.798	5061.35
492.168	5170.05
492.538	5249.37
492.908	5365.52
493.278	5484.84
493.648	5541.56
494.017	5680.54
494.387	5729.81
494.757	5808.9
495.126	5970.7
495.496	6030.14
495.866	6112.17
496.235	6197.59
496.605	6334.99
496.974	6375.21
497.344	6461.99
497.713	6558.49
498.082	6672.83
498.452	6713.96
498.821	6731.36
499.19	6876.44
499.559	6945.14
499.928	7046.61
500.298	7105.14
500.667	7271.91
501.036	7256.55
501.405	7392.81
501.774	7438.91
502.143	7489.31
502.512	7586.03
502.88	7711
503.249	7786.7
503.618	7834.38
503.987	7873.93
504.356	7950.77
504.724	8136.3
505.093	8159.12
505.462	8127.94
505.83	8294.03
506.199	8339.23
506.567	8463.07
506.936	8494.25
507.304	8635.72
507.672	8620.35
508.041	8689.96
508.409	8746.22
508.777	8820.8
509.145	8903.73
509.514	8943.96
509.882	9020.34
510.25	9117.29
510.618	9133.79
510.986	9205.87
511.354	9309.37
511.722	9348.92
512.09	9423.95
512.458	9440.9
512.826	9624.85
513.193	9609.93
513.561	9629.37
513.929	9790.27
514.297	9836.14
514.664	9924.72
515.032	9880.21
515.4	10007.21
515.767	10032.52
516.135	10050.15
516.502	9985.29
516.869	10221.21
517.237	10298.27
517.604	10309.8
517.972	10427.76
518.339	10445.39
518.706	10449.23
519.073	10511.83
519.44	10569
519.808	10688.32
520.175	10714.76
520.542	10825.72
520.909	10936.22
521.276	10853.97
521.643	11016
522.009	11095.09
522.376	11197.46
522.743	11287.4
523.11	11345.48
523.477	11426.61
523.843	11475.87
524.21	11542.99
524.577	11701.4
524.943	11756.99
525.31	11780.72
525.676	11818.69
526.043	11937.1
526.409	11986.59
526.776	12096.42
527.142	12100.26
527.508	12137.55
527.874	12284.66
528.241	12367.37
528.607	12455.96
528.973	12491.89
529.339	12631.77
529.705	12652.56
530.071	12716.52
530.437	12719.45
530.803	12898.21
531.169	12972.55
531.535	12968.94
531.901	13035.83
532.267	13090.97
532.632	13198.99
532.998	13229.72
533.364	13234.69
533.73	13282.83
534.095	13455.48
534.461	13475.37
534.826	13504.29
535.192	13550.62
535.557	13677.17
535.923	13663.38
536.288	13763.04
536.653	13814.34
537.019	13783.15
537.384	13843.04
537.749	13890.5
538.114	13885.98
538.479	13917.61
538.845	14139.3
539.21	14073.32
539.575	14084.84
539.94	14256.81
540.305	14380.88
540.67	14330.71
541.034	14453.19
541.399	14517.82
541.764	14456.13
542.129	14620.65
542.494	14609.35
542.858	14614.55
543.223	14726.41
543.587	14857.93
543.952	14737.93
544.316	14837.36
544.681	14852.5
545.045	14938.15
545.41	15061.54
545.774	15131.82
546.138	15138.15
546.503	15186.73
546.867	15245.26
547.231	15443.68
547.595	15395.54
547.959	15397.8
548.324	15471.25
548.688	15484.58
549.052	15594.18
549.416	15561.86
549.779	15538.14
550.143	15700.39
550.507	15743.33
550.871	15883.89
551.235	15758.47
551.599	15925.25
551.962	16017.9
552.326	16012.7
552.689	16147.61
553.053	16059.93
553.417	16144
553.78	16338.79
554.143	16231
554.507	16338.79
554.87	16378.57
555.234	16622.18
555.597	16525.46
555.96	16568.17
556.323	16641.16
556.686	16698.11
557.05	16758.9
557.413	16742.62
557.776	16887.25
558.139	16977.42
558.502	17026.91
558.865	17030.75
559.228	17155.27
559.59	17182.39
559.953	17228.94
560.316	17410.18
560.679	17402.27
561.041	17456.96
561.404	17571.08
561.767	17712.77
562.129	17612.21
562.492	17827.12
562.854	17801.35
563.217	17725.65
563.579	17747.12
563.941	18034.34
564.304	18079.31
564.666	18184.62
565.028	18162.93
565.39	18308.69
565.753	18296.03
566.115	18272.53
566.477	18405.63
566.839	18501.67
567.201	18646.76
567.563	18617.6
567.925	18738.5
568.287	18862.57
568.648	18924.71
569.01	18991.15
569.372	19046.52
569.734	19161.32
570.095	19235.21
570.457	19172.39
570.819	19313.18
571.18	19308.66
571.542	19542.33
571.903	19509.11
572.265	19487.41
572.626	19575.32
572.987	19766.27
573.349	19760.85
573.71	19839.94
574.071	19943.9
574.432	20109.32
574.794	20269.99
575.155	20244.68
575.516	20332.36
575.877	20378.46
576.238	20532.81
576.599	20739.81
576.96	20771.22
577.32	20891.89
577.681	21086.01
578.042	21166.24
578.403	21248.27
578.763	21374.59
579.124	21631.08
579.485	21811.87
579.845	21794.7
580.206	21947.91
580.566	22072.43
580.927	22196.72
581.287	22488.24
581.648	22469.48
582.008	22757.61
582.368	22766.2
582.728	23090.03
583.089	23085.51
583.449	23283.47
583.809	23463.13
584.169	23643.23
584.529	23890.91
584.889	24207.06
585.249	24234.86
585.609	24380.16
585.969	24700.61
586.329	24775.86
586.688	25082.29
587.048	25310.99
587.408	25452.23
587.768	25652.22
588.127	25850.86
588.487	26024.19
588.846	26395.25
589.206	26476.61
589.565	26618.98
589.925	27033.2
590.284	27148.45
590.643	27472.06
591.003	27670.7
591.362	27886.74
591.721	28165.15
592.08	28347.07
592.44	28583.44
592.799	28878.58
593.158	29062.53
593.517	29293.26
593.876	29461.61
594.235	29581.84
594.593	29821.15
594.952	30164.64
595.311	30329.16
595.67	30519.21
596.029	30915.81
596.387	31195.58
596.746	31322.81
597.104	31470.83
597.463	31671.72
597.822	31992.85
598.18	32170.47
598.538	32233.74
598.897	32709.66
599.255	32616.56
599.613	33160.72
599.972	33189.65
600.33	33407.5
600.688	33543.09
601.046	33783.31
601.404	34170.87
601.762	34220.36
602.12	34547.13
602.478	34717.07
602.836	34842.04
603.194	34803.17
603.552	35112.31
603.91	35046.1
604.268	35346.66
604.625	35517.5
604.983	35773.76
605.341	35784.38
605.698	36106.64
606.056	36259.63
606.413	36390.47
606.771	36628.88
607.128	36812.83
607.485	36762.21
607.843	36942.09
608.2	37207.4
608.557	37342.08
608.914	37369.43
609.272	37667.95
609.629	37768.96
609.986	38078.33
610.343	37937.55
610.7	38386.8
611.057	38477.65
611.414	38504.76
611.771	38696.4
612.127	38915.6
612.484	38965.77
612.841	39235.82
613.198	39243.73
613.554	39293.9
613.911	39544.96
614.267	39499.77
614.624	39736.37
614.98	39802.13
615.337	40084.38
615.693	40050.26
616.05	40033.09
616.406	40288.9
616.762	40266.98
617.118	40528.44
617.475	40601.43
617.831	40565.28
618.187	40754.2
618.543	40871.48
618.899	41071.93
619.255	41066.73
619.611	40982.67
619.967	41388.98
620.323	41442.77
620.678	41467.4
621.034	41424.24
621.39	41415.2
621.746	41422.43
622.101	41877.33
622.457	41724.34
622.812	41692.25
623.168	41919.82
623.523	41941.06
623.879	42123.43
624.234	41915.3
624.589	42240.71
624.945	42231.45
625.3	42269.19
625.655	42231.9
626.01	42336.98
626.365	42482.96
626.72	42323.65
627.075	42327.94
627.43	42356.64
627.785	42336.53
628.14	42524.77
628.495	42588.27
628.85	42522.51
629.205	42386.92
629.559	42776.29
629.914	42581.04
630.269	42525.68
630.623	42513.47
630.978	42485.45
631.332	42693.58
631.687	42734.94
632.041	42639.57
632.396	42780.13
632.75	42579.01
633.104	42593.02
633.459	42519.57
633.813	42628.05
634.167	42461.04
634.521	42539.69
634.875	42672.56
635.229	42621.27
635.583	42437.77
635.937	42433.7
636.291	42541.27
636.645	42545.34
636.999	42420.82
637.352	42503.53
637.706	42236.64
638.06	42413.14
638.413	42317.55
638.767	42336.98
639.121	42383.08
639.474	42278
639.828	42169.98
640.181	42265.57
640.534	42228.28
640.888	42150.09
641.241	42055.86
641.594	42142.63
641.947	42172.24
642.301	42164.33
642.654	42205.01
643.007	42463.08
643.36	42217.66
643.713	42219.47
644.066	42342.18
644.419	41984.67
644.771	41791.91
645.124	41389.66
645.477	41378.14
645.83	41132.27
646.182	40962.1
646.535	40968.2
646.888	40993.74
647.24	40796.68
647.593	40973.85
647.945	40805.04
648.298	40721.88
648.65	40570.02
649.002	40532.96
649.355	40804.82
649.707	40726.85
650.059	40806.85
650.411	41326.61
650.763	41350.79
651.115	41620.39
651.467	41520.05
651.819	41649.54
652.171	41526.61
652.523	41409.77
652.875	41434.4
653.227	41284.13
653.578	41504.91
653.93	41321.19
654.282	41158.03
654.633	41248.65
654.985	41256.56
655.337	41249.55
655.688	41382.43
656.039	41465.59
656.391	41136.56
656.742	41260.17
657.094	41240.06
657.445	41294.52
657.796	41278.7
658.147	41188.99
658.498	41217.91
658.849	41285.93
659.2	41251.13
659.551	41092.49
659.902	41304.69
660.253	41276.89
660.604	41349.66
660.955	41126.16
661.306	41274.86
661.656	41258.14
662.007	41053.62
662.358	41068.99
662.708	41207.74
663.059	40993.29
663.409	40829
663.76	41226.05
664.11	41163.45
664.461	41176.33
664.811	41212.26
665.161	41092.72
665.511	41073.06
665.862	41018.82
666.212	41156.45
666.562	41220.4
666.912	41010.46
667.262	40974.76
667.612	40950.35
667.962	41134.98
668.312	41019.73
668.662	41242.09
669.011	41014.53
669.361	40840.07
669.711	40904.25
670.06	40953.06
670.41	40947.19
670.76	40710.81
671.109	40833.06
671.459	40829.68
671.808	40747.42
672.157	40927.3
672.507	40719.4
672.856	40662
673.205	40797.13
673.554	40859.28
673.904	40591.72
674.253	40953.74
674.602	40703.12
674.951	40316.02
675.3	40078.06
675.649	40730.24
675.998	40667.87
676.346	40565.73
676.695	40900.18
677.044	40453.19
677.393	40517.37
677.741	40622.45
678.09	40433.53
678.438	40466.52
678.787	40343.36
679.135	40484.6
679.484	40270.82
679.832	40360.08
680.181	40098.17
680.529	40277.6
680.877	40210.71
681.225	40089.36
681.573	40325.73
681.922	39995.35
682.27	39928.46
682.618	39972.07
682.966	39867.89
683.314	39951.73
683.661	39693.43
684.009	39582.48
684.357	39641.68
684.705	39425.64
685.053	39687.33
685.4	39572.31
685.748	39252.77
686.095	39346.78
686.443	39210.73
686.79	39324.86
687.138	39312.2
687.485	39341.13
687.832	39177.97
688.18	39250.73
688.527	38923.28
688.874	38880.35
689.221	38841.93
689.568	38761.03
689.915	38742.27
690.262	38763.74
690.609	38545.22
690.956	38577.98
691.303	38305.45
691.65	38243.53
691.997	38384.77
692.344	38062.29
692.69	37980.26
693.037	37990.43
693.383	37660.94
693.73	37849.87
694.077	37671.11
694.423	37554.73
694.769	37536.65
695.116	37420.05
695.462	37307.73
695.808	37218.24
696.155	37312.93
696.501	36947.29
696.847	37004.24
697.193	36668.2
697.539	36793.17
697.885	36611.71
698.231	36660.29
698.577	36538.71
698.923	36476.12
699.269	36300.53
699.614	36190.25
699.96	36182.34
700.306	36163.13
700.651	36078.16
700.997	35793.2
701.342	35823.25
701.688	35764.95
702.033	35560.89
702.379	35784.61
702.724	35554.33
703.069	35629.36
703.415	35209.48
703.76	35329.93
704.105	35300.78
704.45	35176.49
704.795	35026.44
705.14	34897.4
705.485	34852.88
705.83	34500.8
706.175	34789.83
706.52	34585.55
706.865	34412.89
707.209	34526.34
707.554	34416.96
707.899	34452.22
708.243	34212.22
708.588	34249.28
708.932	33931.1
709.277	33953.7
709.621	33929.74
709.966	33934.49
710.31	33819.92
710.654	33514.61
710.998	33666.93
711.342	33638.9
711.687	33626.02
712.031	33355.75
712.375	33255.18
712.719	33345.58
713.063	33223.77
713.407	33329.99
713.75	33197.56
714.094	33174.28
714.438	32926.15
714.782	32972.03
715.125	32805.71
715.469	32907.4
715.812	32731.58
716.156	32625.37
716.499	32677.35
716.843	32655.65
717.186	32397.13
717.53	32588.99
717.873	32467.18
718.216	32524.36
718.559	32337.92
718.902	32075.1
719.246	32256.34
719.589	32092.28
719.932	31967.76
720.275	31945.84
720.617	31974.09
720.96	31831.95
721.303	31902.9
721.646	31830.59
721.989	31531.84
722.331	31737.26
722.674	31711.72
723.016	31590.14
723.359	31588.11
723.701	31623.82
724.044	31356.25
724.386	31251.85
724.729	31455.23
725.071	31408.91
725.413	31362.58
725.755	31266.99
726.097	31164.84
726.439	31033.77
726.782	30997.84
727.124	31161.68
727.465	30961.01
727.807	30966.66
728.149	30827.68
728.491	30768.02
728.833	30805.76
729.175	30815.93
729.516	30591.98
729.858	30508.59
730.199	30601.02
730.541	30607.8
730.882	30494.35
731.224	30553.34
731.565	30441.25
731.906	30469.5
732.248	30417.52
732.589	30189.95
732.93	30057.75
733.271	30189.5
733.612	30231.31
733.953	30174.14
734.294	30009.17
734.635	29968.72
734.976	30105.66
735.317	29821.38
735.658	29879.23
735.999	29808.27
736.339	29832.68
736.68	29919.91
737.021	29679.23
737.361	29581.61
737.702	29668.84
738.042	29622.51
738.383	29620.48
738.723	29636.75
739.063	29453.7
739.404	29592.68
739.744	29363.76
740.084	29338.68
740.424	29402.4
740.764	29371.9
741.104	29359.24
741.444	29370.09
741.784	29192.24
742.124	29182.75
742.464	29111.11
742.804	29015.75
743.143	29015.97
743.483	29093.71
743.823	28831.57
744.162	28893.04
744.502	28988.18
744.841	28851.68
745.181	28992.25
745.52	28826.37
745.86	28805.36
746.199	28708.19
746.538	28774.4
746.877	28728.3
747.216	28692.37
747.556	28613.05
747.895	28538.7
748.234	28406.27
748.573	28385.71
748.911	28362.66
749.25	28349.1
749.589	28297.12
749.928	28243.11
750.267	28275.88
750.605	28192.49
750.944	28155.21
751.283	27941.88
751.621	28060.07
751.96	27826.18
752.298	27934.65
752.636	27972.61
752.975	27759.96
753.313	27675.67
753.651	27719.51
753.989	27512.74
754.327	27648.55
754.666	27555.22
755.004	27435.45
755.342	27569.91
755.679	27507.31
756.017	27274.55
756.355	27438.84
756.693	27194.78
757.031	27267.77
757.368	27054.22
