Data from hue_280_FLMS001491_00002.txt Node
Date: Tue Feb 07 15:54:43 GMT 2017
User: dcchb
Spectrometer: FLMS00149
Trigger mode: 0
Integration Time (sec): 2.000000E-2
Scans to average: 10
Electric dark correction enabled: true
Nonlinearity correction enabled: false
Boxcar width: 0
XAxis mode: Wavelengths
Number of Pixels in Spectrum: 2048
>>>>>Begin Spectral Data<<<<<
341.393	-13.52
341.776	-13.52
342.16	-13.52
342.543	-82.44
342.927	-76.57
343.31	-65.49
343.693	-53.29
344.077	-64.59
344.46	-77.92
344.843	-39.28
345.226	-43.12
345.61	-29.56
345.993	-17.58
346.376	-13.06
346.759	6.82
347.142	26.71
347.525	38.91
347.908	62.87
348.291	74.39
348.674	78.46
349.057	115.75
349.44	122.75
349.823	141.28
350.206	158.68
350.588	195.52
350.971	210.66
351.354	221.51
351.737	216.76
352.119	268.06
352.502	252.24
352.884	274.84
353.267	282.75
353.65	293.37
354.032	311.67
354.414	304.44
354.797	297.89
355.179	296.53
355.562	317.1
355.944	333.82
356.326	303.54
356.709	330.88
357.091	318.23
357.473	327.04
357.855	332.46
358.238	353.71
358.62	333.37
359.002	344.21
359.384	320.94
359.766	322.07
360.148	343.31
360.53	337.43
360.912	332.01
361.294	331.79
361.676	334.95
362.057	312.58
362.439	306.93
362.821	343.76
363.203	319.36
363.584	315.51
363.966	317.55
364.348	296.53
364.729	306.93
365.111	316.87
365.493	305.57
365.874	305.35
366.256	301.5
366.637	298.79
367.019	317.55
367.4	314.38
367.781	321.84
368.163	303.99
368.544	318
368.925	326.36
369.306	320.71
369.688	330.88
370.069	296.08
370.45	306.7
370.831	307.15
371.212	304.22
371.593	313.03
371.974	323.88
372.355	322.07
372.736	334.95
373.117	322.52
373.498	316.42
373.879	309.86
374.26	323.2
374.641	332.91
375.021	323.88
375.402	338.79
375.783	329.53
376.163	318
376.544	336.08
376.925	322.52
377.305	332.91
377.686	320.26
378.066	326.36
378.447	314.84
378.827	331.56
379.208	355.29
379.588	331.56
379.968	323.88
380.349	348.28
380.729	341.28
381.109	332.69
381.489	346.93
381.87	334.95
382.25	340.82
382.63	338.11
383.01	333.14
383.39	333.37
383.77	347.15
384.15	349.86
384.53	343.31
384.91	348.73
385.29	335.85
385.67	352.8
386.049	358.68
386.429	335.4
386.809	367.26
387.189	343.31
387.568	373.59
387.948	367.26
388.328	349.19
388.707	364.33
389.087	375.17
389.466	376.08
389.846	357.77
390.225	376.76
390.605	365.91
390.984	375.63
391.363	370.43
391.743	365.23
392.122	381.28
392.501	382.63
392.881	397.09
393.26	398.22
393.639	368.17
394.018	376.76
394.397	372.24
394.776	408.85
395.155	398.9
395.534	377.21
395.913	385.12
396.292	413.82
396.671	404.33
397.05	395.51
397.429	411.33
397.808	410.88
398.186	413.14
398.565	411.78
398.944	424.89
399.323	425.79
399.701	400.71
400.08	416.3
400.458	430.77
400.837	425.12
401.215	434.38
401.594	414.49
401.972	439.58
402.351	410.2
402.729	434.38
403.107	428.28
403.486	445.91
403.864	452.69
404.242	442.97
404.62	460.37
404.999	443.65
405.377	451.78
405.755	464.21
406.133	476.87
406.511	458.56
406.889	492.91
407.267	450.88
407.645	493.81
408.023	496.75
408.401	463.53
408.779	520.48
409.156	475.28
409.534	509.63
409.912	503.76
410.29	524.55
410.667	554.15
411.045	524.55
411.422	564.77
411.8	569.74
412.178	555.51
412.555	546.92
412.933	580.59
413.31	576.98
413.687	590.76
414.065	589.86
414.442	614.72
414.819	601.83
415.197	612.91
415.574	626.47
415.951	635.28
416.328	645.45
416.705	657.88
417.082	645.68
417.46	650.87
417.837	651.1
418.214	665.56
418.591	672.79
418.967	677.54
419.344	684.09
419.721	722.06
420.098	685.67
420.475	716.86
420.852	716.86
421.228	727.93
421.605	746.69
421.982	746.92
422.358	784.65
422.735	780.13
423.111	759.8
423.488	802.06
423.864	766.8
424.241	812.45
424.617	823.3
424.994	821.72
425.37	835.95
425.746	863.07
426.123	861.71
426.499	863.52
426.875	874.6
427.251	871.88
427.627	893.35
428.003	916.85
428.379	924.54
428.756	908.49
429.132	952.33
429.507	940.13
429.883	976.06
430.259	967.7
430.635	973.12
431.011	968.38
431.387	1011.54
431.763	1045.44
432.138	1070.75
432.514	1063.07
432.89	1038.43
433.265	1066.23
433.641	1102.61
434.016	1108.04
434.392	1151.2
434.767	1155.94
435.143	1139.45
435.518	1148.94
435.894	1188.03
436.269	1184.19
436.644	1209.5
437.02	1242.5
437.395	1205.43
437.77	1257.86
438.145	1284.08
438.52	1298.77
438.895	1276.17
439.271	1293.34
439.646	1373.34
440.021	1350.74
440.395	1339.22
440.77	1342.15
441.145	1371.76
441.52	1405.88
441.895	1391.19
442.27	1412.66
442.645	1410.4
443.019	1446.11
443.394	1435.94
443.769	1433.45
444.143	1429.84
444.518	1461.47
444.892	1487.23
445.267	1454.92
445.641	1530.62
446.016	1498.08
446.39	1508.03
446.764	1494.24
447.139	1513.67
447.513	1543.5
447.887	1528.36
448.262	1549.15
448.636	1533.56
449.01	1536.5
449.384	1558.42
449.758	1570.17
450.132	1580.11
450.506	1604.97
450.88	1623.28
451.254	1626.67
451.628	1632.09
452.002	1644.97
452.376	1658.53
452.75	1647
453.123	1682.94
453.497	1687.23
453.871	1736.27
454.244	1734.91
454.618	1720.68
454.992	1755.48
455.365	1761.35
455.739	1788.92
456.112	1806.55
456.486	1853.1
456.859	1836.6
457.232	1828.47
457.606	1871.63
457.979	1874.12
458.352	1898.3
458.725	1918.86
459.099	1917.73
459.472	1933.32
459.845	1981.23
460.218	1992.98
460.591	2017.62
460.964	1997.96
461.337	2027.33
461.71	2039.31
462.083	2070.95
462.456	2074.34
462.829	2080.67
463.201	2118.86
463.574	2098.97
463.947	2146.2
464.32	2185.07
464.692	2197.72
465.065	2187.1
465.438	2270.27
465.81	2249.7
466.183	2283.15
466.555	2314.56
466.928	2324.05
467.3	2326.76
467.672	2352.52
468.045	2375.8
468.417	2402.24
468.789	2403.14
469.161	2432.75
469.534	2479.75
469.906	2510.94
470.278	2575.79
470.65	2543.48
471.022	2586.19
471.394	2625.28
471.766	2640.88
472.138	2683.14
472.51	2677.49
472.882	2700.54
473.253	2751.61
473.625	2767.88
473.997	2835.45
474.369	2809.91
474.74	2845.39
475.112	2936.46
475.484	2941.43
475.855	2970.59
476.227	3021.43
476.598	3054.65
476.97	3040.19
477.341	3163.58
477.713	3182.78
478.084	3164.25
478.455	3254.65
478.827	3230.47
479.198	3293.97
479.569	3319.28
479.94	3364.93
480.311	3473.85
480.682	3468.88
481.053	3516.56
481.424	3599.04
481.795	3615.54
482.166	3692.6
482.537	3684.24
482.908	3734.18
483.279	3757.68
483.65	3801.75
484.021	3850.11
484.391	3894.4
484.762	3927.17
485.133	3969.88
485.503	4036.55
485.874	4076.32
486.244	4052.37
486.615	4162.64
486.985	4226.82
487.356	4256.88
487.726	4298.46
488.097	4301.85
488.467	4321.51
488.837	4423.2
489.207	4418.91
489.578	4493.71
489.948	4549.53
490.318	4576.65
490.688	4594.27
491.058	4658.45
491.428	4675.85
491.798	4710.65
492.168	4785.45
492.538	4812.12
492.908	4860.93
493.278	4906.35
493.648	4902.96
494.017	4988.16
494.387	4987.03
494.757	5005.79
495.126	5058.67
495.496	5085.56
495.866	5076.97
496.235	5091.21
496.605	5161.26
496.974	5123.75
497.344	5256.63
497.713	5230.41
498.082	5265.89
498.452	5326.68
498.821	5362.16
499.19	5286.46
499.559	5379.34
499.928	5388.38
500.298	5372.33
500.667	5464.76
501.036	5446.68
501.405	5534.36
501.774	5478.09
502.143	5530.74
502.512	5564.64
502.88	5603.96
503.249	5590.18
503.618	5588.82
503.987	5664.07
504.356	5638.54
504.724	5660.01
505.093	5690.74
505.462	5789.04
505.83	5759.21
506.199	5764.86
506.567	5861.36
506.936	5806.44
507.304	5867.01
507.672	5872.43
508.041	5868.14
508.409	5951.3
508.777	5958.08
509.145	5941.36
509.514	5977.74
509.882	5973.67
510.25	5992.88
510.618	6008.7
510.986	6001.24
511.354	6084.85
511.722	6121.92
512.09	6166.43
512.458	6091.86
512.826	6145.87
513.193	6194.91
513.561	6248.69
513.929	6214.57
514.297	6275.81
514.664	6262.7
515.032	6272.42
515.4	6307.9
515.767	6331.63
516.135	6337.95
516.502	6336.6
516.869	6363.26
517.237	6401.46
517.604	6431.06
517.972	6402.13
518.339	6416.82
518.706	6370.04
519.073	6430.83
519.44	6493.88
519.808	6509.7
520.175	6521
520.542	6539.98
520.909	6544.73
521.276	6571.85
521.643	6586.76
522.009	6641.9
522.376	6706.53
522.743	6671.73
523.11	6707.44
523.477	6796.47
523.843	6836.47
524.21	6824.04
524.577	6864.49
524.943	6858.85
525.31	6962.12
525.676	6956.92
526.043	6928
526.409	6978.16
526.776	7047.77
527.142	7104.94
527.508	7040.31
527.874	7068.56
528.241	7101.32
528.607	7141.32
528.973	7169.12
529.339	7189.91
529.705	7194.88
530.071	7290.92
530.437	7250.25
530.803	7309
531.169	7342.45
531.535	7318.49
531.901	7272.17
532.267	7398.04
532.632	7445.72
532.998	7457.02
533.364	7518.04
533.73	7485.5
534.095	7540.41
534.461	7503.57
534.826	7610.01
535.192	7584.02
535.557	7664.47
535.923	7591.48
536.288	7580.63
536.653	7675.32
537.019	7646.85
537.384	7645.72
537.749	7664.93
538.114	7684.36
538.479	7696.56
538.845	7717.35
539.21	7784.47
539.575	7705.38
539.94	7774.75
540.305	7783.57
540.67	7832.15
541.034	7817.46
541.399	7924.81
541.764	7846.39
542.129	7866.5
542.494	7906.05
542.858	7922.09
543.223	7932.94
543.587	7977.01
543.952	7995.54
544.316	7950.12
544.681	7930.46
545.045	8038.7
545.41	7998.25
545.774	8080.51
546.138	8052.03
546.503	8054.97
546.867	8088.19
547.231	8143.11
547.595	8128.64
547.959	8188.53
548.324	8164.57
548.688	8127.29
549.052	8200.96
549.416	8148.08
549.779	8179.26
550.143	8188.3
550.507	8298.13
550.871	8301.29
551.235	8241.86
551.599	8284.8
551.962	8293.16
552.326	8337.22
552.689	8359.37
553.053	8320.28
553.417	8309.43
553.78	8411.8
554.143	8390.78
554.507	8430.1
554.87	8414.96
555.234	8491.57
555.597	8466.03
555.96	8458.8
556.323	8490.21
556.686	8511.23
557.05	8567.95
557.413	8569.31
557.776	8589.42
558.139	8680.27
558.502	8663.54
558.865	8641.85
559.228	8702.19
559.59	8672.36
559.953	8709.19
560.316	8772.47
560.679	8783.31
561.041	8824.44
561.404	8873.03
561.767	8885.91
562.129	8908.06
562.492	9013.82
562.854	8933.82
563.217	8946.02
563.579	8964.78
563.941	9040.93
564.304	9067.6
564.666	9088.84
565.028	9093.14
565.39	9164.77
565.753	9200.03
566.115	9202.96
566.477	9222.85
566.839	9246.58
567.201	9277.54
567.563	9308.72
567.925	9341.94
568.287	9359.34
568.648	9390.53
569.01	9461.26
569.372	9530.19
569.734	9446.35
570.095	9573.8
570.457	9624.65
570.819	9589.62
571.18	9621.26
571.542	9636.85
571.903	9676.4
572.265	9773.57
572.626	9774.25
572.987	9761.59
573.349	9772.67
573.71	9813.8
574.071	9897.86
574.432	9955.03
574.794	10026.22
575.155	9962.49
575.516	10035.26
575.877	10056.05
576.238	10052.43
576.599	10127.46
576.96	10208.81
577.32	10191.19
577.681	10268.7
578.042	10382.37
578.403	10294.69
578.763	10339.88
579.124	10428.47
579.485	10538.75
579.845	10545.08
580.206	10529.71
580.566	10566.77
580.927	10632.98
581.287	10728.12
581.648	10683.6
582.008	10793.88
582.368	10785.3
582.728	10868.23
583.089	10932.86
583.449	10964.73
583.809	10957.72
584.169	11088.34
584.529	11146.64
584.889	11214.44
585.249	11247.43
585.609	11242.23
585.969	11327.88
586.329	11447.2
586.688	11468.67
587.048	11608.55
587.408	11582.34
587.768	11586.86
588.127	11719.28
588.487	11836.34
588.846	11897.13
589.206	11954.3
589.565	11955.43
589.925	12051.02
590.284	12094.64
590.643	12156.11
591.003	12272.71
591.362	12400.85
591.721	12487.17
592.08	12351.58
592.44	12486.95
592.799	12587.51
593.158	12606.04
593.517	12749.99
593.876	12752.48
594.235	12813.04
594.593	12927.84
594.952	12977.1
595.311	13062.52
595.67	13020.26
596.029	13186.36
596.387	13202.63
596.746	13393.14
597.104	13287.6
597.463	13376.87
597.822	13489.41
598.18	13444.21
598.538	13441.72
598.897	13615.96
599.255	13555.84
599.613	13808.49
599.972	13747.03
600.33	13781.83
600.688	13885.55
601.046	13934.37
601.404	13987.25
601.762	14037.87
602.12	14144.98
602.478	14140.24
602.836	14193.79
603.194	14190.18
603.552	14285.32
603.91	14196.51
604.268	14380.91
604.625	14364.64
604.983	14482.15
605.341	14404.64
605.698	14526.44
606.056	14604.86
606.413	14569.15
606.771	14601.92
607.128	14660.22
607.485	14660.9
607.843	14685.53
608.2	14804.85
608.557	14922.59
608.914	14803.72
609.272	14924.4
609.629	14954
609.986	15061.12
610.343	14913.55
610.7	15077.39
611.057	15093.66
611.414	15106.31
611.771	15085.52
612.127	15214.33
612.484	15219.53
612.841	15229.25
613.198	15312.18
613.554	15261.34
613.911	15379.98
614.267	15385.63
614.624	15275.35
614.98	15399.86
615.337	15607.99
615.693	15532.52
616.05	15492.29
616.406	15711.95
616.762	15474.44
617.118	15582.01
617.475	15572.97
617.831	15646.64
618.187	15665.39
618.543	15673.98
618.899	15740.42
619.255	15723.02
619.611	15716.92
619.967	15819.97
620.323	15873.98
620.678	15855.22
621.034	15814.32
621.39	15780.42
621.746	15753.75
622.101	15930.47
622.457	15699.29
622.812	15914.43
623.168	15873.75
623.523	15846.18
623.879	16073.74
624.234	15961.88
624.589	15953.07
624.945	15963.01
625.3	15984.71
625.655	15958.72
626.01	15967.53
626.365	15944.93
626.72	15983.35
627.075	15987.87
627.43	15921.66
627.785	15879.17
628.14	15995.33
628.495	16050.92
628.85	15936.8
629.205	15986.74
629.559	16000.07
629.914	15972.73
630.269	16006.85
630.623	15889.79
630.978	15883.01
631.332	15951.04
631.687	15933.18
632.041	15912.62
632.396	15887.08
632.75	15852.05
633.104	15895.22
633.459	15846.41
633.813	15860.64
634.167	15829.46
634.521	15904.26
634.875	15883.69
635.229	15836.01
635.583	15751.04
635.937	15743.36
636.291	15738.16
636.645	15740.65
636.999	15723.24
637.352	15731.15
637.706	15641.21
638.06	15729.8
638.413	15631.95
638.767	15737.93
639.121	15596.47
639.474	15592.17
639.828	15576.13
640.181	15659.29
640.534	15578.84
640.888	15553.53
641.241	15553.31
641.594	15461.56
641.947	15520.54
642.301	15499.07
642.654	15531.16
643.007	15580.65
643.36	15534.32
643.713	15467.21
644.066	15517.37
644.419	15453.87
644.771	15287.78
645.124	15231.28
645.477	15259.08
645.83	15072.64
646.182	14974.56
646.535	14992.42
646.888	15007.78
647.24	15031.74
647.593	15066.09
647.945	14929.59
648.298	14964.62
648.65	14963.94
649.002	14905.41
649.355	14998.97
649.707	14917.39
650.059	15038.52
650.411	15179.98
650.763	15272.64
651.115	15382.46
651.467	15390.37
651.819	15250.94
652.171	15300.66
652.523	15315.12
652.875	15332.75
653.227	15212.52
653.578	15400.99
653.93	15340.43
654.282	15284.84
654.633	15317.15
654.985	15270.15
655.337	15305.18
655.688	15327.32
656.039	15439.18
656.391	15271.73
656.742	15270.15
657.094	15273.99
657.445	15344.5
657.796	15318.06
658.147	15265.63
658.498	15318.74
658.849	15405.51
659.2	15265.18
659.551	15297.95
659.902	15436.25
660.253	15367.32
660.604	15323.26
660.955	15316.48
661.306	15482.8
661.656	15328.68
662.007	15385.17
662.358	15375.91
662.708	15341.56
663.059	15430.82
663.409	15368.68
663.76	15473.76
664.11	15414.55
664.461	15491.61
664.811	15481.22
665.161	15385.17
665.511	15444.83
665.862	15422.01
666.212	15527.09
666.562	15494.78
666.912	15433.08
667.262	15390.6
667.612	15388.79
667.962	15500.88
668.312	15471.95
668.662	15444.38
669.011	15410.26
669.361	15400.54
669.711	15517.15
670.06	15384.95
670.41	15291.84
670.76	15357.6
671.109	15382.46
671.459	15420.2
671.808	15270.83
672.157	15394.67
672.507	15236.25
672.856	15195.8
673.205	15365.51
673.554	15372.97
673.904	15270.38
674.253	15267.44
674.602	15229.47
674.951	15071.96
675.3	15014.79
675.649	15316.02
675.998	15114.45
676.346	15128.46
676.695	15179.76
677.044	15108.57
677.393	15129.81
677.741	15106.76
678.09	15119.19
678.438	15053.88
678.787	15126.88
679.135	15111.28
679.484	15003.26
679.832	15061.12
680.181	14998.74
680.529	14896.15
680.877	14900.44
681.225	14919.42
681.573	14996.03
681.922	14894.79
682.27	14897.28
682.618	14798.98
682.966	14861.8
683.314	14826.32
683.661	14735.7
684.009	14643.27
684.357	14608.47
684.705	14638.98
685.053	14641.69
685.4	14565.08
685.748	14573.67
686.095	14572.09
686.443	14478.31
686.79	14451.19
687.138	14472.2
687.485	14489.15
687.832	14365.99
688.18	14315.82
688.527	14261.36
688.874	14274.92
689.221	14252.55
689.568	14199.89
689.915	14045.55
690.262	14096.17
690.609	14093.91
690.956	14075.38
691.303	13988.6
691.65	13945.44
691.997	13878.32
692.344	13785.22
692.69	13746.57
693.037	13779.79
693.383	13691.43
693.73	13651.89
694.077	13650.53
694.423	13591.78
694.769	13532.12
695.116	13481.95
695.462	13523.3
695.808	13436.75
696.155	13453.02
696.501	13360.6
696.847	13297.55
697.193	13260.94
697.539	13301.84
697.885	13139.81
698.231	13142.3
698.577	13122.64
698.923	13048.96
699.269	12996.31
699.614	12921.51
699.96	12877.67
700.306	12863.21
700.651	12818.01
700.997	12759.93
701.342	12747.73
701.688	12671.57
702.033	12755.87
702.379	12667.96
702.724	12612.37
703.069	12642.42
703.415	12430.22
703.76	12410.34
704.105	12451.47
704.45	12413.5
704.795	12311.36
705.14	12221.42
705.485	12234.52
705.83	12185.48
706.175	12218.03
706.52	12160.4
706.865	12092.15
707.209	12075.88
707.554	12005.83
707.899	12106.84
708.243	11977.35
708.588	11967.64
708.932	11868.66
709.277	11923.57
709.621	11797.02
709.966	11785.04
710.31	11784.82
710.654	11641.09
710.998	11710.24
711.342	11661.88
711.687	11717.7
712.031	11598.16
712.375	11538.5
712.719	11580.98
713.063	11575.11
713.407	11606.52
713.75	11518.38
714.094	11505.5
714.438	11478.16
714.782	11430.7
715.125	11361.78
715.469	11375.56
715.812	11308.45
716.156	11282.46
716.499	11343.7
716.843	11266.86
717.186	11230.48
717.53	11303.02
717.873	11297.15
718.216	11263.7
718.559	11234.55
718.902	11111.84
719.246	11178.51
719.589	11164.27
719.932	11107.32
720.275	11148.68
720.617	11083.37
720.96	11024.39
721.303	11103.93
721.646	11077.04
721.989	10980.32
722.331	11077.94
722.674	10962.24
723.016	11044.5
723.359	11015.35
723.701	10985.97
724.044	10966.53
724.386	10881.79
724.729	10896.71
725.071	10903.03
725.413	10929.25
725.755	10949.81
726.097	10844.95
726.439	10836.59
726.782	10816.03
727.124	10922.69
727.465	10823.49
727.807	10873.2
728.149	10840.21
728.491	10804.28
728.833	10863.26
729.175	10795.46
729.516	10815.58
729.858	10764.51
730.199	10878.63
730.541	10784.17
730.882	10770.83
731.224	10798.85
731.565	10778.52
731.906	10753.21
732.248	10783.94
732.589	10710.72
732.93	10680.21
733.271	10712.53
733.612	10766.31
733.953	10798.18
734.294	10718.63
734.635	10725.86
734.976	10719.08
735.317	10703.04
735.658	10680.44
735.999	10751.4
736.339	10720.44
736.68	10758.4
737.021	10771.06
737.361	10726.54
737.702	10729.93
738.042	10767.22
738.383	10770.61
738.723	10788.01
739.063	10741.45
739.404	10830.27
739.744	10790.04
740.084	10767.44
740.424	10789.36
740.764	10796.37
741.104	10865.07
741.444	10803.6
741.784	10844.05
742.124	10852.64
742.464	10823.49
742.804	10912.75
743.143	10889.25
743.483	10980.54
743.823	10947.55
744.162	10924.5
744.502	11004.5
744.841	10998.62
745.181	11074.78
745.52	11010.83
745.86	11108
746.199	11135.12
746.538	11157.94
746.877	11278.62
747.216	11301.89
747.556	11299.18
747.895	11364.26
748.234	11387.54
748.573	11479.74
748.911	11584.82
749.25	11672.5
749.589	11600.19
749.928	11722.45
750.267	11768.09
750.605	11814.65
750.944	11952.72
751.283	12039.27
751.621	12160.85
751.96	12111.14
752.298	12278.36
752.636	12377.12
752.975	12357.01
753.313	12459.15
753.651	12627.05
753.989	12777.11
754.327	12823.66
754.666	12907.05
755.004	13009.87
755.342	13150.88
755.679	13287.38
756.017	13419.35
756.355	13463.87
756.693	13669.74
757.031	13898.43
757.368	14005.55
757.706	14111.76
758.044	14183.17
758.381	14354.47
758.719	14442.83
