Data from hue_200_FLMS001491_00016.txt Node
Date: Tue Feb 07 16:42:53 GMT 2017
User: dcchb
Spectrometer: FLMS00149
Trigger mode: 0
Integration Time (sec): 2.000000E-2
Scans to average: 10
Electric dark correction enabled: true
Nonlinearity correction enabled: false
Boxcar width: 0
XAxis mode: Wavelengths
Number of Pixels in Spectrum: 2048
>>>>>Begin Spectral Data<<<<<
341.393	-8.94
341.776	-8.94
342.16	-8.94
342.543	-61.59
342.927	-65.66
343.31	-55.27
343.693	-76.28
344.077	-63.63
344.46	-61.14
344.843	-55.27
345.226	-52.78
345.61	-22.5
345.993	-19.79
346.376	4.62
346.759	12.53
347.142	3.26
347.525	40.1
347.908	56.59
348.291	81.45
348.674	95.24
349.057	112.86
349.44	130.94
349.823	145.86
350.206	161.9
350.588	195.57
350.971	211.39
351.354	230.6
351.737	236.25
352.119	253.43
352.502	255.69
352.884	269.02
353.267	282.35
353.65	294.78
354.032	300.43
354.414	316.25
354.797	319.64
355.179	314.44
355.562	322.8
355.944	315.8
356.326	318.06
356.709	335.46
357.091	343.59
357.473	355.12
357.855	337.04
358.238	352.18
358.62	352.41
359.002	348.56
359.384	347.66
359.766	346.76
360.148	317.38
360.53	335.01
360.912	351.95
361.294	345.63
361.676	335.91
362.057	320.32
362.439	338.4
362.821	317.83
363.203	308.79
363.584	306.08
363.966	326.19
364.348	337.94
364.729	331.84
365.111	327.32
365.493	328
365.874	318.73
366.256	308.11
366.637	305.18
367.019	322.35
367.4	321.67
367.781	319.64
368.163	322.58
368.544	301.11
368.925	316.47
369.306	324.38
369.688	327.55
370.069	312.86
370.45	318.28
370.831	322.8
371.212	313.31
371.593	313.99
371.974	327.55
372.355	321.67
372.736	327.1
373.117	311.05
373.498	313.99
373.879	305.63
374.26	312.41
374.641	309.02
375.021	328.9
375.402	320.09
375.783	319.19
376.163	338.17
376.544	327.1
376.925	336.14
377.305	309.7
377.686	331.84
378.066	331.62
378.447	341.78
378.827	328
379.208	354.67
379.588	321.9
379.968	345.17
380.349	331.16
380.729	338.85
381.109	321.9
381.489	327.1
381.87	345.4
382.25	360.54
382.63	338.62
383.01	353.54
383.39	335.68
383.77	335.91
384.15	347.89
384.53	358.73
384.91	332.52
385.29	350.6
385.67	362.12
386.049	357.83
386.429	349.92
386.809	343.14
387.189	350.6
387.568	350.37
387.948	352.18
388.328	363.03
388.707	373.42
389.087	364.61
389.466	381.78
389.846	372.97
390.225	356.93
390.605	386.3
390.984	370.94
391.363	370.71
391.743	374.78
392.122	373.42
392.501	381.33
392.881	383.82
393.26	379.98
393.639	389.69
394.018	388.56
394.397	399.18
394.776	384.5
395.155	374.33
395.534	387.89
395.913	372.97
396.292	396.92
396.671	399.41
397.05	395.12
397.429	383.14
397.808	404.83
398.186	400.09
398.565	409.13
398.944	415.46
399.323	400.77
399.701	423.36
400.08	416.13
400.458	432.4
400.837	409.81
401.215	412.29
401.594	410.71
401.972	425.62
402.351	425.17
402.729	439.18
403.107	436.92
403.486	435.57
403.864	446.64
404.242	441.44
404.62	438.51
404.999	455.45
405.377	462.91
405.755	444.15
406.133	462.46
406.511	451.16
406.889	479.86
407.267	486.64
407.645	490.71
408.023	502.91
408.401	501.1
408.779	480.54
409.156	506.75
409.534	497.94
409.912	515.34
410.29	534.77
410.667	553.53
411.045	514.89
411.422	550.59
411.8	577.26
412.178	555.79
412.555	589.91
412.933	601.89
413.31	591.95
413.687	624.04
414.065	630.82
414.442	611.38
414.819	631.49
415.197	660.87
415.574	638.05
415.951	680.53
416.328	683.02
416.705	688.44
417.082	671.49
417.46	691.83
417.837	711.49
418.214	718.72
418.591	738.16
418.967	748.55
419.344	725.96
419.721	758.05
420.098	776.8
420.475	772.73
420.852	779.29
421.228	805.73
421.605	802.34
421.982	840.53
422.358	858.83
422.735	896.8
423.111	859.96
423.488	887.99
423.864	886.86
424.241	939.06
424.617	943.8
424.994	958.49
425.37	958.72
425.746	979.28
426.123	981.32
426.499	1006.4
426.875	1017.25
427.251	1045.95
427.627	1045.04
428.003	1077.13
428.379	1094.99
428.756	1102.22
429.132	1104.25
429.507	1143.57
429.883	1114.42
430.259	1162.33
430.635	1174.08
431.011	1181.99
431.387	1194.19
431.763	1182.21
432.138	1236.68
432.514	1252.95
432.89	1264.47
433.265	1298.37
433.641	1309.67
434.016	1358.48
434.392	1385.15
434.767	1393.28
435.143	1421.98
435.518	1414.75
435.894	1470.12
436.269	1480.51
436.644	1510.34
437.02	1547.4
437.395	1541.75
437.77	1593.96
438.145	1615.88
438.52	1629.21
438.895	1668.53
439.271	1688.42
439.646	1747.62
440.021	1758.7
440.395	1764.57
440.77	1760.96
441.145	1809.32
441.52	1847.51
441.895	1855.64
442.27	1878.92
442.645	1891.57
443.019	1934.06
443.394	1927.51
443.769	2000.72
444.143	1949.43
444.518	2014.74
444.892	2004.79
445.267	1999.59
445.641	2043.21
446.016	2061.06
446.39	2119.59
446.764	2116.43
447.139	2113.94
447.513	2139.93
447.887	2182.19
448.262	2180.61
448.636	2152.13
449.01	2177.44
449.384	2228.74
449.758	2245.69
450.132	2284.11
450.506	2280.26
450.88	2304.45
451.254	2310.77
451.628	2340.15
452.002	2384.44
452.376	2421.28
452.75	2419.92
453.123	2402.3
453.497	2470.54
453.871	2480.49
454.244	2546.7
454.618	2565.23
454.992	2591.67
455.365	2574.49
455.739	2661.27
456.112	2664.66
456.486	2724.32
456.859	2711.89
457.232	2778.56
457.606	2755.96
457.979	2840.7
458.352	2865.56
458.725	2891.32
459.099	2922.96
459.472	2965.9
459.845	3009.06
460.218	3032.79
460.591	3019.45
460.964	3057.42
461.337	3135.16
461.71	3167.02
462.083	3210.41
462.456	3177.19
462.829	3240.92
463.201	3254.25
463.574	3309.62
463.947	3323.18
464.32	3388.26
464.692	3482.27
465.065	3444.53
465.438	3502.38
465.81	3571.08
466.183	3591.87
466.555	3671.64
466.928	3659.89
467.3	3706.22
467.672	3717.06
468.045	3785.08
468.417	3844.07
468.789	3836.61
469.161	3959.77
469.534	3984.4
469.906	4071.18
470.278	4117.73
470.65	4134.68
471.022	4208.12
471.394	4273.88
471.766	4305.97
472.138	4359.76
472.51	4457.16
472.882	4529.7
473.253	4560.66
473.625	4628.9
473.997	4721.1
474.369	4695.12
474.74	4785.74
475.112	4826.41
475.484	4927.43
475.855	5016.24
476.227	5061.21
476.598	5179.17
476.97	5196.12
477.341	5356.57
477.713	5378.26
478.084	5452.16
478.455	5517.02
478.827	5565.38
479.198	5712.94
479.569	5700.06
479.94	5886.05
480.311	5936.89
480.682	6079.26
481.053	6170.78
481.424	6268.18
481.795	6310.89
482.166	6390.21
482.537	6421.4
482.908	6582.07
483.279	6649.42
483.65	6769.64
484.021	6819.81
484.391	6859.81
484.762	6959.92
485.133	7030.42
485.503	7106.58
485.874	7279.23
486.244	7338.44
486.615	7406.91
486.985	7554.7
487.356	7647.36
487.726	7703.85
488.097	7789.05
488.467	7786.79
488.837	8001.7
489.207	8147.23
489.578	8133.22
489.948	8230.16
490.318	8307.45
490.688	8284.63
491.058	8453.66
491.428	8570.49
491.798	8608.91
492.168	8772.75
492.538	8807.78
492.908	8898.4
493.278	9006.87
493.648	8928.23
494.017	9050.48
494.387	9166.64
494.757	9172.51
495.126	9252.06
495.496	9262
495.866	9293.41
496.235	9399.85
496.605	9481.21
496.974	9533.86
497.344	9567.98
497.713	9619.51
498.082	9696.34
498.452	9726.62
498.821	9749
499.19	9786.28
499.559	9844.81
499.928	9916.9
500.298	9941.08
500.667	10002.1
501.036	9916.9
501.405	10027.41
501.774	9994.64
502.143	10106.73
502.512	10125.71
502.88	10121.19
503.249	10135.88
503.618	10220.4
503.987	10227.4
504.356	10227.17
504.724	10290.9
505.093	10321.64
505.462	10406.15
505.83	10350.56
506.199	10431.69
506.567	10520.05
506.936	10479.6
507.304	10521.86
507.672	10571.8
508.041	10627.84
508.409	10725.01
508.777	10727.95
509.145	10806.59
509.514	10738.35
509.882	10758.91
510.25	10775.41
510.618	10776.54
510.986	10875.75
511.354	10828.06
511.722	10898.57
512.09	10963.43
512.458	10926.37
512.826	10958
513.193	11052.69
513.561	10995.97
513.929	11079.13
514.297	11079.81
514.664	11063.76
515.032	11076.64
515.4	11154.83
515.767	11174.27
516.135	11163.65
516.502	11091.11
516.869	11182.4
517.237	11264.21
517.604	11173.36
517.972	11242.97
518.339	11207.04
518.706	11221.27
519.073	11212.69
519.44	11229.86
519.808	11273.47
520.175	11283.87
520.542	11374.04
520.909	11391.66
521.276	11275.51
521.643	11378.78
522.009	11341.27
522.376	11377.43
522.743	11355.73
523.11	11509.63
523.477	11490.42
523.843	11459.46
524.21	11480.25
524.577	11514.37
524.943	11534.71
525.31	11562.51
525.676	11618.78
526.043	11575.39
526.409	11642.5
526.776	11611.54
527.142	11636.86
527.508	11650.19
527.874	11642.5
528.241	11650.64
528.607	11621.49
528.973	11632.56
529.339	11594.6
529.705	11650.19
530.071	11634.82
530.437	11668.27
530.803	11643.18
531.169	11633.01
531.535	11499.01
531.901	11496.07
532.267	11545.56
532.632	11512.11
532.998	11444.09
533.364	11445.22
533.73	11460.14
534.095	11413.58
534.461	11427.6
534.826	11363.87
535.192	11428.95
535.557	11409.06
535.923	11303.08
536.288	11368.61
536.653	11283.19
537.019	11173.59
537.384	11211.1
537.749	11213.59
538.114	11070.09
538.479	11090.43
538.845	11082.97
539.21	11019.47
539.575	10988.51
539.94	11054.95
540.305	11021.5
540.67	10847.72
541.034	10921.39
541.399	10876.2
541.764	10872.13
542.129	10752.13
542.494	10727.5
542.858	10699.48
543.223	10633.04
543.587	10716.65
543.952	10577.22
544.316	10502.65
544.681	10434.4
545.045	10481.86
545.41	10440.73
545.774	10384.01
546.138	10344.69
546.503	10281.86
546.867	10275.08
547.231	10230.79
547.595	10254.07
547.959	10143.11
548.324	10084.13
548.688	10048.42
549.052	9987.86
549.416	9971.14
549.779	9951.93
550.143	9958.03
550.507	9908.99
550.871	9876
551.235	9774.08
551.599	9775.66
551.962	9762.78
552.326	9737.02
552.689	9774.08
553.053	9758.03
553.417	9614.31
553.78	9693.63
554.143	9638.49
554.507	9624.48
554.87	9530.24
555.234	9599.85
555.597	9494.76
555.96	9546.97
556.323	9438.27
556.686	9469.68
557.05	9449.57
557.413	9372.06
557.776	9328.89
558.139	9399.17
558.502	9343.81
558.865	9352.62
559.228	9330.48
559.59	9231.04
559.953	9301.32
560.316	9318.27
560.679	9246.64
561.041	9224.04
561.404	9311.27
561.767	9250.03
562.129	9177.48
562.492	9266.97
562.854	9207.77
563.217	9206.86
563.579	9156.02
563.941	9188.11
564.304	9187.88
564.666	9153.08
565.028	9198.28
565.39	9164.83
565.753	9286.41
566.115	9219.07
566.477	9219.07
566.839	9162.57
567.201	9264.49
567.563	9215.9
567.925	9248.44
568.287	9211.61
568.648	9247.99
569.01	9179.97
569.372	9219.07
569.734	9227.2
570.095	9203.92
570.457	9244.6
570.819	9189.24
571.18	9218.39
571.542	9237.14
571.903	9191.5
572.265	9238.73
572.626	9268.33
572.987	9284.15
573.349	9249.57
573.71	9251.83
574.071	9256.35
574.432	9265.39
574.794	9335.9
575.155	9241.21
575.516	9209.8
575.877	9278.95
576.238	9288.89
576.599	9309.68
576.96	9259.74
577.32	9216.35
577.681	9212.96
578.042	9253.19
578.403	9295.45
578.763	9211.61
579.124	9242.34
579.485	9276.92
579.845	9219.74
580.206	9275.79
580.566	9264.94
580.927	9255.9
581.287	9296.13
581.648	9225.39
582.008	9257.48
582.368	9293.41
582.728	9274.88
583.089	9224.04
583.449	9240.99
583.809	9280.31
584.169	9189.24
584.529	9273.08
584.889	9327.54
585.249	9226.75
585.609	9142.91
585.969	9234.88
586.329	9150.59
586.688	9192.63
587.048	9154.66
587.408	9222
587.768	9127.09
588.127	9129.35
588.487	9078.05
588.846	9156.92
589.206	9127.54
589.565	9076.7
589.925	9173.87
590.284	9073.76
590.643	9206.41
591.003	9106.75
591.362	9128.45
591.721	9126.19
592.08	9087.32
592.44	9115.34
592.799	9063.14
593.158	9123.93
593.517	9132.51
593.876	9104.94
594.235	9101.1
594.593	9126.19
594.952	9101.1
595.311	9024.49
595.67	9075.57
596.029	9067.88
596.387	9062.69
596.746	9076.02
597.104	9045.74
597.463	9052.06
597.822	9015.68
598.18	8991.5
598.538	9044.38
598.897	9060.43
599.255	8933.2
599.613	9102.01
599.972	9054.78
600.33	9040.77
600.688	9008.9
601.046	8972.52
601.404	9087.77
601.762	9061.33
602.12	9024.72
602.478	9016.36
602.836	9019.3
603.194	9009.81
603.552	9032.63
603.91	9036.92
604.268	9050.03
604.625	8939.98
604.983	9000.54
605.341	8986.76
605.698	9008.9
606.056	9040.77
606.413	9010.94
606.771	9086.41
607.128	9045.28
607.485	9022.91
607.843	9023.82
608.2	9055.23
608.557	9108.11
608.914	8998.73
609.272	9046.64
609.629	9062.01
609.986	9093.42
610.343	9109.92
610.7	9120.31
611.057	9070.14
611.414	9095.9
611.771	9047.54
612.127	9130.71
612.484	9114.89
612.841	9079.41
613.198	9080.99
613.554	9064.95
613.911	9079.63
614.267	9116.47
614.624	9170.25
614.98	9104.49
615.337	9105.17
615.693	9191.04
616.05	9124.38
616.406	9170.71
616.762	9141.33
617.118	9103.14
617.475	9156.02
617.831	9208.22
618.187	9114.44
618.543	9199.41
618.899	9270.14
619.255	9194.43
619.611	9154.21
619.967	9226.97
620.323	9197.15
620.678	9200.99
621.034	9218.84
621.39	9160.31
621.746	9166.64
622.101	9264.26
622.457	9151.95
622.812	9120.76
623.168	9203.02
623.523	9184.04
623.879	9188.56
624.234	9131.61
624.589	9212.96
624.945	9264.04
625.3	9179.29
625.655	9206.18
626.01	9187.2
626.365	9213.87
626.72	9173.19
627.075	9154.66
627.43	9148.33
627.785	9127.77
628.14	9162.8
628.495	9154.43
628.85	9086.87
629.205	9123.25
629.559	9137.49
629.914	9070.37
630.269	9113.31
630.623	9091.16
630.978	9056.36
631.332	9080.54
631.687	9062.01
632.041	9030.37
632.396	9097.71
632.75	9085.06
633.104	9060.43
633.459	8977.49
633.813	8998.28
634.167	9042.35
634.521	8971.16
634.875	8993.76
635.229	8950.37
635.583	8967.77
635.937	8956.7
636.291	8869.24
636.645	8860.66
636.999	8948.79
637.352	8911.28
637.706	8895.91
638.06	8886.64
638.413	8823.14
638.767	8884.84
639.121	8860.66
639.474	8818.17
639.828	8790.15
640.181	8781.79
640.534	8781.34
640.888	8775.24
641.241	8775.91
641.594	8773.2
641.947	8742.02
642.301	8787.21
642.654	8726.2
643.007	8740.43
643.36	8768
643.713	8730.26
644.066	8764.39
644.419	8691.4
644.771	8605.75
645.124	8638.52
645.477	8545.86
645.83	8500.89
646.182	8418.41
646.535	8479.2
646.888	8437.62
647.24	8418.86
647.593	8429.48
647.945	8518.52
648.298	8372.99
648.65	8448.24
649.002	8398.52
649.355	8454.11
649.707	8463.38
650.059	8445.98
650.411	8598.74
650.763	8545.64
651.115	8711.06
651.467	8623.6
651.819	8634.45
652.171	8657.27
652.523	8594
652.875	8608.46
653.227	8546.77
653.578	8615.47
653.93	8587.44
654.282	8629.25
654.633	8594.68
654.985	8551.29
655.337	8648.91
655.688	8685.52
656.039	8683.03
656.391	8604.39
656.742	8597.16
657.094	8615.24
657.445	8657.72
657.796	8644.84
658.147	8628.57
658.498	8548.12
658.849	8659.53
659.2	8618.63
659.551	8613.43
659.902	8613.66
660.253	8636.03
660.604	8653.66
660.955	8638.74
661.306	8731.85
661.656	8662.7
662.007	8710.15
662.358	8648.46
662.708	8670.15
663.059	8664.5
663.409	8632.19
663.76	8724.16
664.11	8650.49
664.461	8712.86
664.811	8712.19
665.161	8768.68
665.511	8663.15
665.862	8674.9
666.212	8753.99
666.562	8715.12
666.912	8730.72
667.262	8697.95
667.612	8711.96
667.962	8748.57
668.312	8706.76
668.662	8725.07
669.011	8708.12
669.361	8677.38
669.711	8708.12
670.06	8646.43
670.41	8680.77
670.76	8648.91
671.109	8699.08
671.459	8699.76
671.808	8698.63
672.157	8624.73
672.507	8645.97
672.856	8608.46
673.205	8685.07
673.554	8666.31
673.904	8589.48
674.253	8653.43
674.602	8572.3
674.951	8485.3
675.3	8464.06
675.649	8633.77
675.998	8625.18
676.346	8561.68
676.695	8607.1
677.044	8486.2
677.393	8551.06
677.741	8460.22
678.09	8544.73
678.438	8511.06
678.787	8518.07
679.135	8543.15
679.484	8390.39
679.832	8460.67
680.181	8394
680.529	8409.14
680.877	8376.6
681.225	8377.73
681.573	8450.05
681.922	8379.54
682.27	8403.49
682.618	8337.73
682.966	8439.65
683.314	8277.4
683.661	8250.5
684.009	8232.65
684.357	8270.16
684.705	8208.02
685.053	8249.6
685.4	8208.24
685.748	8085.54
686.095	8177.74
686.443	8129.6
686.79	8167.79
687.138	8171.18
687.485	8077.63
687.832	8079.89
688.18	8152.43
688.527	8083.95
688.874	8077.63
689.221	7960.79
689.568	7925.99
689.915	7964.64
690.262	7951.75
690.609	7955.14
690.956	7892.77
691.303	7904.52
691.65	7888.25
691.997	7807.35
692.344	7723.29
692.69	7782.72
693.037	7719.22
693.383	7719.22
693.73	7690.74
694.077	7662.72
694.423	7679.44
694.769	7613.23
695.116	7577.3
695.462	7541.37
695.808	7505.21
696.155	7528.04
696.501	7432.22
696.847	7405.1
697.193	7404.42
697.539	7409.62
697.885	7267.7
698.231	7365.55
698.577	7264.99
698.923	7280.59
699.269	7235.16
699.614	7222.51
699.96	7199.46
700.306	7162.17
700.651	7146.58
700.997	7121.72
701.342	7073.13
701.688	7064.32
702.033	7021.38
702.379	7037.43
702.724	7032.68
703.069	7001.72
703.415	6900.71
703.76	6961.72
704.105	6901.84
704.45	6854.38
704.795	6802.41
705.14	6800.82
705.485	6781.39
705.83	6816.19
706.175	6789.98
706.52	6756.76
706.865	6695.29
707.209	6690.09
707.554	6676.31
707.899	6698.45
708.243	6688.74
708.588	6654.84
708.932	6541.4
709.277	6581.17
709.621	6599.25
709.966	6561.28
710.31	6550.44
710.654	6455.3
710.998	6532.58
711.342	6541.85
711.687	6436.09
712.031	6406.94
712.375	6353.15
712.719	6410.55
713.063	6364.9
713.407	6421.4
713.75	6416.65
714.094	6377.11
714.438	6362.64
714.782	6383.21
715.125	6339.82
715.469	6319.93
715.812	6270.22
716.156	6300.72
716.499	6277.67
716.843	6299.59
717.186	6234.06
717.53	6272.02
717.873	6263.44
718.216	6241.97
718.559	6234.74
718.902	6189.31
719.246	6222.99
719.589	6170.33
719.932	6122.2
720.275	6147.06
720.617	6135.53
720.96	6140.05
721.303	6176.89
721.646	6168.98
721.989	6091.24
722.331	6154.51
722.674	6094.18
723.016	6126.27
723.359	6117
723.701	6055.31
724.044	6074.74
724.386	6080.39
724.729	6094.63
725.071	6055.31
725.413	6110.67
725.755	6067.06
726.097	6080.62
726.439	6014.4
726.782	6025.25
727.124	6060.73
727.465	6096.44
727.807	6039.71
728.149	6033.39
728.491	6000.17
728.833	6023.9
729.175	6009.88
729.516	6013.5
729.858	6002.43
730.199	6042.2
730.541	6036.78
730.882	6024.8
731.224	6037
731.565	5991.81
731.906	6026.61
732.248	6027.96
732.589	6004.01
732.93	5993.61
733.271	5984.12
733.612	5982.31
733.953	6006.72
734.294	6046.27
734.635	6003.1
734.976	6023.67
735.317	6015.31
735.658	5986.16
735.999	6018.47
736.339	6015.76
736.68	6046.49
737.021	6068.87
737.361	6000.17
737.702	6040.39
738.042	6073.84
738.383	6117.68
738.723	6077.45
739.063	6103.67
739.404	6053.27
739.744	6061.86
740.084	6068.64
740.424	6101.18
740.764	6083.1
741.104	6117.45
741.444	6161.29
741.784	6147.06
742.124	6187.51
742.464	6189.99
742.804	6191.35
743.143	6211.23
743.483	6261.86
743.823	6221.4
744.162	6326.49
744.502	6274.06
744.841	6302.98
745.181	6372.59
745.52	6382.76
745.86	6416.65
746.199	6473.15
746.538	6522.87
746.877	6538.46
747.216	6590.89
747.556	6585.01
747.895	6696.42
748.234	6687.83
748.573	6760.6
748.911	6789.07
749.25	6901.84
749.589	6919.24
749.928	7067.26
750.267	7075.17
750.605	7124.66
750.944	7247.37
751.283	7221.38
751.621	7394.71
751.96	7429.51
752.298	7506.57
752.636	7642.84
752.975	7736.62
753.313	7796.73
753.651	7919.21
753.989	8008.48
754.327	8064.75
754.666	8145.2
755.004	8342.7
755.342	8485.07
755.679	8586.77
756.017	8731.39
756.355	8839.19
756.693	8909.02
757.031	9153.76
757.368	9210.93
757.706	9396.24
758.044	9559.85
758.381	9681.43
758.719	9812.5
759.056	10031.7
759.394	10094.3
759.731	10237.57
760.068	10485.7
760.405	10547.39
760.743	10692.7
761.08	10967.27
761.417	11081.62
761.754	11224.66
762.091	11518.44
762.428	11589.62
762.765	11736.74
763.102	11931.08
763.438	12090.18
763.775	12167.24
764.112	12471.64
764.449	12600.22
764.785	12794.11
765.122	12844.05
765.458	13139.41
765.795	13212.41
766.131	13338.51
766.467	13519.74
766.804	13623.47
