Data from hue_170_FLMS001491_00072.txt Node
Date: Tue Feb 07 16:49:10 GMT 2017
User: dcchb
Spectrometer: FLMS00149
Trigger mode: 0
Integration Time (sec): 2.000000E-2
Scans to average: 10
Electric dark correction enabled: true
Nonlinearity correction enabled: false
Boxcar width: 0
XAxis mode: Wavelengths
Number of Pixels in Spectrum: 2048
>>>>>Begin Spectral Data<<<<<
341.393	-26.41
341.776	-26.41
342.16	-26.41
342.543	-70.25
342.927	-67.99
343.31	-63.92
343.693	-53.53
344.077	-70.03
344.46	-75.9
344.843	-65.73
345.226	-41.78
345.61	-15.56
345.993	-19.86
346.376	2.29
346.759	0.25
347.142	25.79
347.525	20.82
347.908	65.56
348.291	70.31
348.674	100.14
349.057	121.16
349.44	144.88
349.823	143.53
350.206	166.35
350.588	186.46
350.971	207.48
351.354	222.62
351.737	219.46
352.119	241.38
352.502	260.59
352.884	262.39
353.267	304.65
353.65	272.79
354.032	306.23
354.414	292.22
354.797	293.13
355.179	324.99
355.562	330.42
355.944	320.92
356.326	319.34
356.709	336.97
357.091	319.79
357.473	333.58
357.855	320.02
358.238	331.77
358.62	317.31
359.002	320.47
359.384	342.39
359.766	309.4
360.148	323.18
360.53	330.42
360.912	329.06
361.294	337.19
361.676	320.02
362.057	313.24
362.439	333.58
362.821	329.29
363.203	323.64
363.584	325.67
363.966	308.95
364.348	322.05
364.729	320.7
365.111	317.99
365.493	316.63
365.874	312.11
366.256	295.84
366.637	309.85
367.019	310.53
367.4	319.12
367.781	272.34
368.163	320.7
368.544	321.38
368.925	301.72
369.306	315.27
369.688	290.19
370.069	303.75
370.45	316.4
370.831	302.39
371.212	317.08
371.593	293.35
371.974	313.47
372.355	302.85
372.736	319.34
373.117	317.76
373.498	280.7
373.879	308.27
374.26	327.7
374.641	296.52
375.021	314.6
375.402	296.74
375.783	297.2
376.163	327.7
376.544	321.6
376.925	334.93
377.305	326.8
377.686	321.38
378.066	333.13
378.447	326.12
378.827	312.11
379.208	333.13
379.588	332.9
379.968	322.28
380.349	343.75
380.729	334.71
381.109	315.73
381.489	301.72
381.87	324.99
382.25	322.05
382.63	328.61
383.01	329.06
383.39	331.32
383.77	362.73
384.15	348.27
384.53	345.33
384.91	338.1
385.29	336.52
385.67	353.92
386.049	345.56
386.429	349.85
386.809	347.82
387.189	341.49
387.568	331.77
387.948	353.47
388.328	350.53
388.707	356.86
389.087	357.98
389.466	346.46
389.846	356.18
390.225	354.14
390.605	341.71
390.984	357.76
391.363	357.53
391.743	351.43
392.122	366.8
392.501	358.66
392.881	351.21
393.26	357.76
393.639	373.35
394.018	357.98
394.397	360.02
394.776	379.45
395.155	382.17
395.534	372.9
395.913	365.22
396.292	360.02
396.671	373.8
397.05	360.92
397.429	390.07
397.808	385.1
398.186	375.84
398.565	382.62
398.944	391.66
399.323	379
399.701	396.18
400.08	395.27
400.458	416.29
400.837	374.93
401.215	383.97
401.594	400.02
401.972	394.37
402.351	376.06
402.729	412.22
403.107	397.53
403.486	397.08
403.864	409.73
404.242	438.21
404.62	419
404.999	404.09
405.377	412.45
405.755	422.84
406.133	411.77
406.511	428.04
406.889	442.73
407.267	414.71
407.645	444.76
408.023	457.87
408.401	428.94
408.779	423.75
409.156	446.57
409.534	436.63
409.912	467.36
410.29	468.72
410.667	455.38
411.045	443.86
411.422	477.76
411.8	451.32
412.178	480.24
412.555	466
412.933	487.93
413.31	469.85
413.687	508.49
414.065	503.29
414.442	513.91
414.819	515.04
415.197	508.04
415.574	545.78
415.951	537.87
416.328	515.04
416.705	539.45
417.082	553.91
417.46	557.75
417.837	546
418.214	553.46
418.591	541.93
418.967	555.27
419.344	585.78
419.721	557.75
420.098	569.5
420.475	593.68
420.852	596.17
421.228	590.75
421.605	582.61
421.982	595.72
422.358	623.29
422.735	608.6
423.111	625.77
423.488	619.45
423.864	644.31
424.241	636.17
424.617	649.73
424.994	640.92
425.37	649.73
425.746	654.7
426.123	681.82
426.499	676.62
426.875	686.11
427.251	698.09
427.627	701.25
428.003	694.7
428.379	724.3
428.756	704.87
429.132	714.59
429.507	724.08
429.883	721.14
430.259	756.17
430.635	730.4
431.011	742.38
431.387	767.69
431.763	784.41
432.138	774.25
432.514	786.45
432.89	778.76
433.265	810.18
433.641	828.48
434.016	816.73
434.392	849.5
434.767	853.57
435.143	847.69
435.518	869.16
435.894	861.7
436.269	872.32
436.644	876.39
437.02	909.83
437.395	923.85
437.77	948.48
438.145	941.02
438.52	950.51
438.895	947.35
439.271	979.44
439.646	965.65
440.021	1000
440.395	961.58
440.77	986.89
441.145	993.22
441.52	1029.83
441.895	1010.17
442.27	1039.55
442.645	1025.99
443.019	1047.01
443.394	1068.25
443.769	1075.93
444.143	1045.42
444.518	1080.45
444.892	1082.49
445.267	1106.21
445.641	1110.51
446.016	1117.51
446.39	1138.08
446.764	1137.63
447.139	1142.37
447.513	1172.88
447.887	1133.33
448.262	1161.81
448.636	1174.91
449.01	1172.43
449.384	1195.93
449.758	1177.85
450.132	1215.14
450.506	1220.56
450.88	1225.08
451.254	1239.54
451.628	1250.84
452.002	1291.07
452.376	1290.16
452.75	1333.78
453.123	1297.85
453.497	1327.22
453.871	1333.55
454.244	1338.52
454.618	1335.36
454.992	1372.65
455.365	1380.78
455.739	1437.73
456.112	1432.08
456.486	1432.76
456.859	1453.78
457.232	1489.03
457.606	1466.88
457.979	1499.42
458.352	1549.14
458.725	1561.34
459.099	1563.15
459.472	1575.13
459.845	1603.6
460.218	1646.09
460.591	1609.03
460.964	1643.15
461.337	1680.89
461.71	1726.99
462.083	1715.01
462.456	1749.59
462.829	1768.57
463.201	1779.19
463.574	1811.28
463.947	1789.59
464.32	1839.75
464.692	1870.26
465.065	1893.99
465.438	1916.81
465.81	1976.7
466.183	1988.22
466.555	2034.78
466.928	2033.87
467.3	2046.53
467.672	2089.24
468.045	2147.09
468.417	2147.54
468.789	2171.72
469.161	2236.58
469.534	2294.66
469.906	2315.45
470.278	2350.7
470.65	2374.66
471.022	2451.04
471.394	2489.91
471.766	2519.51
472.138	2530.36
472.51	2650.81
472.882	2671.37
473.253	2719.96
473.625	2758.15
473.997	2813.74
474.369	2870.24
474.74	2903
475.112	2962.89
475.484	3044.47
475.855	3126.05
476.227	3162.2
476.598	3255.31
476.97	3307.74
477.341	3376.66
477.713	3467.28
478.084	3525.81
478.455	3613.72
478.827	3682.19
479.198	3808.74
479.569	3801.06
479.94	3954.5
480.311	4051.67
480.682	4151.78
481.053	4273.36
481.424	4355.39
481.795	4419.57
482.166	4529.17
482.537	4606.23
482.908	4765.78
483.279	4802.16
483.65	4926.68
484.021	5050.97
484.391	5151.53
484.762	5301.36
485.133	5315.59
485.503	5405.31
485.874	5565.08
486.244	5696.83
486.615	5793.55
486.985	5921.91
487.356	6091.17
487.726	6173.2
488.097	6376.13
488.467	6430.37
488.837	6534.55
489.207	6696.12
489.578	6839.17
489.948	6880.07
490.318	7039.84
490.688	7152.38
491.058	7297.46
491.428	7389.21
491.798	7459.27
492.168	7692.48
492.538	7816.32
492.908	7950.55
493.278	8064.67
493.648	8137.44
494.017	8204.78
494.387	8212.47
494.757	8446.36
495.126	8551.44
495.496	8650.87
495.866	8681.38
496.235	8826.91
496.605	8927.03
496.974	8983.07
497.344	9148.71
497.713	9168.37
498.082	9318.88
498.452	9348.71
498.821	9410.4
499.19	9468.93
499.559	9626.89
499.928	9710.06
500.298	9760.22
500.667	9863.27
501.036	9840.67
501.405	9976.94
501.774	10034.79
502.143	10047.45
502.512	10215.8
502.88	10258.97
503.249	10297.16
503.618	10353.65
503.987	10422.35
504.356	10516.14
504.724	10579.64
505.093	10489.47
505.462	10528.56
505.83	10668.67
506.199	10824.15
506.567	10877.71
506.936	10816.69
507.304	10977.82
507.672	11013.75
508.041	10992.28
508.409	11109.57
508.777	11161.32
509.145	11168.1
509.514	11198.6
509.882	11256
510.25	11310.24
510.618	11296.68
510.986	11335.78
511.354	11423.68
511.722	11466.85
512.09	11555.66
512.458	11486.51
512.826	11533.74
513.193	11550.68
513.561	11633.85
513.929	11649.44
514.297	11651.47
514.664	11800.62
515.032	11839.94
515.4	11825.25
515.767	11794.52
516.135	11907.74
516.502	11775.31
516.869	12021.18
517.237	11979.37
517.604	11855.08
517.972	11992.71
518.339	11980.96
518.706	12019.6
519.073	12065.93
519.44	11995.19
519.808	12088.07
520.175	12100.73
520.542	12190.44
520.909	12238.35
521.276	12265.02
521.643	12272.7
522.009	12288.97
522.376	12262.3
522.743	12273.15
523.11	12349.76
523.477	12379.59
523.843	12386.37
524.21	12476.54
524.577	12549.53
524.943	12486.71
525.31	12504.78
525.676	12498.91
526.043	12550.66
526.409	12548.17
526.776	12663.2
527.142	12580.04
527.508	12529.64
527.874	12637.21
528.241	12635.63
528.607	12555.18
528.973	12594.73
529.339	12568.51
529.705	12618.45
530.071	12621.17
530.437	12568.74
530.803	12652.35
531.169	12654.38
531.535	12547.72
531.901	12587.04
532.267	12582.97
532.632	12591.79
532.998	12556.08
533.364	12535.52
533.73	12541.62
534.095	12589.75
534.461	12581.84
534.826	12413.94
535.192	12514.95
535.557	12525.8
535.923	12443.77
536.288	12348.18
536.653	12351.12
537.019	12272.25
537.384	12265.24
537.749	12322.42
538.114	12232.7
538.479	12167.62
538.845	12196.77
539.21	12083.55
539.575	12102.08
539.94	12029.32
540.305	12135.3
540.67	11961.52
541.034	11912.26
541.399	11960.39
541.764	11887.17
542.129	11900.96
542.494	11848.53
542.858	11858.02
543.223	11771.7
543.587	11778.25
543.952	11775.09
544.316	11652.15
544.681	11688.08
545.045	11621.64
545.41	11545.26
545.774	11531.7
546.138	11422.33
546.503	11481.31
546.867	11371.93
547.231	11466.39
547.595	11397.69
547.959	11375.32
548.324	11227.98
548.688	11166.74
549.052	11243.12
549.416	11164.48
549.779	11136.68
550.143	11088.1
550.507	11136.68
550.871	11008.78
551.235	10959.74
551.599	11043.58
551.962	10948.21
552.326	10905.73
552.689	10963.13
553.053	10799.52
553.417	10802.23
553.78	10898.27
554.143	10750.48
554.507	10807.2
554.87	10783.7
555.234	10780.54
555.597	10622.12
555.96	10597.94
556.323	10652.18
556.686	10630.71
557.05	10602.01
557.413	10652.63
557.776	10530.6
558.139	10599.07
558.502	10502.58
558.865	10551.62
559.228	10573.76
559.59	10495.12
559.953	10530.37
560.316	10624.16
560.679	10505.97
561.041	10488.79
561.404	10515.01
561.767	10503.93
562.129	10409.47
562.492	10533.08
562.854	10417.61
563.217	10396.82
563.579	10420.77
563.941	10439.08
564.304	10456.25
564.666	10536.7
565.028	10426.87
565.39	10467.1
565.753	10513.88
566.115	10480.43
566.477	10493.31
566.839	10472.3
567.201	10538.96
567.563	10525.18
567.925	10556.13
568.287	10501.67
568.648	10535.34
569.01	10526.31
569.372	10569.92
569.734	10452.86
570.095	10513.88
570.457	10565.63
570.819	10534.89
571.18	10543.93
571.542	10598.39
571.903	10524.27
572.265	10573.08
572.626	10550.03
572.987	10593.65
573.349	10615.79
573.71	10607.88
574.071	10573.08
574.432	10620.77
574.794	10649.24
575.155	10609.69
575.516	10530.6
575.877	10583.93
576.238	10577.15
576.599	10629.13
576.96	10620.31
577.32	10575.12
577.681	10646.3
578.042	10655.79
578.403	10679.3
578.763	10631.39
579.124	10636.36
579.485	10720.42
579.845	10682.01
580.206	10616.92
580.566	10635.23
580.927	10600.65
581.287	10606.08
581.648	10609.47
582.008	10678.39
582.368	10556.13
582.728	10639.07
583.089	10608.56
583.449	10542.8
583.809	10577.15
584.169	10483.37
584.529	10537.6
584.889	10511.16
585.249	10504.84
585.609	10546.19
585.969	10516.14
586.329	10500.77
586.688	10515.91
587.048	10466.19
587.408	10481.56
587.768	10457.15
588.127	10514.55
588.487	10452.41
588.846	10490.6
589.206	10360.43
589.565	10414.67
589.925	10487.89
590.284	10418.51
590.643	10379.19
591.003	10401.34
591.362	10484.05
591.721	10445.4
592.08	10409.25
592.44	10363.82
592.799	10370.83
593.158	10408.57
593.517	10370.38
593.876	10388.91
594.235	10293.09
594.593	10363.6
594.952	10371.96
595.311	10262.13
595.67	10333.77
596.029	10296.25
596.387	10362.02
596.746	10333.32
597.104	10258.74
597.463	10302.36
597.822	10296.71
598.18	10264.39
598.538	10241.34
598.897	10248.57
599.255	10221.23
599.613	10303.26
599.972	10263.94
600.33	10346.42
600.688	10273.2
601.046	10208.8
601.404	10321.79
601.762	10265.97
602.12	10330.83
602.478	10305.29
602.836	10256.26
603.194	10243.6
603.552	10167.44
603.91	10200.21
604.268	10231.17
604.625	10204.05
604.983	10314.33
605.341	10251.06
605.698	10234.34
606.056	10320.43
606.413	10232.53
606.771	10236.37
607.128	10254.9
607.485	10250.61
607.843	10279.08
608.2	10285.86
608.557	10254
608.914	10250.15
609.272	10257.16
609.629	10285.41
609.986	10388
610.343	10311.4
610.7	10280.66
611.057	10302.58
611.414	10312.53
611.771	10265.07
612.127	10381
612.484	10369.47
612.841	10369.7
613.198	10341.45
613.554	10381.22
613.911	10425.74
614.267	10398.85
614.624	10404.95
614.98	10402.92
615.337	10411.51
615.693	10433.43
616.05	10362.92
616.406	10408.12
616.762	10438.62
617.118	10443.37
617.475	10476.81
617.831	10430.94
618.187	10488.34
618.543	10448.79
618.899	10600.43
619.255	10496.7
619.611	10499.41
619.967	10523.37
620.323	10615.34
620.678	10489.92
621.034	10459.19
621.39	10477.94
621.746	10484.72
622.101	10588.22
622.457	10480.88
622.812	10516.14
623.168	10469.36
623.523	10511.39
623.879	10531.95
624.234	10530.15
624.589	10515.68
624.945	10538.96
625.3	10592.74
625.655	10556.13
626.01	10503.48
626.365	10485.63
626.72	10460.77
627.075	10403.6
627.43	10505.06
627.785	10423.48
628.14	10404.05
628.495	10472.97
628.85	10446.31
629.205	10454.89
629.559	10519.3
629.914	10428
630.269	10422.13
630.623	10376.48
630.978	10372.18
631.332	10418.06
631.687	10396.14
632.041	10372.41
632.396	10350.26
632.75	10337.61
633.104	10416.7
633.459	10322.24
633.813	10359.76
634.167	10265.52
634.521	10332.86
634.875	10371.28
635.229	10334.67
635.583	10299.64
635.937	10267.33
636.291	10262.81
636.645	10310.04
636.999	10276.59
637.352	10273.43
637.706	10224.17
638.06	10243.6
638.413	10192.75
638.767	10199.76
639.121	10184.17
639.474	10152.3
639.828	10101.23
640.181	10124.06
640.534	10127.9
640.888	10105.07
641.241	10072.53
641.594	10014.23
641.947	10150.5
642.301	10094.9
642.654	10090.38
643.007	10070.27
643.36	10063.27
643.713	10045.87
644.066	10060.33
644.419	9978.07
644.771	10026.66
645.124	9880.22
645.477	9883.16
645.83	9879.54
646.182	9785.76
646.535	9772.43
646.888	9756.83
647.24	9687.68
647.593	9764.74
647.945	9713.67
648.298	9731.75
648.65	9706.67
649.002	9673.45
649.355	9758.19
649.707	9747.34
650.059	9792.09
650.411	9873.44
650.763	9880.67
651.115	9974
651.467	10026.66
651.819	9937.39
652.171	9991.4
652.523	9954.34
652.875	9959.31
653.227	9844.74
653.578	9961.57
653.93	9956.83
654.282	9925.64
654.633	9910.05
654.985	10029.6
655.337	9997.05
655.688	9932.65
656.039	10027.11
656.391	9906.43
656.742	9980.33
657.094	9932.2
657.445	9988.01
657.796	10052.42
658.147	9938.75
658.498	9916.6
658.849	9983.27
659.2	10002.93
659.551	9928.58
659.902	9985.08
660.253	9935.13
660.604	9970.16
660.955	9947.56
661.306	9931.97
661.656	10008.58
662.007	9965.87
662.358	9980.78
662.708	9998.41
663.059	9972.2
663.409	9913.44
663.76	9998.64
664.11	10066.43
664.461	10051.97
664.811	10042.7
665.161	10030.72
665.511	10048.35
665.862	10029.82
666.212	10087.9
666.562	10049.48
666.912	10012.87
667.262	10074.57
667.612	10064.4
667.962	10021.46
668.312	10013.78
668.662	10119.99
669.011	10036.83
669.361	9971.74
669.711	10052.87
670.06	10029.6
670.41	10048.8
670.76	9934.68
671.109	10049.48
671.459	10024.4
671.808	10053.32
672.157	9997.73
672.507	9879.77
672.856	9910.73
673.205	10025.98
673.554	10032.98
673.904	9944.85
674.253	9995.02
674.602	9941.69
674.951	9827.79
675.3	9795.02
675.649	9889.03
675.998	9873.44
676.346	9896.72
676.695	9860.11
677.044	9800.9
677.393	9849.03
677.741	9888.58
678.09	9815.14
678.438	9777.62
678.787	9791.86
679.135	9827.57
679.484	9791.18
679.832	9743.73
680.181	9688.36
680.529	9791.18
680.877	9717.51
681.225	9710.96
681.573	9684.52
681.922	9628.02
682.27	9720
682.618	9665.31
682.966	9601.81
683.314	9585.09
683.661	9639.1
684.009	9516.61
684.357	9549.16
684.705	9468.93
685.053	9590.96
685.4	9465.99
685.748	9412.44
686.095	9454.24
686.443	9462.38
686.79	9404.3
687.138	9466.45
687.485	9426.9
687.832	9367.01
688.18	9361.14
688.527	9268.03
688.874	9320.01
689.221	9273.46
689.568	9207.47
689.915	9218.77
690.262	9186.91
690.609	9144.65
690.956	9065.78
691.303	9085.44
691.65	9132.22
691.997	9078.43
692.344	9061.26
692.69	8995.27
693.037	9006.8
693.383	8891.09
693.73	8968.61
694.077	8853.13
694.423	8861.26
694.769	8879.79
695.116	8824.88
695.462	8777.42
695.808	8777.2
696.155	8797.31
696.501	8681.38
696.847	8666.92
697.193	8550.76
697.539	8592.34
697.885	8545.57
698.231	8466.7
698.577	8498.56
698.923	8464.21
699.269	8429.86
699.614	8384.44
699.96	8330.43
700.306	8402.07
700.651	8326.81
700.997	8314.16
701.342	8303.09
701.688	8203.2
702.033	8163.43
702.379	8180.38
702.724	8189.42
703.069	8133.83
703.415	8063.09
703.76	8116.88
704.105	8009.99
704.45	8040.49
704.795	7936.77
705.14	7959.14
705.485	7975.19
705.83	7921.63
706.175	7852.25
706.52	7824
706.865	7817
707.209	7837.79
707.554	7835.75
707.899	7765.93
708.243	7756.43
708.588	7727.28
708.932	7699.26
709.277	7653.39
709.621	7626.27
709.966	7665.59
710.31	7616.78
710.654	7526.84
710.998	7544.01
711.342	7547.17
711.687	7512.15
712.031	7524.35
712.375	7459.04
712.719	7463.56
713.063	7430.57
713.407	7463.56
713.75	7439.15
714.094	7457.69
714.438	7385.37
714.782	7393.28
715.125	7337.24
715.469	7358.03
715.812	7327.29
716.156	7256.79
716.499	7275.54
716.843	7311.93
717.186	7229.44
717.53	7326.62
717.873	7279.38
718.216	7224.25
718.559	7209.33
718.902	7197.13
719.246	7272.38
719.589	7177.92
719.932	7156.9
720.275	7250.69
720.617	7126.39
720.96	7147.86
721.303	7157.35
721.646	7182.66
721.989	7109.45
722.331	7169.33
722.674	7094.3
723.016	7040.07
723.359	7157.35
723.701	7017.7
724.044	7069.9
724.386	7134.3
724.729	7100.63
725.071	7046.62
725.413	7138.82
725.755	7104.7
726.097	7031.03
726.439	7017.24
726.782	7026.06
727.124	7045.49
727.465	6954.87
727.807	7000.97
728.149	7024.93
728.491	7022.67
728.833	7079.84
729.175	7024.25
729.516	7030.8
729.858	6963.23
730.199	7026.96
730.541	6984.03
730.882	6976.79
731.224	7011.6
731.565	7042.1
731.906	7030.35
732.248	7018.83
732.589	6995.78
732.93	6969.34
733.271	7052.5
733.612	7007.98
733.953	6981.09
734.294	6949.45
734.635	7023.12
734.976	7052.95
735.317	6978.15
735.658	7003.91
735.999	6986.06
736.339	6951.94
736.68	7033.74
737.021	7064.25
737.361	7021.31
737.702	7076
738.042	7050.46
738.383	7031.26
738.723	7151.48
739.063	7018.83
739.404	7107.41
739.744	7142.89
740.084	7095.66
740.424	7087.3
740.764	7111.03
741.104	7208.43
741.444	7128.88
741.784	7137.02
742.124	7175.66
742.464	7232.83
742.804	7169.78
743.143	7181.99
743.483	7267.63
743.823	7183.12
744.162	7318.25
744.502	7328.65
744.841	7339.72
745.181	7407.52
745.52	7400.74
745.86	7397.8
746.199	7427.63
746.538	7463.79
746.877	7592.37
747.216	7626.95
747.556	7640.05
747.895	7704.01
748.234	7673.72
748.573	7785.36
748.911	7826.72
749.25	7901.52
749.589	7920.5
749.928	8024.68
750.267	8101.74
750.605	8111.91
750.944	8233.94
751.283	8280.26
751.621	8442.52
751.96	8507.83
752.298	8527.94
752.636	8654.04
752.975	8679.35
753.313	8791.89
753.651	8907.14
753.989	8978.1
754.327	9150.75
754.666	9138.77
755.004	9427.58
755.342	9524.3
755.679	9570.62
756.017	9734.24
756.355	9835.02
756.693	9900.33
757.031	10169.25
757.368	10186.88
757.706	10377.61
758.044	10587.55
758.381	10713.87
758.719	10799.74
759.056	10947.31
759.394	11163.58
759.731	11314.53
760.068	11431.59
760.405	11593.62
760.743	11620.06
761.08	11943.67
761.417	11967.62
761.754	12295.75
