Data from hue_250_FLMS001491_00042.txt Node
Date: Tue Feb 07 16:01:01 GMT 2017
User: dcchb
Spectrometer: FLMS00149
Trigger mode: 0
Integration Time (sec): 2.000000E-2
Scans to average: 10
Electric dark correction enabled: true
Nonlinearity correction enabled: false
Boxcar width: 0
XAxis mode: Wavelengths
Number of Pixels in Spectrum: 2048
>>>>>Begin Spectral Data<<<<<
341.393	-6.33
341.776	-6.33
342.16	-6.33
342.543	-40.45
342.927	-97.17
343.31	-69.38
343.693	-76.38
344.077	-65.31
344.46	-42.94
344.843	-54.46
345.226	-38.87
345.61	-22.6
345.993	-34.8
346.376	9.94
346.759	0.68
347.142	23.5
347.525	41.58
347.908	58.76
348.291	55.82
348.674	96.72
349.057	117.74
349.44	125.19
349.823	143.73
350.206	155.7
350.588	195.25
350.971	182.82
351.354	222.59
351.737	223.95
352.119	243.38
352.502	262.82
352.884	276.38
353.267	264.63
353.65	292.2
354.032	285.19
354.414	311.18
354.797	316.83
355.179	310.27
355.562	302.36
355.944	310.05
356.326	320.67
356.709	310.27
357.091	343.49
357.473	339.2
357.855	315.7
358.238	347.56
358.62	339.43
359.002	331.74
359.384	348.24
359.766	316.38
360.148	326.55
360.53	335.81
360.912	307.79
361.294	322.25
361.676	311.86
362.057	305.08
362.439	306.66
362.821	319.54
363.203	318.41
363.584	317.05
363.966	304.85
364.348	310.5
364.729	294.68
365.111	308.47
365.493	317.73
365.874	306.88
366.256	310.05
366.637	328.58
367.019	307.11
367.4	310.73
367.781	303.04
368.163	330.39
368.544	317.96
368.925	286.32
369.306	291.52
369.688	307.56
370.069	283.38
370.45	308.24
370.831	281.35
371.212	298.75
371.593	314.34
371.974	301.01
372.355	302.59
372.736	308.47
373.117	311.63
373.498	316.83
373.879	310.05
374.26	295.13
374.641	312.99
375.021	314.57
375.402	313.89
375.783	317.96
376.163	316.15
376.544	312.53
376.925	349.82
377.305	322.25
377.686	330.39
378.066	316.83
378.447	324.29
378.827	325.87
379.208	336.26
379.588	312.31
379.968	346.43
380.349	326.09
380.729	336.04
381.109	328.13
381.489	307.56
381.87	319.31
382.25	322.93
382.63	343.27
383.01	325.19
383.39	330.39
383.77	345.08
384.15	333.1
384.53	342.36
384.91	328.58
385.29	346.43
385.67	369.93
386.049	344.62
386.429	345.75
386.809	371.29
387.189	361.12
387.568	360.22
387.948	358.18
388.328	332.42
388.707	350.5
389.087	346.88
389.466	361.35
389.846	352.08
390.225	352.08
390.605	364.51
390.984	370.16
391.363	352.53
391.743	371.29
392.122	370.61
392.501	364.51
392.881	363.15
393.26	370.39
393.639	384.85
394.018	367
394.397	363.61
394.776	380.78
395.155	385.07
395.534	380.78
395.913	385.98
396.292	363.38
396.671	387.11
397.05	392.08
397.429	393.66
397.808	373.32
398.186	376.26
398.565	397.05
398.944	400.89
399.323	400.89
399.701	390.5
400.08	408.58
400.458	406.77
400.837	406.54
401.215	420.33
401.594	415.13
401.972	409.93
402.351	407.9
402.729	412.64
403.107	434.79
403.486	427.56
403.864	439.76
404.242	419.2
404.62	441.57
404.999	442.93
405.377	437.28
405.755	434.34
406.133	439.99
406.511	431.63
406.889	462.59
407.267	485.41
407.645	481.57
408.023	453.1
408.401	447.9
408.779	484.51
409.156	476.6
409.534	485.86
409.912	492.87
410.29	522.25
410.667	515.92
411.045	505.98
411.422	516.14
411.8	517.27
412.178	519.76
412.555	543.49
412.933	542.81
413.31	543.26
413.687	555.47
414.065	563.15
414.442	544.84
414.819	575.58
415.197	576.03
415.574	608.12
415.951	581
416.328	597.05
416.705	601.11
417.082	609.93
417.46	639.08
417.837	613.77
418.214	629.36
418.591	651.28
418.967	637.05
419.344	644.5
419.721	639.31
420.098	665.75
420.475	659.19
420.852	683.6
421.228	675.46
421.605	673.43
421.982	687.21
422.358	722.24
422.735	749.13
423.111	722.01
423.488	739.19
423.864	761.56
424.241	773.31
424.617	749.13
424.994	762.69
425.37	751.62
425.746	777.83
426.123	790.94
426.499	805.85
426.875	809.92
427.251	842.24
427.627	831.84
428.003	831.39
428.379	850.83
428.756	871.16
429.132	860.09
429.507	917.72
429.883	909.13
430.259	904.83
430.635	934.89
431.011	943.93
431.387	936.47
431.763	953.87
432.138	927.21
432.514	988.22
432.89	1005.62
433.265	989.13
433.641	992.97
434.016	1031.16
434.392	1037.94
434.767	1062.57
435.143	1069.35
435.518	1092.63
435.894	1107.54
436.269	1101.21
436.644	1171.04
437.02	1140.76
437.395	1155
437.77	1173.3
438.145	1208.56
438.52	1199.97
438.895	1218.95
439.271	1235.67
439.646	1268.22
440.021	1251.94
440.395	1269.12
440.77	1277.03
441.145	1284.71
441.52	1329.23
441.895	1330.81
442.27	1360.64
442.645	1316.58
443.019	1336.91
443.394	1344.37
443.769	1363.13
444.143	1385.5
444.518	1386.4
444.892	1402.67
445.267	1437.48
445.641	1433.18
446.016	1481.99
446.39	1481.09
446.764	1428.89
447.139	1491.49
447.513	1480.19
447.887	1535.33
448.262	1501.43
448.636	1504.14
449.01	1500.75
449.384	1522.9
449.758	1541.65
450.132	1566.51
450.506	1558.83
450.88	1576.91
451.254	1581.2
451.628	1630.24
452.002	1617.13
452.376	1613.29
452.75	1650.13
453.123	1649.9
453.497	1687.19
453.871	1696.45
454.244	1725.83
454.618	1717.24
454.992	1745.72
455.365	1728.32
455.739	1781.2
456.112	1832.04
456.486	1820.07
456.859	1830.01
457.232	1844.7
457.606	1848.76
457.979	1882.89
458.352	1954.52
458.725	1939.61
459.099	1952.94
459.472	1962.66
459.845	1991.81
460.218	2000.4
460.591	2039.72
460.964	2008.99
461.337	2083.34
461.71	2145.25
462.083	2137.57
462.456	2113.84
462.829	2150.68
463.201	2169.89
463.574	2175.54
463.947	2214.86
464.32	2262.54
464.692	2267.96
465.065	2291.01
465.438	2286.49
465.81	2358.58
466.183	2379.15
466.555	2418.47
466.928	2422.08
467.3	2454.62
467.672	2452.36
468.045	2510.44
468.417	2540.95
468.789	2527.17
469.161	2573.49
469.534	2580.05
469.906	2614.85
470.278	2647.39
470.65	2680.38
471.022	2705.92
471.394	2762.19
471.766	2792.47
472.138	2877.66
472.51	2875.86
472.882	2902.3
473.253	2890.55
473.625	3010.54
473.997	3053.71
474.369	3051.67
474.74	3042.18
475.112	3116.53
475.484	3139.35
475.855	3208.5
476.227	3220.03
476.598	3323.75
476.97	3291.44
477.341	3381.83
477.713	3425.22
478.084	3451.66
478.455	3517.42
478.827	3552.45
479.198	3647.59
479.569	3650.98
479.94	3739.11
480.311	3761.26
480.682	3847.36
481.053	3903.63
481.424	3990.63
481.795	4003.06
482.166	4054.13
482.537	4111.76
482.908	4144.98
483.279	4179.33
483.65	4277.85
484.021	4320.34
484.391	4374.57
484.762	4364.63
485.133	4438.53
485.503	4461.8
485.874	4599.88
486.244	4599.43
486.615	4709.48
486.985	4687.11
487.356	4796.48
487.726	4837.16
488.097	4913.32
488.467	4858.4
488.837	5054.56
489.207	5032.18
489.578	5135.46
489.948	5214.1
490.318	5244.61
490.688	5224.72
491.058	5314.21
491.428	5352.18
491.798	5363.25
492.168	5484.6
492.538	5503.13
492.908	5556.92
493.278	5623.13
493.648	5606.63
494.017	5701.77
494.387	5754.42
494.757	5777.48
495.126	5815.89
495.496	5837.59
495.866	5854.99
496.235	5920.52
496.605	5941.54
496.974	5944.7
497.344	6003.91
497.713	6058.15
498.082	6101.99
498.452	6186.5
498.821	6215.2
499.19	6154.19
499.559	6234.86
499.928	6204.36
500.298	6295.43
500.667	6270.57
501.036	6263.56
501.405	6360.74
501.774	6353.73
502.143	6433.96
502.512	6391.02
502.88	6481.19
503.249	6431.7
503.618	6491.13
503.987	6558.25
504.356	6568.64
504.724	6586.49
505.093	6607.51
505.462	6646.38
505.83	6634.85
506.199	6709.88
506.567	6703.1
506.936	6699.71
507.304	6789.2
507.672	6852.25
508.041	6824.68
508.409	6859.71
508.777	6897.9
509.145	6917.33
509.514	6972.7
509.882	6975.64
510.25	6928.63
510.618	7019.02
510.986	6975.18
511.354	7051.57
511.722	7077.55
512.09	7104.67
512.458	7099.47
512.826	7151.45
513.193	7118.46
513.561	7108.51
513.929	7207.95
514.297	7292.69
514.664	7290.88
515.032	7240.71
515.4	7336.53
515.767	7302.86
516.135	7338.79
516.502	7307.38
516.869	7376.53
517.237	7439.8
517.604	7363.87
517.972	7441.16
518.339	7462.4
518.706	7406.13
519.073	7525.23
519.44	7457.43
519.808	7568.39
520.175	7487.94
520.542	7622.4
520.909	7583.3
521.276	7610.42
521.643	7701.94
522.009	7694.71
522.376	7691.78
522.743	7739.23
523.11	7748.27
523.477	7828.49
523.843	7736.97
524.21	7822.62
524.577	7832.79
524.943	7885.89
525.31	7904.65
525.676	7959.11
526.043	7917.08
526.409	7980.36
526.776	7986
527.142	7981.26
527.508	8044.53
527.874	8072.1
528.241	8067.81
528.607	8077.98
528.973	8145.77
529.339	8132.22
529.705	8173.8
530.071	8193
530.437	8252.44
530.803	8195.72
531.169	8232.33
531.535	8230.07
531.901	8274.13
532.267	8250.86
532.632	8294.7
532.998	8265.77
533.364	8310.52
533.73	8284.75
534.095	8317.97
534.461	8271.19
534.826	8310.06
535.192	8344.19
535.557	8326.11
535.923	8343.51
536.288	8316.84
536.653	8360.91
537.019	8289.5
537.384	8310.97
537.749	8362.27
538.114	8320.01
538.479	8331.98
538.845	8321.82
539.21	8290.86
539.575	8320.01
539.94	8385.54
540.305	8368.59
540.67	8297.18
541.034	8338.54
541.399	8414.24
541.764	8283.17
542.129	8355.26
542.494	8369.05
542.858	8379.89
543.223	8351.87
543.587	8320.91
543.952	8334.24
544.316	8323.17
544.681	8360.01
545.045	8323.62
545.41	8399.78
545.774	8280.46
546.138	8413.11
546.503	8278.88
546.867	8317.3
547.231	8406.33
547.595	8355.26
547.959	8314.36
548.324	8286.34
548.688	8317.75
549.052	8388.93
549.416	8309.84
549.779	8327.01
550.143	8323.4
550.507	8353.68
550.871	8376.73
551.235	8360.68
551.599	8387.8
551.962	8385.77
552.326	8351.19
552.689	8370.18
553.053	8361.59
553.417	8329.05
553.78	8349.16
554.143	8372.66
554.507	8321.36
554.87	8385.09
555.234	8435.03
555.597	8439.1
555.96	8445.65
556.323	8482.26
556.686	8431.87
557.05	8481.13
557.413	8435.48
557.776	8480.45
558.139	8535.82
558.502	8542.15
558.865	8528.14
559.228	8535.59
559.59	8569.94
559.953	8588.25
560.316	8615.37
560.679	8566.55
561.041	8613.33
561.404	8647
561.767	8715.03
562.129	8667.57
562.492	8720.67
562.854	8771.52
563.217	8744.18
563.579	8712.31
563.941	8773.55
564.304	8763.84
564.666	8915.47
565.028	8855.13
565.39	8860.56
565.753	8915.7
566.115	8938.52
566.477	8976.49
566.839	8964.51
567.201	8996.6
567.563	8991.63
567.925	9074.56
568.287	9033.66
568.648	9023.72
569.01	9086.54
569.372	9143.26
569.734	9165.63
570.095	9165.41
570.457	9216.03
570.819	9217.84
571.18	9284.05
571.542	9241.11
571.903	9218.51
572.265	9289.47
572.626	9331.05
572.987	9389.81
573.349	9385.06
573.71	9403.82
574.071	9409.7
574.432	9524.95
574.794	9513.87
575.155	9487.43
575.516	9478.85
575.877	9512.74
576.238	9570.37
576.599	9560.43
576.96	9562.91
577.32	9559.3
577.681	9630.93
578.042	9662.34
578.403	9613.76
578.763	9688.11
579.124	9655.57
579.485	9685.4
579.845	9787.09
580.206	9727.65
580.566	9774.66
580.927	9739.4
581.287	9789.8
581.648	9793.19
582.008	9892.62
582.368	9869.35
582.728	9848.55
583.089	9806.3
583.449	9805.84
583.809	9880.19
584.169	9926.74
584.529	9900.98
584.889	10000.64
585.249	9925.39
585.609	9916.12
585.969	9945.95
586.329	9968.33
586.688	10003.58
587.048	9983.01
587.408	9914.09
587.768	9978.49
588.127	10037.93
588.487	9997.25
588.846	10098.49
589.206	10000.42
589.565	10039.06
589.925	10180.98
590.284	10099.62
590.643	10117.47
591.003	10147.08
591.362	10158.6
591.721	10146.17
592.08	10150.02
592.44	10201.99
592.799	10250.35
593.158	10276.79
593.517	10187.98
593.876	10234.31
594.235	10240.63
594.593	10145.5
594.952	10258.26
595.311	10217.58
595.67	10292.84
596.029	10298.26
596.387	10280.86
596.746	10385.04
597.104	10294.87
597.463	10250.35
597.822	10362.44
598.18	10255.78
598.538	10245.83
598.897	10365.38
599.255	10259.39
599.613	10382.78
599.972	10319.5
600.33	10340.07
600.688	10359.73
601.046	10385.94
601.404	10375.32
601.762	10408.99
602.12	10340.52
602.478	10375.77
602.836	10478.37
603.194	10311.14
603.552	10393.4
603.91	10331.25
604.268	10362.67
604.625	10372.61
604.983	10437.92
605.341	10391.37
605.698	10490.12
606.056	10486.73
606.413	10378.03
606.771	10429.33
607.128	10497.35
607.485	10439.95
607.843	10535.09
608.2	10529.21
608.557	10567.41
608.914	10501.87
609.272	10501.87
609.629	10561.53
609.986	10545.03
610.343	10546.16
610.7	10605.14
611.057	10643.79
611.414	10551.14
611.771	10616.44
612.127	10652.38
612.484	10612.15
612.841	10633.84
613.198	10606.5
613.554	10585.03
613.911	10734.63
614.267	10670.68
614.624	10583.9
614.98	10746.16
615.337	10732.37
615.693	10699.83
616.05	10741.19
616.406	10787.96
616.762	10760.17
617.118	10708.19
617.475	10707.06
617.831	10790
618.187	10720.62
618.543	10763.78
618.899	10746.61
619.255	10808.76
619.611	10793.39
619.967	10853.5
620.323	10859.83
620.678	10791.81
621.034	10768.76
621.39	10758.59
621.746	10796.55
622.101	10924.46
622.457	10784.12
622.812	10812.6
623.168	10844.23
623.523	10853.73
623.879	10817.34
624.234	10766.27
624.589	10780.06
624.945	10846.72
625.3	10771.24
625.655	10808.76
626.01	10827.51
626.365	10871.8
626.72	10861.18
627.075	10834.97
627.43	10799.04
627.785	10828.87
628.14	10744.58
628.495	10745.25
628.85	10829.32
629.205	10676.33
629.559	10861.41
629.914	10662.09
630.269	10807.17
630.623	10794.52
630.978	10671.13
631.332	10705.71
631.687	10758.81
632.041	10708.64
632.396	10679.04
632.75	10750
633.104	10662.32
633.459	10645.82
633.813	10599.72
634.167	10607.86
634.521	10528.08
634.875	10603.79
635.229	10623.45
635.583	10576.22
635.937	10603.56
636.291	10629.78
636.645	10491.48
636.999	10532.6
637.352	10541.64
637.706	10507.29
638.06	10508.42
638.413	10515.43
638.767	10486.5
639.121	10477.24
639.474	10382.55
639.828	10462.1
640.181	10438.14
640.534	10509.33
640.888	10380.52
641.241	10337.13
641.594	10360.63
641.947	10366.96
642.301	10392.27
642.654	10354.98
643.007	10353.85
643.36	10346.17
643.713	10314.08
644.066	10336.45
644.419	10299.16
644.771	10260.52
645.124	10107.76
645.477	10145.27
645.83	10053.29
646.182	10037.7
646.535	10006.97
646.888	9931.94
647.24	9818.05
647.593	10025.5
647.945	9884.71
648.298	9949.79
648.65	9900.53
649.002	9899.17
649.355	9949.57
649.707	9949.12
650.059	9968.55
650.411	10084.93
650.763	10117.7
651.115	10231.14
651.467	10117.47
651.819	10192.5
652.171	10211.26
652.523	10160.41
652.875	10148.43
653.227	10030.24
653.578	10086.74
653.93	10111.37
654.282	10104.59
654.633	10109.79
654.985	10076.12
655.337	10100.53
655.688	10064.14
656.039	10116.12
656.391	10096.68
656.742	10059.4
657.094	10065.05
657.445	10149.56
657.796	10108.89
658.147	10083.58
658.498	10078.83
658.849	10092.84
659.2	10082.9
659.551	10090.36
659.902	10124.48
660.253	10036.35
660.604	10115.21
660.955	10001.32
661.306	10078.83
661.656	10096.46
662.007	10026.18
662.358	10062.56
662.708	10086.97
663.059	10023.24
663.409	9984.82
663.76	10085.84
664.11	10173.52
664.461	10147.3
664.811	10082.9
665.161	10069.79
665.511	10056.46
665.862	10091.03
666.212	10161.31
666.562	10069.11
666.912	10062.33
667.262	10078.15
667.612	10050.36
667.962	10020.98
668.312	10087.87
668.662	10065.5
669.011	9994.31
669.361	9983.24
669.711	10046.29
670.06	10011.49
670.41	10003.35
670.76	9971.04
671.109	10098.27
671.459	10028.44
671.808	9965.61
672.157	9976.46
672.507	9995.44
672.856	9957.93
673.205	9977.59
673.554	9965.39
673.904	9975.1
674.253	10027.31
674.602	9963.81
674.951	9854.2
675.3	9769.91
675.649	9919.97
675.998	9925.84
676.346	9875.22
676.695	9916.58
677.044	9840.42
677.393	9891.94
677.741	9875.9
678.09	9799.29
678.438	9841.78
678.787	9830.7
679.135	9848.55
679.484	9768.33
679.832	9767.65
680.181	9702.8
680.529	9814.88
680.877	9681.78
681.225	9745.05
681.573	9787.31
681.922	9672.97
682.27	9736.02
682.618	9654.21
682.966	9662.8
683.314	9721.78
683.661	9599.97
684.009	9620.99
684.357	9537.15
684.705	9581.67
685.053	9512.07
685.4	9563.14
685.748	9463.71
686.095	9520.2
686.443	9418.51
686.79	9485.4
687.138	9395.69
687.485	9369.92
687.832	9407.44
688.18	9403.59
688.527	9354.33
688.874	9346.42
689.221	9277.04
689.568	9283.6
689.915	9323.14
690.262	9303.48
690.609	9297.61
690.956	9177.84
691.303	9188.46
691.65	9188.23
691.997	9139.42
692.344	9079.76
692.69	9084.51
693.037	9079.31
693.383	9000.44
693.73	9038.41
694.077	8880.22
694.423	8880.67
694.769	8887.22
695.116	8870.95
695.462	8855.59
695.808	8764.29
696.155	8820.79
696.501	8720.67
696.847	8740.11
697.193	8672.09
697.539	8689.72
697.885	8651.3
698.231	8633.45
698.577	8647.23
698.923	8649.04
699.269	8539.44
699.614	8520.91
699.96	8472.77
700.306	8474.58
700.651	8444.52
700.997	8387.8
701.342	8327.01
701.688	8354.81
702.033	8359.55
702.379	8280.23
702.724	8329.95
703.069	8278.88
703.415	8183.29
703.76	8200.01
704.105	8194.81
704.45	8127.02
704.795	8101.03
705.14	8061.03
705.485	8092.22
705.83	8038.88
706.175	7991.65
706.52	7969.51
706.865	7955.05
707.209	7956.17
707.554	7909.4
707.899	7967.02
708.243	7864.65
708.588	7857.42
708.932	7835.95
709.277	7831.43
709.621	7854.03
709.966	7819.68
710.31	7742.62
710.654	7690.87
710.998	7779
711.342	7759.12
711.687	7655.39
712.031	7679.12
712.375	7739.91
712.719	7718.22
713.063	7670.31
713.407	7666.01
713.75	7604.55
714.094	7633.47
714.438	7589.63
714.782	7572.46
715.125	7472.8
715.469	7600.93
715.812	7531.78
716.156	7433.48
716.499	7442.52
716.843	7429.18
717.186	7397.09
717.53	7532.01
717.873	7383.53
718.216	7424.44
718.559	7377.89
718.902	7355.51
719.246	7324.78
719.589	7367.94
719.932	7341.05
720.275	7302.41
720.617	7317.1
720.96	7290.88
721.303	7365.46
721.646	7272.35
721.989	7248.17
722.331	7260.37
722.674	7218.12
723.016	7254.05
723.359	7144.22
723.701	7231.9
724.044	7178.79
724.386	7141.96
724.729	7196.87
725.071	7240.94
725.413	7193.03
725.755	7226.7
726.097	7115.29
726.439	7085.46
726.782	7159.36
727.124	7143.32
727.465	7150.09
727.807	7124.11
728.149	7115.52
728.491	7099.93
728.833	7137.67
729.175	7084.56
729.516	7045.01
729.858	7047.72
730.199	7107.16
730.541	7074.62
730.882	7077.33
731.224	7064
731.565	7070.77
731.906	7117.1
732.248	7102.86
732.589	7053.6
732.93	7043.88
733.271	7012.7
733.612	7033.04
733.953	7049.76
734.294	7042.98
734.635	7009.99
734.976	7044.79
735.317	6994.17
735.658	6990.32
735.999	7029.42
736.339	7039.81
736.68	7036.43
737.021	7045.92
737.361	6979.25
737.702	7014.5
738.042	6979.48
738.383	6980.83
738.723	7026.48
739.063	6979.48
739.404	7077.33
739.744	7037.1
740.084	7020.38
740.424	7052.02
740.764	7070.77
741.104	7060.38
741.444	7041.62
741.784	7014.5
742.124	7084.11
742.464	7120.26
742.804	7111.68
743.143	7110.1
743.483	7087.72
743.823	7085.01
744.162	7108.51
744.502	7167.95
744.841	7132.47
745.181	7185.12
745.52	7182.18
745.86	7221.73
746.199	7214.5
746.538	7179.47
746.877	7185.57
747.216	7320.26
747.556	7280.03
747.895	7346.25
748.234	7289.53
748.573	7375.4
748.911	7402.29
749.25	7454.49
749.589	7433.25
749.928	7510.76
750.267	7572.23
750.605	7609.97
750.944	7718.22
751.283	7696.52
751.621	7762.73
751.96	7791.66
752.298	7863.3
752.636	7886.57
752.975	7913.69
753.313	8033.01
753.651	8043.18
753.989	8150.75
754.327	8239.33
754.666	8242.95
755.004	8307.35
755.342	8435.71
755.679	8507.35
756.017	8567.91
756.355	8655.59
756.693	8697.17
757.031	8839.09
757.368	8856.72
757.706	8952.76
758.044	9075.92
758.381	9124.73
758.719	9259.87
759.056	9384.16
759.394	9400.2
759.731	9505.29
760.068	9591.61
760.405	9725.39
760.743	9765.84
761.08	9845.84
761.417	9952.96
761.754	10024.37
762.091	10157.02
762.428	10207.42
762.765	10240.41
763.102	10481.98
763.438	10508.88
763.775	10520.63
764.112	10682.66
764.449	10771.69
764.785	10840.84
765.122	10962.2
