Data from hue_34_FLMS001491_00061.txt Node
Date: Tue Feb 07 17:25:57 GMT 2017
User: dcchb
Spectrometer: FLMS00149
Trigger mode: 0
Integration Time (sec): 2.000000E-2
Scans to average: 10
Electric dark correction enabled: true
Nonlinearity correction enabled: false
Boxcar width: 0
XAxis mode: Wavelengths
Number of Pixels in Spectrum: 2048
>>>>>Begin Spectral Data<<<<<
341.393	-8.39
341.776	-8.39
342.16	-8.39
342.543	-54.94
342.927	-66.02
343.31	-90.65
343.693	-76.41
344.077	-64.21
344.46	-43.19
344.843	-50.42
345.226	-40.25
345.61	-26.69
345.993	-24.66
346.376	-21.72
346.759	7.66
347.142	32.29
347.525	45.39
347.908	83.13
348.291	80.65
348.674	77.94
349.057	111.16
349.44	114.77
349.823	138.05
350.206	187.31
350.588	184.83
350.971	201.77
351.354	231.38
351.737	267.76
352.119	239.51
352.502	276.35
352.884	267.31
353.267	284.26
353.65	304.37
354.032	311.83
354.414	343.69
354.797	326.97
355.179	323.81
355.562	310.7
355.944	335.33
356.326	331.94
356.709	339.62
357.091	324.71
357.473	322.45
357.855	356.12
358.238	365.39
358.62	353.86
359.002	355.89
359.384	322.45
359.766	329.91
360.148	344.82
360.53	332.62
360.912	327.65
361.294	345.95
361.676	333.75
362.057	324.71
362.439	333.07
362.821	342.56
363.203	326.97
363.584	330.36
363.966	318.38
364.348	316.8
364.729	333.75
365.111	322
365.493	319.96
365.874	323.81
366.256	300.53
366.637	328.32
367.019	307.31
367.4	300.08
367.781	330.58
368.163	314.31
368.544	331.71
368.925	319.96
369.306	336.91
369.688	312.73
370.069	327.19
370.45	305.95
370.831	300.98
371.212	308.21
371.593	326.06
371.974	303.01
372.355	329
372.736	316.35
373.117	318.16
373.498	305.27
373.879	291.72
374.26	326.06
374.641	324.03
375.021	322.22
375.402	319.06
375.783	309.34
376.163	329.68
376.544	335.33
376.925	336.46
377.305	336.23
377.686	326.06
378.066	331.94
378.447	356.35
378.827	352.05
379.208	345.05
379.588	349.12
379.968	338.95
380.349	329.45
380.729	348.66
381.109	331.26
381.489	339.4
381.87	336.69
382.25	345.27
382.63	342.56
383.01	347.53
383.39	338.04
383.77	340.3
384.15	348.44
384.53	369.68
384.91	349.12
385.29	351.37
385.67	331.26
386.049	340.75
386.429	366.29
386.809	346.18
387.189	352.05
387.568	342.79
387.948	360.87
388.328	369
388.707	375.56
389.087	367.65
389.466	388.89
389.846	378.49
390.225	367.42
390.605	359.06
390.984	368.55
391.363	365.84
391.743	376.23
392.122	367.65
392.501	378.94
392.881	374.43
393.26	379.62
393.639	366.52
394.018	378.49
394.397	385.95
394.776	378.04
395.155	387.98
395.534	381.2
395.913	378.04
396.292	380.53
396.671	392.28
397.05	406.29
397.429	398.83
397.808	384.37
398.186	395.44
398.565	385.05
398.944	382.56
399.323	390.24
399.701	399.06
400.08	392.96
400.458	394.76
400.837	416.46
401.215	415.55
401.594	418.94
401.972	394.99
402.351	389.79
402.729	409.68
403.107	405.38
403.486	430.92
403.864	430.24
404.242	411.03
404.62	418.04
404.999	425.27
405.377	416.68
405.755	419.85
406.133	403.58
406.511	428.66
406.889	448.32
407.267	429.11
407.645	437.93
408.023	434.99
408.401	438.15
408.779	451.26
409.156	442.9
409.534	452.16
409.912	453.75
410.29	447.42
410.667	459.39
411.045	475.89
411.422	462.56
411.8	458.49
412.178	467.76
412.555	458.72
412.933	482.67
413.31	472.05
413.687	479.51
414.065	485.16
414.442	516.79
414.819	494.42
415.197	501.43
415.574	487.19
415.951	488.55
416.328	509.79
416.705	514.53
417.082	492.16
417.46	500.75
417.837	514.53
418.214	522.44
418.591	531.71
418.967	513.63
419.344	519.05
419.721	526.96
420.098	529
420.475	516.34
420.852	528.77
421.228	521.09
421.605	532.84
421.982	543.01
422.358	566.74
422.735	542.56
423.111	563.8
423.488	559.28
423.864	570.8
424.241	553.4
424.617	551.37
424.994	569
425.37	577.81
425.746	572.39
426.123	582.33
426.499	565.61
426.875	572.61
427.251	571.48
427.627	604.7
428.003	605.15
428.379	607.19
428.756	584.59
429.132	612.16
429.507	608.32
429.883	619.62
430.259	617.36
430.635	647.86
431.011	619.62
431.387	629.79
431.763	658.03
432.138	675.66
432.514	642.89
432.89	651.71
433.265	676.79
433.641	659.62
434.016	675.66
434.392	693.74
434.767	693.51
435.143	670.69
435.518	701.2
435.894	691.48
436.269	713.85
436.644	711.59
437.02	721.31
437.395	706.39
437.77	724.47
438.145	728.99
438.52	724.92
438.895	746.17
439.271	748.65
439.646	767.41
440.021	751.14
440.395	761.31
440.77	773.51
441.145	740.07
441.52	737.13
441.895	760.86
442.27	787.52
442.645	771.02
443.019	797.01
443.394	814.64
443.769	778.71
444.143	805.37
444.518	804.92
444.892	811.48
445.267	821.87
445.641	813.96
446.016	816.22
446.39	837.69
446.764	827.75
447.139	838.14
447.513	828.42
447.887	849.44
448.262	872.94
448.636	847.18
449.01	855.99
449.384	852.83
449.758	878.59
450.132	853.96
450.506	898.25
450.88	900.06
451.254	905.03
451.628	894.19
452.002	914.07
452.376	904.81
452.75	918.37
453.123	921.08
453.497	935.09
453.871	953.39
454.244	957.23
454.618	976.44
454.992	978.48
455.365	953.62
455.739	1021.87
456.112	1011.24
456.486	1025.26
456.859	1014.63
457.232	1030
457.606	1039.94
457.979	1045.37
458.352	1061.19
458.725	1054.86
459.099	1094.18
459.472	1097.12
459.845	1079.49
460.218	1125.59
460.591	1129.43
460.964	1129.43
461.337	1150.68
461.71	1153.16
462.083	1161.98
462.456	1173.05
462.829	1209.88
463.201	1214.4
463.574	1214.18
463.947	1216.66
464.32	1272.25
464.692	1253.27
465.065	1272.03
465.438	1288.98
465.81	1305.25
466.183	1289.66
466.555	1367.39
466.928	1347.05
467.3	1359.71
467.672	1360.39
468.045	1436.32
468.417	1414.17
468.789	1432.25
469.161	1442.65
469.534	1493.72
469.906	1508.18
470.278	1529.2
470.65	1565.13
471.022	1559.7
471.394	1607.84
471.766	1638.12
472.138	1634.05
472.51	1670.21
472.882	1700.72
473.253	1736.42
473.625	1760.6
473.997	1818
474.369	1828.85
474.74	1869.3
475.112	1911.79
475.484	1917.89
475.855	1953.37
476.227	2013.93
476.598	2052.8
476.97	2077.88
477.341	2129.86
477.713	2171.89
478.084	2219.8
478.455	2286.01
478.827	2325.11
479.198	2414.15
479.569	2434.03
479.94	2481.26
480.311	2537.31
480.682	2621.15
481.053	2663.4
481.424	2740.24
481.795	2785.66
482.166	2823.4
482.537	2857.3
482.908	2989.27
483.279	3048.48
483.65	3132.32
484.021	3215.48
484.391	3285.54
484.762	3311.52
485.133	3422.25
485.503	3446.21
485.874	3555.58
486.244	3629.03
486.615	3721.91
486.985	3800.78
487.356	3905.63
487.726	3972.75
488.097	4091.16
488.467	4143.14
488.837	4246.41
489.207	4334.1
489.578	4379.74
489.948	4508.1
490.318	4573.18
490.688	4686.18
491.058	4764.59
491.428	4880.52
491.798	4920.97
492.168	5056.11
492.538	5162.77
492.908	5229.21
493.278	5323.22
493.648	5367.97
494.017	5474.86
494.387	5556.44
494.757	5558.47
495.126	5697.45
495.496	5770.89
495.866	5844.11
496.235	5937.89
496.605	6052.69
496.974	6089.76
497.344	6200.49
497.713	6255.17
498.082	6289.3
498.452	6359.8
498.821	6437.99
499.19	6469.86
499.559	6617.88
499.928	6660.14
500.298	6722.28
500.667	6870.3
501.036	6866.91
501.405	6946
501.774	6995.72
502.143	7059.22
502.512	7191.87
502.88	7194.81
503.249	7254.02
503.618	7278.88
503.987	7420.12
504.356	7404.75
504.724	7506.22
505.093	7532.43
505.462	7569.26
505.83	7585.99
506.199	7670.28
506.567	7773.78
506.936	7924.74
507.304	7945.53
507.672	7953.43
508.041	7975.36
508.409	8071.62
508.777	8119.08
509.145	8213.54
509.514	8332.18
509.882	8322.46
510.25	8388.9
510.618	8408.56
510.986	8425.51
511.354	8559.97
511.722	8626.64
512.09	8692.17
512.458	8695.34
512.826	8729.46
513.193	8799.74
513.561	8837.48
513.929	8949.34
514.297	8982.11
514.664	9046.97
515.032	9115.66
515.4	9181.43
515.767	9251.25
516.135	9259.62
516.502	9204.93
516.869	9412.61
517.237	9356.79
517.604	9310.46
517.972	9451.25
518.339	9471.14
518.706	9524.47
519.073	9561.53
519.44	9583.9
519.808	9727.17
520.175	9744.57
520.542	9792.26
520.909	9851.46
521.276	9907.73
521.643	9991.57
522.009	10084.23
522.376	10050.33
522.743	10193.15
523.11	10257.1
523.477	10330.32
523.843	10362.41
524.21	10481.96
524.577	10532.35
524.943	10553.14
525.31	10660.71
525.676	10729.18
526.043	10730.54
526.409	10785.45
526.776	10876.07
527.142	10959.46
527.508	11031.55
527.874	11029.74
528.241	11135.72
528.607	11192.67
528.973	11255.04
529.339	11181.82
529.705	11424.53
530.071	11467.92
530.437	11543.62
530.803	11547.46
531.169	11604.64
531.535	11625.88
531.901	11700.46
532.267	11741.13
532.632	11796.95
532.998	11881.02
533.364	11920.11
533.73	11968.02
534.095	12087.79
534.461	12185.64
534.826	12164.4
535.192	12130.73
535.557	12298.41
535.923	12196.94
536.288	12364.17
536.653	12466.99
537.019	12343.6
537.384	12439.19
537.749	12493.88
538.114	12593.31
538.479	12671.73
538.845	12671.05
539.21	12687.55
539.575	12715.34
539.94	12852.52
540.305	12968.9
540.67	12946.07
541.034	12979.07
541.399	13016.35
541.764	13107.88
542.129	13134.54
542.494	13139.06
542.858	13210.02
543.223	13219.29
543.587	13337.93
543.952	13344.48
544.316	13363.69
544.681	13376.12
545.045	13416.12
545.41	13485.49
545.774	13569.33
546.138	13647.07
546.503	13653.85
546.867	13677.13
547.231	13770.46
547.595	13792.6
547.959	13893.39
548.324	13874.41
548.688	13961.19
549.052	13967.29
549.416	14078.02
549.779	14115.53
550.143	14102.88
550.507	14221.52
550.871	14275.98
551.235	14140.16
551.599	14389.42
551.962	14419.03
552.326	14333.15
552.689	14595.29
553.053	14445.24
553.417	14498.57
553.78	14701.05
554.143	14634.84
554.507	14619.25
554.87	14725.01
555.234	14897.43
555.597	14810.2
555.96	14798.23
556.323	14990.99
556.686	14932.69
557.05	15104.21
557.413	15146.69
557.776	15088.39
558.139	15250.87
558.502	15258.33
558.865	15232.34
559.228	15373.58
559.59	15497.42
559.953	15403.86
560.316	15611.09
560.679	15541.26
561.041	15706.9
561.404	15765.66
561.767	15875.49
562.129	15821.93
562.492	15944.19
562.854	15962.26
563.217	15949.61
563.579	15988.7
563.941	16194.57
564.304	16317.06
564.666	16305.31
565.028	16312.54
565.39	16291.52
565.753	16425.75
566.115	16456.49
566.477	16521.35
566.839	16594.79
567.201	16706.88
567.563	16667.33
567.925	16908
568.287	16844.27
568.648	16856.7
569.01	17031.39
569.372	17029.35
569.734	17040.43
570.095	17141.67
570.457	17274.32
570.819	17322.68
571.18	17370.81
571.542	17364.49
571.903	17493.07
572.265	17644.93
572.626	17745.04
572.987	17711.82
573.349	17999.5
573.71	17980.52
574.071	17962.89
574.432	17977.8
574.794	18224.8
575.155	18189.1
575.516	18284.91
575.877	18359.94
576.238	18454.4
576.599	18673.61
576.96	18702.08
577.32	18860.94
577.681	18918.34
578.042	19141.39
578.403	19152.24
578.763	19322.85
579.124	19488.5
579.485	19650.98
579.845	19805.33
580.206	19875.61
580.566	20035.83
580.927	20131.19
581.287	20453.67
581.648	20500.45
582.008	20631.29
582.368	20808.69
582.728	21043.03
583.089	21077.38
583.449	21349.92
583.809	21521.44
584.169	21874.42
584.529	21865.39
584.889	22141.54
585.249	22172.04
585.609	22435.99
585.969	22734.06
586.329	22849.09
586.688	23103.77
587.048	23395.29
587.408	23499.01
587.768	23765.22
588.127	23908.95
588.487	24101.48
588.846	24458.76
589.206	24602.04
589.565	24761.13
589.925	25174.45
590.284	25259.87
590.643	25460.55
591.003	25813.3
591.362	26099.17
591.721	26304.36
592.08	26646.05
592.44	26894.18
592.799	27073.38
593.158	27417.56
593.517	27535.07
593.876	27754.95
594.235	27984.55
594.593	28337.31
594.952	28532.78
595.311	28657.07
595.67	28997.18
596.029	29243.5
596.387	29554.67
596.746	29933.65
597.104	29915.57
597.463	30239.63
597.822	30513.52
598.18	30620.64
598.538	30890.91
598.897	31219.94
599.255	31333.61
599.613	31959.58
599.972	31935.4
600.33	32082.07
600.688	32251.33
601.046	32559.79
601.404	32888.37
601.762	32980.12
602.12	33327.91
602.478	33531.97
602.836	33697.84
603.194	33754.34
603.552	33897.61
603.91	34014.44
604.268	34347.32
604.625	34487.88
604.983	34795.22
605.341	34767.87
605.698	35187.97
606.056	35498.02
606.413	35434.29
606.771	35695.53
607.128	35910.44
607.485	35921.74
607.843	36096.88
608.2	36421.39
608.557	36668.84
608.914	36642.17
609.272	36939.79
609.629	37004.2
609.986	37462.49
610.343	37391.76
610.7	37726.21
611.057	37744.97
611.414	37829.26
611.771	38024.28
612.127	38318.29
612.484	38371.62
612.841	38551.27
613.198	38511.5
613.554	38615.23
613.911	39071.26
614.267	39008.21
614.624	39121.88
614.98	39293.85
615.337	39418.6
615.693	39500.18
616.05	39501.31
616.406	39863.1
616.762	39767.06
617.118	40018.13
617.475	39958.02
617.831	40176.77
618.187	40198.01
618.543	40424.67
618.899	40618.34
619.255	40645.46
619.611	40780.82
619.967	40864.43
620.323	41044.54
620.678	40979.91
621.034	40913.7
621.39	40944.21
621.746	41056.52
622.101	41553.91
622.457	41358.66
622.812	41548.71
623.168	41589.61
623.523	41698.54
623.879	41789.83
624.234	41550.07
624.589	41683.85
624.945	41858.31
625.3	41964.74
625.655	41900.79
626.01	41978.3
626.365	42109.15
626.72	42061.01
627.075	42169.03
627.43	42021.69
627.785	42112.76
628.14	42225.98
628.495	42373.09
628.85	42253.1
629.205	42074.57
629.559	42220.33
629.914	42168.35
630.269	42372.42
630.623	42252.65
630.978	42126.55
631.332	42314.57
631.687	42365.86
632.041	42230.27
632.396	42330.16
632.75	42243.38
633.104	42289.48
633.459	42250.84
633.813	42299.88
634.167	42328.8
634.521	42219.43
634.875	42411.74
635.229	42315.7
635.583	42184.17
635.937	42252.65
636.291	42177.85
636.645	42179.2
636.999	42145.08
637.352	42345.75
637.706	42040.45
638.06	42290.61
638.413	42143.5
638.767	42110.95
639.121	42113.44
639.474	41931.52
639.828	42108.7
640.181	42003.84
640.534	42127
640.888	41963.39
641.241	41893.56
641.594	41893.33
641.947	42062.37
642.301	41876.84
642.654	41767.01
643.007	42031.63
643.36	41958.87
643.713	41814.24
644.066	42084.97
644.419	41784.86
644.771	41517.3
645.124	41191.21
645.477	41089.29
645.83	40944.21
646.182	40790.31
646.535	40639.58
646.888	40627.83
647.24	40385.58
647.593	40869.18
647.945	40582.86
648.298	40537.66
648.65	40408.4
649.002	40412.24
649.355	40634.16
649.707	40459.7
650.059	40542.86
650.411	41135.61
650.763	41138.1
651.115	41492.21
651.467	41309.17
651.819	41378.54
652.171	41264.2
652.523	41147.59
652.875	41156.86
653.227	41063.07
653.578	41316.17
653.93	41160.7
654.282	40988.95
654.633	40921.61
654.985	41107.59
655.337	41085.67
655.688	41072.79
656.039	41282.95
656.391	40847.26
656.742	40896.52
657.094	40975.17
657.445	41232.33
657.796	41106.01
658.147	40879.8
658.498	40990.76
658.849	41039.8
659.2	40922.96
659.551	40865.11
659.902	40955.73
660.253	40973.81
660.604	41019.91
660.955	40818.11
661.306	40834.83
661.656	40886.58
662.007	40922.06
662.358	40987.14
662.708	40815.17
663.059	40843.87
663.409	40565.23
663.76	40815.4
664.11	40840.03
664.461	40720.48
664.811	41019.68
665.161	40794.61
665.511	40746.92
665.862	40687.04
666.212	40870.31
666.562	40899.69
666.912	40746.47
667.262	40655.85
667.612	40666.7
667.962	40842.74
668.312	40616.3
668.662	40719.35
669.011	40598.68
669.361	40669.86
669.711	40536.53
670.06	40602.52
670.41	40546.48
670.76	40631.9
671.109	40724.78
671.459	40547.15
671.808	40495.63
672.157	40515.06
672.507	40337.67
672.856	40295.41
673.205	40487.49
673.554	40480.94
673.904	40341.51
674.253	40585.8
674.602	40348.74
674.951	39793.28
675.3	39683.9
675.649	40306.03
675.998	40225.35
676.346	40294.51
676.695	40501.28
677.044	40111.01
677.393	40112.82
677.741	40356.42
678.09	40179.03
678.438	40067.39
678.787	40163.89
679.135	40172.47
679.484	39911.24
679.832	39979.26
680.181	40022.42
680.529	40062.42
680.877	40039.82
681.225	39823.33
681.573	40073.72
681.922	39715.09
682.27	39652.71
682.618	39749.21
682.966	39618.37
683.314	39562.32
683.661	39583.34
684.009	39449.56
684.357	39240.3
684.705	39122.33
685.053	39272.84
685.4	39217.92
685.748	39062
686.095	39017.7
686.443	38958.72
686.79	38851.83
687.138	38939.06
687.485	38967.99
687.832	38763.92
688.18	38804.38
688.527	38615.68
688.874	38598.73
689.221	38537.49
689.568	38420.66
689.915	38322.13
690.262	38250.94
690.609	38084.17
690.956	38064.73
691.303	38068.8
691.65	38104.28
691.997	37871.52
692.344	37741.58
692.69	37655.7
693.037	37646.44
693.383	37269.05
693.73	37500.45
694.077	37183.63
694.423	37255.72
694.769	37205.55
695.116	37071.09
695.462	36971.65
695.808	36951.54
696.155	37076.51
696.501	36717.2
696.847	36763.3
697.193	36455.51
697.539	36671.78
697.885	36280.37
698.231	36245.8
698.577	36323.08
698.923	36281.73
699.269	36112.47
699.614	35858.01
699.96	35812.14
700.306	35961.96
700.651	35527.85
700.997	35552.48
701.342	35397.46
701.688	35447.4
702.033	35395.65
702.379	35272.72
702.724	35191.59
703.069	35252.38
703.415	34827.76
703.76	34805.61
704.105	34784.82
704.45	34756.12
704.795	34558.84
705.14	34507.99
705.485	34551.83
705.83	34264.61
706.175	34304.15
706.52	34334.21
706.865	34225.74
707.209	34176.02
707.554	34052.18
707.899	34159.3
708.243	33846.77
708.588	33941.68
708.932	33701.01
709.277	33662.59
709.621	33718.18
709.966	33451.07
710.31	33509.37
710.654	33264.41
710.998	33196.84
711.342	33317.74
711.687	33196.84
712.031	33182.83
712.375	33061.02
712.719	32994.81
713.063	33055.15
713.407	32872.55
713.75	32811.99
714.094	32735.83
714.438	32613.13
714.782	32647.7
715.125	32620.36
715.469	32593.69
715.812	32429.85
716.156	32320.48
716.499	32263.3
716.843	32245.45
717.186	32114.38
717.53	32221.72
717.873	32162.97
718.216	32148.05
718.559	31829.64
718.902	31716.88
719.246	31805.69
719.589	31762.98
719.932	31623.77
720.275	31604.34
720.617	31623.55
720.96	31549.2
721.303	31554.4
721.646	31554.4
721.989	31316.89
722.331	31402.08
722.674	31353.27
723.016	31388.75
723.359	31290.22
723.701	31354.63
724.044	31079.61
724.386	31014.98
724.729	31093.17
725.071	30988.31
725.413	31043.68
725.755	31032.38
726.097	30822.66
726.439	30599.17
726.782	30693.4
727.124	30804.13
727.465	30680.07
727.807	30527.98
728.149	30620.18
728.491	30514.2
728.833	30585.83
729.175	30464.93
729.516	30350.13
729.858	30442.79
730.199	30346.07
730.541	30303.58
730.882	30242.34
731.224	30327.99
731.565	30103.81
731.906	30133.64
732.248	30105.39
732.589	29993.53
732.93	29869.02
733.271	29771.39
733.612	29794.44
733.953	29897.94
734.294	29667.21
734.635	29780.21
734.976	29872.41
735.317	29622.02
735.658	29632.41
735.999	29633.77
736.339	29479.65
736.68	29557.16
737.021	29446.2
737.361	29386.77
737.702	29401.46
738.042	29242.82
738.383	29281.46
738.723	29201.24
739.063	29236.49
739.404	29243.95
739.744	29193.78
740.084	29149.71
740.424	29026.55
740.764	29072.43
741.104	29131.86
741.444	28904.75
741.784	28916.73
742.124	28917.63
742.464	28940.23
742.804	28835.6
743.143	28698.65
743.483	28692.32
743.823	28648.48
744.162	28684.87
744.502	28692.32
744.841	28603.06
745.181	28551.99
745.52	28408.94
745.86	28498.43
746.199	28502.95
746.538	28350.19
746.877	28415.72
747.216	28413.69
747.556	28289.17
747.895	28215.05
748.234	28146.12
748.573	28068.39
748.911	28024.09
749.25	28031.33
749.589	27888.73
749.928	27927.37
750.267	27986.13
750.605	27916.53
750.944	27803.99
751.283	27669.98
751.621	27756.98
751.96	27590.88
752.298	27692.8
752.636	27641.5
752.975	27554.28
753.313	27389.53
753.651	27413.94
753.989	27464.79
754.327	27279.03
754.666	27212.36
755.004	27323.32
755.342	27117.22
755.679	27118.13
756.017	26977.79
756.355	27051.46
756.693	26918.81
757.031	27046.49
757.368	26875.42
