Data from hue_310_FLMS001491_17.txt Node
Date: Mon Feb 06 15:48:54 GMT 2017
User: dcchb
Spectrometer: FLMS00149
Trigger mode: 0
Integration Time (sec): 2.000000E-2
Scans to average: 10
Electric dark correction enabled: true
Nonlinearity correction enabled: false
Boxcar width: 0
XAxis mode: Wavelengths
Number of Pixels in Spectrum: 2048
>>>>>Begin Spectral Data<<<<<
341.393	-20.66
341.776	-20.66
342.16	-20.66
342.543	-57.27
342.927	-84.39
343.31	-50.72
343.693	-86.65
344.077	-69.48
344.46	-62.47
344.843	-41
345.226	-37.84
345.61	-29.7
345.993	-29.25
346.376	-7.33
346.759	22.73
347.142	5.55
347.525	33.8
347.908	73.8
348.291	61.14
348.674	101.59
349.057	115.83
349.44	123.51
349.823	137.98
350.206	171.65
350.588	170.52
350.971	208.03
351.354	220.46
351.737	228.6
352.119	258.65
352.502	277.18
352.884	269.95
353.267	269.95
353.65	277.18
354.032	283.28
354.414	323.73
354.797	311.31
355.179	313.34
355.562	307.01
355.944	326.45
356.326	311.98
356.709	325.54
357.091	338.65
357.473	318.76
357.855	330.97
358.238	340.68
358.62	323.96
359.002	330.06
359.384	343.62
359.766	330.51
360.148	349.72
360.53	350.4
360.912	320.34
361.294	341.14
361.676	338.65
362.057	323.73
362.439	330.29
362.821	320.57
363.203	305.88
363.584	334.36
363.966	308.82
364.348	299.1
364.729	305.2
365.111	295.26
365.493	317.86
365.874	309.72
366.256	308.37
366.637	316.73
367.019	304.07
367.4	308.37
367.781	305.88
368.163	302.72
368.544	291.42
368.925	299.33
369.306	299.55
369.688	311.53
370.069	317.41
370.45	281.02
370.831	308.37
371.212	316.5
371.593	297.29
371.974	307.01
372.355	280.35
372.736	316.95
373.117	306.33
373.498	318.31
373.879	323.96
374.26	321.02
374.641	314.24
375.021	325.32
375.402	327.58
375.783	325.99
376.163	326.45
376.544	333.68
376.925	330.74
377.305	326.22
377.686	333.68
378.066	319.89
378.447	311.98
378.827	305.66
379.208	310.18
379.588	325.99
379.968	322.38
380.349	340.01
380.729	338.2
381.109	335.26
381.489	337.97
381.87	301.14
382.25	335.26
382.63	327.58
383.01	322.38
383.39	329.61
383.77	331.19
384.15	344.52
384.53	348.82
384.91	328.93
385.29	358.76
385.67	333.9
386.049	350.4
386.429	337.29
386.809	320.34
387.189	335.94
387.568	342.04
387.948	359.44
388.328	339.55
388.707	343.62
389.087	361.25
389.466	368.7
389.846	368.7
390.225	356.28
390.605	364.86
390.984	378.87
391.363	348.59
391.743	361.02
392.122	344.07
392.501	355.37
392.881	381.36
393.26	375.71
393.639	356.95
394.018	367.58
394.397	393.56
394.776	366.45
395.155	361.7
395.534	396.05
395.913	384.07
396.292	401.7
396.671	407.8
397.05	378.2
397.429	373
397.808	389.5
398.186	380.91
398.565	396.5
398.944	397.18
399.323	377.74
399.701	381.13
400.08	394.47
400.458	387.46
400.837	401.92
401.215	401.02
401.594	406.44
401.972	408.48
402.351	404.86
402.729	417.97
403.107	401.92
403.486	394.69
403.864	416.16
404.242	424.52
404.62	423.39
404.999	430.4
405.377	423.62
405.755	428.36
406.133	449.15
406.511	429.95
406.889	460.68
407.267	472.43
407.645	440.79
408.023	466.1
408.401	443.51
408.779	471.75
409.156	478.31
409.534	469.04
409.912	479.66
410.29	461.36
410.667	483.96
411.045	484.86
411.422	498.87
411.8	502.94
412.178	517.18
412.555	523.96
412.933	525.99
413.31	539.55
413.687	537.51
414.065	565.08
414.442	568.02
414.819	556.95
415.197	554.91
415.574	588.36
415.951	587.23
416.328	601.69
416.705	572.77
417.082	575.71
417.46	625.2
417.837	609.6
418.214	634.01
418.591	646.21
418.967	640.56
419.344	640.79
419.721	658.19
420.098	651.41
420.475	653.44
420.852	660.22
421.228	693.44
421.605	661.58
421.982	707.91
422.358	723.95
422.735	731.86
423.111	746.77
423.488	721.24
423.864	741.8
424.241	735.93
424.617	731.63
424.994	749.26
425.37	784.06
425.746	770.28
426.123	784.51
426.499	781.12
426.875	775.02
427.251	812.54
427.627	810.95
428.003	809.82
428.379	788.35
428.756	824.51
429.132	818.86
429.507	869.26
429.883	877.84
430.259	850.5
430.635	889.37
431.011	899.76
431.387	919.42
431.763	906.32
432.138	912.19
432.514	934.34
432.89	929.82
433.265	950.84
433.641	982.02
434.016	977.5
434.392	993.55
434.767	1024.51
435.143	1022.25
435.518	1012.08
435.894	1031.96
436.269	1030.61
436.644	1066.09
437.02	1030.61
437.395	1066.31
437.77	1062.7
438.145	1082.13
438.52	1082.58
438.895	1083.71
439.271	1115.8
439.646	1101.79
440.021	1115.8
440.395	1120.32
440.77	1168.46
441.145	1129.14
441.52	1167.78
441.895	1160.55
442.27	1167.78
442.645	1166.42
443.019	1182.02
443.394	1182.02
443.769	1210.49
444.143	1176.37
444.518	1206.2
444.892	1184.95
445.267	1214.56
445.641	1202.81
446.016	1230.6
446.39	1218.63
446.764	1224.95
447.139	1202.58
447.513	1238.29
447.887	1223.37
448.262	1248.46
448.636	1240.32
449.01	1255.91
449.384	1278.51
449.758	1252.07
450.132	1287.55
450.506	1264.5
450.88	1260.21
451.254	1277.16
451.628	1276.25
452.002	1295.69
452.376	1263.6
452.75	1273.54
453.123	1324.16
453.497	1337.72
453.871	1313.31
454.244	1346.98
454.618	1397.6
454.992	1375.01
455.365	1385.85
455.739	1382.46
456.112	1432.18
456.486	1397.83
456.859	1413.65
457.232	1450.03
457.606	1439.41
457.979	1464.95
458.352	1459.98
458.725	1453.65
459.099	1461.78
459.472	1481.22
459.845	1490.26
460.218	1529.35
460.591	1535.91
460.964	1524.15
461.337	1538.62
461.71	1543.59
462.083	1563.93
462.456	1553.31
462.829	1581.33
463.201	1607.54
463.574	1593.31
463.947	1588.11
464.32	1665.39
464.692	1670.82
465.065	1636.69
465.438	1657.26
465.81	1678.28
466.183	1664.49
466.555	1725.28
466.928	1729.57
467.3	1711.72
467.672	1738.39
468.045	1763.24
468.417	1791.04
468.789	1787.65
469.161	1784.04
469.534	1795.11
469.906	1835.11
470.278	1844.15
470.65	1853.86
471.022	1881.43
471.394	1895.44
471.766	1899.96
472.138	1930.92
472.51	1971.6
472.882	1969.57
473.253	1987.19
473.625	2000.53
473.997	2045.95
474.369	1993.52
474.74	2035.55
475.112	2094.76
475.484	2101.99
475.855	2156.45
476.227	2128.21
476.598	2200.97
476.97	2169.56
477.341	2241.88
477.713	2236.45
478.084	2264.47
478.455	2330.46
478.827	2333.17
479.198	2354.19
479.569	2306.28
479.94	2398.26
480.311	2439.16
480.682	2466.28
481.053	2482.77
481.424	2499.72
481.795	2517.58
482.166	2550.12
482.537	2585.37
482.908	2652.49
483.279	2649.55
483.65	2639.61
484.021	2657.46
484.391	2718.25
484.762	2747.63
485.133	2734.07
485.503	2813.39
485.874	2825.59
486.244	2816.78
486.615	2878.7
486.985	2912.14
487.356	2933.16
487.726	2952.14
488.097	2972.25
488.467	2980.84
488.837	3063.55
489.207	3089.76
489.578	3082.53
489.948	3115.75
490.318	3138.58
490.688	3176.77
491.058	3203.88
491.428	3214.05
491.798	3214.96
492.168	3295.41
492.538	3280.94
492.908	3297.67
493.278	3312.81
493.648	3366.59
494.017	3388.29
494.387	3385.8
494.757	3440.71
495.126	3501.73
495.496	3453.37
495.866	3497.66
496.235	3515.06
496.605	3538.79
496.974	3541.95
497.344	3562.97
497.713	3584.21
498.082	3581.73
498.452	3623.53
498.821	3601.61
499.19	3633.93
499.559	3682.29
499.928	3667.6
500.298	3709.18
500.667	3707.15
501.036	3723.87
501.405	3764.77
501.774	3750.31
502.143	3751.67
502.512	3819.91
502.88	3821.04
503.249	3790.76
503.618	3829.86
503.987	3812.91
504.356	3856.07
504.724	3910.08
505.093	3868.05
505.462	3836.41
505.83	3865.56
506.199	3963.86
506.567	3957.09
506.936	3920.25
507.304	3994.82
507.672	3999.12
508.041	3969.74
508.409	3963.64
508.777	4002.28
509.145	4077.53
509.514	4041.15
509.882	4043.64
510.25	4052.68
510.618	4093.13
510.986	4109.62
511.354	4114.14
511.722	4135.61
512.09	4095.39
512.458	4148.94
512.826	4174.25
513.193	4166.35
513.561	4144.42
513.929	4249.73
514.297	4269.39
514.664	4200.24
515.032	4202.05
515.4	4247.02
515.767	4271.65
516.135	4266.91
516.502	4272.11
516.869	4253.12
517.237	4319.79
517.604	4292.22
517.972	4329.73
518.339	4357.53
518.706	4385.55
519.073	4366.57
519.44	4395.49
519.808	4402.72
520.175	4384.87
520.542	4383.29
520.909	4438.2
521.276	4456.51
521.643	4474.13
522.009	4469.61
522.376	4480.01
522.743	4537.18
523.11	4552.1
523.477	4596.84
523.843	4588.93
524.21	4573.79
524.577	4667.35
524.943	4630.06
525.31	4648.59
525.676	4672.77
526.043	4677.29
526.409	4750.06
526.776	4815.14
527.142	4821.02
527.508	4787.8
527.874	4835.71
528.241	4849.49
528.607	4834.35
528.973	4893.78
529.339	4915.48
529.705	4918.87
530.071	4960.22
530.437	4957.28
530.803	5007.23
531.169	4997.28
531.535	5039.77
531.901	5036.15
532.267	5054.01
532.632	5122.7
532.998	5070.73
533.364	5127.45
533.73	5146.21
534.095	5247.67
534.461	5204.74
534.826	5221.23
535.192	5255.58
535.557	5307.33
535.923	5299.2
536.288	5269.14
536.653	5326.99
537.019	5291.97
537.384	5363.6
537.749	5365.41
538.114	5458.51
538.479	5425.3
538.845	5411.28
539.21	5392.98
539.575	5452.41
539.94	5494.22
540.305	5522.02
540.67	5509.36
541.034	5562.24
541.399	5592.97
541.764	5647.44
542.129	5634.1
542.494	5585.52
542.858	5661
543.223	5722.69
543.587	5745.96
543.952	5734.89
544.316	5779.86
544.681	5760.65
545.045	5791.61
545.41	5854.44
545.774	5863.48
546.138	5865.51
546.503	5942.34
546.867	5917.49
547.231	5942.12
547.595	5977.82
547.959	5953.64
548.324	5993.42
548.688	5990.93
549.052	6040.42
549.416	6040.19
549.779	6100.08
550.143	6037.93
550.507	6145.28
550.871	6136.46
551.235	6165.84
551.599	6210.59
551.962	6204.94
552.326	6229.34
552.689	6250.13
553.053	6253.75
553.417	6263.92
553.78	6326.06
554.143	6348.66
554.507	6365.84
554.87	6368.1
555.234	6384.37
555.597	6411.03
555.96	6418.94
556.323	6437.7
556.686	6410.81
557.05	6491.71
557.413	6471.6
557.776	6525.83
558.139	6571.03
558.502	6531.25
558.865	6578.71
559.228	6610.57
559.59	6579.62
559.953	6594.53
560.316	6717.01
560.679	6683.57
561.041	6613.29
561.404	6754.07
561.767	6733.51
562.129	6715.43
562.492	6822.77
562.854	6807.63
563.217	6827.97
563.579	6847.86
563.941	6846.73
564.304	6862.32
564.666	6919.49
565.028	6967.18
565.39	6979.38
565.753	6979.15
566.115	6985.48
566.477	7007.4
566.839	7094.18
567.201	7104.35
567.563	7097.79
567.925	7086.95
568.287	7135.98
568.648	7112.71
569.01	7225.47
569.372	7242.87
569.734	7197.9
570.095	7285.81
570.457	7328.75
570.819	7349.99
571.18	7314.74
571.542	7439.71
571.903	7469.99
572.265	7500.04
572.626	7553.15
572.987	7517.44
573.349	7618.91
573.71	7635.63
574.071	7613.26
574.432	7740.49
574.794	7798.57
575.155	7870.65
575.516	7906.81
575.877	7936.19
576.238	8028.84
576.599	8108.39
576.96	8125.34
577.32	8145.22
577.681	8332.34
578.042	8385.22
578.403	8407.14
578.763	8446.23
579.124	8606
579.485	8718.32
579.845	8802.83
580.206	8894.36
580.566	9023.17
580.927	9183.61
581.287	9304.29
581.648	9404.4
582.008	9589.48
582.368	9629.25
582.728	9737.95
583.089	9936.81
583.449	10070.82
583.809	10241.89
584.169	10332.06
584.529	10570.24
584.889	10807.75
585.249	10994.87
585.609	11084.81
585.969	11362.09
586.329	11497.9
586.688	11780.61
587.048	11995.97
587.408	12161.39
587.768	12461.27
588.127	12641.15
588.487	12894.03
588.846	13145.77
589.206	13310.96
589.565	13581.92
589.925	13855.13
590.284	14033.66
590.643	14428.67
591.003	14679.29
591.362	14938.94
591.721	15224.13
592.08	15509.55
592.44	15823.44
592.799	16060.27
593.158	16261.62
593.517	16559.47
593.876	16888.5
594.235	17173.46
594.593	17490.51
594.952	17802.37
595.311	18090.95
595.67	18476.48
596.029	18822.46
596.387	19138.15
596.746	19353.52
597.104	19510.12
597.463	19884.35
597.822	20193.72
598.18	20434.84
598.538	20743.76
598.897	21164.54
599.255	21304.43
599.613	21899.66
599.972	21988.7
600.33	22351.63
600.688	22547.33
601.046	22815.8
601.404	23247.65
601.762	23474.99
602.12	23929.22
602.478	24158.59
602.836	24363.78
603.194	24529.65
603.552	24824.56
603.91	25028.17
604.268	25323.76
604.625	25524.65
604.983	25903.85
605.341	26074.47
605.698	26435.14
606.056	26793.55
606.413	26924.84
606.771	27247.32
607.128	27526.18
607.485	27553.07
607.843	27876.68
608.2	28206.39
608.557	28493.39
608.914	28613.61
609.272	28803.21
609.629	29170.66
609.986	29437.32
610.343	29547.6
610.7	29934.48
611.057	30054.7
611.414	30228.26
611.771	30364.07
612.127	30696.72
612.484	30788.02
612.841	31019.65
613.198	31183.94
613.554	31349.13
613.911	31737.82
614.267	31877.03
614.624	31864.6
614.98	32161.99
615.337	32431.36
615.693	32380.52
616.05	32668.19
616.406	32929.66
616.762	32889.88
617.118	33004.68
617.475	33148.41
617.831	33527.16
618.187	33605.12
618.543	33809.41
618.899	33988.39
619.255	34080.13
619.611	34103.41
619.967	34363.74
620.323	34547.69
620.678	34430.18
621.034	34449.84
621.39	34648.03
621.746	34604.87
622.101	35089.6
622.457	35069.26
622.812	35188.58
623.168	35421.34
623.523	35403.26
623.879	35586.99
624.234	35449.36
624.589	35660.21
624.945	35815
625.3	35975.23
625.655	35955.79
626.01	36072.17
626.365	36124.15
626.72	36231.72
627.075	36142.91
627.43	36220.42
627.785	36171.61
628.14	36418.38
628.495	36470.58
628.85	36620.41
629.205	36497.25
629.559	36650.69
629.914	36587.87
630.269	36639.16
630.623	36631.71
630.978	36631.03
631.332	36826.28
631.687	36882.1
632.041	36744.92
632.396	36874.86
632.75	36759.61
633.104	36921.42
633.459	36794.19
633.813	36899.04
634.167	36911.02
634.521	36918.25
634.875	37033.05
635.229	36985.82
635.583	36880.06
635.937	36911.02
636.291	36930.91
636.645	36988.99
636.999	36838.25
637.352	37157.79
637.706	36805.49
638.06	37083.45
638.413	36927.52
638.767	36896.56
639.121	36965.93
639.474	36841.64
639.828	36814.98
640.181	36929.55
640.534	36917.57
640.888	36793.51
641.241	36755.54
641.594	36845.03
641.947	36968.19
642.301	36815.66
642.654	36868.54
643.007	36896.11
643.36	36922.32
643.713	36687.98
644.066	36806.62
644.419	36697.47
644.771	36438.04
645.124	36146.52
645.477	36195.33
645.83	35973.19
646.182	35894.1
646.535	35813.2
646.888	35803.48
647.24	35623.15
647.593	35866.53
647.945	35784.27
648.298	35511.96
648.65	35497.27
649.002	35486.65
649.355	35717.83
649.707	35508.12
650.059	35770.03
650.411	36179.51
650.763	36275.11
651.115	36625.6
651.467	36530.47
651.819	36607.07
652.171	36356.01
652.523	36441.2
652.875	36428.77
653.227	36169.12
653.578	36538.15
653.93	36533.63
654.282	36376.35
654.633	36260.19
654.985	36294.09
655.337	36256.35
655.688	36333.86
656.039	36339.06
656.391	36099.52
656.742	36153.53
657.094	36141.32
657.445	36334.99
657.796	36230.59
658.147	36064.49
658.498	36138.84
658.849	36194.88
659.2	36037.37
659.551	36017.03
659.902	36144.04
660.253	36069.46
660.604	36070.37
660.955	36037.82
661.306	36070.82
661.656	35996.47
662.007	35933.87
662.358	36052.96
662.708	36011.38
663.059	36032.4
663.409	35734.33
663.76	36045.96
664.11	36108.1
664.461	36004.6
664.811	36019.74
665.161	36134.32
665.511	35844.38
665.862	35920.54
666.212	36078.73
666.562	36034.43
666.912	35963.93
667.262	35930.71
667.612	35946.07
667.962	35961.67
668.312	35926.87
668.662	36117.6
669.011	36058.39
669.361	35884.16
669.711	35965.28
670.06	35863.36
670.41	35865.4
670.76	35849.58
671.109	35843.7
671.459	35864.27
671.808	35782.01
672.157	35946.3
672.507	35742.01
672.856	35639.42
673.205	35747.21
673.554	35887.32
673.904	35750.6
674.253	35896.36
674.602	35737.49
674.951	35152.42
675.3	35068.81
675.649	35668.79
675.998	35530.27
676.346	35632.41
676.695	35579.3
677.044	35333.21
677.393	35601.45
677.741	35596.25
678.09	35377.5
678.438	35399.87
678.787	35671.73
679.135	35514.45
679.484	35203.5
679.832	35432.87
680.181	35202.14
680.529	35320.55
680.877	35138.86
681.225	35113.1
681.573	35537.27
681.922	35134.12
682.27	35118.07
682.618	35062.03
682.966	34925.31
683.314	35050.05
683.661	34859.32
684.009	34871.07
684.357	34703.85
684.705	34696.62
685.053	34683.28
685.4	34637.63
685.748	34483.74
686.095	34459.79
686.443	34270.41
686.79	34366.68
687.138	34367.36
687.485	34407.58
687.832	34286.23
688.18	34169.62
688.527	34043.3
688.874	33978.44
689.221	34003.53
689.568	33842.63
689.915	33800.82
690.262	33703.42
690.609	33563.09
690.956	33656.87
691.303	33581.84
691.65	33295.07
691.997	33419.81
692.344	33189.76
692.69	33169.65
693.037	33305.24
693.383	33025.25
693.73	33083.33
694.077	32961.75
694.423	32919.94
694.769	32731.24
695.116	32752.03
695.462	32726.95
695.808	32570.8
696.155	32618.03
696.501	32285.83
696.847	32381.87
697.193	32124.93
697.539	32373.51
697.885	32020.08
698.231	31841.32
698.577	31980.53
698.923	31907.99
699.269	31787.31
699.614	31702.12
699.96	31528.11
700.306	31615.79
700.651	31571.05
700.997	31442.92
701.342	31377.83
701.688	31270.72
702.033	31212.87
702.379	31192.98
702.724	31112.98
703.069	31109.82
703.415	30708.02
703.76	30771.07
704.105	30732.43
704.45	30683.61
704.795	30571.53
705.14	30491.53
705.485	30492.21
705.83	30419.44
706.175	30348.93
706.52	30218.54
706.865	30109.84
707.209	30195.94
707.554	30068.72
707.899	30113.01
708.243	29861.94
708.588	29967.93
708.932	29594.6
709.277	29736.07
709.621	29817.65
709.966	29522.06
710.31	29579.46
710.654	29337.66
710.998	29376.98
711.342	29284.1
711.687	29254.05
712.031	29111.68
712.375	29052.24
712.719	29108.51
713.063	29003.88
713.407	29199.13
713.75	28955.98
714.094	28844.34
714.438	28771.8
714.782	28842.53
715.125	28645.93
715.469	28737
715.812	28619.04
716.156	28492.49
716.499	28413.84
716.843	28587.17
717.186	28389.21
717.53	28381.98
717.873	28492.71
718.216	28319.83
718.559	28185.15
718.902	28031.71
719.246	28172.95
719.589	28040.97
719.932	27924.82
720.275	27938.83
720.617	27949.9
720.96	27913.52
721.303	27717.14
721.646	27796.46
721.989	27614.54
722.331	27668.1
722.674	27743.58
723.016	27675.33
723.359	27540.87
723.701	27564.83
724.044	27427.65
724.386	27241.22
724.729	27342.01
725.071	27321.67
725.413	27234.67
725.755	27283.7
726.097	27234.44
726.439	27029.02
726.782	26975.69
727.124	27178.17
727.465	27013.43
727.807	26906.09
728.149	26956.48
728.491	26872.64
728.833	26968.23
729.175	26770.27
729.516	26683.04
729.858	26760.78
730.199	26763.27
730.541	26591.74
730.882	26603.04
731.224	26623.83
731.565	26554.46
731.906	26327.57
732.248	26462.26
732.589	26386.1
732.93	26289.38
733.271	26294.58
733.612	26338.87
733.953	26233.56
734.294	26222.04
734.635	26022.72
734.976	26184.98
735.317	26027.01
735.658	26001.48
735.999	26055.71
736.339	25918.77
736.68	26010.29
737.021	26017.75
737.361	25766.23
737.702	25940.01
738.042	25902.27
738.383	25755.83
738.723	25784.08
739.063	25670.19
739.404	25728.49
739.744	25665.21
740.084	25582.05
740.424	25600.58
740.764	25604.88
741.104	25540.47
741.444	25394.04
741.784	25328.05
742.124	25392.23
742.464	25432.45
742.804	25396.3
743.143	25237.88
743.483	25194.04
743.823	25154.95
744.162	25220.93
744.502	25120.37
744.841	25008.96
745.181	25096.64
745.52	24976.87
745.86	25039.92
746.199	24897.55
746.538	24940.71
746.877	24968.28
747.216	25054.38
747.556	24909.75
747.895	24819.36
748.234	24830.89
748.573	24711.34
748.911	24789.98
749.25	24636.99
749.589	24623.21
749.928	24617.78
750.267	24546.37
750.605	24591.8
750.944	24444.91
751.283	24385.93
751.621	24382.99
751.96	24334.85
752.298	24226.83
752.636	24274.29
752.975	24197.23
753.313	24018.25
753.651	24121.3
753.989	24091.7
754.327	24016.44
754.666	23819.16
755.004	23884.02
755.342	23927.41
755.679	23786.85
756.017	23713.85
756.355	23765.38
756.693	23656.91
757.031	23547.08
757.368	23541.66
757.706	23510.7
758.044	23434.77
758.381	23395.44
758.719	23350.02
759.056	23277.71
