Data from hue_60_FLMS001491_66.txt Node
Date: Mon Feb 06 15:17:44 GMT 2017
User: dcchb
Spectrometer: FLMS00149
Trigger mode: 0
Integration Time (sec): 2.000000E-2
Scans to average: 10
Electric dark correction enabled: true
Nonlinearity correction enabled: false
Boxcar width: 0
XAxis mode: Wavelengths
Number of Pixels in Spectrum: 2048
>>>>>Begin Spectral Data<<<<<
341.393	-16.36
341.776	-16.36
342.16	-16.36
342.543	-63.81
342.927	-76.69
343.31	-71.04
343.693	-74.89
344.077	-70.14
344.46	-62
344.843	-41.67
345.226	-50.7
345.61	-48.22
345.993	-21.33
346.376	-7.99
346.759	22.06
347.142	30.2
347.525	44.43
347.908	51.89
348.291	91.21
348.674	93.02
349.057	115.17
349.44	119.91
349.823	136.41
350.206	166.24
350.588	200.14
350.971	223.64
351.354	221.83
351.737	246.69
352.119	262.73
352.502	255.95
352.884	280.13
353.267	282.17
353.65	257.54
354.032	279.91
354.414	297.76
354.797	302.96
355.179	308.83
355.562	320.36
355.944	322.62
356.326	323.97
356.709	351.54
357.091	328.27
357.473	334.37
357.855	330.53
358.238	335.73
358.62	350.64
359.002	344.54
359.384	330.3
359.766	334.37
360.148	347.93
360.53	343.18
360.912	363.52
361.294	325.78
361.676	332.56
362.057	335.95
362.439	348.15
362.821	315.16
363.203	309.74
363.584	324.43
363.966	330.75
364.348	309.74
364.729	310.64
365.111	312.68
365.493	327.82
365.874	303.64
366.256	304.77
366.637	314.71
367.019	314.94
367.4	306.8
367.781	320.36
368.163	310.87
368.544	312.45
368.925	305.67
369.306	319.68
369.688	307.25
370.069	314.71
370.45	320.81
370.831	328.72
371.212	316.97
371.593	325.78
371.974	308.38
372.355	329.17
372.736	314.03
373.117	308.38
373.498	308.16
373.879	309.51
374.26	290.3
374.641	318.78
375.021	307.7
375.402	316.29
375.783	301.15
376.163	316.97
376.544	324.43
376.925	334.14
377.305	324.65
377.686	317.87
378.066	317.42
378.447	320.36
378.827	314.26
379.208	340.92
379.588	320.81
379.968	324.43
380.349	348.38
380.729	332.56
381.109	353.8
381.489	343.41
381.87	334.6
382.25	326.23
382.63	332.56
383.01	342.28
383.39	340.25
383.77	327.36
384.15	342.96
384.53	361.26
384.91	342.51
385.29	350.19
385.67	340.25
386.049	349.96
386.429	333.01
386.809	344.99
387.189	337.53
387.568	358.32
387.948	370.98
388.328	345.89
388.707	352.67
389.087	361.49
389.466	347.93
389.846	359.23
390.225	356.74
390.605	360.13
390.984	341.15
391.363	344.76
391.743	350.19
392.122	365.78
392.501	343.18
392.881	355.84
393.26	383.86
393.639	368.27
394.018	355.84
394.397	366.23
394.776	351.54
395.155	362.17
395.534	369.85
395.913	403.52
396.292	359.45
396.671	374.82
397.05	382.05
397.429	387.7
397.808	396.97
398.186	362.62
398.565	370.75
398.944	394.48
399.323	388.61
399.701	397.87
400.08	394.03
400.458	392.9
400.837	389.74
401.215	375.27
401.594	398.55
401.972	376.63
402.351	385.89
402.729	405.33
403.107	396.74
403.486	405.33
403.864	372.33
404.242	393.13
404.62	372.33
404.999	405.78
405.377	396.97
405.755	398.77
406.133	409.85
406.511	397.19
406.889	402.39
407.267	396.51
407.645	401.94
408.023	426.12
408.401	419.79
408.779	390.64
409.156	422.05
409.534	406.46
409.912	432.22
410.29	432.9
410.667	434.48
411.045	463.18
411.422	425.44
411.8	441.49
412.178	433.35
412.555	436.97
412.933	427.47
413.31	466.34
413.687	444.42
414.065	457.53
414.442	467.7
414.819	454.37
415.197	473.58
415.574	461.6
415.951	452.11
416.328	474.25
416.705	473.35
417.082	475.38
417.46	492.56
417.837	467.47
418.214	483.97
418.591	467.7
418.967	485.78
419.344	507.7
419.721	507.7
420.098	503.63
420.475	494.82
420.852	490.52
421.228	502.05
421.605	495.27
421.982	516.74
422.358	513.57
422.735	501.6
423.111	508.38
423.488	494.59
423.864	502.73
424.241	522.39
424.617	519
424.994	534.59
425.37	527.13
425.746	509.51
426.123	517.42
426.499	545.89
426.875	543.63
427.251	555.15
427.627	541.14
428.003	555.61
428.379	558.77
428.756	566
429.132	573.91
429.507	587.7
429.883	583.4
430.259	537.75
430.635	573.69
431.011	598.32
431.387	582.27
431.763	604.65
432.138	594.48
432.514	608.71
432.89	608.26
433.265	613.91
433.641	618.88
434.016	632.22
434.392	609.16
434.767	653.68
435.143	631.09
435.518	645.55
435.894	637.41
436.269	676.28
436.644	660.24
437.02	657.07
437.395	658.2
437.77	672.44
438.145	660.46
438.52	691.42
438.895	705.89
439.271	669.73
439.646	669.05
440.021	698.43
440.395	709.73
440.77	674.02
441.145	683.29
441.52	720.8
441.895	687.13
442.27	723.51
442.645	710.63
443.019	716.73
443.394	728.71
443.769	718.31
444.143	734.81
444.518	744.75
444.892	726.45
445.267	747.24
445.641	735.72
446.016	726.68
446.39	730.52
446.764	761.25
447.139	726.22
447.513	761.25
447.887	771.65
448.262	764.87
448.636	794.7
449.01	784.53
449.384	792.44
449.758	806.45
450.132	798.54
450.506	814.81
450.88	814.58
451.254	824.53
451.628	813.23
452.002	806.22
452.376	824.75
452.75	829.5
453.123	837.41
453.497	865.2
453.871	855.94
454.244	883.28
454.618	863.17
454.992	870.17
455.365	886.22
455.739	902.94
456.112	898.42
456.486	900.46
456.859	918.31
457.232	963.73
457.606	964.86
457.979	944.98
458.352	979.32
458.725	983.17
459.099	964.41
459.472	999.89
459.845	1010.74
460.218	990.4
460.591	1011.64
460.964	1019.1
461.337	1021.36
461.71	1055.93
462.083	1077.18
462.456	1070.85
462.829	1085.76
463.201	1083.5
463.574	1110.17
463.947	1118.08
464.32	1124.18
464.692	1179.77
465.065	1165.53
465.438	1182.48
465.81	1199.66
466.183	1246.89
466.555	1242.14
466.928	1252.54
467.3	1264.51
467.672	1274.68
468.045	1329.15
468.417	1318.52
468.789	1349.48
469.161	1357.85
469.534	1375.02
469.906	1410.95
470.278	1450.05
470.65	1478.52
471.022	1487.33
471.394	1520.78
471.766	1554.22
472.138	1582.47
472.51	1594.9
472.882	1615.69
473.253	1697.95
473.625	1711.96
473.997	1727.33
474.369	1750.38
474.74	1813.2
475.112	1840.32
475.484	1909.47
475.855	1939.3
476.227	1979.75
476.598	2041.67
476.97	2049.35
477.341	2128.45
477.713	2194.21
478.084	2246.64
478.455	2326.18
478.827	2395.33
479.198	2447.76
479.569	2469.68
479.94	2583.12
480.311	2636
480.682	2745.61
481.053	2827.41
481.424	2907.64
481.795	2955.32
482.166	3027.18
482.537	3152.83
482.908	3247.29
483.279	3321.86
483.65	3445.7
484.021	3565.02
484.391	3676.43
484.762	3728.86
485.133	3782.64
485.503	3954.61
485.874	4044.78
486.244	4160.03
486.615	4290.2
486.985	4390.31
487.356	4529.06
487.726	4638.66
488.097	4805.44
488.467	4879.56
488.837	5046.79
489.207	5150.74
489.578	5311.87
489.948	5460.56
490.318	5570.39
490.688	5712.53
491.058	5869.59
491.428	6037.27
491.798	6190.03
492.168	6329.69
492.538	6443.81
492.908	6651.27
493.278	6766.52
493.648	6894.42
494.017	6994.99
494.387	7235.88
494.757	7368.54
495.126	7486.95
495.496	7613.05
495.866	7797.68
496.235	7922.64
496.605	8091.23
496.974	8167.38
497.344	8416.87
497.713	8539.58
498.082	8668.84
498.452	8843.75
498.821	8916.06
499.19	9120.13
499.559	9281.03
499.928	9482.38
500.298	9587.01
500.667	9708.36
501.036	9759.88
501.405	10008.92
501.774	10043.49
502.143	10144.06
502.512	10413.88
502.88	10539.75
503.249	10581.11
503.618	10691.84
503.987	10882.11
504.356	11045.5
504.724	11149.9
505.093	11366.4
505.462	11476.45
505.83	11552.61
506.199	11704.24
506.567	11971.8
506.936	11973.39
507.304	12241.63
507.672	12277.78
508.041	12431.68
508.409	12558.23
508.777	12724.78
509.145	12833.02
509.514	12906.47
509.882	13113.47
510.25	13219
510.618	13339.68
510.986	13414.25
511.354	13621.7
511.722	13735.15
512.09	13945.54
512.458	13961.81
512.826	14181.92
513.193	14282.7
513.561	14341.46
513.929	14593.88
514.297	14666.42
514.664	14780.09
515.032	14938.28
515.4	15096.02
515.767	15204.49
516.135	15399.28
516.502	15306.41
516.869	15555.21
517.237	15708.88
517.604	15700.52
517.972	15941.64
518.339	16117.01
518.706	16115.88
519.073	16251.92
519.44	16426.6
519.808	16620.04
520.175	16538.01
520.542	16929.41
520.909	16971.45
521.276	17007.38
521.643	17199.01
522.009	17367.37
522.376	17434.03
522.743	17625.44
523.11	17765.32
523.477	18006
523.843	18095.26
524.21	18361.47
524.577	18374.8
524.943	18519.2
525.31	18675.58
525.676	18906.08
526.043	19065.63
526.409	19081
526.776	19355.79
527.142	19343.81
527.508	19446.64
527.874	19662.45
528.241	19722.79
528.607	19817.02
528.973	20085.94
529.339	20023.12
529.705	20302.88
530.071	20480.73
530.437	20452.26
530.803	20636.89
531.169	20777
531.535	20718.24
531.901	20876.88
532.267	21026.26
532.632	21166.82
532.998	21344.89
533.364	21414.95
533.73	21432.8
534.095	21614.26
534.461	21741.26
534.826	21831.21
535.192	21932.22
535.557	22131.31
535.923	22059.22
536.288	22141.93
536.653	22219.22
537.019	22244.75
537.384	22409.04
537.749	22475.26
538.114	22555.93
538.479	22564.97
538.845	22715.7
539.21	22768.81
539.575	22861.01
539.94	22980.1
540.305	23076.6
540.67	23026.88
541.034	23211.28
541.399	23360.66
541.764	23233.43
542.129	23390.03
542.494	23442.01
542.858	23500.99
543.223	23576.92
543.587	23761.1
543.952	23725.17
544.316	23872.28
544.681	23844.49
545.045	24078.15
545.41	24105.04
545.774	24157.7
546.138	24145.5
546.503	24258.71
546.867	24238.37
547.231	24524.47
547.595	24399.27
547.959	24646.05
548.324	24703.9
548.688	24729.66
549.052	24771.02
549.416	25005.59
549.779	24931.24
550.143	24997.45
550.507	25205.58
550.871	25253.94
551.235	25327.38
551.599	25478.57
551.962	25417.55
552.326	25592.69
552.689	25676.75
553.053	25647.6
553.417	25795.85
553.78	26074.26
554.143	25893.02
554.507	26117.65
554.87	26149.06
555.234	26466.79
555.597	26312.44
555.96	26442.61
556.323	26453.46
556.686	26703.85
557.05	26676.05
557.413	27010.96
557.776	26983.16
558.139	27152.2
558.502	27170.05
558.865	27150.39
559.228	27465.41
559.59	27618.62
559.953	27535.91
560.316	27829.24
560.679	27948.33
561.041	28045.73
561.404	28167.99
561.767	28353.75
562.129	28272.62
562.492	28680.74
562.854	28572.05
563.217	28571.14
563.579	28817.69
563.941	28978.81
564.304	29104.46
564.666	29172.48
565.028	29280.28
565.39	29470.55
565.753	29584.22
566.115	29603.88
566.477	29666.93
566.839	29846.36
567.201	29906.02
567.563	30020.14
567.925	30275.28
568.287	30348.04
568.648	30378.55
569.01	30572.22
569.372	30756.85
569.734	30642.73
570.095	30847.47
570.457	31032.55
570.819	31081.58
571.18	31071.41
571.542	31225.31
571.903	31419.65
572.265	31396.15
572.626	31597.28
572.987	31586.88
573.349	31648.35
573.71	31927.21
574.071	31874.78
574.432	32073.87
574.794	32316.81
575.155	32263.25
575.516	32169.69
575.877	32204.72
576.238	32408.55
576.599	32505.73
576.96	32493.07
577.32	32522.68
577.681	32663.24
578.042	32706.4
578.403	32751.14
578.763	32770.13
579.124	32874.31
579.485	33031.14
579.845	33075.2
580.206	33082.21
580.566	33160.63
580.927	33175.09
581.287	33259.15
581.648	33187.29
582.008	33412.37
582.368	33366.95
582.728	33337.34
583.089	33302.77
583.449	33441.75
583.809	33329.66
584.169	33580.73
584.529	33371.92
584.889	33619.37
585.249	33452.37
585.609	33514.29
585.969	33535.76
586.329	33568.07
586.688	33715.41
587.048	33441.52
587.408	33490.33
587.768	33557
588.127	33617.11
588.487	33508.41
588.846	33788.86
589.206	33575.3
589.565	33649.65
589.925	33742.3
590.284	33575.76
590.643	33734.62
591.003	33903.88
591.362	33957.21
591.721	33839.48
592.08	33780.72
592.44	33944.11
592.799	33942.07
593.158	33924
593.517	33971.45
593.876	34039.25
594.235	33985.46
594.593	34041.05
594.952	34061.17
595.311	33972.36
595.67	34101.39
596.029	34290.77
596.387	34325.79
596.746	34281.5
597.104	34122.63
597.463	34249.18
597.822	34395.85
598.18	34269.75
598.538	34348.39
598.897	34568.27
599.255	34288.73
599.613	34801.26
599.972	34566.46
600.33	34643.07
600.688	34478.1
601.046	34610.98
601.404	34810.98
601.762	34771.43
602.12	34877.64
602.478	34823.41
602.836	34918.55
603.194	34762.84
603.552	34860.24
603.91	34862.73
604.268	35022.72
604.625	34842.16
604.983	35256.39
605.341	34972.78
605.698	35148.37
606.056	35215.49
606.413	35197.86
606.771	35456.38
607.128	35401.47
607.485	35254.58
607.843	35260.91
608.2	35456.16
608.557	35706.1
608.914	35590.17
609.272	35643.5
609.629	35698.41
609.986	35924.39
610.343	35785.87
610.7	36035.35
611.057	35857.5
611.414	36044.84
611.771	36095.92
612.127	36161.22
612.484	36234.89
612.841	36344.72
613.198	36284.84
613.554	36255.46
613.911	36514.44
614.267	36459.97
614.624	36475.11
614.98	36495.45
615.337	36733.19
615.693	36685.28
616.05	36644.83
616.406	36874.43
616.762	36751.72
617.118	36847.53
617.475	36883.01
617.831	36974.54
618.187	36926.4
618.543	37029.68
618.899	37234.19
619.255	37231.93
619.611	37224.25
619.967	37394.64
620.323	37379.5
620.678	37298.6
621.034	37390.34
621.39	37320.74
621.746	37320.74
622.101	37764.12
622.457	37513.96
622.812	37457.01
623.168	37536.33
623.523	37524.35
623.879	37770.9
624.234	37421.08
624.589	37746.72
624.945	37620.39
625.3	37773.84
625.655	37741.75
626.01	37743.33
626.365	37881.18
626.72	37755.08
627.075	37772.93
627.43	37875.76
627.785	37801.86
628.14	37851.8
628.495	37912.82
628.85	37878.92
629.205	37690.68
629.559	37886.38
629.914	37810.45
630.269	37896.55
630.623	37644.8
630.978	37631.47
631.332	37922.99
631.687	37947.62
632.041	37728.64
632.396	37910.78
632.75	37648.64
633.104	37846.38
633.459	37622.43
633.813	37642.32
634.167	37662.43
634.521	37658.36
634.875	37714.86
635.229	37579.04
635.583	37438.25
635.937	37551.24
636.291	37519.83
636.645	37487.52
636.999	37487.97
637.352	37502.88
637.706	37253.85
638.06	37429.67
638.413	37288.65
638.767	37362.55
639.121	37406.16
639.474	37111.71
639.828	37127.07
640.181	37289.78
640.534	37168.88
640.888	37194.19
641.241	36867.65
641.594	37129.33
641.947	37235.09
642.301	37024.7
642.654	37080.3
643.007	37059.05
643.36	37053.4
643.713	37046.62
644.066	37111.26
644.419	36892.05
644.771	36697.26
645.124	36455.68
645.477	36157.61
645.83	36131.85
646.182	36050.94
646.535	35831.97
646.888	35919.87
647.24	35747.45
647.593	35877.84
647.945	35762.82
648.298	35732.08
648.65	35642.14
649.002	35507.23
649.355	35845.98
649.707	35550.39
650.059	35745.19
650.411	36189.47
650.763	36193.99
651.115	36610.25
651.467	36391.95
651.819	36593.98
652.171	36307.21
652.523	36312.18
652.875	36294.78
653.227	36158.06
653.578	36465.85
653.93	36431.73
654.282	36189.92
654.633	36192.41
654.985	36330.94
655.337	36203.03
655.688	36228.79
656.039	36298.17
656.391	35841.01
656.742	36022.24
657.094	36101.11
657.445	36174.33
657.796	36087.33
658.147	36143.6
658.498	36002.13
658.849	36019.76
659.2	35944.28
659.551	35923.94
659.902	35946.77
660.253	35941.8
660.604	35984.96
660.955	35855.7
661.306	36047.78
661.656	35864.73
662.007	35924.62
662.358	36018.4
662.708	35863.83
663.059	35908.12
663.409	35639.43
663.76	36038.97
664.11	35937.05
664.461	35941.12
664.811	35889.59
665.161	35849.59
665.511	35871.97
665.862	35843.49
666.212	35752.65
666.562	35945.41
666.912	35764.85
667.262	35749.94
667.612	35751.97
667.962	35871.74
668.312	35692.54
668.662	35808.47
669.011	35753.78
669.361	35678.53
669.711	35789.03
670.06	35594.91
670.41	35517.17
670.76	35529.6
671.109	35748.81
671.459	35632.2
671.808	35498.19
672.157	35619.54
672.507	35414.35
672.856	35470.85
673.205	35598.53
673.554	35596.27
673.904	35497.06
674.253	35635.81
674.602	35504.97
674.951	35017.75
675.3	34844.2
675.649	35318.99
675.998	35245.54
676.346	35321.02
676.695	35399.66
677.044	35200.8
677.393	35278.08
677.741	35360.12
678.09	35248.71
678.438	35218.88
678.787	35250.74
679.135	35300.46
679.484	34947.47
679.832	35180.46
680.181	34895.72
680.529	35077.64
680.877	34983.18
681.225	34830.41
681.573	35070.63
681.922	34931.2
682.27	34731.21
682.618	34804.2
682.966	34669.51
683.314	34668.61
683.661	34503.41
684.009	34474.04
684.357	34367.6
684.705	34357.43
685.053	34356.07
685.4	34355.4
685.748	34131.9
686.095	34180.26
686.443	34169.86
686.79	33991.56
687.138	34224.78
687.485	34044.9
687.832	34001.06
688.18	33889.19
688.527	33856.88
688.874	33621.4
689.221	33775.07
689.568	33561.97
689.915	33606.04
690.262	33637.67
690.609	33437.68
690.956	33304.58
691.303	33351.13
691.65	33194.3
691.997	33238.82
692.344	33015.09
692.69	32927.86
693.037	33005.6
693.383	32715.89
693.73	32783.23
694.077	32666.85
694.423	32682.67
694.769	32607.65
695.116	32528.55
695.462	32310.93
695.808	32349.57
696.155	32463.24
696.501	32184.38
696.847	32065.29
697.193	31803.6
697.539	32016.25
697.885	31840.89
698.231	31689.03
698.577	31705.75
698.923	31583.72
699.269	31497.17
699.614	31352.99
699.96	31263.95
700.306	31384.63
700.651	31266.44
700.997	31049.95
701.342	31063.05
701.688	31032.55
702.033	30864.41
702.379	30771.31
702.724	30722.72
703.069	30598.21
703.415	30398.66
703.76	30421.04
704.105	30355.28
704.45	30508.04
704.795	30163.87
705.14	30150.99
705.485	30046.81
705.83	29980.37
706.175	30017.66
706.52	29939.92
706.865	29851.11
707.209	29884.1
707.554	29627.38
707.899	29733.37
708.243	29626.48
708.588	29613.83
708.932	29354.85
709.277	29387.39
709.621	29431.68
709.966	29184.46
710.31	29231.91
710.654	28975.88
710.998	29102.2
711.342	28991.47
711.687	29031.24
712.031	28913.51
712.375	28920.74
712.719	28876.44
713.063	28643.91
713.407	28748.99
713.75	28650.01
714.094	28549
714.438	28530.69
714.782	28631.25
715.125	28455.44
715.469	28502.89
715.812	28311.94
716.156	28178.61
716.499	28056.35
716.843	28179.51
717.186	28014.09
717.53	28095.9
717.873	28147.88
718.216	28027.43
718.559	27773.2
718.902	27697.27
719.246	27736.36
719.589	27702.92
719.932	27544.28
720.275	27584.05
720.617	27574.56
720.96	27364.62
721.303	27490.27
721.646	27508.34
721.989	27317.62
722.331	27500.44
722.674	27371.85
723.016	27277.62
723.359	27193.1
723.701	27185.42
724.044	27078.53
724.386	26935.25
724.729	27171.63
725.071	26999.66
725.413	26917.17
725.755	26991.97
726.097	26851.64
726.439	26681.7
726.782	26752.66
727.124	26837.85
727.465	26610.51
727.807	26493.23
728.149	26616.16
728.491	26493.91
728.833	26519.22
729.175	26445.1
729.516	26365.78
729.858	26387.7
730.199	26446.68
730.541	26234.48
730.882	26237.42
731.224	26324.42
731.565	26188.38
731.906	26174.82
732.248	26145.89
732.589	26017.99
732.93	25945
733.271	25909.52
733.612	25944.32
733.953	25939.12
734.294	25890.99
734.635	25767.6
734.976	25907.26
735.317	25817.99
735.658	25732.35
735.999	25750.65
736.339	25628.39
736.68	25768.96
737.021	25646.92
737.361	25545.91
737.702	25576.42
738.042	25505.91
738.383	25381.62
738.723	25588.62
739.063	25441.51
739.404	25394.73
739.744	25442.86
740.084	25166.26
740.424	25265.01
740.764	25184.79
741.104	25308.63
741.444	25122.42
741.784	25020.73
742.124	25070.44
742.464	24930.56
742.804	25008.3
743.143	24923.55
743.483	24965.81
743.823	24874.97
744.162	24862.99
744.502	24841.52
744.841	24813.5
745.181	24918.58
745.52	24686.72
745.86	24692.83
746.199	24637.91
746.538	24586.16
746.877	24629.32
747.216	24640.85
747.556	24523.56
747.895	24492.83
748.234	24403.79
748.573	24442.66
748.911	24324.47
749.25	24341.87
749.589	24195.89
749.928	24311.37
750.267	24335.32
750.605	24116.34
750.944	24024.59
751.283	24001.54
751.621	24110.47
751.96	23846.97
752.298	23888.55
752.636	23916.57
752.975	23806.07
753.313	23651.72
753.651	23757.03
753.989	23673.19
754.327	23656.02
754.666	23512.74
755.004	23608.11
755.342	23608.33
755.679	23501.9
756.017	23315.46
756.355	23485.63
756.693	23329.92
