Data from hue_200_FLMS001491_00066.txt Node
Date: Tue Feb 07 16:43:46 GMT 2017
User: dcchb
Spectrometer: FLMS00149
Trigger mode: 0
Integration Time (sec): 2.000000E-2
Scans to average: 10
Electric dark correction enabled: true
Nonlinearity correction enabled: false
Boxcar width: 0
XAxis mode: Wavelengths
Number of Pixels in Spectrum: 2048
>>>>>Begin Spectral Data<<<<<
341.393	-31.57
341.776	-31.57
342.16	-31.57
342.543	-57.33
342.927	-63.66
343.31	-65.46
343.693	-56.43
344.077	-57.78
344.46	-53.04
344.843	-69.31
345.226	-44
345.61	-35.86
345.993	-27.27
346.376	-7.39
346.759	0.52
347.142	35.32
347.525	43.01
347.908	53.63
348.291	75.77
348.674	105.15
349.057	103.12
349.44	116.45
349.823	150.8
350.206	161.87
350.588	187.41
350.971	219.73
351.354	242.78
351.737	245.94
352.119	259.05
352.502	266.73
352.884	288.65
353.267	277.8
353.65	307.18
354.032	305.6
354.414	316.9
354.797	323.68
355.179	336.56
355.562	315.32
355.944	334.3
356.326	350.12
356.709	343.79
357.091	339.72
357.473	341.98
357.855	358.48
358.238	349.89
358.62	372.49
359.002	341.76
359.384	353.73
359.766	343.11
360.148	351.02
360.53	341.76
360.912	325.49
361.294	340.17
361.676	346.95
362.057	341.98
362.439	331.59
362.821	344.24
363.203	334.75
363.584	332.49
363.966	355.09
364.348	340.17
364.729	346.28
365.111	318.71
365.493	347.63
365.874	328.65
366.256	313.96
366.637	308.09
367.019	318.48
367.4	341.3
367.781	322.55
368.163	334.53
368.544	333.4
368.925	301.31
369.306	328.2
369.688	320.06
370.069	315.77
370.45	336.56
370.831	306.96
371.212	332.27
371.593	314.19
371.974	339.95
372.355	312.38
372.736	312.38
373.117	312.6
373.498	341.08
373.879	346.95
374.26	329.1
374.641	340.63
375.021	321.64
375.402	328.42
375.783	322.55
376.163	319.61
376.544	337.46
376.925	343.34
377.305	331.81
377.686	333.62
378.066	329.33
378.447	345.37
378.827	358.25
379.208	335.88
379.588	350.12
379.968	344.24
380.349	352.15
380.729	347.18
381.109	348.54
381.489	353.28
381.87	326.16
382.25	349.67
382.63	370.46
383.01	352.15
383.39	358.93
383.77	346.95
384.15	368.42
384.53	337.46
384.91	349.44
385.29	344.47
385.67	366.61
386.049	352.38
386.429	385.15
386.809	358.03
387.189	368.2
387.568	365.94
387.948	375.88
388.328	402.32
388.707	395.54
389.087	373.17
389.466	378.14
389.846	373.17
390.225	382.66
390.605	373.62
390.984	379.27
391.363	387.63
391.743	386.28
392.122	386.5
392.501	392.83
392.881	412.04
393.26	404.35
393.639	405.03
394.018	374.98
394.397	395.31
394.776	403.22
395.155	436.22
395.534	416.78
395.913	407.07
396.292	413.39
396.671	423.79
397.05	425.14
397.429	431.7
397.808	422.88
398.186	404.81
398.565	426.73
398.944	454.75
399.323	442.77
399.701	447.06
400.08	433.96
400.458	438.48
400.837	455.43
401.215	447.06
401.594	446.39
401.972	438.93
402.351	466.5
402.729	455.2
403.107	475.09
403.486	463.11
403.864	454.52
404.242	486.61
404.62	476.67
404.999	491.13
405.377	492.71
405.755	498.81
406.133	508.08
406.511	521.19
406.889	509.44
407.267	519.6
407.645	532.03
408.023	543.79
408.401	543.33
408.779	541.75
409.156	569.32
409.534	577.68
409.912	566.61
410.29	586.5
410.667	574.07
411.045	601.41
411.422	603.44
411.8	622.2
412.178	607.74
412.555	628.08
412.933	654.06
413.31	640.51
413.687	670.56
414.065	673.95
414.442	678.7
414.819	702.88
415.197	708.07
415.574	736.1
415.951	728.64
416.328	737.68
416.705	732.93
417.082	760.05
417.46	758.69
417.837	761.63
418.214	797.79
418.591	785.13
418.967	813.16
419.344	841.63
419.721	817
420.098	826.04
420.475	855.19
420.852	852.7
421.228	870.33
421.605	922.31
421.982	936.54
422.358	933.83
422.735	961.63
423.111	960.27
423.488	985.13
423.864	975.86
424.241	1018.8
424.617	1011.8
424.994	1044.56
425.37	1049.76
425.746	1056.09
426.123	1073.26
426.499	1090.44
426.875	1101.74
427.251	1149.87
427.627	1146.71
428.003	1160.49
428.379	1148.29
428.756	1192.81
429.132	1200.49
429.507	1208.17
429.883	1244.11
430.259	1250.43
430.635	1300.6
431.011	1289.98
431.387	1296.99
431.763	1351.67
432.138	1348.51
432.514	1373.82
432.89	1369.98
433.265	1408.4
433.641	1461.5
434.016	1447.72
434.392	1493.14
434.767	1532.23
435.143	1541.27
435.518	1565
435.894	1612.46
436.269	1622.17
436.644	1635.51
437.02	1677.77
437.395	1696.07
437.77	1746.24
438.145	1753.02
438.52	1799.12
438.895	1809.06
439.271	1833.02
439.646	1895.16
440.021	1908.27
440.395	1959.12
440.77	1916.86
441.145	1950.53
441.52	1978.1
441.895	2004.09
442.27	2045.67
442.645	2059.45
443.019	2102.39
443.394	2113.01
443.769	2157.3
444.143	2155.27
444.518	2176.28
444.892	2184.87
445.267	2248.83
445.641	2220.35
446.016	2287.47
446.39	2296.73
446.764	2296.51
447.139	2267.58
447.513	2346.68
447.887	2321.14
448.262	2336.96
448.636	2386
449.01	2448.82
449.384	2412.44
449.758	2468.25
450.132	2485.88
450.506	2506.45
450.88	2569.49
451.254	2512.32
451.628	2538.31
452.002	2600
452.376	2620.57
452.75	2639.55
453.123	2635.03
453.497	2703.28
453.871	2710.73
454.244	2786.89
454.618	2780.56
454.992	2839.09
455.365	2820.79
455.739	2941.24
456.112	2939.88
456.486	2983.27
456.859	2987.11
457.232	3043.83
457.606	3041.8
457.979	3070.27
458.352	3166.54
458.725	3187.78
459.099	3214
459.472	3252.64
459.845	3256.26
460.218	3313.66
460.591	3334.45
460.964	3381.68
461.337	3465.52
461.71	3477.49
462.083	3549.13
462.456	3559.75
462.829	3581.9
463.201	3619.86
463.574	3655.57
463.947	3681.1
464.32	3793.87
464.692	3811.27
465.065	3862.34
465.438	3865.73
465.81	3978.95
466.183	4036.57
466.555	4057.14
466.928	4106.18
467.3	4059.17
467.672	4165.16
468.045	4304.36
468.417	4305.27
468.789	4320.86
469.161	4357.7
469.534	4434.3
469.906	4552.04
470.278	4549.33
470.65	4597.24
471.022	4676.11
471.394	4765.82
471.766	4795.88
472.138	4840.85
472.51	4981.18
472.882	5052.82
473.253	5128.98
473.625	5148.41
473.997	5251.01
474.369	5285.13
474.74	5293.72
475.112	5445.58
475.484	5547.04
475.855	5603.99
476.227	5650.77
476.598	5783.65
476.97	5819.35
477.341	5937.09
477.713	6005.56
478.084	6089.63
478.455	6215.5
478.827	6241.49
479.198	6452.1
479.569	6433.8
479.94	6633.34
480.311	6674.92
480.682	6825.43
481.053	6923.5
481.424	7006.67
481.795	7045.31
482.166	7172.99
482.537	7232.2
482.908	7382.7
483.279	7487.56
483.65	7655.24
484.021	7645.75
484.391	7779.3
484.762	7814.33
485.133	7948.11
485.503	7995.57
485.874	8230.36
486.244	8183.36
486.615	8419.74
486.985	8497.02
487.356	8645.72
487.726	8692.72
488.097	8883.9
488.467	8899.72
488.837	9003
489.207	9085.93
489.578	9190.79
489.948	9316.66
490.318	9439.37
490.688	9504.91
491.058	9634.39
491.428	9633.26
491.798	9815.86
492.168	9915.29
492.538	9921.39
492.908	10070.31
493.278	10200.48
493.648	10221.5
494.017	10289.74
494.387	10344.88
494.757	10354.83
495.126	10529.51
495.496	10505.11
495.866	10612.67
496.235	10699
496.605	10784.42
496.974	10872.78
497.344	10950.74
497.713	10938.99
498.082	11048.37
498.452	11056.05
498.821	11055.6
499.19	11099.89
499.559	11220.57
499.928	11261.7
500.298	11288.59
500.667	11398.41
501.036	11440.67
501.405	11512.54
501.774	11438.41
502.143	11542.59
502.512	11596.83
502.88	11555.92
503.249	11589.6
503.618	11754.11
503.987	11699.42
504.356	11845.63
504.724	11780.55
505.093	11850.83
505.462	11845.63
505.83	11973.09
506.199	12053.31
506.567	12064.84
506.936	12065.29
507.304	12116.81
507.672	12180.09
508.041	12256.92
508.409	12286.53
508.777	12371.5
509.145	12368.56
509.514	12362.91
509.882	12467.31
510.25	12441.1
510.618	12446.52
510.986	12524.04
511.354	12522.68
511.722	12591.38
512.09	12658.49
512.458	12675.67
512.826	12669.34
513.193	12702.11
513.561	12699.4
513.929	12720.64
514.297	12854.42
514.664	12886.06
515.032	12879.73
515.4	12991.14
515.767	12895.55
516.135	12970.58
516.502	12805.38
516.869	13046.28
517.237	12994.08
517.604	12915.44
517.972	13053.29
518.339	13036.34
518.706	13049.22
519.073	13044.47
519.44	13143.91
519.808	13186.39
520.175	13080.18
520.542	13319.27
520.909	13241.08
521.276	13276.78
521.643	13360.85
522.009	13362.66
522.376	13329.89
522.743	13375.54
523.11	13328.08
523.477	13425.03
523.843	13470
524.21	13444.24
524.577	13576.66
524.943	13531.24
525.31	13500.73
525.676	13628.86
526.043	13612.14
526.409	13591.35
526.776	13717.22
527.142	13688.52
527.508	13737.11
527.874	13730.11
528.241	13626.83
528.607	13682.87
528.973	13662.99
529.339	13653.95
529.705	13733.04
530.071	13685.13
530.437	13765.36
530.803	13718.35
531.169	13731.46
531.535	13622.54
531.901	13660.28
532.267	13651.24
532.632	13606.72
532.998	13662.76
533.364	13750.22
533.73	13610.79
534.095	13641.75
534.461	13632.48
534.826	13609.88
535.192	13625.93
535.557	13607.17
535.923	13506.83
536.288	13519.04
536.653	13578.02
537.019	13463.9
537.384	13386.84
537.749	13407.63
538.114	13328.99
538.479	13352.71
538.845	13332.38
539.21	13253.28
539.575	13202.44
539.94	13175.54
540.305	13168.76
540.67	13153.62
541.034	13134.41
541.399	13062.33
541.764	13027.07
542.129	13042.67
542.494	12950.01
542.858	12982.78
543.223	12880.64
543.587	12881.09
543.952	12820.52
544.316	12909.79
544.681	12786.4
545.045	12773.97
545.41	12772.39
545.774	12649.68
546.138	12574.43
546.503	12642.68
546.867	12482.23
547.231	12574.43
547.595	12478.16
547.959	12439.07
548.324	12374.89
548.688	12418.73
549.052	12328.79
549.416	12351.16
549.779	12253.31
550.143	12225.74
550.507	12249.47
550.871	12229.35
551.235	12114.78
551.599	12106.64
551.962	12116.36
552.326	12089.47
552.689	12089.92
553.053	11969.02
553.417	11946.88
553.78	11980.09
554.143	11938.97
554.507	11919.76
554.87	11850.83
555.234	11931.96
555.597	11774.68
555.96	11795.69
556.323	11741
556.686	11764.06
557.05	11790.04
557.413	11703.04
557.776	11729.03
558.139	11744.39
558.502	11666.2
558.865	11668.01
559.228	11692.64
559.59	11659.43
559.953	11670.72
560.316	11740.78
560.679	11649.48
561.041	11647.22
561.404	11683.15
561.767	11710.5
562.129	11593.66
562.492	11680.22
562.854	11697.39
563.217	11713.89
563.579	11600.67
563.941	11676.15
564.304	11665.98
564.666	11735.13
565.028	11691.29
565.39	11679.31
565.753	11705.75
566.115	11799.99
566.477	11653.32
566.839	11771.06
567.201	11772.19
567.563	11773.32
567.925	11873.2
568.287	11799.76
568.648	11815.35
569.01	11823.94
569.372	11873.88
569.734	11779.65
570.095	11806.99
570.457	11845.86
570.819	11842.02
571.18	11864.62
571.542	11785.07
571.903	11822.13
572.265	11834.79
572.626	11875.69
572.987	11876.14
573.349	11913.66
573.71	11963.15
574.071	11934.9
574.432	11931.73
574.794	11974.22
575.155	12040.66
575.516	11951.62
575.877	11961.34
576.238	11927.89
576.599	12039.98
576.96	12041.79
577.32	12013.77
577.681	12059.87
578.042	12018.96
578.403	12063.48
578.763	12043.6
579.124	12044.73
579.485	12058.74
579.845	12023.71
580.206	12003.37
580.566	11962.47
580.927	12098.51
581.287	12100.77
581.648	11990.49
582.008	12060.32
582.368	12013.77
582.728	12055.57
583.089	12016.93
583.449	11926.99
583.809	12107.55
584.169	12024.84
584.529	11995.91
584.889	12124.05
585.249	11934.67
585.609	11901.68
585.969	12029.81
586.329	11941
586.688	11955.01
587.048	11981.68
587.408	11967.89
587.768	11980.32
588.127	12006.76
588.487	11935.58
588.846	11998.63
589.206	11854
589.565	11916.14
589.925	11982.81
590.284	11939.87
590.643	11855.58
591.003	11949.13
591.362	11938.29
591.721	11882.24
592.08	11869.82
592.44	11880.66
592.799	11870.27
593.158	11891.96
593.517	11797.05
593.876	11867.56
594.235	11887.22
594.593	11856.93
594.952	11808.8
595.311	11743.72
595.67	11808.57
596.029	11866.2
596.387	11792.08
596.746	11836.82
597.104	11753.89
597.463	11804.96
597.822	11907.1
598.18	11721.34
598.538	11786.43
598.897	11795.69
599.255	11699.88
599.613	11871.4
599.972	11820.55
600.33	11872.07
600.688	11743.26
601.046	11808.57
601.404	11782.81
601.762	11801.79
602.12	11881.57
602.478	11816.48
602.836	11811.74
603.194	11762.7
603.552	11804.96
603.91	11714.11
604.268	11817.16
604.625	11755.02
604.983	11827.33
605.341	11736.49
605.698	11773.09
606.056	11812.19
606.413	11860.1
606.771	11778.97
607.128	11861.23
607.485	11764.73
607.843	11831.17
608.2	11880.89
608.557	11894.22
608.914	11896.48
609.272	11849.93
609.629	11791.62
609.986	11951.17
610.343	11857.61
610.7	11951.39
611.057	11946.42
611.414	11896.48
611.771	11937.38
612.127	11953.43
612.484	11927.21
612.841	11990.04
613.198	11918.63
613.554	11993.43
613.911	12025.29
614.267	12003.6
614.624	11962.24
614.98	11979.19
615.337	12024.16
615.693	12046.99
616.05	12040.21
616.406	12094.89
616.762	12006.76
617.118	11983.26
617.475	12000.66
617.831	12117.27
618.187	12064.39
618.543	12056.02
618.899	12133.76
619.255	12118.62
619.611	12063.93
619.967	12069.58
620.323	12133.99
620.678	12106.64
621.034	12019.19
621.39	12089.92
621.746	12016.93
622.101	12141.22
622.457	12037.72
622.812	12109.13
623.168	12034.33
623.523	12141.45
623.879	12123.59
624.234	12069.13
624.589	12120.43
624.945	12087.89
625.3	12159.52
625.655	12125.18
626.01	12109.81
626.365	12089.47
626.72	12156.81
627.075	12066.19
627.43	12029.36
627.785	12018.29
628.14	12083.82
628.495	11952.07
628.85	12052.41
629.205	11927.21
629.559	11971.06
629.914	11990.72
630.269	11854
630.623	11952.3
630.978	11978.74
631.332	11984.16
631.687	11948.68
632.041	11922.02
632.396	11925.41
632.75	11868.23
633.104	11881.79
633.459	11762.25
633.813	11825.97
634.167	11810.83
634.521	11811.74
634.875	11844.96
635.229	11831.62
635.583	11769.48
635.937	11750.72
636.291	11714.11
636.645	11735.58
636.999	11667.33
637.352	11729.93
637.706	11642.02
638.06	11759.31
638.413	11620.78
638.767	11632.53
639.121	11581.69
639.474	11576.26
639.828	11587.34
640.181	11588.01
640.534	11588.01
640.888	11540.56
641.241	11489.94
641.594	11546.21
641.947	11503.95
642.301	11508.24
642.654	11503.04
643.007	11484.97
643.36	11536.26
643.713	11491.07
644.066	11493.55
644.419	11414.46
644.771	11357.74
645.124	11211.53
645.477	11264.86
645.83	11204.52
646.182	11082.49
646.535	11099.89
646.888	11094.92
647.24	11073.45
647.593	11115.71
647.945	11123.39
648.298	11035.26
648.65	11035.94
649.002	10992.32
649.355	11089.72
649.707	10996.84
650.059	11123.17
650.411	11238.42
650.763	11254.01
651.115	11407.23
651.467	11289.04
651.819	11347.12
652.171	11338.3
652.523	11283.84
652.875	11228.7
653.227	11252.66
653.578	11247.23
653.93	11299.89
654.282	11235.03
654.633	11282.26
654.985	11203.84
655.337	11296.04
655.688	11275.71
656.039	11309.83
656.391	11216.72
656.742	11208.82
657.094	11249.72
657.445	11317.06
657.796	11305.76
658.147	11223.28
658.498	11260.79
658.849	11363.61
659.2	11317.74
659.551	11251.3
659.902	11328.36
660.253	11275.93
660.604	11290.62
660.955	11242.49
661.306	11319.55
661.656	11281.81
662.007	11352.99
662.358	11366.78
662.708	11275.48
663.059	11270.73
663.409	11290.4
663.76	11340.11
664.11	11343.73
664.461	11371.52
664.811	11310.96
665.161	11290.62
665.511	11264.63
665.862	11416.95
666.212	11298.53
666.562	11292.43
666.912	11351.18
667.262	11274.35
667.612	11351.64
667.962	11308.93
668.312	11308.25
668.662	11348.02
669.011	11290.4
669.361	11262.37
669.711	11267.34
670.06	11324.74
670.41	11274.35
670.76	11255.82
671.109	11294.69
671.459	11262.15
671.808	11246.55
672.157	11321.58
672.507	11191.87
672.856	11191.87
673.205	11151.19
673.554	11210.85
673.904	11190.06
674.253	11188.25
674.602	11185.09
674.951	11009.72
675.3	10971.08
675.649	11108.25
675.998	11127.46
676.346	11158.2
676.695	11165.88
677.044	11091.98
677.393	11082.04
677.741	11123.39
678.09	11068.03
678.438	11063.96
678.787	11107.8
679.135	10992.78
679.484	10996.62
679.832	10964.08
680.181	10969.05
680.529	10959.33
680.877	10940.35
681.225	10936.73
681.573	10960.23
681.922	10929.05
682.27	10860.8
682.618	10840.92
682.966	10856.06
683.314	10803.4
683.661	10861.93
684.009	10793.01
684.357	10737.19
684.705	10739
685.053	10714.59
685.4	10647.47
685.748	10601.37
686.095	10662.84
686.443	10572.22
686.79	10557.76
687.138	10565.67
687.485	10520.92
687.832	10533.8
688.18	10458.33
688.527	10380.14
688.874	10400.48
689.221	10364.54
689.568	10346.47
689.915	10322.06
690.262	10368.61
690.609	10277.54
690.956	10233.93
691.303	10258.11
691.65	10122.06
691.997	10189.86
692.344	10093.82
692.69	10095.85
693.037	10080.03
693.383	10021.28
693.73	10007.27
694.077	9982.41
694.423	9939.47
694.769	9906.7
695.116	9851.79
695.462	9837.55
695.808	9823.32
696.155	9805.24
696.501	9758.91
696.847	9725.24
697.193	9675.52
697.539	9666.03
697.885	9594.39
698.231	9543.55
698.577	9594.85
698.923	9472.14
699.269	9429.88
699.614	9393.95
699.96	9390.78
700.306	9430.33
700.651	9351.24
700.997	9296.32
701.342	9216.55
701.688	9266.72
702.033	9237.34
702.379	9152.6
702.724	9214.29
703.069	9172.94
703.415	9071.24
703.76	9053.39
704.105	9013.17
704.45	9004.13
704.795	8941.76
705.14	8840.74
705.485	8847.52
705.83	8857.24
706.175	8861.53
706.52	8853.85
706.865	8818.14
707.209	8762.55
707.554	8766.85
707.899	8761.87
708.243	8739.05
708.588	8718.49
708.932	8641.2
709.277	8691.37
709.621	8569.56
709.966	8585.38
710.31	8539.96
710.654	8509.9
710.998	8541.77
711.342	8536.34
711.687	8430.36
712.031	8443.01
712.375	8412.96
712.719	8387.42
713.063	8368.89
713.407	8404.37
713.75	8366.4
714.094	8350.13
714.438	8348.55
714.782	8268.78
715.125	8269.91
715.469	8305.61
715.812	8290.47
716.156	8206.41
716.499	8220.87
716.843	8184.04
717.186	8169.57
717.53	8258.16
717.873	8180.65
718.216	8093.42
718.559	8143.36
718.902	8066.3
719.246	8100.2
719.589	8126.18
719.932	8056.36
720.275	8074.89
720.617	8102.91
720.96	8038.73
721.303	8073.76
721.646	8045.73
721.989	8000.09
722.331	8057.26
722.674	8024.04
723.016	7985.85
723.359	7962.35
723.701	7993.31
724.044	7942.23
724.386	7924.16
724.729	7910.15
725.071	7884.38
725.413	7941.78
725.755	7894.78
726.097	7920.31
726.439	7833.08
726.782	7839.86
727.124	7922.57
727.465	7854.33
727.807	7864.72
728.149	7844.16
728.491	7892.74
728.833	7899.75
729.175	7897.49
729.516	7850.49
729.858	7881.67
730.199	7824.5
730.541	7874.89
730.882	7840.32
731.224	7831.28
731.565	7785.85
731.906	7869.02
732.248	7792.86
732.589	7813.2
732.93	7780.66
733.271	7786.08
733.612	7774.56
733.953	7797.15
734.294	7882.58
734.635	7804.61
734.976	7855.68
735.317	7820.88
735.658	7798.06
735.999	7828.57
736.339	7852.75
736.68	7869.24
737.021	7791.73
737.361	7768.45
737.702	7894.33
738.042	7841.67
738.383	7829.7
738.723	7850.26
739.063	7804.61
739.404	7840.99
739.744	7878.28
740.084	7888.45
740.424	7859.98
740.764	7882.8
741.104	7893.87
741.444	7839.19
741.784	7968.45
742.124	7889.35
742.464	7956.25
742.804	7963.03
743.143	8003.7
743.483	8005.28
743.823	7981.1
744.162	7978.39
744.502	8117.15
744.841	8076.02
745.181	8136.13
745.52	8140.65
745.86	8208.44
746.199	8207.99
746.538	8199.63
746.877	8245.28
747.216	8359.62
747.556	8326.41
747.895	8343.81
748.234	8421.54
748.573	8509.23
748.911	8539.51
749.25	8598.04
749.589	8663.8
749.928	8757.81
750.267	8858.14
750.605	8834.64
750.944	8963.22
751.283	9037.57
751.621	9181.3
751.96	9134.07
752.298	9272.6
752.636	9465.58
752.975	9569.08
753.313	9594.39
753.651	9674.39
753.989	9783.54
754.327	9895.18
754.666	9946.25
755.004	10066.92
755.342	10216.75
755.679	10380.36
756.017	10504.88
756.355	10684.08
756.693	10815.38
757.031	10915.49
757.368	11071.42
757.706	11164.75
