Data from hue_110_FLMS001491_00020.txt Node
Date: Tue Feb 07 17:00:58 GMT 2017
User: dcchb
Spectrometer: FLMS00149
Trigger mode: 0
Integration Time (sec): 2.000000E-2
Scans to average: 10
Electric dark correction enabled: true
Nonlinearity correction enabled: false
Boxcar width: 0
XAxis mode: Wavelengths
Number of Pixels in Spectrum: 2048
>>>>>Begin Spectral Data<<<<<
341.393	-31.43
341.776	-31.43
342.16	-31.43
342.543	-46.57
342.927	-75.49
343.31	-69.62
343.693	-65.1
344.077	-66.23
344.46	-60.58
344.843	-36.62
345.226	-42.5
345.61	-47.02
345.993	-8.6
346.376	-13.57
346.759	14
347.142	34.11
347.525	46.54
347.908	54.67
348.291	63.26
348.674	95.58
349.057	101.68
349.44	119.98
349.823	132.86
350.206	163.82
350.588	195.69
350.971	227.55
351.354	215.12
351.737	226.19
352.119	249.02
352.502	267.32
352.884	288.34
353.267	303.25
353.65	321.11
354.032	286.53
354.414	293.31
354.797	309.13
355.179	338.06
355.562	310.71
355.944	296.02
356.326	325.4
356.709	351.39
357.091	317.04
357.473	344.38
357.855	315.68
358.238	342.8
358.62	343.25
359.002	337.38
359.384	344.61
359.766	346.42
360.148	341.9
360.53	325.63
360.912	347.77
361.294	319.75
361.676	333.08
362.057	336.7
362.439	331.73
362.821	337.15
363.203	316.59
363.584	322.69
363.966	312.07
364.348	340.77
364.729	322.69
365.111	310.03
365.493	308
365.874	295.57
366.256	311.39
366.637	308.23
367.019	302.12
367.4	312.75
367.781	309.58
368.163	313.2
368.544	301.45
368.925	320.43
369.306	296.48
369.688	310.49
370.069	320.2
370.45	317.94
370.831	308.45
371.212	315.46
371.593	307.55
371.974	320.43
372.355	322.46
372.736	310.71
373.117	315.91
373.498	321.11
373.879	296.7
374.26	318.62
374.641	329.47
375.021	328.79
375.402	316.14
375.783	324.95
376.163	333.08
376.544	312.07
376.925	324.5
377.305	331.73
377.686	333.99
378.066	311.84
378.447	320.2
378.827	331.05
379.208	336.02
379.588	343.71
379.968	302.8
380.349	340.99
380.729	324.72
381.109	341.67
381.489	324.05
381.87	348.9
382.25	340.32
382.63	354.33
383.01	334.67
383.39	329.02
383.77	345.97
384.15	358.85
384.53	340.99
384.91	355.23
385.29	343.93
385.67	354.33
386.049	347.77
386.429	353.87
386.809	342.35
387.189	364.95
387.568	350.49
387.948	362.46
388.328	340.99
388.707	352.97
389.087	358.85
389.466	375.12
389.846	363.59
390.225	359.52
390.605	362.91
390.984	375.57
391.363	372.18
391.743	364.72
392.122	360.88
392.501	336.47
392.881	384.38
393.26	392.07
393.639	376.47
394.018	352.74
394.397	360.88
394.776	382.8
395.155	376.7
395.534	386.42
395.913	367.21
396.292	395.23
396.671	376.02
397.05	388.45
397.429	391.39
397.808	390.71
398.186	376.25
398.565	401.11
398.944	386.42
399.323	390.71
399.701	392.74
400.08	389.58
400.458	384.83
400.837	398.17
401.215	389.35
401.594	407.66
401.972	392.97
402.351	394.55
402.729	404.04
403.107	417.15
403.486	405.85
403.864	398.85
404.242	410.6
404.62	416.25
404.999	390.48
405.377	423.93
405.755	413.76
406.133	419.18
406.511	413.99
406.889	420.09
407.267	411.5
407.645	441.1
408.023	439.07
408.401	444.27
408.779	450.6
409.156	465.06
409.534	446.75
409.912	458.5
410.29	468.9
410.667	459.86
411.045	468.67
411.422	466.64
411.8	463.7
412.178	466.64
412.555	469.35
412.933	464.61
413.31	497.37
413.687	483.81
414.065	502.35
414.442	483.36
414.819	487.2
415.197	508
415.574	479.07
415.951	488.11
416.328	486.75
416.705	497.37
417.082	502.12
417.46	498.73
417.837	516.36
418.214	505.06
418.591	517.71
418.967	517.49
419.344	537.6
419.721	540.54
420.098	547.09
420.475	542.57
420.852	525.17
421.228	521.55
421.605	530.59
421.982	545.51
422.358	535.79
422.735	560.42
423.111	550.25
423.488	546.64
423.864	569.69
424.241	545.96
424.617	554.55
424.994	565.17
425.37	543.25
425.746	578.28
426.123	570.37
426.499	585.96
426.875	583.93
427.251	570.14
427.627	591.61
428.003	599.52
428.379	611.72
428.756	584.83
429.132	631.83
429.507	609.46
429.883	602.68
430.259	652.62
430.635	620.31
431.011	627.77
431.387	632.51
431.763	649.01
432.138	637.94
432.514	655.56
432.89	660.08
433.265	672.96
433.641	679.29
434.016	690.36
434.392	693.98
434.767	692.62
435.143	718.84
435.518	719.74
435.894	715.67
436.269	716.58
436.644	723.13
437.02	734.88
437.395	738.72
437.77	754.77
438.145	723.81
438.52	755.67
438.895	742.57
439.271	759.51
439.646	783.02
440.021	786.18
440.395	766.29
440.77	787.76
441.145	795.67
441.52	808.78
441.895	805.61
442.27	791.83
442.645	828.66
443.019	822.79
443.394	794.54
443.769	808.55
444.143	817.14
444.518	826.18
444.892	821.43
445.267	838.16
445.641	842.9
446.016	853.3
446.39	848.55
446.764	845.84
447.139	853.3
447.513	840.19
447.887	847.65
448.262	887.42
448.636	875.9
449.01	877.02
449.384	897.14
449.758	903.92
450.132	914.09
450.506	894.2
450.88	928.32
451.254	922
451.628	939.62
452.002	962.45
452.376	936.23
452.75	959.51
453.123	956.12
453.497	983.24
453.871	991.15
454.244	968.77
454.618	977.59
454.992	1022.56
455.365	1007.42
455.739	1041.54
456.112	1050.35
456.486	1051.48
456.859	1065.72
457.232	1092.84
457.606	1086.74
457.979	1073.86
458.352	1104.59
458.725	1105.27
459.099	1127.64
459.472	1152.27
459.845	1154.53
460.218	1163.57
460.591	1199.73
460.964	1225.26
461.337	1205.38
461.71	1223
462.083	1232.04
462.456	1241.99
462.829	1258.03
463.201	1298.26
463.574	1309.1
463.947	1330.35
464.32	1341.65
464.692	1367.86
465.065	1370.12
465.438	1387.97
465.81	1406.95
466.183	1442.66
466.555	1459.38
466.928	1461.19
467.3	1492.83
467.672	1523.34
468.045	1557.01
468.417	1569.89
468.789	1573.28
469.161	1593.84
469.534	1633.16
469.906	1653.5
470.278	1689.43
470.65	1719.26
471.022	1717.23
471.394	1792.26
471.766	1799.49
472.138	1822.76
472.51	1898.69
472.882	1951.57
473.253	1950.67
473.625	1993.38
473.997	2041.74
474.369	2082.42
474.74	2109.76
475.112	2174.84
475.484	2210.1
475.855	2244.67
476.227	2298.23
476.598	2379.36
476.97	2427.72
477.341	2486.02
477.713	2549.52
478.084	2603.08
478.455	2689.41
478.827	2756.75
479.198	2835.17
479.569	2895.95
479.94	3021.15
480.311	3047.82
480.682	3123.29
481.053	3218.66
481.424	3327.36
481.795	3364.64
482.166	3486.22
482.537	3554.92
482.908	3666.1
483.279	3786.33
483.65	3871.3
484.021	4001.46
484.391	4101.12
484.762	4140.22
485.133	4286.88
485.503	4380.21
485.874	4549.7
486.244	4615.01
486.615	4709.92
486.985	4868.78
487.356	5032.4
487.726	5058.84
488.097	5241.88
488.467	5313.07
488.837	5476
489.207	5640.06
489.578	5758.7
489.948	5830.79
490.318	6005.7
490.688	6111.24
491.058	6275.53
491.428	6397.11
491.798	6538.57
492.168	6726.59
492.538	6850.2
492.908	6925
493.278	7088.84
493.648	7141.72
494.017	7326.8
494.387	7517.98
494.757	7563.85
495.126	7712.33
495.496	7853.56
495.866	7931.08
496.235	8107.12
496.605	8235.7
496.974	8344.17
497.344	8491.97
497.713	8607.67
498.082	8632.08
498.452	8851.28
498.821	8959.75
499.19	9047.43
499.559	9148.67
499.928	9287.65
500.298	9321.32
500.667	9528.55
501.036	9554.08
501.405	9668.21
501.774	9672.5
502.143	9851.48
502.512	9936.22
502.88	10015.54
503.249	10108.65
503.618	10134.18
503.987	10182.99
504.356	10431.12
504.724	10497.11
505.093	10581.4
505.462	10578.01
505.83	10687.61
506.199	10755.86
506.567	10997.21
506.936	10924.44
507.304	11054.61
507.672	11110.2
508.041	11161.95
508.409	11253.02
508.777	11370.31
509.145	11452.11
509.514	11507.25
509.882	11635.16
510.25	11614.6
510.618	11625.89
510.986	11725.78
511.354	11794.48
511.722	11874.93
512.09	11973.23
512.458	12030.18
512.826	12111.76
513.193	12076.73
513.561	12147.01
513.929	12234.01
514.297	12327.8
514.664	12288.25
515.032	12369.38
515.4	12493.67
515.767	12505.87
516.135	12540.9
516.502	12443.95
516.869	12685.08
517.237	12693.89
517.604	12618.19
517.972	12745.41
518.339	12790.84
518.706	12845.98
519.073	12853.66
519.44	12898.18
519.808	13022.02
520.175	12890.72
520.542	13040.32
520.909	13115.12
521.276	13104.73
521.643	13170.94
522.009	13243.71
522.376	13278.51
522.743	13304.27
523.11	13420.42
523.477	13483.02
523.843	13535.68
524.21	13619.74
524.577	13587.43
524.943	13558.73
525.31	13628.33
525.676	13703.81
526.043	13741.32
526.409	13730.47
526.776	13786.29
527.142	13825.39
527.508	13869.68
527.874	13969.11
528.241	13830.58
528.607	13879.17
528.973	13902.9
529.339	13873.29
529.705	14000.07
530.071	13996.23
530.437	13969.11
530.803	14073.29
531.169	14046.62
531.535	14001.65
531.901	13955.78
532.267	14004.59
532.632	14100.41
532.998	14034.42
533.364	14045.27
533.73	13970.47
534.095	14080.07
534.461	14002.78
534.826	14017.02
535.192	14051.59
535.557	14092.27
535.923	14056.79
536.288	14001.2
536.653	14016.79
537.019	13981.77
537.384	13927.53
537.749	13978.15
538.114	13950.13
538.479	13882.11
538.845	13900.64
539.21	13878.72
539.575	13887.53
539.94	13875.33
540.305	13888.43
540.67	13747.65
541.034	13722.11
541.399	13797.14
541.764	13791.49
542.129	13693.19
542.494	13709
542.858	13610.93
543.223	13616.8
543.587	13653.86
543.952	13558.95
544.316	13616.58
544.681	13487.09
545.045	13517.37
545.41	13514.66
545.774	13510.37
546.138	13445.06
546.503	13441.67
546.867	13356.7
547.231	13426.07
547.595	13317.15
547.959	13284.61
548.324	13247.77
548.688	13317.38
549.052	13197.83
549.416	13170.26
549.779	13145.85
550.143	13145.85
550.507	13215.01
550.871	13213.88
551.235	13050.94
551.599	13133.2
551.962	13090.72
552.326	13002.81
552.689	13115.57
553.053	12987.22
553.417	13001.45
553.78	13059.3
554.143	12932.98
554.507	13074.67
554.87	13003.94
555.234	13067.21
555.597	12847.78
555.96	12858.63
556.323	12944.5
556.686	12887.56
557.05	12899.08
557.413	12822.93
557.776	12868.57
558.139	12985.41
558.502	12894.56
558.865	12881.23
559.228	12908.57
559.59	12928.91
559.953	12900.21
560.316	13004.62
560.679	12957.39
561.041	12889.59
561.404	12963.26
561.767	13057.95
562.129	12903.15
562.492	12981.79
562.854	13001
563.217	13020.21
563.579	12946.54
563.941	12988.34
564.304	13054.78
564.666	13065.86
565.028	12985.63
565.39	13039.19
565.753	13071.73
566.115	13158.96
566.477	13050.72
566.839	13137.72
567.201	13159.41
567.563	13075.8
567.925	13225.4
568.287	13164.16
568.648	13093.43
569.01	13198.51
569.372	13254.55
569.734	13143.82
570.095	13303.14
570.457	13328
570.819	13276.47
571.18	13271.5
571.542	13327.55
571.903	13328.45
572.265	13265.4
572.626	13239.86
572.987	13347.88
573.349	13363.93
573.71	13379.07
574.071	13347.66
574.432	13387.88
574.794	13462.68
575.155	13444.15
575.516	13452.51
575.877	13436.02
576.238	13437.15
576.599	13482.57
576.96	13425.85
577.32	13465.85
577.681	13508.11
578.042	13475.56
578.403	13479.18
578.763	13495.45
579.124	13489.35
579.485	13612.74
579.845	13561.21
580.206	13412.29
580.566	13411.16
580.927	13510.14
581.287	13545.39
581.648	13515.11
582.008	13577.71
582.368	13498.84
582.728	13481.67
583.089	13498.16
583.449	13510.59
583.809	13407.99
584.169	13431.27
584.529	13476.02
584.889	13557.37
585.249	13420.88
585.609	13480.99
585.969	13433.76
586.329	13311.95
586.688	13467.2
587.048	13400.54
587.408	13331.84
587.768	13402.8
588.127	13426.3
588.487	13299.98
588.846	13411.16
589.206	13370.71
589.565	13370.48
589.925	13393.31
590.284	13351.5
590.643	13407.54
591.003	13371.84
591.362	13424.72
591.721	13312.18
592.08	13328.9
592.44	13297.94
592.799	13311.5
593.158	13317.15
593.517	13255.23
593.876	13281.22
594.235	13267.89
594.593	13289.35
594.952	13273.54
595.311	13264.72
595.67	13252.74
596.029	13353.31
596.387	13320.09
596.746	13308.34
597.104	13187.89
597.463	13247.55
597.822	13326.87
598.18	13229.24
598.538	13129.58
598.897	13248.68
599.255	13157.15
599.613	13357.37
599.972	13253.87
600.33	13285.74
600.688	13190.83
601.046	13233.54
601.404	13230.6
601.762	13246.64
602.12	13304.04
602.478	13218.4
602.836	13310.82
603.194	13193.76
603.552	13295.46
603.91	13201.22
604.268	13269.47
604.625	13168
604.983	13222.69
605.341	13192.18
605.698	13242.12
606.056	13310.14
606.413	13196.02
606.771	13366.87
607.128	13275.34
607.485	13275.12
607.843	13294.33
608.2	13333.19
608.557	13358.5
608.914	13251.61
609.272	13368.22
609.629	13341.33
609.986	13398.5
610.343	13375
610.7	13430.59
611.057	13291.39
611.414	13340.43
611.771	13387.43
612.127	13375.23
612.484	13445.51
612.841	13440.76
613.198	13453.64
613.554	13417.49
613.911	13473.76
614.267	13516.69
614.624	13473.98
614.98	13432.4
615.337	13544.94
615.693	13487.31
616.05	13492.51
616.406	13551.49
616.762	13532.51
617.118	13478.73
617.475	13547.2
617.831	13669.68
618.187	13643.47
618.543	13640.98
618.899	13694.09
619.255	13701.55
619.611	13630.59
619.967	13669.91
620.323	13727.31
620.678	13610.93
621.034	13607.09
621.39	13569.35
621.746	13539.06
622.101	13741.32
622.457	13613.64
622.812	13643.24
623.168	13626.07
623.523	13620.64
623.879	13683.69
624.234	13701.09
624.589	13717.59
624.945	13597.59
625.3	13595.79
625.655	13590.81
626.01	13719.17
626.365	13644.6
626.72	13603.7
627.075	13553.75
627.43	13620.42
627.785	13504.94
628.14	13607.76
628.495	13563.25
628.85	13610.02
629.205	13537.03
629.559	13606.86
629.914	13540.87
630.269	13526.41
630.623	13494.55
630.978	13535.9
631.332	13604.37
631.687	13611.15
632.041	13478.05
632.396	13560.99
632.75	13429.01
633.104	13501.1
633.459	13396.02
633.813	13458.62
634.167	13413.42
634.521	13447.99
634.875	13436.47
635.229	13434.43
635.583	13353.08
635.937	13319.64
636.291	13315.57
636.645	13388.79
636.999	13262.24
637.352	13324.61
637.706	13201.45
638.06	13351.27
638.413	13193.54
638.767	13198.73
639.121	13196.25
639.474	13168
639.828	13153.99
640.181	13224.5
640.534	13249.81
640.888	13119.19
641.241	13108.34
641.594	13148.34
641.947	13149.02
642.301	13162.13
642.654	13133.2
643.007	13152.41
643.36	13110.6
643.713	13099.08
644.066	13102.01
644.419	13039.64
644.771	12969.59
645.124	12946.09
645.477	12790.84
645.83	12747.22
646.182	12740.89
646.535	12678.97
646.888	12747.22
647.24	12605.53
647.593	12699.31
647.945	12612.31
648.298	12610.73
648.65	12544.29
649.002	12555.14
649.355	12707.22
649.707	12617.51
650.059	12724.17
650.411	12822.93
650.763	12875.81
651.115	12983.15
651.467	12949.48
651.819	12984.73
652.171	12913.09
652.523	12859.99
652.875	12890.49
653.227	12892.98
653.578	13030.6
653.93	12923.49
654.282	12881.23
654.633	12799.2
654.985	12846.43
655.337	12840.78
655.688	12885.3
656.039	13004.62
656.391	12892.75
656.742	12847.33
657.094	12954
657.445	12949.25
657.796	13004.84
658.147	12836.26
658.498	12932.75
658.849	12882.81
659.2	12979.08
659.551	12834.45
659.902	12952.41
660.253	12914.45
660.604	12866.31
660.955	12826.09
661.306	12956.26
661.656	12858.86
662.007	13008.91
662.358	13012.98
662.708	12913.77
663.059	12875.81
663.409	12839.2
663.76	12965.07
664.11	12979.08
664.461	12958.74
664.811	12985.86
665.161	13034.67
665.511	12954.45
665.862	13018.17
666.212	12954
666.562	12984.05
666.912	12991.28
667.262	12938.63
667.612	12921.23
667.962	12977.72
668.312	12956.26
668.662	13046.65
669.011	12984.28
669.361	12927.33
669.711	12921
670.06	12894.79
670.41	12940.89
670.76	12883.49
671.109	12889.82
671.459	12889.36
671.808	12930.95
672.157	12891.62
672.507	12829.03
672.856	12839.42
673.205	12879.42
673.554	12890.27
673.904	12844.62
674.253	12855.92
674.602	12836.03
674.951	12623.38
675.3	12549.71
675.649	12762.59
675.998	12704.74
676.346	12689.14
676.695	12718.07
677.044	12688.47
677.393	12757.16
677.741	12692.53
678.09	12684.4
678.438	12618.86
678.787	12657.28
679.135	12631.52
679.484	12561.46
679.832	12617.96
680.181	12583.38
680.529	12610.95
680.877	12601.69
681.225	12548.58
681.573	12563.95
681.922	12505.87
682.27	12445.76
682.618	12382.26
682.966	12423.84
683.314	12293.67
683.661	12293
684.009	12271.53
684.357	12294.58
684.705	12288.93
685.053	12261.58
685.4	12324.86
685.748	12158.31
686.095	12157.41
686.443	12174.13
686.79	12157.86
687.138	12187.24
687.485	12141.14
687.832	12140.01
688.18	12082.15
688.527	12002.83
688.874	11962.61
689.221	11991.53
689.568	11934.14
689.915	11938.88
690.262	11876.74
690.609	11827.25
690.956	11856.17
691.303	11701.15
691.65	11694.14
691.997	11709.51
692.344	11688.27
692.69	11627.25
693.037	11640.81
693.383	11521.49
693.73	11515.84
694.077	11447.59
694.423	11450.98
694.769	11408.95
695.116	11292.34
695.462	11357.65
695.808	11288.5
696.155	11312.68
696.501	11224.78
696.847	11158.34
697.193	11163.99
697.539	11139.35
697.885	11051.45
698.231	11015.97
698.577	11046.02
698.923	10964.9
699.269	10884.45
699.614	10827.95
699.96	10841.06
700.306	10814.16
700.651	10719.7
700.997	10748.18
701.342	10704.56
701.688	10637.67
702.033	10641.51
702.379	10638.12
702.724	10596.09
703.069	10577.56
703.415	10488.52
703.76	10448.98
704.105	10453.5
704.45	10420.95
704.795	10337.34
705.14	10260.06
705.485	10404.91
705.83	10195.2
706.175	10239.49
706.52	10202.43
706.865	10153.39
707.209	10145.48
707.554	10077.91
707.899	10129.66
708.243	10032.04
708.588	10056.44
708.932	9931.7
709.277	9931.25
709.621	9927.41
709.966	9883.57
710.31	9917.01
710.654	9840.41
710.998	9794.53
711.342	9868.43
711.687	9731.93
712.031	9725.61
712.375	9704.14
712.719	9696
713.063	9733.74
713.407	9689
713.75	9665.95
714.094	9655.78
714.438	9719.28
714.782	9560.41
715.125	9528.1
715.469	9546.63
715.812	9526.06
716.156	9536.68
716.499	9485.84
716.843	9550.92
717.186	9440.42
717.53	9530.36
717.873	9502.33
718.216	9406.97
718.559	9364.71
718.902	9329.68
719.246	9413.98
719.589	9373.07
719.932	9304.83
720.275	9312.06
720.617	9260.31
720.96	9346.86
721.303	9267.76
721.646	9324.26
721.989	9243.13
722.331	9333.3
722.674	9203.59
723.016	9296.01
723.359	9255.79
723.701	9324.94
724.044	9172.4
724.386	9131.5
724.729	9263.92
725.071	9194.55
725.413	9223.47
725.755	9144.15
726.097	9134.89
726.439	9163.59
726.782	9079.3
727.124	9178.73
727.465	9111.16
727.807	9091.05
728.149	9058.96
728.491	9047.88
728.833	9073.19
729.175	9075.68
729.516	9084.72
729.858	9035.68
730.199	9061.89
730.541	9063.25
730.882	9066.64
731.224	9077.04
731.565	8995.23
731.906	9037.04
732.248	9009.01
732.589	9046.53
732.93	9030.93
733.271	9015.79
733.612	9101.67
733.953	9057.15
734.294	9066.64
734.635	8997.26
734.976	9043.36
735.317	8985.51
735.658	8977.83
735.999	9046.98
736.339	8998.85
736.68	9059.63
737.021	9074.32
737.361	9072.74
737.702	9066.19
738.042	9035.91
738.383	9063.02
738.723	9115.9
739.063	9049.92
739.404	9147.54
739.744	9071.16
740.084	9060.76
740.424	9098.28
740.764	9100.31
741.104	9163.59
741.444	9166.75
741.784	9112.29
742.124	9188.9
742.464	9245.17
742.804	9149.35
743.143	9209.69
743.483	9223.7
743.823	9221.66
744.162	9202
744.502	9281.78
744.841	9247.43
745.181	9402.45
745.52	9321.32
745.86	9369.91
746.199	9418.04
746.538	9458.72
746.877	9475.89
747.216	9515.67
747.556	9553.18
747.895	9690.58
748.234	9659.62
748.573	9689.9
748.911	9801.08
749.25	9787.07
749.589	9869.56
749.928	9969.22
750.267	9978.93
750.605	10052.15
750.944	10102.55
751.283	10241.07
751.621	10324.69
751.96	10340.28
752.298	10435.42
752.636	10633.15
752.975	10664.34
753.313	10702.08
753.651	10886.25
753.989	10895.07
754.327	11060.26
754.666	11090.32
755.004	11294.6
755.342	11363.75
755.679	11500.47
756.017	11469.74
756.355	11709.28
756.693	11811.2
757.031	12082.61
757.368	12081.48
757.706	12182.94
758.044	12330.51
758.381	12518.53
758.719	12690.73
759.056	12780.67
759.394	12996.25
