Data from hue_100_FLMS001491_00056.txt Node
Date: Tue Feb 07 17:03:22 GMT 2017
User: dcchb
Spectrometer: FLMS00149
Trigger mode: 0
Integration Time (sec): 2.000000E-2
Scans to average: 10
Electric dark correction enabled: true
Nonlinearity correction enabled: false
Boxcar width: 0
XAxis mode: Wavelengths
Number of Pixels in Spectrum: 2048
>>>>>Begin Spectral Data<<<<<
341.393	-29.05
341.776	-29.05
342.16	-29.05
342.543	-48.49
342.927	-78.54
343.31	-65.44
343.693	-60.24
344.077	-78.77
344.46	-72.44
344.843	-47.36
345.226	-51.2
345.61	-37.41
345.993	-13.91
346.376	24.73
346.759	7.78
347.142	17.73
347.525	37.39
347.908	61.11
348.291	78.51
348.674	99.08
349.057	100.44
349.44	116.71
349.823	150.38
350.206	173.88
350.588	205.52
350.971	200.77
351.354	213.43
351.737	210.26
352.119	250.04
352.502	252.97
352.884	271.5
353.267	294.55
353.65	293.42
354.032	294.55
354.414	292.52
354.797	306.08
355.179	329.58
355.562	321.9
355.944	337.72
356.326	340.88
356.709	345.17
357.091	341.11
357.473	359.86
357.855	322.58
358.238	340.2
358.62	330.26
359.002	332.52
359.384	340.65
359.766	343.82
360.148	333.42
360.53	353.54
360.912	325.74
361.294	337.94
361.676	333.88
362.057	332.97
362.439	335.91
362.821	312.18
363.203	325.97
363.584	330.71
363.966	321.45
364.348	319.64
364.729	327.77
365.111	318.96
365.493	330.26
365.874	328.68
366.256	299.75
366.637	340.43
367.019	309.92
367.4	318.28
367.781	314.21
368.163	334.1
368.544	294.78
368.925	323.48
369.306	311.96
369.688	311.5
370.069	314.89
370.45	314.67
370.831	317.15
371.212	292.52
371.593	326.19
371.974	310.83
372.355	304.05
372.736	331.84
373.117	322.12
373.498	301.79
373.879	303.14
374.26	318.28
374.641	322.58
375.021	319.41
375.402	301.33
375.783	311.96
376.163	315.12
376.544	321.67
376.925	319.64
377.305	323.93
377.686	333.65
378.066	337.27
378.447	340.88
378.827	329.58
379.208	336.59
379.588	333.88
379.968	343.37
380.349	330.49
380.729	323.93
381.109	328.45
381.489	359.41
381.87	333.2
382.25	342.01
382.63	334.78
383.01	335.91
383.39	355.34
383.77	336.59
384.15	351.5
384.53	356.47
384.91	359.86
385.29	349.47
385.67	354.67
386.049	356.02
386.429	364.84
386.809	357.38
387.189	369.81
387.568	368.22
387.948	364.61
388.328	361.9
388.707	356.93
389.087	353.54
389.466	359.86
389.846	368
390.225	366.87
390.605	357.6
390.984	372.74
391.363	378.39
391.743	359.19
392.122	350.37
392.501	379.07
392.881	389.92
393.26	394.89
393.639	376.81
394.018	367.55
394.397	389.02
394.776	391.5
395.155	392.86
395.534	398.05
395.913	389.47
396.292	394.21
396.671	392.63
397.05	393.76
397.429	401.22
397.808	387.21
398.186	392.63
398.565	419.3
398.944	380.2
399.323	389.47
399.701	381.33
400.08	398.51
400.458	394.44
400.837	416.13
401.215	419.07
401.594	419.3
401.972	431.73
402.351	424.27
402.729	409.58
403.107	434.21
403.486	455.23
403.864	429.47
404.242	447.77
404.62	424.49
404.999	427.21
405.377	422.46
405.755	424.72
406.133	443.48
406.511	432.86
406.889	429.47
407.267	449.13
407.645	455.23
408.023	440.31
408.401	447.32
408.779	438.51
409.156	462.91
409.534	458.62
409.912	472.85
410.29	460.88
410.667	454.1
411.045	469.47
411.422	475.34
411.8	484.38
412.178	509.01
412.555	477.83
412.933	481.89
413.31	492.74
413.687	485.51
414.065	506.53
414.442	494.1
414.819	479.18
415.197	525.06
415.574	535.9
415.951	508.33
416.328	512.18
416.705	500.42
417.082	520.31
417.46	513.08
417.837	517.15
418.214	527.54
418.591	553.08
418.967	537.03
419.344	552.17
419.721	538.39
420.098	557.82
420.475	562.57
420.852	562.57
421.228	551.72
421.605	568.22
421.982	575.9
422.358	589.24
422.735	570.03
423.111	590.37
423.488	580.87
423.864	581.1
424.241	563.47
424.617	592.4
424.994	597.37
425.37	598.73
425.746	592.17
426.123	601.66
426.499	609.35
426.875	619.52
427.251	632.85
427.627	635.34
428.003	641.21
428.379	645.05
428.756	642.79
429.132	635.34
429.507	655.67
429.883	643.92
430.259	653.87
430.635	656.35
431.011	656.35
431.387	660.42
431.763	672.4
432.138	684.15
432.514	690.93
432.89	718.95
433.265	710.14
433.641	720.98
434.016	706.29
434.392	740.19
434.767	753.75
435.143	748.33
435.518	761.66
435.894	767.76
436.269	753.98
436.644	757.59
437.02	770.93
437.395	742.23
437.77	767.31
438.145	798.5
438.52	780.19
438.895	799.85
439.271	820.64
439.646	801.21
440.021	827.42
440.395	822.9
440.77	810.7
441.145	837.14
441.52	831.49
441.895	831.49
442.27	855.22
442.645	843.24
443.019	884.37
443.394	858.38
443.769	860.87
444.143	878.72
444.518	899.74
444.892	871.94
445.267	885.05
445.641	892.73
446.016	901.54
446.39	896.35
446.764	909
447.139	899.51
447.513	916.68
447.887	925.05
448.262	935.67
448.636	923.46
449.01	965.05
449.384	939.51
449.758	932.05
450.132	965.5
450.506	963.24
450.88	958.72
451.254	955.1
451.628	993.52
452.002	981.32
452.376	998.26
452.75	1022.22
453.123	1033.52
453.497	1021.54
453.871	1028.55
454.244	1081.88
454.618	1042.33
454.992	1069.45
455.365	1091.82
455.739	1095.66
456.112	1127.98
456.486	1112.39
456.859	1132.72
457.232	1146.96
457.606	1157.81
457.979	1196
458.352	1196.45
458.725	1199.39
459.099	1210.46
459.472	1225.83
459.845	1268.77
460.218	1254.3
460.591	1269.44
460.964	1286.17
461.337	1303.79
461.71	1331.36
462.083	1313.96
462.456	1339.27
462.829	1382.21
463.201	1376.56
463.574	1388.99
463.947	1395.77
464.32	1419.5
464.692	1445.71
465.065	1447.74
465.438	1467.18
465.81	1500.4
466.183	1519.61
466.555	1541.53
466.928	1579.27
467.3	1601.41
467.672	1603.67
468.045	1640.96
468.417	1636.67
468.789	1684.8
469.161	1706.49
469.534	1750.34
469.906	1760.05
470.278	1790.11
470.65	1805.93
471.022	1857.45
471.394	1842.54
471.766	1927.28
472.138	1976.09
472.51	1995.07
472.882	2042.31
473.253	2123.43
473.625	2137.22
473.997	2182.19
474.369	2195.75
474.74	2216.76
475.112	2296.76
475.484	2370.66
475.855	2363.65
476.227	2402.52
476.598	2503.54
476.97	2539.47
477.341	2622.85
477.713	2708.5
478.084	2755.96
478.455	2825.79
478.827	2850.65
479.198	2968.83
479.569	3015.61
479.94	3124.31
480.311	3163.63
480.682	3271.65
481.053	3432.55
481.424	3529.5
481.795	3549.16
482.166	3654.92
482.537	3756.38
482.908	3841.81
483.279	3912.09
483.65	4048.81
484.021	4192.98
484.391	4272.98
484.762	4381.45
485.133	4463.71
485.503	4574.67
485.874	4703.93
486.244	4824.83
486.615	4946.41
486.985	5061.89
487.356	5208.55
487.726	5280.86
488.097	5482.21
488.467	5540.74
488.837	5738.93
489.207	5853.5
489.578	6027.74
489.948	6145.93
490.318	6257.11
490.688	6350.21
491.058	6515.86
491.428	6643.99
491.798	6821.16
492.168	6951.78
492.538	7125.11
492.908	7203.53
493.278	7444.87
493.648	7463.18
494.017	7657.52
494.387	7741.82
494.757	7941.36
495.126	8055.48
495.496	8102.48
495.866	8308.13
496.235	8391.29
496.605	8549.93
496.974	8711.51
497.344	8840.32
497.713	8954.21
498.082	9072.63
498.452	9211.16
498.821	9270.59
499.19	9323.02
499.559	9482.34
499.928	9646.4
500.298	9724.36
500.667	9866.28
501.036	9863.79
501.405	10035.54
501.774	10073.05
502.143	10182.66
502.512	10303.56
502.88	10416.1
503.249	10468.75
503.618	10554.85
503.987	10660.38
504.356	10755.97
504.724	10769.08
505.093	10953.71
505.462	11017.89
505.83	11129.52
506.199	11204.32
506.567	11313.93
506.936	11329.52
507.304	11514.37
507.672	11594.37
508.041	11576.52
508.409	11669.85
508.777	11867.58
509.145	11912.55
509.514	11877.53
509.882	12042.04
510.25	11972.89
510.618	12058.54
510.986	12177.86
511.354	12210.85
511.722	12281.81
512.09	12408.13
512.458	12391.41
512.826	12522.26
513.193	12567.45
513.561	12644.51
513.929	12688.35
514.297	12748.92
514.664	12861.68
515.032	12878.63
515.4	12965.63
515.767	12965.86
516.135	13035.01
516.502	12977.38
516.869	13147.55
517.237	13146.19
517.604	13131.28
517.972	13233.65
518.339	13257.83
518.706	13251.05
519.073	13363.14
519.44	13331.5
519.808	13490.37
520.175	13359.07
520.542	13541.66
520.909	13583.02
521.276	13620.76
521.643	13575.79
522.009	13733.75
522.376	13714.31
522.743	13831.37
523.11	13884.93
523.477	13916.8
523.843	13935.78
524.21	14101.87
524.577	14158.82
524.943	14092.84
525.31	14082.89
525.676	14275.66
526.043	14267.97
526.409	14243.79
526.776	14276.79
527.142	14322.66
527.508	14335.09
527.874	14319.95
528.241	14407.4
528.607	14410.57
528.973	14458.02
529.339	14440.4
529.705	14513.84
530.071	14648.98
530.437	14495.99
530.803	14620.05
531.169	14603.33
531.535	14494.63
531.901	14552.48
532.267	14463.9
532.632	14584.35
532.998	14554.97
533.364	14564.69
533.73	14573.5
534.095	14582.09
534.461	14554.74
534.826	14560.85
535.192	14530.79
535.557	14590.9
535.923	14541.86
536.288	14551.81
536.653	14491.02
537.019	14519.27
537.384	14538.02
537.749	14555.42
538.114	14480.4
538.479	14349.55
538.845	14423.22
539.21	14411.47
539.575	14325.6
539.94	14399.95
540.305	14339.38
540.67	14308.65
541.034	14198.82
541.399	14160.18
541.764	14216.22
542.129	14229.78
542.494	14127.19
542.858	14211.25
543.223	14093.06
543.587	14187.75
543.952	14039.5
544.316	14025.27
544.681	14056.68
545.045	14034.98
545.41	13969.68
545.774	13945.72
546.138	13933.74
546.503	13969.45
546.867	13853.07
547.231	13915.44
547.595	13867.76
547.959	13858.94
548.324	13797.48
548.688	13749.12
549.052	13752.05
549.416	13689.91
549.779	13694.43
550.143	13641.55
550.507	13722.68
550.871	13697.82
551.235	13598.16
551.599	13647.65
551.962	13569.01
552.326	13555.45
552.689	13644.03
553.053	13531.49
553.417	13493.53
553.78	13599.52
554.143	13460.99
554.507	13390.26
554.87	13478.16
555.234	13506.41
555.597	13386.41
555.96	13464.6
556.323	13486.3
556.686	13443.59
557.05	13477.94
557.413	13362.91
557.776	13410.37
558.139	13531.72
558.502	13467.99
558.865	13387.54
559.228	13426.64
559.59	13400.88
559.953	13447.88
560.316	13496.02
560.679	13460.54
561.041	13494.43
561.404	13536.47
561.767	13560.65
562.129	13503.92
562.492	13537.14
562.854	13487.88
563.217	13487.43
563.579	13416.02
563.941	13544.15
564.304	13539.4
564.666	13597.71
565.028	13611.72
565.39	13586.18
565.753	13662.79
566.115	13699.17
566.477	13658.27
566.839	13680.87
567.201	13711.6
567.563	13621.21
567.925	13660.08
568.287	13680.42
568.648	13700.98
569.01	13747.53
569.372	13839.96
569.734	13781.21
570.095	13804.03
570.457	13855.33
570.819	13877.25
571.18	13804.26
571.542	13923.8
571.903	13856.23
572.265	13967.19
572.626	13972.61
572.987	13970.58
573.349	13935.33
573.71	14023.68
574.071	14007.19
574.432	13999.05
574.794	14091.03
575.155	13960.64
575.516	13939.17
575.877	14001.54
576.238	14052.16
576.599	14061.42
576.96	14000.86
577.32	14001.09
577.681	14011.26
578.042	14057.13
578.403	14125.38
578.763	14098.03
579.124	14159.95
579.485	14187.52
579.845	14148.65
580.206	14142.78
580.566	14188.2
580.927	14072.95
581.287	14140.07
581.648	14049
582.008	14192.72
582.368	14158.37
582.728	14077.47
583.089	14097.36
583.449	14074.53
583.809	14087.86
584.169	14027.07
584.529	14123.34
584.889	14177.58
585.249	13969.45
585.609	14077.92
585.969	14108.43
586.329	14093.29
586.688	14110.91
587.048	13942.56
587.408	13995.89
587.768	13991.6
588.127	13976.68
588.487	13905.95
588.846	14081.31
589.206	13941.88
589.565	13914.31
589.925	13940.98
590.284	13920.86
590.643	13941.88
591.003	13961.31
591.362	13988.21
591.721	13910.24
592.08	13941.65
592.44	13954.08
592.799	13945.27
593.158	13849.9
593.517	13919.05
593.876	13882.22
594.235	13853.75
594.593	13906.63
594.952	13914.76
595.311	13880.19
595.67	13895.33
596.029	13957.92
596.387	13962.22
596.746	13922.22
597.104	13789.11
597.463	13752.73
597.822	13792.5
598.18	13811.04
598.538	13767.42
598.897	13912.05
599.255	13765.61
599.613	13979.84
599.972	13850.81
600.33	13916.8
600.688	13823.24
601.046	13860.07
601.404	13868.43
601.762	13929.45
602.12	13945.27
602.478	13864.82
602.836	13822.56
603.194	13821.43
603.552	13904.82
603.91	13779.4
604.268	13875.21
604.625	13754.99
604.983	13952.05
605.341	13758.61
605.698	13985.27
606.056	13885.16
606.413	13910.02
606.771	13908.66
607.128	13868.89
607.485	13860.53
607.843	13885.61
608.2	13913.63
608.557	14008.09
608.914	13869.34
609.272	13878.15
609.629	13981.65
609.986	14053.29
610.343	13950.47
610.7	14049.67
611.057	14031.37
611.414	14052.38
611.771	14063.23
612.127	14037.7
612.484	14084.47
612.841	14139.84
613.198	14060.75
613.554	14032.05
613.911	14171.93
614.267	14034.08
614.624	14132.38
614.98	14125.38
615.337	14112.5
615.693	14208.09
616.05	14171.93
616.406	14186.62
616.762	14140.29
617.118	14203.79
617.475	14114.76
617.831	14194.08
618.187	14314.75
618.543	14233.62
618.899	14326.73
619.255	14358.37
619.611	14245.15
619.967	14350.46
620.323	14364.92
620.678	14309.55
621.034	14185.49
621.39	14323.79
621.746	14199.05
622.101	14453.05
622.457	14269.55
622.812	14321.53
623.168	14326.28
623.523	14305.03
623.879	14348.65
624.234	14230.23
624.589	14303.45
624.945	14277.46
625.3	14361.3
625.655	14304.81
626.01	14296.9
626.365	14347.29
626.72	14237.69
627.075	14263.45
627.43	14263.45
627.785	14181.19
628.14	14333.51
628.495	14303.23
628.85	14161.08
629.205	14213.06
629.559	14260.29
629.914	14245.6
630.269	14241.98
630.623	14177.35
630.978	14166.73
631.332	14262.55
631.687	14198.6
632.041	14180.74
632.396	14187.07
632.75	14060.52
633.104	14175.09
633.459	14073.85
633.813	14053.97
634.167	14066.62
634.521	14104.81
634.875	14074.31
635.229	14071.37
635.583	13953.18
635.937	13963.12
636.291	13926.96
636.645	13991.82
636.999	13866.17
637.352	13965.83
637.706	13882.22
638.06	13895.33
638.413	13899.62
638.767	13875.21
639.121	13918.15
639.474	13796.35
639.828	13815.33
640.181	13789.57
640.534	13813.75
640.888	13777.59
641.241	13636.58
641.594	13713.86
641.947	13812.62
642.301	13718.83
642.654	13693.3
643.007	13749.12
643.36	13724.26
643.713	13695.56
644.066	13719.29
644.419	13567.88
644.771	13594.09
645.124	13478.16
645.477	13392.06
645.83	13296.7
646.182	13297.6
646.535	13200.43
646.888	13271.84
647.24	13192.75
647.593	13374.89
647.945	13311.16
648.298	13247.43
648.65	13218.96
649.002	13138.51
649.355	13214.21
649.707	13225.74
650.059	13330.37
650.411	13406.53
650.763	13441.33
651.115	13539.63
651.467	13556.8
651.819	13555.45
652.171	13452.85
652.523	13510.03
652.875	13443.14
653.227	13360.2
653.578	13536.01
653.93	13523.13
654.282	13465.96
654.633	13452.85
654.985	13590.25
655.337	13472.74
655.688	13581.66
656.039	13526.97
656.391	13378.73
656.742	13456.92
657.094	13469.35
657.445	13505.28
657.796	13474.77
658.147	13422.34
658.498	13445.17
658.849	13439.29
659.2	13430.93
659.551	13448.11
659.902	13421.67
660.253	13458.5
660.604	13483.81
660.955	13446.07
661.306	13457.6
661.656	13483.59
662.007	13446.98
662.358	13466.86
662.708	13439.07
663.059	13525.17
663.409	13423.93
663.76	13490.37
664.11	13498.5
664.461	13573.53
664.811	13592.74
665.161	13484.04
665.511	13574.21
665.862	13559.06
666.212	13518.84
666.562	13560.65
666.912	13447.88
667.262	13469.8
667.612	13530.59
667.962	13550.93
668.312	13507.54
668.662	13650.81
669.011	13451.95
669.361	13477.48
669.711	13453.3
670.06	13462.12
670.41	13428.22
670.76	13435.68
671.109	13483.59
671.459	13490.14
671.808	13412.63
672.157	13469.12
672.507	13378.5
672.856	13386.87
673.205	13451.72
673.554	13444.04
673.904	13431.61
674.253	13415.79
674.602	13418.05
674.951	13241.56
675.3	13136.7
675.649	13312.74
675.998	13360.88
676.346	13345.74
676.695	13406.75
677.044	13202.24
677.393	13322.23
677.741	13312.07
678.09	13271.61
678.438	13257.6
678.787	13225.74
679.135	13221.45
679.484	13161.79
679.832	13220.09
680.181	13096.25
680.529	13159.07
680.877	13074.78
681.225	13044.28
681.573	13090.38
681.922	13005.18
682.27	12988.46
682.618	13033.2
682.966	12930.61
683.314	13016.25
683.661	12907.78
684.009	12844.73
684.357	12832.76
684.705	12844.51
685.053	12712.98
685.4	12818.97
685.748	12739.88
686.095	12691.74
686.443	12670.05
686.79	12623.5
687.138	12731.06
687.485	12719.99
687.832	12624.4
688.18	12705.75
688.527	12486.32
688.874	12527.68
689.221	12500.11
689.568	12515.02
689.915	12391.41
690.262	12434.8
690.609	12400.22
690.956	12307.35
691.303	12228.25
691.65	12211.76
691.997	12279.55
692.344	12134.47
692.69	12125.66
693.037	12105.32
693.383	12009.5
693.73	12051.76
694.077	12016.28
694.423	12001.37
694.769	11811.77
695.116	11876.17
695.462	11848.37
695.808	11787.81
696.155	11702.39
696.501	11718.66
696.847	11713.24
697.193	11617.65
697.539	11604.99
697.885	11539.46
698.231	11553.69
698.577	11496.29
698.923	11395.96
699.269	11399.12
699.614	11399.8
699.96	11242.97
700.306	11288.16
700.651	11247.94
700.997	11174.72
701.342	11149.86
701.688	11127.04
702.033	11054.72
702.379	11050.2
702.724	11016.31
703.069	11031
703.415	10879.36
703.76	10885.01
704.105	10887.95
704.45	10885.24
704.795	10850.66
705.14	10771.57
705.485	10762.98
705.83	10706.94
706.175	10686.15
706.52	10698.8
706.865	10591.46
707.209	10571.35
707.554	10494.51
707.899	10580.84
708.243	10489.31
708.588	10510.11
708.932	10406.15
709.277	10378.81
709.621	10411.35
709.966	10379.71
710.31	10417.9
710.654	10261.3
710.998	10301.75
711.342	10307.85
711.687	10238.25
712.031	10221.75
712.375	10146.72
712.719	10227.4
713.063	10139.27
713.407	10141.3
713.75	10177.01
714.094	10121.87
714.438	10032.15
714.782	10060.4
715.125	9952.38
715.469	9968.88
715.812	9970.68
716.156	9940.85
716.499	9917.35
716.843	9911.48
717.186	9863.57
717.53	9876.68
717.873	9882.1
718.216	9893.17
718.559	9845.94
718.902	9751.03
719.246	9806.85
719.589	9806.85
719.932	9775.44
720.275	9784.25
720.617	9774.53
720.96	9694.76
721.303	9722.1
721.646	9718.04
721.989	9670.58
722.331	9706.51
722.674	9695.21
723.016	9639.17
723.359	9714.42
723.701	9636.68
724.044	9569.56
724.386	9617.02
724.729	9585.38
725.071	9633.29
725.413	9573.63
725.755	9586.51
726.097	9542.9
726.439	9556.01
726.782	9528.89
727.124	9571.15
727.465	9509.45
727.807	9492.73
728.149	9449.12
728.491	9464.93
728.833	9522.79
729.175	9404.6
729.516	9413.41
729.858	9522.33
730.199	9491.6
730.541	9443.24
730.882	9475.78
731.224	9506.97
731.565	9394.2
731.906	9385.39
732.248	9415.67
732.589	9397.82
732.93	9334.09
733.271	9393.98
733.612	9406.41
733.953	9419.96
734.294	9395.78
734.635	9389
734.976	9451.6
735.317	9395.11
735.658	9329.57
735.999	9392.62
736.339	9425.16
736.68	9463.58
737.021	9383.81
737.361	9415.44
737.702	9407.99
738.042	9455.67
738.383	9438.95
738.723	9418.16
739.063	9396.24
739.404	9473.3
739.744	9459.29
740.084	9425.84
740.424	9440.53
740.764	9465.61
741.104	9490.02
741.444	9455.22
741.784	9489.11
742.124	9478.04
742.464	9512.17
742.804	9515.1
743.143	9571.6
743.483	9615.44
743.823	9581.09
744.162	9588.32
744.502	9651.14
744.841	9618.6
745.181	9745.38
745.52	9689.79
745.86	9790.58
746.199	9881.19
746.538	9826.51
746.877	9927.97
747.216	9974.98
747.556	9972.04
747.895	10038.03
748.234	10035.99
748.573	10117.8
748.911	10165.48
749.25	10283.22
749.589	10300.62
749.928	10353.27
750.267	10409.99
750.605	10456.77
750.944	10520.27
751.283	10570.22
751.621	10689.99
751.96	10774.96
752.298	10962.97
752.636	10970.43
752.975	11038.68
753.313	11077.1
753.651	11213.59
753.989	11265.57
754.327	11457.42
754.666	11463.98
755.004	11622.84
755.342	11788.04
755.679	11882.72
756.017	11936.28
756.355	12064.87
756.693	12284.52
757.031	12476.38
757.368	12492.65
757.706	12710.05
