Data from hue_80_FLMS001491_32.txt Node
Date: Mon Feb 06 15:22:54 GMT 2017
User: dcchb
Spectrometer: FLMS00149
Trigger mode: 0
Integration Time (sec): 2.000000E-2
Scans to average: 10
Electric dark correction enabled: true
Nonlinearity correction enabled: false
Boxcar width: 0
XAxis mode: Wavelengths
Number of Pixels in Spectrum: 2048
>>>>>Begin Spectral Data<<<<<
341.393	-11.06
341.776	-11.06
342.16	-11.06
342.543	-67.55
342.927	-58.74
343.31	-73.88
343.693	-68.68
344.077	-55.35
344.46	-62.13
344.843	-58.29
345.226	-52.64
345.61	-28.91
345.993	-19.42
346.376	-19.65
346.759	29.39
347.142	22.61
347.525	43.85
347.908	45.66
348.291	82.5
348.674	93.35
349.057	121.59
349.44	127.02
349.823	162.04
350.206	169.05
350.588	219.67
350.971	216.28
351.354	222.83
351.737	245.43
352.119	258.99
352.502	269.39
352.884	280.01
353.267	287.69
353.65	285.43
354.032	293.79
354.414	308.93
354.797	304.41
355.179	326.11
355.562	331.53
355.944	323.17
356.326	323.4
356.709	323.62
357.091	327.24
357.473	343.73
357.855	311.87
358.238	338.76
358.62	336.5
359.002	334.24
359.384	345.09
359.766	340.57
360.148	344.64
360.53	356.61
360.912	321.59
361.294	330.85
361.676	354.81
362.057	326.33
362.439	336.73
362.821	323.85
363.203	312.55
363.584	338.08
363.966	322.49
364.348	324.07
364.729	328.37
365.111	321.81
365.493	313.9
365.874	316.16
366.256	309.38
366.637	304.64
367.019	310.29
367.4	307.8
367.781	322.94
368.163	324.75
368.544	314.81
368.925	299.67
369.306	338.31
369.688	309.61
370.069	306.67
370.45	319.1
370.831	308.03
371.212	320.46
371.593	313.68
371.974	323.4
372.355	317.07
372.736	324.53
373.117	313.68
373.498	327.24
373.879	323.17
374.26	333.79
374.641	332.66
375.021	301.93
375.402	307.12
375.783	322.27
376.163	316.39
376.544	345.54
376.925	334.02
377.305	320.01
377.686	317.97
378.066	338.99
378.447	338.99
378.827	309.16
379.208	338.54
379.588	327.24
379.968	314.81
380.349	324.3
380.729	342.15
381.109	320.68
381.489	325.43
381.87	342.6
382.25	336.5
382.63	334.02
383.01	325.2
383.39	342.38
383.77	342.38
384.15	331.53
384.53	331.53
384.91	328.82
385.29	345.54
385.67	352.77
386.049	348.71
386.429	355.03
386.809	366.33
387.189	333.56
387.568	345.99
387.948	344.64
388.328	353
388.707	347.58
389.087	354.13
389.466	348.71
389.846	357.07
390.225	362.26
390.605	364.52
390.984	355.94
391.363	352.1
391.743	371.3
392.122	356.16
392.501	376.73
392.881	388.93
393.26	342.83
393.639	391.19
394.018	380.8
394.397	374.47
394.776	335.6
395.155	366.33
395.534	389.16
395.913	360
396.292	346.9
396.671	379.44
397.05	396.39
397.429	377.18
397.808	401.36
398.186	404.3
398.565	399.78
398.944	371.3
399.323	397.74
399.701	368.37
400.08	402.94
400.458	382.83
400.837	398.2
401.215	404.75
401.594	387.8
401.972	397.52
402.351	409.72
402.729	380.34
403.107	409.27
403.486	385.77
403.864	406.33
404.242	400.23
404.62	407.91
404.999	403.62
405.377	400.91
405.755	410.17
406.133	418.99
406.511	412.66
406.889	419.66
407.267	415.37
407.645	439.78
408.023	439.78
408.401	430.96
408.779	430.51
409.156	435.48
409.534	439.55
409.912	440
410.29	442.94
410.667	443.17
411.045	426.67
411.422	449.49
411.8	446.78
412.178	454.24
412.555	447.69
412.933	450.4
413.31	475.26
413.687	459.21
414.065	466.22
414.442	460.34
414.819	478.42
415.197	462.6
415.574	489.27
415.951	481.58
416.328	497.63
416.705	480.91
417.082	484.07
417.46	486.33
417.837	487.46
418.214	498.76
418.591	484.52
418.967	510.51
419.344	506.67
419.721	503.96
420.098	517.29
420.475	493.79
420.852	504.18
421.228	526.33
421.605	511.19
421.982	541.47
422.358	520.45
422.735	520.45
423.111	521.13
423.488	526.78
423.864	552.09
424.241	562.03
424.617	556.38
424.994	561.36
425.37	550.96
425.746	539.89
426.123	571.75
426.499	550.06
426.875	552.09
427.251	588.7
427.627	576.72
428.003	573.78
428.379	600.45
428.756	583.5
429.132	583.5
429.507	598.64
429.883	598.87
430.259	589.83
430.635	600.45
431.011	614.24
431.387	615.82
431.763	626.21
432.138	620.34
432.514	624.63
432.89	625.53
433.265	630.05
433.641	621.92
434.016	649.94
434.392	663.73
434.767	651.97
435.143	693.56
435.518	670.28
435.894	653.33
436.269	693.56
436.644	691.3
437.02	674.57
437.395	685.19
437.77	680.9
438.145	696.72
438.52	699.43
438.895	698.07
439.271	702.14
439.646	720.45
440.021	721.13
440.395	743.5
440.77	715.93
441.145	726.32
441.52	752.99
441.895	741.92
442.27	756.38
442.645	755.25
443.019	799.54
443.394	779.65
443.769	763.84
444.143	760.45
444.518	780.33
444.892	790.5
445.267	774.46
445.641	794.12
446.016	767.68
446.39	796.15
446.764	804.51
447.139	801.12
447.513	808.81
447.887	810.39
448.262	836.83
448.636	799.99
449.01	816.94
449.384	832.53
449.758	816.49
450.132	853.78
450.506	841.57
450.88	859.43
451.254	852.87
451.628	881.35
452.002	870.73
452.376	869.14
452.75	877.28
453.123	909.59
453.497	927.67
453.871	893.55
454.244	912.53
454.618	905.53
454.992	938.97
455.365	931.29
455.739	967.45
456.112	981.46
456.486	970.16
456.859	967.22
457.232	978.97
457.606	987.11
457.979	1024.62
458.352	1039.99
458.725	1042.02
459.099	1037.05
459.472	1086.31
459.845	1093.09
460.218	1077.73
460.591	1092.19
460.964	1097.16
461.337	1153.2
461.71	1125.41
462.083	1131.51
462.456	1137.16
462.829	1144.62
463.201	1176.93
463.574	1182.81
463.947	1202.47
464.32	1222.81
464.692	1220.55
465.065	1253.77
465.438	1273.65
465.81	1302.13
466.183	1303.71
466.555	1325.85
466.928	1341.9
467.3	1355.91
467.672	1375.8
468.045	1404.05
468.417	1414.44
468.789	1410.82
469.161	1427.55
469.534	1465.51
469.906	1508.22
470.278	1514.32
470.65	1568.33
471.022	1606.3
471.394	1603.14
471.766	1651.27
472.138	1647.65
472.51	1712.96
472.882	1723.36
473.253	1781.21
473.625	1792.51
473.997	1830.02
474.369	1847.2
474.74	1931.71
475.112	1952.28
475.484	1990.02
475.855	2029.79
476.227	2094.42
476.598	2128.32
476.97	2178.94
477.341	2231.14
477.713	2299.39
478.084	2318.15
478.455	2430.46
478.827	2479.5
479.198	2531.7
479.569	2585.26
479.94	2681.07
480.311	2750.22
480.682	2807.4
481.053	2907.96
481.424	2995.64
481.795	3050.1
482.166	3091.23
482.537	3201.06
482.908	3337.55
483.279	3386.59
483.65	3462.75
484.021	3632.24
484.391	3653.25
484.762	3726.24
485.133	3855.96
485.503	3940.25
485.874	4093.92
486.244	4160.13
486.615	4247.36
486.985	4349.28
487.356	4504.3
487.726	4552.21
488.097	4772.54
488.467	4858.64
488.837	5018.64
489.207	5082.14
489.578	5167.56
489.948	5357.39
490.318	5505.86
490.688	5583.6
491.058	5643.48
491.428	5829.01
491.798	5939.52
492.168	6118.5
492.538	6203.01
492.908	6367.08
493.278	6486.85
493.648	6631.93
494.017	6769.55
494.387	6914.41
494.757	6993.73
495.126	7145.36
495.496	7266.26
495.866	7392.36
496.235	7494.05
496.605	7608.63
496.974	7721.62
497.344	7849.53
497.713	8039.12
498.082	8096.98
498.452	8290.42
498.821	8366.35
499.19	8469.17
499.559	8611.54
499.928	8707.13
500.298	8841.14
500.667	9000.46
501.036	9052.21
501.405	9154.35
501.774	9214.91
502.143	9370.16
502.512	9457.17
502.88	9627.33
503.249	9639.99
503.618	9729.48
503.987	9832.3
504.356	9904.39
504.724	10075.23
505.093	10045.4
505.462	10197.71
505.83	10320.65
506.199	10396.58
506.567	10580.53
506.936	10628.21
507.304	10773.52
507.672	10816.45
508.041	10938.71
508.409	11018.71
508.777	11140.51
509.145	11256.67
509.514	11186.84
509.882	11345.7
510.25	11455.53
510.618	11558.35
510.986	11546.38
511.354	11637
511.722	11818.01
512.09	11884
512.458	11891
512.826	12038.34
513.193	12047.61
513.561	12144.1
513.929	12193.37
514.297	12346.13
514.664	12428.84
515.032	12474.26
515.4	12580.25
515.767	12560.81
516.135	12606.46
516.502	12672.68
516.869	12834.25
517.237	12881.03
517.604	12798.55
517.972	12995.15
518.339	13027.69
518.706	13007.36
519.073	13124.87
519.44	13203.28
519.808	13333.9
520.175	13267.69
520.542	13510.39
520.909	13540
521.276	13472.43
521.643	13573.22
522.009	13610.28
522.376	13720.78
522.743	13886.43
523.11	13855.02
523.477	14000.78
523.843	14116.03
524.21	14124.39
524.577	14222.47
524.943	14325.29
525.31	14292.52
525.676	14440.31
526.043	14492.51
526.409	14537.94
526.776	14599.18
527.142	14631.27
527.508	14642.79
527.874	14696.58
528.241	14807.53
528.607	14746.75
528.973	14841.43
529.339	14813.86
529.705	14968.89
530.071	15037.81
530.437	15146.28
530.803	15124.36
531.169	15158.03
531.535	15151.25
531.901	15151.48
532.267	15187.64
532.632	15209.11
532.998	15198.03
533.364	15292.95
533.73	15296.56
534.095	15401.87
534.461	15394.19
534.826	15416.56
535.192	15396.9
535.557	15456.56
535.923	15393.06
536.288	15394.64
536.653	15523
537.019	15349.22
537.384	15410.46
537.749	15465.37
538.114	15447.74
538.479	15489.78
538.845	15461.08
539.21	15432.6
539.575	15491.36
539.94	15523.45
540.305	15558.02
540.67	15468.76
541.034	15525.71
541.399	15537.46
541.764	15625.82
542.129	15560.06
542.494	15484.58
542.858	15465.37
543.223	15581.3
543.587	15507.18
543.952	15441.19
544.316	15596.67
544.681	15381.53
545.045	15498.59
545.41	15553.73
545.774	15476.22
546.138	15440.74
546.503	15409.78
546.867	15374.07
547.231	15509.21
547.595	15486.61
547.959	15513.96
548.324	15508.76
548.688	15372.04
549.052	15465.6
549.416	15535.42
549.779	15410.68
550.143	15438.03
550.507	15437.12
550.871	15442.09
551.235	15372.49
551.599	15497.69
551.962	15473.51
552.326	15490.45
552.689	15520.28
553.053	15431.7
553.417	15438.48
553.78	15627.17
554.143	15444.81
554.507	15453.17
554.87	15475.09
555.234	15683.67
555.597	15483.67
555.96	15563.9
556.323	15498.14
556.686	15468.08
557.05	15508.53
557.413	15634.18
557.776	15590.11
558.139	15645.48
558.502	15627.63
558.865	15626.72
559.228	15705.59
559.59	15700.62
559.953	15656.1
560.316	15832.14
560.679	15795.53
561.041	15806.15
561.404	15822.2
561.767	15997.79
562.129	15889.09
562.492	16007.73
562.854	15979.25
563.217	16015.41
563.579	15987.84
563.941	16104.45
564.304	16042.98
564.666	16124.34
565.028	16133.83
565.39	16156.65
565.753	16262.41
566.115	16134.05
566.477	16239.14
566.839	16290.89
567.201	16346.93
567.563	16283.43
567.925	16374.5
568.287	16430.99
568.648	16465.34
569.01	16465.34
569.372	16543.08
569.734	16435.74
570.095	16515.29
570.457	16635.06
570.819	16601.39
571.18	16680.71
571.542	16693.59
571.903	16727.03
572.265	16668.28
572.626	16793.47
572.987	16771.78
573.349	16863.75
573.71	16781.95
574.071	16896.74
574.432	16987.14
574.794	16966.12
575.155	16962.05
575.516	16963.86
575.877	17006.35
576.238	17011.32
576.599	17010.64
576.96	17047.48
577.32	16953.92
577.681	17100.13
578.042	17099.68
578.403	17091.99
578.763	17112.78
579.124	17056.06
579.485	17195.95
579.845	17154.59
580.206	17049.96
580.566	17107.13
580.927	17115.72
581.287	17159.79
581.648	17166.12
582.008	17178.32
582.368	17048.38
582.728	17179.68
583.089	17184.65
583.449	17105.1
583.809	17174.93
584.169	17195.27
584.529	17129.96
584.889	17214.7
585.249	17104.42
585.609	17007.7
585.969	17115.95
586.329	17108.26
586.688	17068.27
587.048	17149.85
587.408	17109.39
587.768	17141.26
588.127	17124.54
588.487	17005.22
588.846	17205.21
589.206	17045.67
589.565	17045.89
589.925	17176.51
590.284	17079.79
590.643	17152.78
591.003	17145.55
591.362	17155.72
591.721	17106.91
592.08	17110.98
592.44	17082.73
592.799	17110.3
593.158	17000.02
593.517	17001.6
593.876	17165.21
594.235	16985.78
594.593	17019.91
594.952	17061.03
595.311	16942.85
595.67	17012.45
596.029	17153.24
596.387	17099.68
596.746	17077.53
597.104	16892.68
597.463	16932.68
597.822	17066.68
598.18	16996.18
598.538	16956.86
598.897	17090.19
599.255	16892.9
599.613	17106.46
599.972	17043.63
600.33	17071.2
600.688	16961.38
601.046	17139
601.404	17094.25
601.762	17101.03
602.12	17216.28
602.478	17068.94
602.836	17097.42
603.194	17045.22
603.552	17118.21
603.91	17016.74
604.268	17076.4
604.625	17070.98
604.983	17225.78
605.341	17039.57
605.698	17102.16
606.056	17125.67
606.413	17152.56
606.771	17212.44
607.128	17240.69
607.485	17254.48
607.843	17183.97
608.2	17272.33
608.557	17274.81
608.914	17145.55
609.272	17309.16
609.629	17341.25
609.986	17366.56
610.343	17218.77
610.7	17345.77
611.057	17321.14
611.414	17397.3
611.771	17448.59
612.127	17450.63
612.484	17457.63
612.841	17471.19
613.198	17394.81
613.554	17486.33
613.911	17583.28
614.267	17536.5
614.624	17475.94
614.98	17613.11
615.337	17623.96
615.693	17564.98
616.05	17591.64
616.406	17692.88
616.762	17658.08
617.118	17562.94
617.475	17575.37
617.831	17705.54
618.187	17716.38
618.543	17753.9
618.899	17832.31
619.255	17674.8
619.611	17731.07
619.967	17839.55
620.323	17759.55
620.678	17765.65
621.034	17726.1
621.39	17635.71
621.746	17757.97
622.101	17890.17
622.457	17792.77
622.812	17894.46
623.168	17868.47
623.523	17840.67
623.879	17971.52
624.234	17843.16
624.589	17854.23
624.945	17895.14
625.3	17870.96
625.655	17876.83
626.01	18002.25
626.365	17918.87
626.72	17904.18
627.075	17868.24
627.43	17954.8
627.785	17846.55
628.14	17869.83
628.495	17813.78
628.85	17859.66
629.205	17679.32
629.559	17846.1
629.914	17767.91
630.269	17805.2
630.623	17685.65
630.978	17737.17
631.332	17806.78
631.687	17835.48
632.041	17705.09
632.396	17777.4
632.75	17739.89
633.104	17703.05
633.459	17636.39
633.813	17764.74
634.167	17624.64
634.521	17703.05
634.875	17721.58
635.229	17605.88
635.583	17534.47
635.937	17533.56
636.291	17554.58
636.645	17552.32
636.999	17550.74
637.352	17534.92
637.706	17361.14
638.06	17467.58
638.413	17440.69
638.767	17276.17
639.121	17321.14
639.474	17340.58
639.828	17334.93
640.181	17381.93
640.534	17398.43
640.888	17323.4
641.241	17143.74
641.594	17344.42
641.947	17357.75
642.301	17311.2
642.654	17232.56
643.007	17321.14
643.36	17236.85
643.713	17196.62
644.066	17267.81
644.419	17201.82
644.771	17043.86
645.124	16935.61
645.477	16853.58
645.83	16798.44
646.182	16695.17
646.535	16664.66
646.888	16726.13
647.24	16594.83
647.593	16676.86
647.945	16686.13
648.298	16536.3
648.65	16562.29
649.002	16463.08
649.355	16592.12
649.707	16495.63
650.059	16654.49
650.411	16836.63
650.763	16828.27
651.115	17075.27
651.467	17032.33
651.819	17040.7
652.171	17029.62
652.523	16865.79
652.875	16890.19
653.227	16882.28
653.578	17033.92
653.93	17078.66
654.282	16854.03
654.633	16906.01
654.985	16947.59
655.337	16935.84
655.688	16935.61
656.039	16922.96
656.391	16842.51
656.742	16841.15
657.094	16854.71
657.445	16884.09
657.796	16903.07
658.147	16832.34
658.498	16884.32
658.849	16981.94
659.2	16927.7
659.551	16844.54
659.902	17014.48
660.253	16920.7
660.604	16948.04
660.955	16861.72
661.306	16937.65
661.656	16930.42
662.007	16909.4
662.358	16905.56
662.708	17026.69
663.059	16953.47
663.409	16880.93
663.76	16921.6
664.11	16914.37
664.461	16966.12
664.811	16995.5
665.161	16988.72
665.511	16856.75
665.862	16992.11
666.212	16917.99
666.562	17043.63
666.912	16972.45
667.262	16890.19
667.612	16964.31
667.962	17097.42
668.312	16953.47
668.662	17048.38
669.011	16866.92
669.361	16939.46
669.711	16903.07
670.06	16947.59
670.41	16839.12
670.76	16876.41
671.109	16956.4
671.459	16868.72
671.808	16855.62
672.157	16867.37
672.507	16779.69
672.856	16778.78
673.205	16945.78
673.554	16875.5
673.904	16771.1
674.253	16821.27
674.602	16823.53
674.951	16483.65
675.3	16487.26
675.649	16707.37
675.998	16750.08
676.346	16807.93
676.695	16814.71
677.044	16649.29
677.393	16631.44
677.741	16735.39
678.09	16675.06
678.438	16661.5
678.787	16626.02
679.135	16636.86
679.484	16516.87
679.832	16534.04
680.181	16404.33
680.529	16427.38
680.877	16467.38
681.225	16454.95
681.573	16393.48
681.922	16345.35
682.27	16445.01
682.618	16318.91
682.966	16203.66
683.314	16277.33
683.661	16174.05
684.009	16256.76
684.357	16155.52
684.705	16074.85
685.053	16205.69
685.4	16167.72
685.748	16087.95
686.095	16024
686.443	15995.3
686.79	15980.16
687.138	15937.45
687.485	16000.05
687.832	15924.12
688.18	15949.65
688.527	15790.33
688.874	15751.24
689.221	15745.36
689.568	15687.51
689.915	15715.99
690.262	15635.08
690.609	15581.98
690.956	15514.86
691.303	15515.09
691.65	15405.26
691.997	15362.32
692.344	15261.99
692.69	15317.8
693.037	15280.74
693.383	15136.11
693.73	15160.07
694.077	15109.67
694.423	15064.48
694.769	14956.46
695.116	14994.87
695.462	14981.54
695.808	14922.33
696.155	14947.19
696.501	14778.83
696.847	14780.87
697.193	14654.54
697.539	14709.46
697.885	14597.37
698.231	14490.48
698.577	14513.3
698.923	14542.46
699.269	14376.36
699.614	14319.19
699.96	14347.89
700.306	14335.91
700.651	14191.28
700.997	14195.8
701.342	14135.01
701.688	14120.32
702.033	14066.08
702.379	14086.88
702.724	13970.95
703.069	14038.06
703.415	13700.44
703.76	13792.19
704.105	13851.4
704.45	13810.95
704.795	13676.49
705.14	13605.53
705.485	13631.97
705.83	13611.18
706.175	13616.15
706.52	13525.99
706.865	13442.37
707.209	13481.69
707.554	13388.59
707.899	13410.28
708.243	13407.35
708.588	13315.37
708.932	13172.1
709.277	13230.63
709.621	13169.16
709.966	13084.42
710.31	13207.35
710.654	13001.48
710.998	13002.84
711.342	13064.98
711.687	12985.21
712.031	12939.79
712.375	12818.89
712.719	12936.85
713.063	12849.62
713.407	12941.59
713.75	12789.28
714.094	12827.25
714.438	12766.68
714.782	12713.35
715.125	12734.82
715.469	12686.91
715.812	12711.09
716.156	12516.97
716.499	12566.24
716.843	12567.14
717.186	12452.57
717.53	12523.3
717.873	12531.21
718.216	12536.41
718.559	12472.45
718.902	12356.07
719.246	12423.87
719.589	12403.76
719.932	12344.1
720.275	12350.2
720.617	12323.31
720.96	12285.34
721.303	12329.63
721.646	12295.28
721.989	12197.43
722.331	12297.32
722.674	12301.16
723.016	12255.96
723.359	12179.35
723.701	12163.54
724.044	12183.42
724.386	12070.21
724.729	12128.96
725.071	12027.04
725.413	12054.39
725.755	12130.32
726.097	12120.83
726.439	11961.28
726.782	12028.4
727.124	12069.53
727.465	11944.11
727.807	11929.42
728.149	11995.4
728.491	11939.81
728.833	12003.77
729.175	11984.56
729.516	11986.59
729.858	11963.09
730.199	11964.22
730.541	11860.95
730.882	11912.24
731.224	11983.88
731.565	11833.83
731.906	11903.88
732.248	11894.39
732.589	11878.8
732.93	11842.64
733.271	11857.56
733.612	11878.12
733.953	11907.72
734.294	11858.23
734.635	11853.71
734.976	11865.24
735.317	11809.2
735.658	11826.82
735.999	11759.7
736.339	11837.89
736.68	11930.77
737.021	11867.72
737.361	11827.73
737.702	11833.6
738.042	11872.47
738.383	11871.34
738.723	11859.14
739.063	11829.08
739.404	11812.13
739.744	11864.79
740.084	11785.47
740.424	11900.27
740.764	11804
741.104	11913.37
741.444	11847.61
741.784	11850.1
742.124	11885.13
742.464	11927.61
742.804	11907.05
743.143	11971.68
743.483	11974.84
743.823	11918.34
744.162	11995.86
744.502	12054.61
744.841	11961.28
745.181	12077.21
745.52	12053.93
745.86	12094.61
746.199	12083.76
746.538	12202.86
746.877	12268.84
747.216	12210.77
747.556	12307.04
747.895	12305
748.234	12374.83
748.573	12372.8
748.911	12522.62
749.25	12560.81
749.589	12559.23
749.928	12591.55
750.267	12630.42
750.605	12697.53
750.944	12700.25
751.283	12875.38
751.621	12913.12
751.96	12855.27
752.298	12933.69
752.636	13086
752.975	13102.95
753.313	13183.62
753.651	13388.14
753.989	13411.19
754.327	13431.07
754.666	13569.6
755.004	13612.31
755.342	13813.66
755.679	13895.92
756.017	13881.68
756.355	13989.7
756.693	14067.89
757.031	14262.69
