Data from hue_250_FLMS001491_00045.txt Node
Date: Tue Feb 07 16:01:02 GMT 2017
User: dcchb
Spectrometer: FLMS00149
Trigger mode: 0
Integration Time (sec): 2.000000E-2
Scans to average: 10
Electric dark correction enabled: true
Nonlinearity correction enabled: false
Boxcar width: 0
XAxis mode: Wavelengths
Number of Pixels in Spectrum: 2048
>>>>>Begin Spectral Data<<<<<
341.393	-21.19
341.776	-21.19
342.16	-21.19
342.543	-61.64
342.927	-56.67
343.31	-89.88
343.693	-53.5
344.077	-61.86
344.46	-60.96
344.843	-43.78
345.226	-41.3
345.61	-26.16
345.993	-30.9
346.376	-5.14
346.759	11.13
347.142	25.82
347.525	32.82
347.908	58.81
348.291	73.95
348.674	93.16
349.057	117.79
349.44	126.15
349.823	139.04
350.206	149.21
350.588	183.55
350.971	187.85
351.354	207.06
351.737	232.37
352.119	227.4
352.502	271.91
352.884	250.9
353.267	271.01
353.65	272.82
354.032	292.48
354.414	280.05
354.797	293.38
355.179	285.47
355.562	315.75
355.944	317.79
356.326	337.9
356.709	337.45
357.091	294.06
357.473	306.26
357.855	324.34
358.238	315.75
358.62	332.93
359.002	329.54
359.384	327.73
359.766	329.99
360.148	330.44
360.53	342.42
360.912	336.09
361.294	322.76
361.676	332.93
362.057	325.02
362.439	325.92
362.821	310.56
363.203	324.79
363.584	313.04
363.966	305.59
364.348	299.71
364.729	308.75
365.111	299.71
365.493	299.94
365.874	294.74
366.256	306.49
366.637	291.57
367.019	299.71
367.4	313.04
367.781	291.8
368.163	288.18
368.544	305.59
368.925	303.1
369.306	310.78
369.688	303.33
370.069	305.59
370.45	318.92
370.831	314.62
371.212	310.33
371.593	331.57
371.974	310.33
372.355	321.4
372.736	288.64
373.117	291.35
373.498	310.1
373.879	302.65
374.26	322.76
374.641	302.42
375.021	321.63
375.402	303.33
375.783	302.65
376.163	310.33
376.544	298.58
376.925	313.49
377.305	306.94
377.686	322.31
378.066	311.91
378.447	327.96
378.827	330.44
379.208	328.18
379.588	328.86
379.968	305.13
380.349	317.56
380.729	326.15
381.109	329.09
381.489	326.83
381.87	323.21
382.25	317.79
382.63	322.53
383.01	318.24
383.39	319.6
383.77	343.55
384.15	320.73
384.53	343.1
384.91	348.75
385.29	329.99
385.67	348.75
386.049	347.39
386.429	343.32
386.809	337
387.189	344.91
387.568	356.66
387.948	343.55
388.328	346.26
388.707	357.79
389.087	346.26
389.466	346.71
389.846	362.31
390.225	368.18
390.605	355.75
390.984	354.17
391.363	348.07
391.743	344
392.122	362.31
392.501	359.14
392.881	362.98
393.26	355.98
393.639	376.77
394.018	344.68
394.397	376.09
394.776	382.19
395.155	386.49
395.534	355.08
395.913	377.22
396.292	374.51
396.671	395.53
397.05	379.48
397.429	402.31
397.808	383.78
398.186	403.66
398.565	399.82
398.944	406.37
399.323	415.86
399.701	398.92
400.08	395.53
400.458	409.09
400.837	400.72
401.215	395.53
401.594	415.41
401.972	409.54
402.351	397.11
402.729	411.57
403.107	419.93
403.486	436.43
403.864	439.59
404.242	423.1
404.62	447.28
404.999	427.39
405.377	448.86
405.755	457.22
406.133	464.68
406.511	444.56
406.889	451.34
407.267	479.59
407.645	457.9
408.023	478.24
408.401	480.04
408.779	480.95
409.156	481.85
409.534	482.76
409.912	518.01
410.29	497.44
410.667	496.99
411.045	534.05
411.422	526.14
411.8	535.64
412.178	529.76
412.555	527.95
412.933	538.8
413.31	547.84
413.687	560.04
414.065	585.8
414.442	578.35
414.819	576.09
415.197	563.66
415.574	580.83
415.951	587.84
416.328	597.33
416.705	607.5
417.082	607.95
417.46	604.79
417.837	626.93
418.214	631
418.591	648.4
418.967	651.56
419.344	633.49
419.721	648.4
420.098	652.47
420.475	646.59
420.852	671.23
421.228	666.71
421.605	696.08
421.982	693.37
422.358	716.87
422.735	726.59
423.111	725.69
423.488	743.99
423.864	731.56
424.241	758.91
424.617	751
424.994	757.55
425.37	765.01
425.746	793.93
426.123	805.91
426.499	780.6
426.875	815.63
427.251	830.09
427.627	830.09
428.003	856.53
428.379	876.87
428.756	833.93
429.132	862.18
429.507	884.78
429.883	904.21
430.259	912.57
430.635	916.64
431.011	916.87
431.387	949.41
431.763	954.16
432.138	965
432.514	965.23
432.89	973.82
433.265	999.13
433.641	1008.17
434.016	1030.54
434.392	1042.74
434.767	1058.79
435.143	1057.66
435.518	1072.34
435.894	1079.58
436.269	1116.64
436.644	1121.61
437.02	1169.97
437.395	1146.92
437.77	1185.79
438.145	1194.38
438.52	1215.17
438.895	1200.7
439.271	1219.01
439.646	1284.32
440.021	1286.8
440.395	1275.28
440.77	1281.83
441.145	1316.41
441.52	1318.21
441.895	1330.19
442.27	1338.55
442.645	1317.76
443.019	1354.6
443.394	1364.54
443.769	1367.48
444.143	1402.96
444.518	1390.08
444.892	1377.65
445.267	1410.64
445.641	1421.94
446.016	1412.45
446.39	1445.89
446.764	1480.7
447.139	1432.34
447.513	1465.55
447.887	1482.96
448.262	1501.71
448.636	1503.52
449.01	1512.56
449.384	1492.67
449.758	1544.42
450.132	1558.89
450.506	1548.94
450.88	1553.46
451.254	1584.2
451.628	1593.46
452.002	1606.79
452.376	1629.39
452.75	1610.18
453.123	1629.17
453.497	1657.87
453.871	1697.86
454.244	1707.58
454.618	1709.84
454.992	1743.74
455.365	1744.64
455.739	1823.06
456.112	1794.36
456.486	1822.16
456.859	1813.79
457.232	1862.83
457.606	1875.71
457.979	1861.48
458.352	1931.98
458.725	1938.76
459.099	1962.49
459.472	1991.42
459.845	1972.21
460.218	2005.88
460.591	1990.96
460.964	2032.55
461.337	2096.95
461.71	2106.67
462.083	2122.03
462.456	2106.44
462.829	2113.9
463.201	2167.01
463.574	2208.36
463.947	2170.17
464.32	2257.62
464.692	2300.79
465.065	2279.54
465.438	2306.66
465.81	2342.82
466.183	2352.76
466.555	2422.14
466.928	2401.12
467.3	2416.94
467.672	2433.66
468.045	2456.94
468.417	2479.99
468.789	2541.01
469.161	2564.73
469.534	2602.7
469.906	2641.79
470.278	2651.74
470.65	2708.69
471.022	2703.71
471.394	2726.99
471.766	2784.84
472.138	2818.74
472.51	2839.98
472.882	2902.81
473.253	2938.74
473.625	2974.22
473.997	3039.52
474.369	3044.5
474.74	3084.04
475.112	3141.67
475.484	3127.66
475.855	3202.01
476.227	3239.52
476.598	3281.1
476.97	3284.72
477.341	3371.49
477.713	3442.45
478.084	3469.34
478.455	3496.24
478.827	3536.01
479.198	3669.11
479.569	3646.29
479.94	3724.48
480.311	3751.14
480.682	3846.74
481.053	3870.69
481.424	3950.01
481.795	3967.41
482.166	4044.47
482.537	4095.32
482.908	4171.25
483.279	4161.3
483.65	4254.41
484.021	4249.44
484.391	4334.63
484.762	4372.6
485.133	4394.97
485.503	4507.51
485.874	4546.38
486.244	4632.93
486.615	4667.5
486.985	4721.74
487.356	4815.3
487.726	4802.19
488.097	4904.33
488.467	4911.34
488.837	5017.55
489.207	5044.67
489.578	5128.06
489.948	5158.34
490.318	5239.92
490.688	5180.71
491.058	5321.95
491.428	5315.85
491.798	5374.38
492.168	5448.05
492.538	5444.66
492.908	5561.72
493.278	5591.32
493.648	5563.07
494.017	5698.66
494.387	5714.93
494.757	5784.76
495.126	5821.82
495.496	5829.73
495.866	5861.6
496.235	5872.44
496.605	5973.91
496.974	5967.13
497.344	5994.25
497.713	6000.58
498.082	6102.72
498.452	6167.13
498.821	6142.04
499.19	6123.29
499.559	6180.23
499.928	6193.11
500.298	6255.26
500.667	6280.12
501.036	6325.99
501.405	6342.04
501.774	6319.44
502.143	6359.66
502.512	6414.13
502.88	6408.7
503.249	6423.62
503.618	6471.3
503.987	6544.97
504.356	6559.88
504.724	6610.96
505.093	6570.05
505.462	6536.61
505.83	6627.68
506.199	6691.41
506.567	6726.89
506.936	6728.47
507.304	6818.18
507.672	6792.19
508.041	6782.7
508.409	6844.62
508.777	6875.81
509.145	6842.36
509.514	6895.24
509.882	6971.17
510.25	6904.96
510.618	7017.95
510.986	6990.38
511.354	6990.83
511.722	7056.37
512.09	7124.61
512.458	7061.34
512.826	7153.77
513.193	7146.31
513.561	7200.09
513.929	7189.02
514.297	7201
514.664	7217.04
515.032	7320.09
515.4	7281.9
515.767	7287.32
516.135	7318.73
516.502	7290.03
516.869	7418.17
517.237	7300.66
517.604	7309.24
517.972	7376.59
518.339	7476.7
518.706	7465.4
519.073	7434.21
519.44	7477.83
519.808	7549.24
520.175	7517.15
520.542	7598.95
520.909	7568.9
521.276	7605.73
521.643	7657.26
522.009	7654.09
522.376	7691.61
522.743	7674.2
523.11	7694.32
523.477	7753.52
523.843	7795.33
524.21	7876.91
524.577	7878.72
524.943	7853.18
525.31	7834.43
525.676	7916.91
526.043	7920.3
526.409	7936.34
526.776	8020.41
527.142	7991.94
527.508	8058.83
527.874	8052.05
528.241	8099.96
528.607	8116
528.973	8137.47
529.339	8106.06
529.705	8205.94
530.071	8219.73
530.437	8191.48
530.803	8228.31
531.169	8189.67
531.535	8219.95
531.901	8233.51
532.267	8210.46
532.632	8283.23
532.998	8219.05
533.364	8239.84
533.73	8241.42
534.095	8319.16
534.461	8299.73
534.826	8272.83
535.192	8332.27
535.557	8309.89
535.923	8253.4
536.288	8351.93
536.653	8303.34
537.019	8294.98
537.384	8366.16
537.749	8302.66
538.114	8349.22
538.479	8252.49
538.845	8281.19
539.21	8376.11
539.575	8317.58
539.94	8303.79
540.305	8351.02
540.67	8359.61
541.034	8294.53
541.399	8291.36
541.764	8325.94
542.129	8316.9
542.494	8333.17
542.858	8310.12
543.223	8318.03
543.587	8326.84
543.952	8311.25
544.316	8350.8
544.681	8300.63
545.045	8338.82
545.41	8372.49
545.774	8358.03
546.138	8319.84
546.503	8323.23
546.867	8274.87
547.231	8338.14
547.595	8324.81
547.959	8308.99
548.324	8305.6
548.688	8311.25
549.052	8379.72
549.416	8363.23
549.779	8365.71
550.143	8326.39
550.507	8384.69
550.871	8380.85
551.235	8283
551.599	8393.06
551.962	8276.68
552.326	8367.07
552.689	8336.56
553.053	8347.41
553.417	8309.89
553.78	8395.32
554.143	8364.58
554.507	8340.18
554.87	8333.85
555.234	8448.42
555.597	8330.46
555.96	8422.21
556.323	8385.37
556.686	8370.91
557.05	8456.11
557.413	8463.34
557.776	8439.38
558.139	8535.43
558.502	8474.64
558.865	8464.69
559.228	8523.67
559.59	8518.02
559.953	8595.31
560.316	8563.45
560.679	8593.73
561.041	8630.11
561.404	8645.03
561.767	8660.17
562.129	8628.53
562.492	8726.61
562.854	8715.76
563.217	8671.24
563.579	8747.17
563.941	8769.32
564.304	8796.89
564.666	8829.88
565.028	8849.54
565.39	8840.73
565.753	8867.39
566.115	8913.49
566.477	8920.95
566.839	8975.19
567.201	9002.76
567.563	9048.41
567.925	9079.14
568.287	9066.48
568.648	9036.43
569.01	9069.65
569.372	9120.95
569.734	9058.8
570.095	9142.19
570.457	9157.56
570.819	9189.87
571.18	9237.55
571.542	9199.14
571.903	9261.51
572.265	9307.83
572.626	9316.42
572.987	9321.17
573.349	9412.69
573.71	9446.59
574.071	9404.33
574.432	9449.53
574.794	9454.95
575.155	9446.81
575.516	9438.45
575.877	9519.81
576.238	9516.64
576.599	9499.69
576.96	9641.38
577.32	9530.88
577.681	9549.41
578.042	9627.15
578.403	9590.76
578.763	9697.88
579.124	9589.86
579.485	9661.27
579.845	9744.21
580.206	9672.8
580.566	9663.31
580.927	9744.89
581.287	9822.62
581.648	9762.96
582.008	9862.85
582.368	9807.93
582.728	9850.42
583.089	9812.68
583.449	9849.52
583.809	9881.6
584.169	9889.29
584.529	9935.39
584.889	9917.99
585.249	9954.82
585.609	9896.29
585.969	9936.29
586.329	9944.43
586.688	9934.03
587.048	10008.61
587.408	9968.61
587.768	9947.59
588.127	10027.14
588.487	10013.13
588.846	10100.36
589.206	9964.77
589.565	10008.15
589.925	10048.61
590.284	10110.75
590.643	10033.92
591.003	10105.1
591.362	10141.71
591.721	10139.45
592.08	10164.53
592.44	10149.39
592.799	10151.43
593.158	10164.31
593.517	10149.62
593.876	10172.67
594.235	10153.01
594.593	10212.9
594.952	10190.07
595.311	10161.37
595.67	10209.51
596.029	10278.2
596.387	10316.85
596.746	10324.76
597.104	10263.74
597.463	10193.23
597.822	10309.62
598.18	10258.77
598.538	10244.31
598.897	10303.51
599.255	10233.69
599.613	10399.56
599.972	10337.19
600.33	10344.19
600.688	10243.63
601.046	10307.81
601.404	10377.41
601.762	10322.04
602.12	10398.43
602.478	10285.89
602.836	10354.81
603.194	10305.55
603.552	10364.3
603.91	10317.53
604.268	10332.89
604.625	10372.67
604.983	10397.98
605.341	10313.23
605.698	10429.39
606.056	10427.8
606.413	10388.03
606.771	10466
607.128	10469.61
607.485	10362.95
607.843	10380.12
608.2	10478.65
608.557	10474.36
608.914	10464.41
609.272	10496.28
609.629	10602.94
609.986	10537.41
610.343	10478.2
610.7	10583.51
611.057	10574.92
611.414	10490.4
611.771	10630.51
612.127	10610.17
612.484	10613.79
612.841	10686.33
613.198	10545.99
613.554	10594.81
613.911	10650.62
614.267	10667.12
614.624	10707.57
614.98	10664.41
615.337	10718.19
615.693	10594.13
616.05	10633.9
616.406	10747.12
616.762	10692.43
617.118	10723.39
617.475	10638.65
617.831	10716.38
618.187	10697.63
618.543	10773.56
618.899	10786.21
619.255	10748.7
619.611	10722.03
619.967	10786.21
620.323	10813.33
620.678	10840.68
621.034	10815.14
621.39	10745.54
621.746	10745.08
622.101	10889.26
622.457	10748.02
622.812	10819.43
623.168	10828.7
623.523	10876.61
623.879	10813.56
624.234	10804.29
624.589	10783.28
624.945	10823.73
625.3	10819.66
625.655	10777.63
626.01	10790.28
626.365	10845.65
626.72	10775.14
627.075	10818.76
627.43	10840.9
627.785	10819.66
628.14	10741.92
628.495	10733.11
628.85	10746.89
629.205	10724.29
629.559	10800.9
629.914	10738.31
630.269	10714.58
630.623	10677.52
630.978	10675.48
631.332	10764.75
631.687	10792.99
632.041	10741.47
632.396	10663.96
632.75	10679.32
633.104	10632.09
633.459	10665.31
633.813	10567.01
634.167	10587.12
634.521	10607.91
634.875	10621.7
635.229	10582.15
635.583	10547.35
635.937	10574.69
636.291	10522.49
636.645	10553
636.999	10462.61
637.352	10461.7
637.706	10473
638.06	10477.75
638.413	10536.28
638.767	10446.34
639.121	10438.65
639.474	10365.66
639.828	10466.67
640.181	10442.27
640.534	10427.13
640.888	10374.92
641.241	10318.43
641.594	10320.01
641.947	10349.39
642.301	10339.67
642.654	10393.91
643.007	10323.85
643.36	10357.3
643.713	10276.4
644.066	10283.63
644.419	10287.92
644.771	10193.23
645.124	10076.85
645.477	10108.72
645.83	10034.37
646.182	9998.89
646.535	10016.52
646.888	9961.6
647.24	9865.33
647.593	9873.7
647.945	9845.67
648.298	9885.45
648.65	9861.49
649.002	9879.57
649.355	9897.65
649.707	9893.81
650.059	9984.88
650.411	10013.13
650.763	10045.67
651.115	10162.5
651.467	10118.21
651.819	10106.01
652.171	10104.88
652.523	10054.48
652.875	10125.67
653.227	10016.29
653.578	10137.87
653.93	10166.79
654.282	10026.46
654.633	10032.79
654.985	10102.16
655.337	10120.47
655.688	10026.23
656.039	10080.92
656.391	10068.04
656.742	10041.37
657.094	10114.59
657.445	10114.37
657.796	10065.33
658.147	10093.58
658.498	10001.15
658.849	10047.7
659.2	10046.57
659.551	9994.6
659.902	10041.15
660.253	10040.47
660.604	10042.5
660.955	10060.81
661.306	10107.14
661.656	9984.88
662.007	10020.81
662.358	10062.84
662.708	10065.78
663.059	10050.41
663.409	10008.61
663.76	10081.15
664.11	10033.69
664.461	10071.88
664.811	10003.64
665.161	10091.32
665.511	10080.7
665.862	10019.91
666.212	10057.87
666.562	10094.25
666.912	10049.96
667.262	9981.94
667.612	10020.81
667.962	10045.67
668.312	9992.56
668.662	10034.82
669.011	10019.45
669.361	10004.54
669.711	10032.11
670.06	9936.97
670.41	9925.22
670.76	9952.11
671.109	9897.65
671.459	9922.51
671.808	9960.92
672.157	10002.51
672.507	9999.12
672.856	9991.88
673.205	9915.95
673.554	9960.47
673.904	9944.65
674.253	9947.37
674.602	9892
674.951	9829.85
675.3	9791.66
675.649	9849.97
675.998	9882.96
676.346	9920.25
676.695	9944.65
677.044	9804.77
677.393	9810.42
677.741	9894.71
678.09	9835.5
678.438	9831.21
678.787	9806.35
679.135	9784.66
679.484	9717.09
679.832	9742.17
680.181	9747.37
680.529	9788.95
680.877	9738.78
681.225	9719.8
681.573	9705.34
681.922	9671.89
682.27	9625.79
682.618	9647.71
682.966	9705.79
683.314	9663.98
683.661	9596.41
684.009	9603.65
684.357	9565.23
684.705	9523.87
685.053	9535.62
685.4	9497.43
685.748	9471.9
686.095	9516.19
686.443	9492.46
686.79	9385.35
687.138	9371.34
687.485	9362.97
687.832	9342.86
688.18	9368.85
688.527	9295.86
688.874	9284.78
689.221	9330.43
689.568	9240.04
689.915	9265.35
690.262	9276.87
690.609	9205.69
690.956	9195.97
691.303	9178.35
691.65	9123.43
691.997	9103.77
692.344	9079.37
692.69	9012.47
693.037	8995.53
693.383	8973.38
693.73	8955.75
694.077	8886.6
694.423	8874.17
694.769	8908.97
695.116	8868.3
695.462	8807.06
695.808	8801.41
696.155	8833.04
696.501	8771.58
696.847	8787.62
697.193	8687.96
697.539	8724.35
697.885	8629.21
698.231	8606.84
698.577	8600.28
698.923	8538.59
699.269	8475.77
699.614	8475.31
699.96	8528.65
700.306	8480.96
700.651	8430.8
700.997	8376.56
701.342	8351.7
701.688	8295.88
702.033	8349.44
702.379	8330.01
702.724	8285.71
703.069	8273.51
703.415	8200.07
703.76	8111.03
704.105	8160.52
704.45	8114.87
704.795	8048.66
705.14	8131.59
705.485	8090.47
705.83	8031.71
706.175	8030.35
706.52	7981.54
706.865	7952.84
707.209	7982.9
707.554	7904.93
707.899	7924.14
708.243	7876.69
708.588	7888.89
708.932	7804.15
709.277	7816.12
709.621	7881.88
709.966	7849.79
710.31	7840.98
710.654	7720.53
710.998	7672.4
711.342	7701.32
711.687	7720.08
712.031	7624.49
712.375	7651.83
712.719	7640.99
713.063	7642.34
713.407	7619.07
713.75	7554.21
714.094	7593.08
714.438	7554.89
714.782	7488.22
715.125	7535.45
715.469	7471.72
715.812	7436.25
716.156	7416.58
716.499	7414.78
716.843	7474.21
717.186	7418.39
717.53	7395.57
717.873	7468.79
718.216	7447.09
718.559	7422.46
718.902	7302.92
719.246	7344.5
719.589	7372.07
719.932	7299.98
720.275	7298.85
720.617	7280.54
720.96	7233.09
721.303	7229.7
721.646	7221.11
721.989	7197.16
722.331	7289.36
722.674	7217.72
723.016	7249.58
723.359	7241
723.701	7230.15
724.044	7167.78
724.386	7182.24
724.729	7174.11
725.071	7158.96
725.413	7156.03
725.755	7141.34
726.097	7143.6
726.439	7096.82
726.782	7112.19
727.124	7201.45
727.465	7104.28
727.807	7145.63
728.149	7083.03
728.491	7069.25
728.833	7128.46
729.175	7105.18
729.516	7114.22
729.858	7079.64
730.199	7078.97
730.541	7061.11
730.882	7039.87
731.224	7083.49
731.565	7016.37
731.906	7086.88
732.248	7100.89
732.589	7013.88
732.93	7031.74
733.271	7036.48
733.612	7032.64
733.953	7015.47
734.294	7061.34
734.635	7007.78
734.976	7030.61
735.317	6978.4
735.658	7004.62
735.999	6984.05
736.339	7010.95
736.68	7012.75
737.021	6987.67
737.361	6964.85
737.702	6983.83
738.042	6998.97
738.383	6981.12
738.723	7013.66
739.063	7025.86
739.404	7034
739.744	7005.75
740.084	6997.61
740.424	7038.97
740.764	7043.71
741.104	7085.75
741.444	7005.07
741.784	7051.62
742.124	7057.95
742.464	7074.9
742.804	7058.63
743.143	7076.48
743.483	7024.05
743.823	7056.59
744.162	7132.98
744.502	7086.88
744.841	7068.8
745.181	7099.53
745.52	7140.66
745.86	7132.52
746.199	7165.97
746.538	7181.11
746.877	7214.78
747.216	7307.21
747.556	7268.79
747.895	7334.1
748.234	7301.56
748.573	7327.32
748.911	7411.84
749.25	7413.42
749.589	7460.88
749.928	7492.97
750.267	7532.29
750.605	7572.29
750.944	7618.16
751.283	7698.61
751.621	7675.33
751.96	7759.4
752.298	7836.23
752.636	7894.99
752.975	7902.22
753.313	8005.27
753.651	8073.52
753.989	8068.77
754.327	8176.11
754.666	8229.22
755.004	8298.14
755.342	8409.78
755.679	8497.23
756.017	8462.43
756.355	8609.55
756.693	8686.61
757.031	8858.81
757.368	8848.86
757.706	8986.49
758.044	9054.51
758.381	9094.96
758.719	9259.47
759.056	9333.14
759.394	9471.22
759.731	9478.45
760.068	9576.75
760.405	9635.06
760.743	9748.05
761.08	9941.94
761.417	9892.9
761.754	10001.6
762.091	10161.82
762.428	10210.64
762.765	10224.87
763.102	10434.13
763.438	10490.85
763.775	10564.3
764.112	10727.91
764.449	10779.43
764.785	10920.67
765.122	10931.52
