Data from hue_250_FLMS001491_00023.txt Node
Date: Tue Feb 07 16:00:45 GMT 2017
User: dcchb
Spectrometer: FLMS00149
Trigger mode: 0
Integration Time (sec): 2.000000E-2
Scans to average: 10
Electric dark correction enabled: true
Nonlinearity correction enabled: false
Boxcar width: 0
XAxis mode: Wavelengths
Number of Pixels in Spectrum: 2048
>>>>>Begin Spectral Data<<<<<
341.393	-6.33
341.776	-6.33
342.16	-6.33
342.543	-54.01
342.927	-71.18
343.31	-77.29
343.693	-63.5
344.077	-61.69
344.46	-58.3
344.843	-56.27
345.226	-21.92
345.61	-44.97
345.993	-10.62
346.376	-14.69
346.759	-1.36
347.142	28.02
347.525	43.61
347.908	63.05
348.291	66.89
348.674	103.73
349.057	105.31
349.44	119.54
349.823	146.89
350.206	166.55
350.588	180.79
350.971	210.39
351.354	190.73
351.737	225.76
352.119	240.45
352.502	254.46
352.884	254.46
353.267	271.18
353.65	259.43
354.032	298.52
354.414	296.49
354.797	308.69
355.179	303.49
355.562	296.26
355.944	303.27
356.326	315.7
356.709	328.58
357.091	328.13
357.473	332.42
357.855	324.74
358.238	349.14
358.62	317.96
359.002	313.44
359.384	327.9
359.766	316.15
360.148	330.61
360.53	326.09
360.912	315.02
361.294	325.19
361.676	309.6
362.057	309.14
362.439	299.88
362.821	319.54
363.203	324.06
363.584	314.12
363.966	309.82
364.348	302.36
364.729	323.61
365.111	319.77
365.493	312.31
365.874	319.54
366.256	294
366.637	297.62
367.019	320.44
367.4	273.89
367.781	298.3
368.163	310.5
368.544	290.16
368.925	308.69
369.306	279.99
369.688	305.53
370.069	303.95
370.45	320.9
370.831	309.6
371.212	292.42
371.593	303.27
371.974	312.08
372.355	308.92
372.736	317.73
373.117	319.09
373.498	308.69
373.879	323.61
374.26	291.07
374.641	312.76
375.021	301.24
375.402	288.81
375.783	325.19
376.163	322.93
376.544	310.5
376.925	301.91
377.305	309.6
377.686	317.05
378.066	309.6
378.447	323.83
378.827	318.86
379.208	332.19
379.588	322.93
379.968	306.88
380.349	318.86
380.729	331.06
381.109	324.96
381.489	340.1
381.87	336.49
382.25	348.92
382.63	343.04
383.01	337.62
383.39	334.23
383.77	351.63
384.15	331.52
384.53	348.01
384.91	354.79
385.29	344.62
385.67	344.62
386.049	349.6
386.429	336.26
386.809	368.58
387.189	351.63
387.568	346.21
387.948	341.23
388.328	355.47
388.707	357.28
389.087	364.74
389.466	334.91
389.846	357.05
390.225	362.48
390.605	353.44
390.984	370.84
391.363	369.03
391.743	374.45
392.122	398.63
392.501	373.1
392.881	365.87
393.26	366.09
393.639	379.2
394.018	387.11
394.397	356.37
394.776	394.34
395.155	362.93
395.534	361.35
395.913	374.23
396.292	378.97
396.671	402.93
397.05	392.08
397.429	390.5
397.808	392.08
398.186	414.23
398.565	390.5
398.944	372.42
399.323	399.31
399.701	419.2
400.08	410.61
400.458	422.36
400.837	402.7
401.215	407.67
401.594	433.43
401.972	432.76
402.351	432.98
402.729	432.76
403.107	418.75
403.486	431.4
403.864	422.14
404.242	434.56
404.62	448.58
404.999	447.45
405.377	455.36
405.755	435.92
406.133	458.75
406.511	449.71
406.889	467.33
407.267	477.5
407.645	469.59
408.023	487.44
408.401	456.71
408.779	484.96
409.156	483.83
409.534	489.25
409.912	495.58
410.29	501
410.667	519.31
411.045	524.96
411.422	543.71
411.8	528.12
412.178	534.9
412.555	557.27
412.933	550.04
413.31	555.92
413.687	557.73
414.065	562.25
414.442	564.96
414.819	567.89
415.197	581.91
415.574	625.29
415.951	597.95
416.328	600.44
416.705	612.87
417.082	615.58
417.46	630.04
417.837	646.76
418.214	672.3
418.591	633.2
418.967	661.45
419.344	653.54
419.721	674.11
420.098	670.49
420.475	701
420.852	690.6
421.228	708.46
421.605	703.03
421.982	715.91
422.358	726.76
422.735	752.52
423.111	730.6
423.488	747.78
423.864	749.13
424.241	783.93
424.617	776.93
424.994	795.69
425.37	805.85
425.746	793.88
426.123	813.09
426.499	832.75
426.875	832.97
427.251	848.11
427.627	854.44
428.003	873.42
428.379	879.98
428.756	881.33
429.132	884.27
429.507	911.61
429.883	930.37
430.259	933.31
430.635	930.82
431.011	942.12
431.387	946.19
431.763	973.31
432.138	970.14
432.514	1004.27
432.89	1027.09
433.265	1021.89
433.641	1039.75
434.016	1065.96
434.392	1075.9
434.767	1109.8
435.143	1095.79
435.518	1098.05
435.894	1147.99
436.269	1151.83
436.644	1157.71
437.02	1202
437.395	1156.13
437.77	1190.48
438.145	1247.65
438.52	1234.54
438.895	1270.25
439.271	1280.42
439.646	1289.23
440.021	1314.77
440.395	1275.9
440.77	1323.13
441.145	1328.78
441.52	1333.98
441.895	1354.31
442.27	1383.01
442.645	1392.73
443.019	1399.74
443.394	1417.36
443.769	1384.37
444.143	1432.96
444.518	1436.8
444.892	1445.39
445.267	1440.64
445.641	1469.11
446.016	1490.81
446.39	1477.02
446.764	1488.55
447.139	1536
447.513	1518.83
447.887	1522.22
448.262	1507.53
448.636	1543.01
449.01	1571.94
449.384	1606.29
449.758	1605.61
450.132	1618.04
450.506	1616.23
450.88	1624.82
451.254	1613.29
451.628	1652.84
452.002	1658.04
452.376	1650.8
452.75	1693.06
453.123	1697.58
453.497	1756.79
453.871	1738.94
454.244	1776
454.618	1780.52
454.992	1811.48
455.365	1779.84
455.739	1843.79
456.112	1839.73
456.486	1876.11
456.859	1900.29
457.232	1938.48
457.606	1912.04
457.979	1938.71
458.352	1978.71
458.725	1995.88
459.099	2016.9
459.472	2033.17
459.845	2084.01
460.218	2090.57
460.591	2081.75
460.964	2098.02
461.337	2134.86
461.71	2178.7
462.083	2182.77
462.456	2180.96
462.829	2204.46
463.201	2240.17
463.574	2284.01
463.947	2313.61
464.32	2327.85
464.692	2317.68
465.065	2363.33
465.438	2405.59
465.81	2404.23
466.183	2473.16
466.555	2494.4
466.928	2512.25
467.3	2502.08
467.672	2545.7
468.045	2618.24
468.417	2590.21
468.789	2622.98
469.161	2661.17
469.534	2660.72
469.906	2716.09
470.278	2764
470.65	2794.95
471.022	2845.57
471.394	2907.95
471.766	2887.16
472.138	2912.69
472.51	2970.77
472.882	3036.53
473.253	3072.91
473.625	3055.29
473.997	3174.38
474.369	3154.72
474.74	3219.58
475.112	3196.75
475.484	3341.83
475.855	3337.99
476.227	3332.57
476.598	3452.56
476.97	3485.11
477.341	3524.88
477.713	3600.36
478.084	3583.18
478.455	3693.24
478.827	3674.03
479.198	3812.56
479.569	3791.31
479.94	3871.08
480.311	3936.39
480.682	4018.88
481.053	4093.68
481.424	4125.77
481.795	4170.29
482.166	4226.33
482.537	4249.83
482.908	4374.8
483.279	4383.39
483.65	4406.21
484.021	4511.97
484.391	4553.33
484.762	4580.67
485.133	4613.44
485.503	4702.02
485.874	4774.11
486.244	4796.71
486.615	4899.53
486.985	4935.01
487.356	4971.39
487.726	5052.07
488.097	5146.08
488.467	5151.95
488.837	5262.46
489.207	5307.66
489.578	5307.88
489.948	5342.68
490.318	5422.91
490.688	5458.61
491.058	5485.73
491.428	5567.09
491.798	5655.9
492.168	5733.41
492.538	5794.65
492.908	5808.66
493.278	5897.47
493.648	5883.69
494.017	5962.78
494.387	5949.45
494.757	6074.42
495.126	6111.03
495.496	6077.35
495.866	6150.57
496.235	6191.02
496.605	6214.75
496.974	6262.66
497.344	6269.89
497.713	6338.36
498.082	6375.2
498.452	6394.86
498.821	6450.23
499.19	6458.36
499.559	6496.1
499.928	6527.96
500.298	6527.74
500.667	6628.3
501.036	6576.1
501.405	6621.29
501.774	6678.69
502.143	6717.56
502.512	6694.51
502.88	6800.73
503.249	6760.95
503.618	6789.88
503.987	6852.93
504.356	6867.16
504.724	6888.86
505.093	6925.92
505.462	6913.04
505.83	7014.73
506.199	7000.95
506.567	7094.28
506.936	7064.45
507.304	7135.63
507.672	7171.79
508.041	7164.56
508.409	7181.51
508.777	7167.04
509.145	7228.51
509.514	7256.31
509.882	7283.2
510.25	7299.24
510.618	7308.73
510.986	7360.71
511.354	7420.82
511.722	7448.39
512.09	7415.17
512.458	7409.07
512.826	7584.89
513.193	7548.5
513.561	7559.8
513.929	7567.03
514.297	7611.55
514.664	7594.38
515.032	7647.71
515.4	7679.35
515.767	7712.57
516.135	7715.73
516.502	7769.06
516.869	7757.31
517.237	7743.75
517.604	7746.01
517.972	7823.07
518.339	7831.88
518.706	7860.13
519.073	7867.59
519.44	7889.51
519.808	7929.28
520.175	7923.18
520.542	7958.21
520.909	8014.7
521.276	8007.93
521.643	8049.73
522.009	8043.86
522.376	8081.82
522.743	8149.16
523.11	8135.61
523.477	8167.92
523.843	8181.25
524.21	8221.48
524.577	8291.08
524.943	8294.47
525.31	8384.86
525.676	8434.13
526.043	8452.43
526.409	8387.58
526.776	8430.29
527.142	8384.64
527.508	8445.2
527.874	8495.6
528.241	8473
528.607	8537.18
528.973	8550.28
529.339	8485.88
529.705	8575.82
530.071	8618.3
530.437	8677.51
530.803	8683.61
531.169	8691.75
531.535	8696.49
531.901	8697.17
532.267	8715.25
532.632	8708.7
532.998	8688.81
533.364	8768.36
533.73	8680.68
534.095	8766.1
534.461	8780.33
534.826	8775.14
535.192	8803.38
535.557	8790.05
535.923	8753.44
536.288	8798.19
536.653	8800.45
537.019	8763.16
537.384	8797.28
537.749	8842.93
538.114	8752.99
538.479	8798.41
538.845	8839.32
539.21	8795.47
539.575	8857.62
539.94	8804.74
540.305	8826.89
540.67	8822.37
541.034	8858.75
541.399	8787.79
541.764	8828.69
542.129	8859.43
542.494	8865.08
542.858	8767.23
543.223	8809.94
543.587	8872.76
543.952	8825.08
544.316	8852.87
544.681	8799.77
545.045	8855.59
545.41	8919.99
545.774	8823.27
546.138	8889.48
546.503	8838.86
546.867	8879.31
547.231	8914.12
547.595	8802.48
547.959	8830.28
548.324	8827.56
548.688	8888.81
549.052	8849.71
549.416	8853.78
549.779	8844.51
550.143	8861.01
550.507	8901.46
550.871	8922.25
551.235	8842.93
551.599	8969.71
551.962	8848.58
552.326	8910.5
552.689	8918.41
553.053	8836.6
553.417	8953.66
553.78	8907.34
554.143	8927.67
554.507	8968.58
554.87	8981.91
555.234	8984.4
555.597	8898.07
555.96	8968.13
556.323	9033.66
556.686	8956.6
557.05	8990.95
557.413	9049.71
557.776	8985.98
558.139	9034.34
558.502	9037.73
558.865	8987.33
559.228	9038.86
559.59	9101.68
559.953	9127.44
560.316	9141.68
560.679	9144.84
561.041	9205.41
561.404	9274.56
561.767	9252.41
562.129	9211.74
562.492	9279.3
562.854	9315.01
563.217	9264.16
563.579	9304.61
563.941	9368.12
564.304	9410.37
564.666	9379.41
565.028	9452.63
565.39	9453.08
565.753	9544.16
566.115	9510.26
566.477	9585.06
566.839	9543.25
567.201	9588
567.563	9581.89
567.925	9666.19
568.287	9682.23
568.648	9713.42
569.01	9669.58
569.372	9714.55
569.734	9691.95
570.095	9796.35
570.457	9785.73
570.819	9833.19
571.18	9844.71
571.542	9916.58
571.903	9874.77
572.265	9850.81
572.626	9954.31
572.987	9918.38
573.349	10026.18
573.71	9978.27
574.071	9987.31
574.432	10008.32
574.794	10067.53
575.155	10104.59
575.516	10064.37
575.877	10081.54
576.238	10187.98
576.599	10197.25
576.96	10195.66
577.32	10230.47
577.681	10286.06
578.042	10296
578.403	10298.71
578.763	10328.09
579.124	10278.15
579.485	10284.25
579.845	10400.63
580.206	10332.61
580.566	10375.09
580.927	10437.01
581.287	10396.11
581.648	10433.17
582.008	10504.36
582.368	10516.11
582.728	10465.49
583.089	10542.77
583.449	10493.74
583.809	10541.64
584.169	10574.86
584.529	10560.17
584.889	10661.64
585.249	10607.63
585.609	10630.91
585.969	10623.9
586.329	10548.42
586.688	10664.13
587.048	10670.68
587.408	10658.7
587.768	10642.66
588.127	10665.26
588.487	10695.76
588.846	10771.47
589.206	10702.32
589.565	10732.6
589.925	10751.36
590.284	10722.2
590.643	10769.21
591.003	10812.82
591.362	10812.15
591.721	10778.25
592.08	10819.6
592.44	10914.52
592.799	10889.88
593.158	10851.47
593.517	10904.8
593.876	10805.82
594.235	10853.05
594.593	10822.99
594.952	10883.56
595.311	10867.96
595.67	10898.47
596.029	10917.68
596.387	10994.06
596.746	10984.12
597.104	10895.53
597.463	10925.59
597.822	10922.88
598.18	11028.86
598.538	10907.28
598.897	10962.88
599.255	10944.35
599.613	11064.12
599.972	11061.86
600.33	10985.25
600.688	10963.78
601.046	10987.96
601.404	11039.94
601.762	10978.69
602.12	11132.14
602.478	11053.27
602.836	11081.74
603.194	11114.74
603.552	11088.07
603.91	11088.75
604.268	11178.46
604.625	11078.35
604.983	11105.7
605.341	10992.48
605.698	11140.27
606.056	11180.27
606.413	11105.02
606.771	11203.1
607.128	11207.84
607.485	11175.75
607.843	11111.12
608.2	11194.51
608.557	11208.74
608.914	11190.89
609.272	11190.21
609.629	11246.71
609.986	11296.43
610.343	11287.16
610.7	11290.1
611.057	11341.85
611.414	11276.54
611.771	11288.97
612.127	11357.89
612.484	11424.11
612.841	11343.66
613.198	11326.03
613.554	11340.27
613.911	11369.64
614.267	11383.66
614.624	11423.43
614.98	11394.5
615.337	11441.73
615.693	11450.77
616.05	11347.27
616.406	11485.35
616.762	11424.56
617.118	11503.2
617.475	11492.58
617.831	11511.34
618.187	11544.33
618.543	11509.75
618.899	11505.01
619.255	11518.57
619.611	11550.66
619.967	11587.27
620.323	11580.94
620.678	11531.9
621.034	11481.05
621.39	11495.97
621.746	11447.16
622.101	11675.4
622.457	11566.25
622.812	11635.85
623.168	11603.08
623.523	11601.73
623.879	11608.06
624.234	11552.92
624.589	11587.94
624.945	11486.7
625.3	11511.11
625.655	11549.98
626.01	11514.27
626.365	11509.3
626.72	11526.93
627.075	11568.06
627.43	11530.77
627.785	11465.91
628.14	11452.81
628.495	11462.98
628.85	11576.19
629.205	11465.01
629.559	11568.28
629.914	11486.25
630.269	11467.95
630.623	11384.33
630.978	11375.97
631.332	11442.19
631.687	11452.58
632.041	11368.29
632.396	11415.97
632.75	11376.2
633.104	11378.01
633.459	11311.79
633.813	11255.75
634.167	11332.58
634.521	11356.54
634.875	11295.52
635.229	11327.39
635.583	11216.88
635.937	11275.64
636.291	11237.67
636.645	11283.77
636.999	11182.98
637.352	11275.64
637.706	11166.26
638.06	11238.35
638.413	11180.72
638.767	11143.21
639.121	11197.9
639.474	11098.92
639.828	11081.29
640.181	11174.85
640.534	11103.44
640.888	11073.38
641.241	11028.64
641.594	11093.72
641.947	11055.3
642.301	11056.43
642.654	11026.6
643.007	11063.89
643.36	10952.03
643.713	10919.03
644.066	11057.56
644.419	10951.12
644.771	10848.08
645.124	10799.26
645.477	10763.56
645.83	10681.98
646.182	10683.11
646.535	10607.63
646.888	10640.85
647.24	10569.21
647.593	10660.06
647.945	10605.37
648.298	10569.67
648.65	10574.41
649.002	10529.67
649.355	10628.65
649.707	10568.31
650.059	10704.13
650.411	10753.39
650.763	10691.7
651.115	10830.45
651.467	10806.04
651.819	10740.96
652.171	10811.92
652.523	10779.83
652.875	10746.16
653.227	10698.48
653.578	10835.65
653.93	10726.5
654.282	10782.09
654.633	10626.16
654.985	10766.72
655.337	10761.3
655.688	10807.17
656.039	10801.98
656.391	10686.05
656.742	10715.42
657.094	10782.32
657.445	10793.16
657.796	10740.06
658.147	10698.48
658.498	10717.01
658.849	10777.34
659.2	10716.33
659.551	10720.62
659.902	10716.1
660.253	10718.81
660.604	10781.41
660.955	10681.3
661.306	10745.71
661.656	10662.54
662.007	10680.85
662.358	10762.88
662.708	10737.8
663.059	10734.18
663.409	10677.91
663.76	10755.42
664.11	10725.37
664.461	10759.94
664.811	10675.2
665.161	10693.5
665.511	10729.89
665.862	10708.19
666.212	10725.82
666.562	10798.59
666.912	10750.68
667.262	10687.63
667.612	10720.4
667.962	10754.29
668.312	10749.77
668.662	10754.97
669.011	10665.26
669.361	10699.38
669.711	10668.65
670.06	10692.15
670.41	10725.37
670.76	10666.84
671.109	10707.52
671.459	10714.75
671.808	10663.45
672.157	10667.52
672.507	10646.73
672.856	10627.29
673.205	10602.43
673.554	10588.2
673.904	10616.44
674.253	10585.48
674.602	10587.29
674.951	10477.69
675.3	10346.39
675.649	10597.24
675.998	10556.78
676.346	10484.02
676.695	10562.43
677.044	10543.68
677.393	10500.97
677.741	10479.95
678.09	10471.36
678.438	10435.43
678.787	10451.25
679.135	10387.3
679.484	10418.03
679.832	10446.96
680.181	10348.43
680.529	10361.76
680.877	10360.41
681.225	10328.09
681.573	10395.66
681.922	10328.09
682.27	10267.75
682.618	10315.21
682.966	10280.41
683.314	10259.62
683.661	10240.63
684.009	10172.61
684.357	10199.96
684.705	10161.54
685.053	10155.89
685.4	10136.91
685.748	10159.73
686.095	10085.16
686.443	10060.07
686.79	10021.88
687.138	10145.5
687.485	10044.71
687.832	9957.25
688.18	10026.63
688.527	9969.68
688.874	10012.84
689.221	9878.61
689.568	9861.21
689.915	9863.02
690.262	9851.04
690.609	9825.5
690.956	9832.06
691.303	9705.06
691.65	9740.53
691.997	9681.1
692.344	9564.95
692.69	9605.62
693.037	9632.97
693.383	9525.17
693.73	9594.1
694.077	9507.09
694.423	9486.3
694.769	9464.84
695.116	9385.52
695.462	9414.89
695.808	9454.21
696.155	9346.65
696.501	9301.9
696.847	9308.91
697.193	9225.52
697.539	9225.29
697.885	9206.54
698.231	9148.69
698.577	9132.19
698.923	9129.25
699.269	9070.04
699.614	8970.16
699.96	8961.57
700.306	8947.79
700.651	8963.61
700.997	8950.73
701.342	8902.14
701.688	8872.31
702.033	8863.04
702.379	8808.36
702.724	8764.06
703.069	8838.64
703.415	8654.46
703.76	8692.2
704.105	8669.6
704.45	8696.95
704.795	8599.55
705.14	8654.46
705.485	8557.74
705.83	8450.4
706.175	8582.83
706.52	8468.48
706.865	8440.91
707.209	8456.95
707.554	8461.7
707.899	8435.26
708.243	8373.34
708.588	8364.53
708.932	8308.03
709.277	8310.29
709.621	8301.25
709.966	8243.17
710.31	8203.4
710.654	8170.18
710.998	8203.85
711.342	8216.73
711.687	8209.95
712.031	8155.72
712.375	8133.57
712.719	8127.02
713.063	8069.84
713.407	8124.53
713.75	8074.14
714.094	8064.65
714.438	8065.78
714.782	8070.52
715.125	8021.94
715.469	8033.46
715.812	8013.8
716.156	7974.03
716.499	7957.08
716.843	7928.61
717.186	7917.08
717.53	7989.62
717.873	7941.26
718.216	7939.68
718.559	7875.05
718.902	7787.14
719.246	7852
719.589	7891.09
719.932	7801.38
720.275	7760.93
720.617	7781.94
720.96	7780.13
721.303	7748.5
721.646	7725.22
721.989	7727.25
722.331	7805.9
722.674	7667.37
723.016	7727.03
723.359	7703.53
723.701	7692.91
724.044	7650.42
724.386	7591.44
724.729	7711.44
725.071	7614.72
725.413	7616.97
725.755	7666.24
726.097	7641.61
726.439	7585.79
726.782	7594.83
727.124	7601.83
727.465	7541.72
727.807	7528.16
728.149	7520.48
728.491	7526.13
728.833	7565.68
729.175	7505.11
729.516	7501.72
729.858	7490.42
730.199	7541.04
730.541	7517.32
730.882	7521.38
731.224	7482.52
731.565	7502.4
731.906	7435.74
732.248	7504.44
732.589	7528.84
732.93	7451.33
733.271	7426.25
733.612	7456.3
733.953	7490.88
734.294	7488.62
734.635	7428.96
734.976	7528.62
735.317	7421.05
735.658	7486.81
735.999	7435.96
736.339	7418.11
736.68	7422.18
737.021	7400.48
737.361	7381.73
737.702	7498.79
738.042	7492.46
738.383	7442.74
738.723	7494.27
739.063	7423.53
739.404	7463.08
739.744	7428.28
740.084	7432.8
740.424	7543.08
740.764	7425.34
741.104	7488.39
741.444	7451.78
741.784	7492.23
742.124	7487.03
742.464	7444.55
742.804	7483.42
743.143	7505.79
743.483	7483.19
743.823	7501.5
744.162	7511.21
744.502	7500.59
744.841	7563.87
745.181	7545.34
745.52	7534.94
745.86	7588.95
746.199	7668.5
746.538	7604.55
746.877	7762.06
747.216	7672.11
747.556	7692.68
747.895	7765.67
748.234	7785.78
748.573	7786.46
748.911	7839.34
749.25	7882.73
749.589	7875.05
749.928	7957.3
750.267	7970.64
750.605	8023.07
750.944	8057.42
751.283	8103.74
751.621	8195.04
751.96	8200.69
752.298	8222.16
752.636	8318.2
752.975	8351.42
753.313	8392.77
753.651	8470.06
753.989	8623.95
754.327	8571.53
754.666	8662.37
755.004	8789.83
755.342	8779.88
755.679	8895.36
756.017	8986.2
756.355	9076.37
756.693	9123.6
757.031	9215.58
757.368	9274.33
757.706	9426.42
758.044	9471.16
758.381	9625.28
758.719	9726.52
759.056	9748.22
759.394	9865.05
759.731	9929.68
760.068	10028.89
760.405	10114.31
760.743	10214.65
761.08	10320.63
761.417	10382.55
761.754	10460.06
762.091	10674.75
762.428	10646.95
762.765	10690.34
763.102	10902.99
