Data from hue_240_FLMS001491_00060.txt Node
Date: Tue Feb 07 16:35:41 GMT 2017
User: dcchb
Spectrometer: FLMS00149
Trigger mode: 0
Integration Time (sec): 2.000000E-2
Scans to average: 10
Electric dark correction enabled: true
Nonlinearity correction enabled: false
Boxcar width: 0
XAxis mode: Wavelengths
Number of Pixels in Spectrum: 2048
>>>>>Begin Spectral Data<<<<<
341.393	-0.4
341.776	-0.4
342.16	-0.4
342.543	-61.41
342.927	-76.55
343.31	-72.03
343.693	-49.43
344.077	-67.06
344.46	-75.42
344.843	-57.57
345.226	-53.73
345.61	-23.9
345.993	-32.03
346.376	-1.3
346.759	11.81
347.142	35.31
347.525	37.8
347.908	80.51
348.291	78.7
348.674	80.96
349.057	107.4
349.44	109.88
349.823	149.43
350.206	159.83
350.588	189.43
350.971	194.85
351.354	217.45
351.737	224.68
352.119	235.3
352.502	248.19
352.884	264.23
353.267	288.86
353.65	295.42
354.032	308.3
354.414	308.52
354.797	319.14
355.179	311.01
355.562	321.4
355.944	310.78
356.326	327.73
356.709	350.78
357.091	322.08
357.473	327.96
357.855	316.43
358.238	330.22
358.62	337.22
359.002	325.92
359.384	334.74
359.766	328.41
360.148	340.39
360.53	351.01
360.912	320.95
361.294	311.23
361.676	324.34
362.057	327.96
362.439	342.42
362.821	332.03
363.203	312.14
363.584	315.08
363.966	308.07
364.348	325.7
364.729	323.21
365.111	316.88
365.493	307.39
365.874	302.65
366.256	318.69
366.637	326.83
367.019	320.27
367.4	319.14
367.781	317.34
368.163	296.77
368.544	311.46
368.925	285.25
369.306	311.23
369.688	303.55
370.069	297
370.45	308.97
370.831	324.12
371.212	297.9
371.593	315.53
371.974	304
372.355	325.02
372.736	340.84
373.117	294.74
373.498	327.96
373.879	322.08
374.26	304
374.641	325.92
375.021	321.86
375.402	316.88
375.783	331.35
376.163	307.85
376.544	315.53
376.925	315.53
377.305	307.85
377.686	334.06
378.066	312.14
378.447	327.73
378.827	312.82
379.208	332.03
379.588	332.25
379.968	355.08
380.349	329.31
380.729	328.64
381.109	329.09
381.489	344.23
381.87	323.44
382.25	322.08
382.63	322.53
383.01	343.32
383.39	345.13
383.77	333.38
384.15	350.33
384.53	341.29
384.91	341.29
385.29	330.9
385.67	350.33
386.049	356.21
386.429	346.04
386.809	355.75
387.189	364.34
387.568	355.75
387.948	358.92
388.328	355.08
388.707	352.14
389.087	349.88
389.466	353.27
389.846	345.81
390.225	357.79
390.605	338.8
390.984	357.56
391.363	372.93
391.743	351.69
392.122	348.52
392.501	376.77
392.881	364.57
393.26	392.59
393.639	377.45
394.018	375.19
394.397	359.82
394.776	382.65
395.155	377
395.534	397.33
395.913	389.88
396.292	390.1
396.671	401.63
397.05	377.45
397.429	374.74
397.808	391.46
398.186	393.27
398.565	392.59
398.944	408.18
399.323	388.29
399.701	398.46
400.08	387.62
400.458	394.62
400.837	365.02
401.215	412.93
401.594	410.22
401.972	398.46
402.351	407.05
402.729	419.71
403.107	421.51
403.486	430.78
403.864	421.29
404.242	413.15
404.62	425.81
404.999	441.85
405.377	421.51
405.755	413.6
406.133	441.4
406.511	439.37
406.889	464.45
407.267	446.15
407.645	456.99
408.023	455.64
408.401	464
408.779	460.16
409.156	466.03
409.534	482.76
409.912	465.81
410.29	492.25
410.667	507.16
411.045	511.23
411.422	480.04
411.8	509.2
412.178	517.78
412.555	537.22
412.933	562.3
413.31	511.91
413.687	547.61
414.065	526.6
414.442	531.12
414.819	558.01
415.197	573.37
415.574	573.37
415.951	584.9
416.328	574.28
416.705	568.4
417.082	567.27
417.46	584.45
417.837	606.37
418.214	585.58
418.591	599.36
418.967	627.84
419.344	629.42
419.721	623.77
420.098	639.81
420.475	642.98
420.852	661.96
421.228	631.23
421.605	674.84
421.982	670.32
422.358	677.55
422.735	718.46
423.111	692.02
423.488	695.41
423.864	677.78
424.241	722.07
424.617	723.65
424.994	734.95
425.37	733.6
425.746	735.63
426.123	767.49
426.499	739.7
426.875	761.62
427.251	786.7
427.627	761.62
428.003	800.04
428.379	834.16
428.756	818.57
429.132	828.28
429.507	857.89
429.883	857.66
430.259	858.11
430.635	859.92
431.011	853.14
431.387	905.34
431.763	890.2
432.138	905.34
432.514	904.21
432.89	908.73
433.265	939.92
433.641	981.5
434.016	944.89
434.392	965.45
434.767	1014.95
435.143	1000.48
435.518	1015.85
435.894	1028.05
436.269	1029.18
436.644	1050.88
437.02	1071.21
437.395	1077.32
437.77	1095.39
438.145	1130.65
438.52	1103.76
438.895	1156.41
439.271	1152.12
439.646	1190.31
440.021	1187.37
440.395	1173.13
440.77	1200.7
441.145	1194.15
441.52	1222.4
441.895	1216.75
442.27	1257.88
442.645	1232.34
443.019	1259.68
443.394	1298.1
443.769	1292
444.143	1280.93
444.518	1333.58
444.892	1286.58
445.267	1291.1
445.641	1342.17
446.016	1331.32
446.39	1362.05
446.764	1352.11
447.139	1368.16
447.513	1362.51
447.887	1388.72
448.262	1385.56
448.636	1408.16
449.01	1407.48
449.384	1439.11
449.758	1412.45
450.132	1430.75
450.506	1464.42
450.88	1475.72
451.254	1510.98
451.628	1488.38
452.002	1521.37
452.376	1513.24
452.75	1546.91
453.123	1551.65
453.497	1555.5
453.871	1574.25
454.244	1594.59
454.618	1608.15
454.992	1609.51
455.365	1634.14
455.739	1675.49
456.112	1666
456.486	1675.27
456.859	1705.77
457.232	1714.59
457.606	1728.15
457.979	1747.58
458.352	1773.8
458.725	1781.25
459.099	1813.79
459.472	1828.03
459.845	1858.99
460.218	1834.13
460.591	1884.3
460.964	1889.05
461.337	1896.05
461.71	1959.1
462.083	1981.25
462.456	1971.08
462.829	1959.55
463.201	1994.13
463.574	2005.65
463.947	2068.25
464.32	2094.92
464.692	2101.24
465.065	2091.75
465.438	2126.33
465.81	2139.21
466.183	2171.98
466.555	2225.08
466.928	2216.72
467.3	2238.42
467.672	2252.65
468.045	2282.93
468.417	2318.64
468.789	2345.98
469.161	2359.09
469.534	2406.32
469.906	2445.87
470.278	2443.38
470.65	2470.95
471.022	2512.08
471.394	2548.46
471.766	2580.55
472.138	2571.06
472.51	2642.7
472.882	2642.47
473.253	2735.35
473.625	2715.69
473.997	2788.68
474.369	2795.69
474.74	2830.94
475.112	2882.01
475.484	2934.22
475.855	2960.88
476.227	2971.5
476.598	3013.99
476.97	3044.72
477.341	3136.47
477.713	3157.94
478.084	3158.39
478.455	3222.34
478.827	3281.33
479.198	3346.18
479.569	3357.03
479.94	3432.96
480.311	3439.29
480.682	3561.32
481.053	3592.73
481.424	3651.26
481.795	3649
482.166	3717.7
482.537	3723.57
482.908	3831.37
483.279	3846.06
483.65	3882.67
484.021	3976.68
484.391	3987.3
484.762	4043.11
485.133	4067.07
485.503	4101.64
485.874	4187.74
486.244	4235.2
486.615	4246.27
486.985	4351.58
487.356	4392.94
487.726	4392.71
488.097	4500.05
488.467	4483.55
488.837	4588.41
489.207	4648.3
489.578	4676.54
489.948	4768.29
490.318	4801.51
490.688	4786.37
491.058	4848.06
491.428	4907.95
491.798	4947.72
492.168	5017.1
492.538	5059.13
492.908	5128.96
493.278	5169.64
493.648	5178.68
494.017	5180.94
494.387	5254.61
494.757	5295.74
495.126	5309.07
495.496	5356.3
495.866	5351.33
496.235	5434.72
496.605	5414.83
496.974	5479.69
497.344	5494.15
497.713	5537.09
498.082	5595.84
498.452	5605.78
498.821	5623.41
499.19	5625.9
499.559	5711.77
499.928	5665.44
500.298	5695.73
500.667	5793.12
501.036	5741.37
501.405	5814.82
501.774	5808.49
502.143	5871.99
502.512	5860.24
502.88	5911.31
503.249	5911.09
503.618	5984.53
503.987	5933.01
504.356	6009.39
504.724	6024.08
505.093	6034.7
505.462	6030.86
505.83	6035.83
506.199	6066.79
506.567	6155.37
506.936	6191.53
507.304	6216.16
507.672	6259.55
508.041	6202.83
508.409	6213.9
508.777	6271.98
509.145	6306.33
509.514	6314.24
509.882	6355.14
510.25	6351.98
510.618	6375.26
510.986	6363.05
511.354	6382.49
511.722	6420.23
512.09	6492.99
512.458	6401.47
512.826	6498.19
513.193	6528.25
513.561	6497.29
513.929	6560.34
514.297	6591.52
514.664	6619.32
515.032	6609.37
515.4	6649.6
515.767	6643.72
516.135	6702.25
516.502	6619.09
516.869	6702.03
517.237	6727.56
517.604	6714.91
517.972	6792.19
518.339	6763.72
518.706	6775.02
519.073	6759.43
519.44	6811.4
519.808	6813.21
520.175	6818.63
520.542	6826.09
520.909	6857.5
521.276	6875.81
521.643	6892.98
522.009	6929.82
522.376	6950.83
522.743	6953.55
523.11	6970.95
523.477	7039.19
523.843	7004.17
524.21	7052.3
524.577	7050.94
524.943	7057.95
525.31	7127.1
525.676	7177.27
526.043	7186.08
526.409	7123.94
526.776	7207.55
527.142	7231.73
527.508	7203.26
527.874	7240.32
528.241	7290.71
528.607	7297.72
528.973	7261.79
529.339	7281.45
529.705	7273.09
530.071	7385.63
530.437	7358.96
530.803	7348.56
531.169	7345.4
531.535	7283.71
531.901	7366.19
532.267	7339.07
532.632	7327.77
532.998	7365.29
533.364	7383.59
533.73	7341.56
534.095	7361.9
534.461	7384.72
534.826	7414.55
535.192	7439.41
535.557	7418.84
535.923	7406.64
536.288	7416.13
536.653	7380.2
537.019	7353.31
537.384	7424.72
537.749	7357.83
538.114	7355.34
538.479	7312.18
538.845	7411.84
539.21	7315.57
539.575	7365.06
539.94	7361.22
540.305	7374.33
540.67	7335.68
541.034	7337.26
541.399	7337.49
541.764	7384.5
542.129	7340.65
542.494	7331.62
542.858	7312.63
543.223	7366.87
543.587	7384.95
543.952	7336.59
544.316	7385.4
544.681	7369.13
545.045	7375.68
545.41	7385.17
545.774	7348.79
546.138	7351.95
546.503	7307.89
546.867	7360.54
547.231	7389.24
547.595	7276.7
547.959	7313.31
548.324	7299.3
548.688	7282.58
549.052	7263.14
549.416	7276.48
549.779	7327.32
550.143	7268.34
550.507	7302.46
550.871	7294.33
551.235	7240.54
551.599	7264.5
551.962	7280.77
552.326	7274.44
552.689	7322.8
553.053	7210.49
553.417	7277.38
553.78	7287.55
554.143	7302.69
554.507	7337.26
554.87	7348.11
555.234	7299.98
555.597	7325.51
555.96	7336.59
556.323	7276.7
556.686	7297.94
557.05	7352.18
557.413	7328.45
557.776	7354.44
558.139	7356.02
558.502	7420.65
558.865	7390.6
559.228	7414.32
559.59	7444.83
559.953	7384.27
560.316	7446.19
560.679	7407.32
561.041	7459.52
561.404	7515.11
561.767	7573.64
562.129	7469.24
562.492	7529.58
562.854	7445.74
563.217	7537.49
563.579	7555.11
563.941	7576.13
564.304	7628.1
564.666	7658.61
565.028	7623.13
565.39	7692.28
565.753	7648.67
566.115	7685.05
566.477	7628.78
566.839	7764.82
567.201	7895.89
567.563	7807.53
567.925	7754.43
568.287	7790.36
568.648	7846.63
569.01	7881.66
569.372	7900.19
569.734	7880.53
570.095	7999.17
570.457	8018.83
570.819	7975.44
571.18	8003.91
571.542	8009.56
571.903	7981.99
572.265	8018.6
572.626	8078.49
572.987	8054.99
573.349	8068.54
573.71	8134.98
574.071	8166.62
574.432	8160.97
574.794	8254.75
575.155	8176.79
575.516	8153.74
575.877	8150.8
576.238	8141.99
576.599	8259.05
576.96	8254.98
577.32	8297.24
577.681	8261.53
578.042	8318.93
578.403	8286.17
578.763	8342.44
579.124	8358.03
579.485	8402.77
579.845	8354.87
580.206	8440.29
580.566	8408.2
580.927	8424.92
581.287	8463.79
581.648	8464.01
582.008	8462.66
582.368	8470.12
582.728	8497.46
583.089	8513.5
583.449	8492.94
583.809	8501.98
584.169	8555.76
584.529	8546.72
584.889	8620.17
585.249	8558.7
585.609	8559.61
585.969	8589.89
586.329	8566.38
586.688	8597.34
587.048	8620.62
587.408	8618.59
587.768	8622.43
588.127	8608.19
588.487	8633.95
588.846	8673.73
589.206	8607.29
589.565	8605.25
589.925	8730.45
590.284	8667.4
590.643	8679.15
591.003	8675.76
591.362	8726.38
591.721	8701.3
592.08	8744.91
592.44	8736.1
592.799	8763.89
593.158	8685.7
593.517	8733.16
593.876	8733.84
594.235	8698.58
594.593	8733.16
594.952	8817
595.311	8752.59
595.67	8724.57
596.029	8763.89
596.387	8893.38
596.746	8800.5
597.104	8842.76
597.463	8863.78
597.822	8855.19
598.18	8806.6
598.538	8831.24
598.897	8931.8
599.255	8839.37
599.613	8927.28
599.972	8867.17
600.33	8907.62
600.688	8907.62
601.046	8957.56
601.404	8949.2
601.762	8896.32
602.12	8925.25
602.478	8939.93
602.836	8990.1
603.194	8941.97
603.552	8927.73
603.91	8913.95
604.268	9025.13
604.625	8941.29
604.983	8916.21
605.341	8920.73
605.698	9006.37
606.056	9040.72
606.413	8988.29
606.771	8996.66
607.128	9002.08
607.485	9007.5
607.843	8993.27
608.2	9024
608.557	9027.84
608.914	8979.26
609.272	9095.86
609.629	9092.25
609.986	9102.42
610.343	9057.22
610.7	9115.97
611.057	9127.05
611.414	9137.44
611.771	9108.29
612.127	9164.56
612.484	9183.09
612.841	9222.86
613.198	9113.94
613.554	9125.69
613.911	9205.92
614.267	9185.13
614.624	9244.79
614.98	9155.3
615.337	9212.7
615.693	9219.02
616.05	9204.56
616.406	9206.14
616.762	9240.49
617.118	9200.72
617.475	9212.7
617.831	9270.55
618.187	9294.5
618.543	9277.33
618.899	9320.26
619.255	9313.94
619.611	9342.64
619.967	9320.04
620.323	9389.19
620.678	9275.97
621.034	9256.31
621.39	9265.8
621.746	9276.42
622.101	9352.35
622.457	9293.6
622.812	9312.81
623.168	9285.24
623.523	9319.13
623.879	9372.47
624.234	9290.43
624.589	9227.61
624.945	9316.65
625.3	9336.99
625.655	9329.3
626.01	9367.72
626.365	9311.9
626.72	9327.72
627.075	9257.67
627.43	9273.26
627.785	9329.3
628.14	9315.29
628.495	9276.87
628.85	9236.42
629.205	9261.73
629.559	9272.58
629.914	9221.73
630.269	9225.35
630.623	9275.07
630.978	9241.17
631.332	9287.27
631.687	9217.44
632.041	9197.33
632.396	9202.3
632.75	9233.49
633.104	9193.04
633.459	9152.81
633.813	9153.26
634.167	9154.84
634.521	9152.58
634.875	9119.59
635.229	9129.08
635.583	9053.15
635.937	9056.77
636.291	9088.63
636.645	9081.17
636.999	8985.36
637.352	9063.1
637.706	9053.15
638.06	9008.41
638.413	9058.12
638.767	8987.84
639.121	9052.47
639.474	8922.99
639.828	9001.4
640.181	8969.76
640.534	8968.63
640.888	8980.39
641.241	8940.16
641.594	8913.95
641.947	8987.16
642.301	8954.17
642.654	8913.49
643.007	8915.08
643.36	8894.29
643.713	8890.22
644.066	8914.4
644.419	8878.02
644.771	8810.22
645.124	8688.42
645.477	8686.83
645.83	8654.29
646.182	8640.73
646.535	8581.3
646.888	8626.04
647.24	8568.42
647.593	8638.02
647.945	8592.37
648.298	8557.57
648.65	8494.52
649.002	8553.28
649.355	8553.96
649.707	8582.43
650.059	8555.76
650.411	8657.46
650.763	8705.59
651.115	8743.56
651.467	8715.53
651.819	8701.07
652.171	8659.26
652.523	8710.79
652.875	8651.58
653.227	8652.94
653.578	8702.65
653.93	8706.95
654.282	8685.25
654.633	8585.82
654.985	8694.97
655.337	8706.49
655.688	8720.96
656.039	8758.24
656.391	8669.43
656.742	8711.01
657.094	8714.4
657.445	8728.64
657.796	8694.29
658.147	8678.25
658.498	8733.61
658.849	8673.95
659.2	8697.45
659.551	8578.81
659.902	8684.8
660.253	8646.38
660.604	8650
660.955	8729.77
661.306	8683.67
661.656	8687.06
662.007	8717.79
662.358	8759.83
662.708	8653.16
663.059	8651.13
663.409	8659.26
663.76	8653.84
664.11	8681.41
664.461	8666.04
664.811	8714.86
665.161	8680.05
665.511	8632.6
665.862	8624.46
666.212	8650.68
666.562	8700.84
666.912	8641.41
667.262	8605.71
667.612	8675.53
667.962	8657.46
668.312	8662.2
668.662	8674.4
669.011	8696.55
669.361	8614.52
669.711	8607.51
670.06	8682.99
670.41	8589.66
670.76	8569.1
671.109	8612.03
671.459	8610.23
671.808	8547.18
672.157	8640.28
672.507	8539.49
672.856	8574.29
673.205	8594.63
673.554	8600.96
673.904	8556.67
674.253	8568.87
674.602	8546.5
674.951	8447.07
675.3	8406.62
675.649	8522.09
675.998	8549.44
676.346	8587.18
676.695	8562.77
677.044	8497.69
677.393	8462.66
677.741	8510.12
678.09	8493.84
678.438	8521.87
678.787	8405.26
679.135	8452.49
679.484	8414.98
679.832	8479.61
680.181	8399.16
680.529	8452.26
680.877	8347.41
681.225	8361.42
681.573	8414.75
681.922	8348.76
682.27	8333.62
682.618	8327.75
682.966	8337.46
683.314	8346.96
683.661	8248.2
684.009	8241.42
684.357	8237.58
684.705	8240.52
685.053	8245.49
685.4	8302.44
685.748	8146.06
686.095	8120.07
686.443	8189.22
686.79	8143.35
687.138	8160.07
687.485	8101.76
687.832	8104.7
688.18	8095.44
688.527	8017.7
688.874	8024.93
689.221	8042.33
689.568	7982.67
689.915	7963.01
690.262	7922.79
690.609	7952.84
690.956	7946.29
691.303	7906.74
691.65	7888.89
691.997	7864.71
692.344	7793.75
692.69	7845.73
693.037	7794.88
693.383	7781.09
693.73	7672.85
694.077	7714.43
694.423	7642.79
694.769	7657.03
695.116	7647.99
695.462	7635.79
695.808	7620.2
696.155	7657.26
696.501	7507.43
696.847	7496.13
697.193	7431.05
697.539	7489.58
697.885	7449.58
698.231	7427.66
698.577	7399.18
698.923	7373.65
699.269	7354.67
699.614	7286.42
699.96	7282.58
700.306	7283.71
700.651	7257.49
700.997	7243.26
701.342	7238.96
701.688	7292.52
702.033	7161
702.379	7159.64
702.724	7106.31
703.069	7138.17
703.415	7013.88
703.76	7021.11
704.105	7038.52
704.45	7066.31
704.795	6970.49
705.14	6998.97
705.485	6953.55
705.83	6936.15
706.175	6917.39
706.52	6897.5
706.865	6918.97
707.209	6943.83
707.554	6849.82
707.899	6849.14
708.243	6806.21
708.588	6835.13
708.932	6728.47
709.277	6791.06
709.621	6756.04
709.966	6731.86
710.31	6725.3
710.654	6688.02
710.998	6696.6
711.342	6659.99
711.687	6666.32
712.031	6661.12
712.375	6655.7
712.719	6604.85
713.063	6617.96
713.407	6656.6
713.75	6574.12
714.094	6586.55
714.438	6563.95
714.782	6607.57
715.125	6515.37
715.469	6542.03
715.812	6554.23
716.156	6452.99
716.499	6482.15
716.843	6539.32
717.186	6446.44
717.53	6511.75
717.873	6478.3
718.216	6493.67
718.559	6458.64
718.902	6390.17
719.246	6431.07
719.589	6335.48
719.932	6378.87
720.275	6372.77
720.617	6407.35
720.96	6348.36
721.303	6361.92
721.646	6396.95
721.989	6380.91
722.331	6340.23
722.674	6288.93
723.016	6280.8
723.359	6342.04
723.701	6282.83
724.044	6291.19
724.386	6279.67
724.729	6294.81
725.071	6280.8
725.413	6282.83
725.755	6261.36
726.097	6226.11
726.439	6203.28
726.782	6193.57
727.124	6205.77
727.465	6201.02
727.807	6211.42
728.149	6166.67
728.491	6214.81
728.833	6261.13
729.175	6271.98
729.516	6223.17
729.858	6157.18
730.199	6188.37
730.541	6197.18
730.882	6161.25
731.224	6226.11
731.565	6166.67
731.906	6121.48
732.248	6214.36
732.589	6152.21
732.93	6137.3
733.271	6135.04
733.612	6121.48
733.953	6162.61
734.294	6110.63
734.635	6113.34
734.976	6161.7
735.317	6121.7
735.658	6153.79
735.999	6179.1
736.339	6160.8
736.68	6140.46
737.021	6173.23
737.361	6098.88
737.702	6153.12
738.042	6164.19
738.383	6148.14
738.723	6164.64
739.063	6123.06
739.404	6105.66
739.744	6158.09
740.084	6132.78
740.424	6135.04
740.764	6166.9
741.104	6229.5
741.444	6161.25
741.784	6138.2
742.124	6161.7
742.464	6228.59
742.804	6209.38
743.143	6206.67
743.483	6225.66
743.823	6204.41
744.162	6224.75
744.502	6243.51
744.841	6228.59
745.181	6307.24
745.52	6303.62
745.86	6318.99
746.199	6303.85
746.538	6371.87
746.877	6394.92
747.216	6401.92
747.556	6392.43
747.895	6418.42
748.234	6460.68
748.573	6462.26
748.911	6494.8
749.25	6594.46
749.589	6550.84
749.928	6572.09
750.267	6597.62
750.605	6653.67
750.944	6722.37
751.283	6742.48
751.621	6826.09
751.96	6766.21
752.298	6819.09
752.636	6922.13
752.975	6939.08
753.313	6981.57
753.651	7090.27
753.989	7113.54
754.327	7171.85
754.666	7217.04
755.004	7256.14
755.342	7426.3
755.679	7476.02
756.017	7512.85
756.355	7570.93
756.693	7635.11
757.031	7778.84
757.368	7859.74
757.706	7891.37
758.044	7897.48
758.381	8010.47
758.719	8147.41
759.056	8222.89
759.394	8261.53
759.731	8398.71
760.068	8463.34
760.405	8463.79
760.743	8583.11
761.08	8756.44
761.417	8802.54
761.754	8895.19
762.091	8947.84
762.428	9073.49
762.765	9200.27
763.102	9297.89
763.438	9303.31
763.775	9386.02
764.112	9496.3
764.449	9622.63
764.785	9661.27
765.122	9744.43
765.458	9859.46
765.795	9956.18
766.131	10020.36
766.467	10021.94
766.804	10138.77
767.14	10204.99
767.476	10260.13
767.812	10349.39
768.148	10404.75
768.485	10497.18
768.821	10483.17
769.157	10647.69
769.492	10602.94
769.828	10692.88
