Data from hue_40_FLMS001491_8.txt Node
Date: Mon Feb 06 15:07:22 GMT 2017
User: dcchb
Spectrometer: FLMS00149
Trigger mode: 0
Integration Time (sec): 2.000000E-2
Scans to average: 10
Electric dark correction enabled: true
Nonlinearity correction enabled: false
Boxcar width: 0
XAxis mode: Wavelengths
Number of Pixels in Spectrum: 2048
>>>>>Begin Spectral Data<<<<<
341.393	-6.47
341.776	-6.47
342.16	-6.47
342.543	-33.13
342.927	-53.93
343.31	-71.78
343.693	-67.48
344.077	-39.91
344.46	-62.74
344.843	-59.8
345.226	-37.65
345.61	-30.2
345.993	-22.51
346.376	-23.19
346.759	5.51
347.142	43.7
347.525	44.6
347.908	59.52
348.291	78.73
348.674	87.09
349.057	96.13
349.44	99.52
349.823	136.58
350.206	164.83
350.588	186.52
350.971	205.73
351.354	235.56
351.737	222.9
352.119	244.6
352.502	268.55
352.884	253.64
353.267	273.98
353.65	302.45
354.032	296.12
354.414	332.51
354.797	304.71
355.179	317.36
355.562	324.82
355.944	300.64
356.326	317.14
356.709	321.66
357.091	337.25
357.473	339.51
357.855	349.91
358.238	327.53
358.62	351.26
359.002	340.64
359.384	358.49
359.766	342.45
360.148	356.01
360.53	354.43
360.912	345.39
361.294	334.09
361.676	335.9
362.057	314.2
362.439	343.13
362.821	340.19
363.203	327.31
363.584	310.59
363.966	325.95
364.348	335.9
364.729	350.13
365.111	314.2
365.493	342.67
365.874	311.71
366.256	308.1
366.637	332.51
367.019	289.34
367.4	306.29
367.781	318.49
368.163	324.82
368.544	304.71
368.925	307.87
369.306	320.75
369.688	327.99
370.069	311.49
370.45	324.6
370.831	315.56
371.212	303.58
371.593	338.15
371.974	309.23
372.355	320.75
372.736	315.1
373.117	331.6
373.498	318.27
373.879	311.04
374.26	309.23
374.641	329.34
375.021	318.95
375.402	318.49
375.783	322.79
376.163	334.54
376.544	327.99
376.925	335.22
377.305	337.03
377.686	324.14
378.066	329.79
378.447	358.04
378.827	324.82
379.208	346.06
379.588	319.85
379.968	320.98
380.349	316.01
380.729	355.33
381.109	331.38
381.489	354.65
381.87	321.21
382.25	360.75
382.63	347.87
383.01	356.01
383.39	357.36
383.77	360.98
384.15	354.65
384.53	318.49
384.91	351.26
385.29	348.78
385.67	333.41
386.049	361.88
386.429	367.53
386.809	356.46
387.189	339.28
387.568	364.82
387.948	363.69
388.328	370.92
388.707	354.65
389.087	370.92
389.466	372.96
389.846	359.17
390.225	360.08
390.605	368.44
390.984	356.23
391.363	378.38
391.743	372.28
392.122	368.44
392.501	364.82
392.881	390.13
393.26	371.83
393.639	363.47
394.018	384.71
394.397	398.04
394.776	401.66
395.155	364.82
395.534	386.52
395.913	376.57
396.292	382
396.671	379.28
397.05	419.73
397.429	371.6
397.808	390.36
398.186	380.19
398.565	394.65
398.944	382
399.323	398.94
399.701	379.51
400.08	380.87
400.458	399.17
400.837	408.66
401.215	398.49
401.594	404.82
401.972	410.02
402.351	410.02
402.729	413.63
403.107	419.28
403.486	432.16
403.864	418.83
404.242	418.38
404.62	429.9
404.999	416.8
405.377	427.87
405.755	437.14
406.133	424.71
406.511	427.87
406.889	414.99
407.267	425.16
407.645	426.06
408.023	447.76
408.401	446.4
408.779	421.99
409.156	430.58
409.534	452.5
409.912	435.55
410.29	432.16
410.667	467.19
411.045	463.12
411.422	460.86
411.8	465.16
412.178	457.25
412.555	476.91
412.933	460.19
413.31	473.97
413.687	485.95
414.065	477.81
414.442	477.59
414.819	487.76
415.197	490.47
415.574	487.3
415.951	493.18
416.328	498.38
416.705	505.83
417.082	521.2
417.46	515.78
417.837	519.62
418.214	521.2
418.591	510.58
418.967	516.46
419.344	518.04
419.721	520.98
420.098	525.95
420.475	499.96
420.852	535.44
421.228	557.36
421.605	516.23
421.982	532.5
422.358	540.64
422.735	555.55
423.111	548.77
423.488	568.66
423.864	560.3
424.241	560.52
424.617	561.65
424.994	566.85
425.37	554.65
425.746	563.46
426.123	564.36
426.499	584.48
426.875	586.96
427.251	595.78
427.627	594.42
428.003	588.54
428.379	597.13
428.756	650.92
429.132	619.28
429.507	614.08
429.883	607.07
430.259	626.28
430.635	635.55
431.011	632.38
431.387	650.01
431.763	653.63
432.138	644.81
432.514	668.09
432.89	661.08
433.265	653.85
433.641	675.32
434.016	670.35
434.392	677.81
434.767	685.26
435.143	695.66
435.518	696.34
435.894	708.77
436.269	694.08
436.644	731.82
437.02	715.09
437.395	704.25
437.77	718.03
438.145	741.31
438.52	735.66
438.895	735.66
439.271	758.48
439.646	732.95
440.021	747.18
440.395	764.13
440.77	761.65
441.145	767.3
441.52	774.75
441.895	760.74
442.27	768.65
442.645	794.19
443.019	801.42
443.394	802.32
443.769	792.83
444.143	811.36
444.518	801.65
444.892	824.7
445.267	800.06
445.641	839.61
446.016	849.1
446.39	817.24
446.764	850.91
447.139	841.64
447.513	845.26
447.887	839.38
448.262	864.92
448.636	861.31
449.01	876.22
449.384	856.79
449.758	863.56
450.132	881.42
450.506	874.19
450.88	894.98
451.254	903.11
451.628	903.79
452.002	923.45
452.376	918.93
452.75	922.32
453.123	935.43
453.497	948.76
453.871	949.21
454.244	962.77
454.618	962.32
454.992	987.18
455.365	968.42
455.739	993.05
456.112	1030.34
456.486	1000.06
456.859	1029.44
457.232	1033.96
457.606	1043.22
457.979	1063.56
458.352	1047.51
458.725	1085.03
459.099	1068.76
459.472	1100.62
459.845	1128.42
460.218	1134.07
460.591	1112.82
460.964	1151.24
461.337	1164.12
461.71	1183.33
462.083	1186.72
462.456	1194.86
462.829	1205.02
463.201	1204.12
463.574	1234.18
463.947	1257.45
464.32	1274.4
464.692	1269.2
465.065	1300.16
465.438	1319.82
465.81	1325.02
466.183	1347.62
466.555	1343.78
466.928	1378.81
467.3	1367.05
467.672	1424.91
468.045	1454.96
468.417	1477.79
468.789	1461.29
469.161	1459.26
469.534	1515.3
469.906	1546.26
470.278	1570.44
470.65	1589.2
471.022	1591
471.394	1645.92
471.766	1661.96
472.138	1682.75
472.51	1708.74
472.882	1771.56
473.253	1782.41
473.625	1816.31
473.997	1878.23
474.369	1898.79
474.74	1938.56
475.112	1967.04
475.484	2000.48
475.855	2042.29
476.227	2058.56
476.598	2153.7
476.97	2156.19
477.341	2225.79
477.713	2296.97
478.084	2275.73
478.455	2390.98
478.827	2411.55
479.198	2478.21
479.569	2528.38
479.94	2625.55
480.311	2674.36
480.682	2720.47
481.053	2814.25
481.424	2916.39
481.795	2925.66
482.166	2989.38
482.537	3075.48
482.908	3154.13
483.279	3246.78
483.65	3335.14
484.021	3391.86
484.391	3517.96
484.762	3542.14
485.133	3591.85
485.503	3714.34
485.874	3815.13
486.244	3865.07
486.615	3961.34
486.985	4070.26
487.356	4155.46
487.726	4262.12
488.097	4340.54
488.467	4445.62
488.837	4553.64
489.207	4651.94
489.578	4758.6
489.948	4821.2
490.318	4974.64
490.688	5044.92
491.058	5123.34
491.428	5271.13
491.798	5366.95
492.168	5520.84
492.538	5562.42
492.908	5642.42
493.278	5828.86
493.648	5860.04
494.017	5984.11
494.387	6072.02
494.757	6138
495.126	6291.67
495.496	6347.26
495.866	6418.67
496.235	6553.13
496.605	6704.09
496.974	6747.48
497.344	6853.69
497.713	6929.85
498.082	7003.29
498.452	7158.77
498.821	7208.26
499.19	7241.7
499.559	7387.91
499.928	7481.7
500.298	7530.06
500.667	7549.49
501.036	7665.65
501.405	7789.48
501.774	7916.49
502.143	8009.82
502.512	8107.89
502.88	8173.43
503.249	8230.15
503.618	8301.79
503.987	8308.11
504.356	8481.9
504.724	8554.21
505.093	8578.16
505.462	8686.41
505.83	8793.75
506.199	8854.54
506.567	8983.8
506.936	8951.71
507.304	9235.32
507.672	9220.18
508.041	9254.53
508.409	9407.75
508.777	9439.16
509.145	9525.71
509.514	9508.99
509.882	9679.83
510.25	9642.09
510.618	9761.86
510.986	9770.9
511.354	9983.33
511.722	10031.91
512.09	10197.78
512.458	10161.17
512.826	10256.31
513.193	10319.14
513.561	10335.86
513.929	10412.47
514.297	10555.51
514.664	10620.37
515.032	10651.33
515.4	10786.02
515.767	10839.57
516.135	10879.35
516.502	10809.97
516.869	11013.35
517.237	11057.42
517.604	11046.57
517.972	11276.85
518.339	11358.66
518.706	11364.98
519.073	11429.61
519.44	11504.42
519.808	11585.99
520.175	11525.88
520.542	11716.16
520.909	11718.42
521.276	11864.41
521.643	11908.7
522.009	12020.33
522.376	12080.22
522.743	12139.2
523.11	12301.91
523.477	12381.23
523.843	12481.56
524.21	12599.75
524.577	12652.86
524.943	12672.07
525.31	12777.6
525.676	12988.9
526.043	12920.87
526.409	13048.1
526.776	13240.19
527.142	13206.07
527.508	13274.99
527.874	13414.42
528.241	13460.52
528.607	13583.23
528.973	13694.19
529.339	13675.21
529.705	13768.76
530.071	13892.15
530.437	13906.84
530.803	14060.73
531.169	14115.87
531.535	14076.1
531.901	14116.1
532.267	14180.05
532.632	14320.61
532.998	14262.99
533.364	14377.33
533.73	14485.81
534.095	14667.95
534.461	14669.3
534.826	14754.05
535.192	14838.11
535.557	14929.86
535.923	14911.11
536.288	14969.18
536.653	15053.7
537.019	15046.92
537.384	15166.69
537.749	15142.06
538.114	15224.54
538.479	15249.18
538.845	15490.3
539.21	15459.57
539.575	15452.11
539.94	15592.67
540.305	15648.94
540.67	15591.54
541.034	15707.24
541.399	15844.87
541.764	15827.24
542.129	15930.97
542.494	15936.39
542.858	16080.79
543.223	16007.57
543.587	16089.38
543.952	16128.7
544.316	16263.61
544.681	16194.46
545.045	16323.05
545.41	16422.7
545.774	16375.47
546.138	16511.29
546.503	16554.9
546.867	16629.48
547.231	16798.74
547.595	16784.73
547.959	16838.74
548.324	16875.12
548.688	16805.74
549.052	16954.44
549.416	16968.9
549.779	17003.71
550.143	17046.42
550.507	17209.8
550.871	17271.5
551.235	17248.22
551.599	17313.3
551.962	17493.41
552.326	17460.19
552.689	17615.21
553.053	17581.09
553.417	17582
553.78	17904.02
554.143	17718.71
554.507	17858.37
554.87	17934.08
555.234	18066.95
555.597	17906.73
555.96	18113.96
556.323	18131.59
556.686	18099.72
557.05	18381.97
557.413	18293.16
557.776	18403.22
558.139	18487.51
558.502	18455.64
558.865	18613.61
559.228	18689.08
559.59	18692.02
559.953	18789.65
560.316	18960.49
560.679	18925.69
561.041	19079.36
561.404	19154.16
561.767	19297.66
562.129	19231.44
562.492	19417.65
562.854	19391.89
563.217	19377.88
563.579	19522.74
563.941	19633.92
564.304	19738.32
564.666	19787.14
565.028	19826
565.39	19880.47
565.753	19919.79
566.115	20011.54
566.477	19995.27
566.839	20092.89
567.201	20298.31
567.563	20357.97
567.925	20374.46
568.287	20389.83
568.648	20574.91
569.01	20673.89
569.372	20797.05
569.734	20783.27
570.095	20875.24
570.457	21022.81
570.819	21044.28
571.18	20986.2
571.542	21296.47
571.903	21381.44
572.265	21385.06
572.626	21525.85
572.987	21582.34
573.349	21593.42
573.71	21717.25
574.071	21811.26
574.432	21962.45
574.794	22070.01
575.155	22026.85
575.516	22091.93
575.877	22323.11
576.238	22369.89
576.599	22511.13
576.96	22611.24
577.32	22718.58
577.681	22757.9
578.042	22850.33
578.403	23038.35
578.763	23115.18
579.124	23303.2
579.485	23460.94
579.845	23593.14
580.206	23597.88
580.566	23874.94
580.927	23857.31
581.287	24137.76
581.648	24158.77
582.008	24349.5
582.368	24418.2
582.728	24666.78
583.089	24828.36
583.449	24921.24
583.809	24940.9
584.169	25208.46
584.529	25393.54
584.889	25818.84
585.249	25637.6
585.609	25831.27
585.969	26156.23
586.329	26181.32
586.688	26440.29
587.048	26622.66
587.408	26739.72
587.768	27067.62
588.127	27123.89
588.487	27315.52
588.846	27617.66
589.206	27666.93
589.565	27889.52
589.925	28153.47
590.284	28379.68
590.643	28428.26
591.003	28686.56
591.362	28990.96
591.721	29035.03
592.08	29182.14
592.44	29441.12
592.799	29669.59
593.158	29693.54
593.517	29919.98
593.876	30145.96
594.235	30247.43
594.593	30481.77
594.952	30636.57
595.311	30670.69
595.67	31080.4
596.029	31370.56
596.387	31431.57
596.746	31813.49
597.104	31694.39
597.463	31839.7
597.822	32361.04
598.18	32326.47
598.538	32388.39
598.897	32712.67
599.255	32646.68
599.613	33152.43
599.972	33078.76
600.33	33400.34
600.688	33432.88
601.046	33566.89
601.404	33923.03
601.762	34078.28
602.12	34313.98
602.478	34365.73
602.836	34468.56
603.194	34463.59
603.552	34773.63
603.91	34705.16
604.268	34966.62
604.625	34964.59
604.983	35266.73
605.341	35056.79
605.698	35451.13
606.056	35764.34
606.413	35728.86
606.771	35972.92
607.128	36013.38
607.485	36069.87
607.843	36171.79
608.2	36399.81
608.557	36567.48
608.914	36614.26
609.272	36804.31
609.629	36892.22
609.986	37139
610.343	37105.32
610.7	37358.88
611.057	37355.94
611.414	37491.3
611.771	37554.58
612.127	37727.45
612.484	37860.56
612.841	37978.97
613.198	38016.94
613.554	38074.79
613.911	38391.39
614.267	38468.68
614.624	38441.33
614.98	38658.96
615.337	38804.26
615.693	38862.79
616.05	38763.36
616.406	39138.94
616.762	38902.56
617.118	38987.53
617.475	39184.37
617.831	39369.45
618.187	39386.62
618.543	39325.38
618.899	39747.74
619.255	39755.42
619.611	39660.06
619.967	39864.35
620.323	40036.55
620.678	39879.26
621.034	39969.88
621.39	40052.36
621.746	40005.59
622.101	40350.89
622.457	40127.39
622.812	40213.26
623.168	40459.36
623.523	40505.46
623.879	40509.3
624.234	40335.97
624.589	40519.7
624.945	40596.98
625.3	40701.61
625.655	40735.28
626.01	40723.08
626.365	40684.66
626.72	40768.28
627.075	40764.66
627.43	40739.13
627.785	40645.34
628.14	40883.53
628.495	40905.22
628.85	40930.76
629.205	40799.01
629.559	41082.17
629.914	40880.82
630.269	41081.94
630.623	40888.28
630.978	40792.68
631.332	41033.36
631.687	40988.39
632.041	40956.75
632.396	40923.53
632.75	40803.53
633.104	40833.81
633.459	40664.78
633.813	40801.72
634.167	40859.8
634.521	40767.83
634.875	40913.81
635.229	40795.62
635.583	40660.26
635.937	40776.41
636.291	40781.16
636.645	40713.36
636.999	40675.17
637.352	40688.05
637.706	40478.34
638.06	40782.74
638.413	40738.45
638.767	40537.32
639.121	40529.87
639.474	40347.27
639.828	40490.77
640.181	40501.17
640.534	40453.71
640.888	40398.12
641.241	40137.56
641.594	40225.47
641.947	40401.06
642.301	40380.94
642.654	40401.73
643.007	40447.38
643.36	40437.44
643.713	40283.32
644.066	40408.97
644.419	40165.13
644.771	39942.99
645.124	39573.73
645.477	39527.18
645.83	39300.29
646.182	39068.21
646.535	39069.11
646.888	39160.86
647.24	38910.47
647.593	39038.61
647.945	39095.33
648.298	38948.44
648.65	38837.48
649.002	38731.04
649.355	38896.24
649.707	38858.05
650.059	39042.45
650.411	39530.8
650.763	39601.53
651.115	40021.63
651.467	39707.97
651.819	39684.01
652.171	39705.93
652.523	39615.77
652.875	39554.3
653.227	39362.44
653.578	39735.54
653.93	39477.24
654.282	39387.75
654.633	39349.78
654.985	39292.16
655.337	39502.1
655.688	39417.81
656.039	39536.22
656.391	39225.27
656.742	39235.66
657.094	39240.41
657.445	39361.08
657.796	39336
658.147	39212.61
658.498	39206.74
658.849	39223.69
659.2	39174.2
659.551	39200.18
659.902	39254.87
660.253	39298.94
660.604	39397.47
660.955	39105.05
661.306	39278.6
661.656	39040.64
662.007	39114.99
662.358	39166.74
662.708	39245.83
663.059	39123.12
663.409	38894.66
663.76	39172.84
664.11	39181.65
664.461	39272.27
664.811	39210.13
665.161	39192.5
665.511	39145.72
665.862	38973.3
666.212	39117.93
666.562	39127.42
666.912	39091.03
667.262	39037.93
667.612	39118.15
667.962	39124.93
668.312	38974.2
668.662	39219.62
669.011	39016.91
669.361	38943.02
669.711	39051.71
670.06	38838.61
670.41	38954.09
670.76	38785.51
671.109	39000.19
671.459	38890.14
671.808	38862.57
672.157	38929.91
672.507	38640.65
672.856	38636.36
673.205	38705.51
673.554	38798.16
673.904	38687.88
674.253	38799.29
674.602	38769.01
674.951	38205.63
675.3	38065.75
675.649	38648.56
675.998	38550.94
676.346	38653.31
676.695	38664.38
677.044	38535.12
677.393	38539.86
677.741	38598.17
678.09	38498.73
678.438	38397.27
678.787	38503.71
679.135	38494.21
679.484	38187.78
679.832	38396.14
680.181	38097.61
680.529	38261.45
680.877	38170.15
681.225	38083.38
681.573	38231.85
681.922	37992.08
682.27	37850.16
682.618	37905.98
682.966	37830.95
683.314	37885.42
683.661	37861.69
684.009	37662.82
684.357	37595.93
684.705	37508.7
685.053	37578.31
685.4	37501.25
685.748	37434.35
686.095	37385.09
686.443	37192.33
686.79	37283.17
687.138	37254.02
687.485	37234.36
687.832	37056.96
688.18	37045.44
688.527	36981.71
688.874	37059.22
689.221	36928.15
689.568	36793.24
689.915	36662.62
690.262	36682.06
690.609	36454.95
690.956	36476.41
691.303	36438.45
691.65	36175.4
691.997	36205.46
692.344	36094.95
692.69	36120.26
693.037	36028.29
693.383	35925.24
693.73	35817.22
694.077	35706.94
694.423	35602.99
694.769	35595.08
695.116	35416.1
695.462	35489.1
695.808	35252.27
696.155	35408.42
696.501	35045.04
696.847	35092.72
697.193	34791.49
697.539	34930.01
697.885	34626.74
698.231	34582
698.577	34693.86
698.923	34619.74
699.269	34458.16
699.614	34312.18
699.96	34229.69
700.306	34330.93
700.651	34032.64
700.997	34025.18
701.342	33949.7
701.688	33946.76
702.033	33780.89
702.379	33658.63
702.724	33660.44
703.069	33677.39
703.415	33314.69
703.76	33387.68
704.105	33345.87
704.45	33305.42
704.795	33062.27
705.14	32928.71
705.485	32836.74
705.83	32856.4
706.175	32908.37
706.52	32917.41
706.865	32568.27
707.209	32649.4
707.554	32505.9
707.899	32537.31
708.243	32350.65
708.588	32305.45
708.932	32160.37
709.277	32090.09
709.621	32101.61
709.966	31842.41
710.31	31965.12
710.654	31723.09
710.998	31766.93
711.342	31797.89
711.687	31648.74
712.031	31778.01
712.375	31547.28
712.719	31640.38
713.063	31501.18
713.407	31500.5
713.75	31310
714.094	31480.16
714.438	31147.51
714.782	31275.19
715.125	31023.22
715.469	31084.69
715.812	30869.33
716.156	30788.2
716.499	30902.32
716.843	30916.11
717.186	30647.41
717.53	30790.01
717.873	30740.75
718.216	30624.14
718.559	30456.23
718.902	30324.26
719.246	30387.31
719.589	30279.74
719.932	30204.71
720.275	30140.08
720.617	30116.58
720.96	30083.59
721.303	30056.7
721.646	30050.14
721.989	29933.31
722.331	29873.65
722.674	29877.27
723.016	29868.23
723.359	29861.9
723.701	29816.7
724.044	29599.08
724.386	29563.38
724.729	29788.45
725.071	29592.75
725.413	29513.43
725.755	29469.82
726.097	29374.45
726.439	29204.97
726.782	29218.3
727.124	29394.79
727.465	29183.72
727.807	29103.95
728.149	29098.08
728.491	29089.04
728.833	28996.16
729.175	28924.97
729.516	28846.11
729.858	28877.52
730.199	28916.16
730.541	28691.76
730.882	28737.86
731.224	28916.39
731.565	28641.37
731.906	28729.5
732.248	28715.94
732.589	28555.72
732.93	28550.07
733.271	28388.94
733.612	28514.59
733.953	28414.48
734.294	28367.47
734.635	28259.23
734.976	28383.07
735.317	28177.42
735.658	28113.47
735.999	28215.16
736.339	28113.02
736.68	28129.51
737.021	27972
737.361	27896.53
737.702	28035.28
738.042	27948.95
738.383	27871.89
738.723	27845.91
739.063	27780.82
739.404	27793.93
739.744	27795.74
740.084	27670.09
740.424	27763.42
740.764	27552.58
741.104	27589.42
741.444	27447.95
741.784	27512.81
742.124	27485.01
742.464	27476.65
742.804	27403.43
743.143	27305.36
743.483	27384.9
743.823	27125.02
744.162	27218.13
744.502	27313.72
744.841	27061.07
745.181	27257.9
745.52	27005.02
745.86	27051.35
746.199	26985.14
746.538	27024.46
746.877	26911.24
747.216	26913.73
747.556	26860.4
747.895	26774.75
748.234	26844.12
748.573	26712.38
748.911	26672.38
749.25	26657.01
749.589	26457.69
749.928	26584.47
750.267	26450.01
750.605	26546.96
750.944	26309.9
751.283	26382.67
751.621	26355.1
751.96	26190.36
752.298	26058.38
752.636	26172.5
752.975	26006.63
753.313	25962.57
753.651	26211.15
753.989	25871.49
754.327	25730.03
754.666	25748.56
755.004	25800.54
755.342	25828.11
755.679	25691.16
756.017	25539.07
756.355	25541.79
756.693	25448.46
757.031	25399.87
