Data from hue_250_FLMS001491_00048.txt Node
Date: Tue Feb 07 16:01:02 GMT 2017
User: dcchb
Spectrometer: FLMS00149
Trigger mode: 0
Integration Time (sec): 2.000000E-2
Scans to average: 10
Electric dark correction enabled: true
Nonlinearity correction enabled: false
Boxcar width: 0
XAxis mode: Wavelengths
Number of Pixels in Spectrum: 2048
>>>>>Begin Spectral Data<<<<<
341.393	4
341.776	4
342.16	4
342.543	-61.54
342.927	-76.45
343.31	-79.84
343.693	-71.71
344.077	-66.06
344.46	-72.16
344.843	-44.82
345.226	-42.33
345.61	-38.04
345.993	-21.09
346.376	-3.69
346.759	16.88
347.142	22.08
347.525	47.84
347.908	52.36
348.291	75.86
348.674	101.17
349.057	123.54
349.44	93.71
349.823	121.28
350.206	158.34
350.588	182.3
350.971	198.79
351.354	215.52
351.737	213.48
352.119	227.04
352.502	243.09
352.884	253.93
353.267	287.61
353.65	265.91
354.032	308.4
354.414	302.52
354.797	301.16
355.179	310.66
355.562	316.08
355.944	310.88
356.326	320.6
356.709	321.73
357.091	301.39
357.473	323.76
357.855	320.6
358.238	345.91
358.62	308.62
359.002	331.22
359.384	328.73
359.766	317.89
360.148	321.28
360.53	330.99
360.912	332.12
361.294	324.21
361.676	326.7
362.057	326.02
362.439	337.32
362.821	324.89
363.203	324.44
363.584	294.61
363.966	308.62
364.348	312.46
364.729	296.87
365.111	309.75
365.493	309.98
365.874	313.59
366.256	301.16
366.637	305.68
367.019	307.04
367.4	296.19
367.781	293.26
368.163	292.58
368.544	289.64
368.925	314.05
369.306	301.62
369.688	314.72
370.069	299.36
370.45	314.72
370.831	283.76
371.212	308.62
371.593	282.63
371.974	307.04
372.355	295.51
372.736	296.64
373.117	301.39
373.498	303.88
373.879	311.11
374.26	312.69
374.641	325.34
375.021	300.71
375.402	299.81
375.783	305.91
376.163	314.72
376.544	314.95
376.925	315.18
377.305	305.91
377.686	297.32
378.066	318.34
378.447	311.11
378.827	347.94
379.208	337.77
379.588	307.94
379.968	324.44
380.349	320.6
380.729	326.25
381.109	335.74
381.489	321.05
381.87	312.01
382.25	336.64
382.63	319.02
383.01	321.5
383.39	334.84
383.77	330.54
384.15	352.91
384.53	322.18
384.91	342.29
385.29	321.95
385.67	334.61
386.049	345.23
386.429	348.39
386.809	352.69
387.189	347.04
387.568	349.75
387.948	329.41
388.328	339.81
388.707	365.57
389.087	349.98
389.466	342.97
389.846	359.69
390.225	335.97
390.605	362.86
390.984	344.55
391.363	355.63
391.743	355.63
392.122	362.18
392.501	371.22
392.881	358.79
393.26	392.69
393.639	370.32
394.018	375.74
394.397	362.63
394.776	380.26
395.155	390.88
395.534	381.84
395.913	376.42
396.292	380.71
396.671	382.29
397.05	362.86
397.429	381.61
397.808	383.2
398.186	397.66
398.565	396.76
398.944	380.94
399.323	394.27
399.701	377.55
400.08	411.67
400.458	407.15
400.837	426.36
401.215	403.99
401.594	426.81
401.972	401.27
402.351	420.94
402.729	398.79
403.107	409.86
403.486	407.83
403.864	419.13
404.242	425.91
404.62	441.27
404.999	443.76
405.377	421.61
405.755	438.34
406.133	441.95
406.511	455.51
406.889	465.23
407.267	473.59
407.645	479.24
408.023	462.97
408.401	459.13
408.779	477.43
409.156	481.72
409.534	491.22
409.912	472.01
410.29	494.61
410.667	502.74
411.045	506.13
411.422	513.36
411.8	503.87
412.178	525.57
412.555	524.89
412.933	532.8
413.31	551.1
413.687	539.8
414.065	569.63
414.442	567.15
414.819	572.57
415.197	564.21
415.574	592
415.951	589.07
416.328	611.44
416.705	620.48
417.082	622.29
417.46	595.39
417.837	634.04
418.214	639.91
418.591	614.38
418.967	634.26
419.344	632.46
419.721	664.09
420.098	655.96
420.475	676.07
420.852	676.75
421.228	672.45
421.605	683.08
421.982	684.21
422.358	721.49
422.735	720.59
423.111	721.04
423.488	742.96
423.864	733.02
424.241	752.23
424.617	742.73
424.994	770.53
425.37	793.81
425.746	773.47
426.123	787.25
426.499	800.81
426.875	808.5
427.251	830.42
427.627	855.73
428.003	836.52
428.379	842.85
428.756	867.03
429.132	878.55
429.507	895.05
429.883	891.88
430.259	904.09
430.635	922.62
431.011	945.44
431.387	951.09
431.763	952.9
432.138	963.29
432.514	971.2
432.89	987.25
433.265	1033.12
433.641	1006.46
434.016	1029.96
434.392	1039
434.767	1077.19
435.143	1086.23
435.518	1061.37
435.894	1074.48
436.269	1095.49
436.644	1139.56
437.02	1142.05
437.395	1151.99
437.77	1170.75
438.145	1200.35
438.52	1216.85
438.895	1206.68
439.271	1241.25
439.646	1250.97
440.021	1289.39
440.395	1260.24
440.77	1259.78
441.145	1300.69
441.52	1292.32
441.895	1305.21
442.27	1343.4
442.645	1328.26
443.019	1353.79
443.394	1380.91
443.769	1358.76
444.143	1380.68
444.518	1421.13
444.892	1416.84
445.267	1413.45
445.641	1406.45
446.016	1420.91
446.39	1463.85
446.764	1470.85
447.139	1473.11
447.513	1466.78
447.887	1494.81
448.262	1483.73
448.636	1495.03
449.01	1534.13
449.384	1539.32
449.758	1547.91
450.132	1531.41
450.506	1545.43
450.88	1567.12
451.254	1561.24
451.628	1595.82
452.002	1585.2
452.376	1615.48
452.75	1642.82
453.123	1657.96
453.497	1650.28
453.871	1691.86
454.244	1681.24
454.618	1720.34
454.992	1747.91
455.365	1764.18
455.739	1776.83
456.112	1812.31
456.486	1787.23
456.859	1842.37
457.232	1870.16
457.606	1837.62
457.979	1871.52
458.352	1903.16
458.725	1951.74
459.099	1963.49
459.472	1986.77
459.845	2015.92
460.218	1999.88
460.591	1983.15
460.964	2037.39
461.337	2063.15
461.71	2068.12
462.083	2129.82
462.456	2139.31
462.829	2132.3
463.201	2171.17
463.574	2198.97
463.947	2194.67
464.32	2250.04
464.692	2241.68
465.065	2259.31
465.438	2309.93
465.81	2326.42
466.183	2344.95
466.555	2375.91
466.928	2409.58
467.3	2400.09
467.672	2473.54
468.045	2470.82
468.417	2481.45
468.789	2548.11
469.161	2556.02
469.534	2596.02
469.906	2643.02
470.278	2637.37
470.65	2664.94
471.022	2780.87
471.394	2769.8
471.766	2777.26
472.138	2819.74
472.51	2882.34
472.882	2924.82
473.253	2939.97
473.625	2947.87
473.997	3034.65
474.369	3043.69
474.74	3057.48
475.112	3123.92
475.484	3157.36
475.855	3213.86
476.227	3221.31
476.598	3315.55
476.97	3310.58
477.341	3396.22
477.713	3402.1
478.084	3466.5
478.455	3535.66
478.827	3550.34
479.198	3652.26
479.569	3624.69
479.94	3727.06
480.311	3772.94
480.682	3849.32
481.053	3909.21
481.424	3985.36
481.795	3987.62
482.166	4026.94
482.537	4104.45
482.908	4181.29
483.279	4253.15
483.65	4235.07
484.021	4335.63
484.391	4342.19
484.762	4375.41
485.133	4397.55
485.503	4459.93
485.874	4540.6
486.244	4636.64
486.615	4709.64
486.985	4695.85
487.356	4802.06
487.726	4779.92
488.097	4914.6
488.467	4931.78
488.837	4995.5
489.207	5050.19
489.578	5095.39
489.948	5138.78
490.318	5177.42
490.688	5199.11
491.058	5264.2
491.428	5349.62
491.798	5362.05
492.168	5462.61
492.538	5495.38
492.908	5523.17
493.278	5604.3
493.648	5633.45
494.017	5665.09
494.387	5696.05
494.757	5729.27
495.126	5822.38
495.496	5855.14
495.866	5838.65
496.235	5929.27
496.605	5949.15
496.974	5980.79
497.344	6051.75
497.713	6031.86
498.082	6062.14
498.452	6131.52
498.821	6144.17
499.19	6159.99
499.559	6200.44
499.928	6201.57
500.298	6274.57
500.667	6259.88
501.036	6287.9
501.405	6372.87
501.774	6330.84
502.143	6374
502.512	6404.73
502.88	6490.61
503.249	6407.9
503.618	6545.29
503.987	6505.07
504.356	6539.64
504.724	6590.04
505.093	6601.56
505.462	6599.53
505.83	6605.41
506.199	6687.66
506.567	6708.68
506.936	6688.34
507.304	6780.99
507.672	6731.73
508.041	6832.29
508.409	6831.61
508.777	6908.9
509.145	6905.96
509.514	6863.7
509.882	6933.98
510.25	6983.93
510.618	7009.69
510.986	7021.89
511.354	7018.05
511.722	7047.43
512.09	7099.86
512.458	7057.14
512.826	7063.25
513.193	7131.72
513.561	7159.29
513.929	7196.12
514.297	7221.21
514.664	7260.08
515.032	7323.35
515.4	7318.83
515.767	7369.23
516.135	7345.95
516.502	7322.22
516.869	7391.37
517.237	7363.8
517.604	7390.92
517.972	7394.76
518.339	7450.35
518.706	7510.24
519.073	7433.18
519.44	7456.68
519.808	7500.52
520.175	7504.14
520.542	7588.2
520.909	7592.05
521.276	7581.42
521.643	7645.38
522.009	7663.91
522.376	7630.01
522.743	7696.45
523.11	7734.64
523.477	7816.22
523.843	7733.74
524.21	7832.49
524.577	7850.8
524.943	7865.94
525.31	7890.12
525.676	7983.9
526.043	7947.97
526.409	8037.46
526.776	8003.33
527.142	8000.17
527.508	7997.91
527.874	8050.57
528.241	8056.67
528.607	8101.86
528.973	8202.88
529.339	8112.71
529.705	8151.35
530.071	8191.35
530.437	8173.05
530.803	8231.58
531.169	8218.7
531.535	8224.8
531.901	8255.31
532.267	8232.71
532.632	8240.84
532.998	8251.69
533.364	8243.55
533.73	8224.57
534.095	8327.17
534.461	8245.59
534.826	8329.65
535.192	8323.55
535.557	8353.83
535.923	8313.61
536.288	8292.59
536.653	8358.13
537.019	8279.49
537.384	8332.82
537.749	8273.84
538.114	8298.69
538.479	8256.21
538.845	8330.33
539.21	8319.48
539.575	8277.45
539.94	8359.71
540.305	8346.83
540.67	8312.71
541.034	8323.78
541.399	8307.51
541.764	8317.45
542.129	8367.17
542.494	8310.45
542.858	8321.74
543.223	8316.55
543.587	8356.55
543.952	8292.82
544.316	8305.02
544.681	8242.65
545.045	8371.91
545.41	8363.1
545.774	8366.04
546.138	8320.39
546.503	8340.73
546.867	8288.98
547.231	8352.25
547.595	8291.69
547.959	8311.58
548.324	8324.91
548.688	8360.84
549.052	8330.78
549.416	8312.93
549.779	8277.9
550.143	8291.69
550.507	8287.85
550.871	8335.3
551.235	8278.58
551.599	8424.57
551.962	8328.75
552.326	8383.21
552.689	8379.37
553.053	8272.25
553.417	8297.79
553.78	8424.11
554.143	8374.85
554.507	8377.34
554.87	8407.62
555.234	8460.05
555.597	8399.93
555.96	8424.57
556.323	8426.15
556.686	8469.31
557.05	8483.1
557.413	8416.66
557.776	8456.43
558.139	8498.01
558.502	8487.62
558.865	8420.95
559.228	8541.63
559.59	8515.64
559.953	8546.37
560.316	8663.43
560.679	8626.14
561.041	8642.87
561.404	8615.3
561.767	8701.17
562.129	8618.46
562.492	8747.72
562.854	8671.57
563.217	8650.78
563.579	8675.86
563.941	8733.03
564.304	8795.18
564.666	8895.74
565.028	8898.9
565.39	8879.24
565.753	8954.5
566.115	8943.88
566.477	8966.47
566.839	8935.51
567.201	9005.57
567.563	8973.7
567.925	9003.31
568.287	9030.88
568.648	9047.6
569.01	9143.87
569.372	9121.72
569.734	9105.23
570.095	9191.55
570.457	9208.27
570.819	9169.18
571.18	9238.33
571.542	9218.67
571.903	9217.77
572.265	9326.46
572.626	9296.18
572.987	9334.37
573.349	9368.27
573.71	9353.81
574.071	9381.15
574.432	9427.48
574.794	9548.6
575.155	9466.12
575.516	9446.91
575.877	9455.05
576.238	9493.92
576.599	9555.61
576.96	9550.41
577.32	9570.75
577.681	9638.77
578.042	9681.71
578.403	9613.01
578.763	9660.47
579.124	9656.85
579.485	9697.75
579.845	9755.83
580.206	9729.39
580.566	9725.55
580.927	9764.64
581.287	9762.61
581.648	9750.86
582.008	9832.21
582.368	9825.21
582.728	9824.76
583.089	9888.93
583.449	9832.44
583.809	9903.4
584.169	9847.13
584.529	9922.15
584.889	10015.49
585.249	9996.95
585.609	9910.18
585.969	9956.5
586.329	9943.85
586.688	10038.08
587.048	10044.86
587.408	10007.12
587.768	10025.88
588.127	10042.83
588.487	9980.46
588.846	10060.91
589.206	9986.79
589.565	10048.03
589.925	10104.3
590.284	10005.77
590.643	10090.29
591.003	10114.24
591.362	10126.67
591.721	10168.7
592.08	10094.81
592.44	10137.74
592.799	10152.43
593.158	10194.69
593.517	10151.75
593.876	10190.17
594.235	10202.82
594.593	10180.9
594.952	10229.94
595.311	10180.45
595.67	10212.09
596.029	10220.9
596.387	10315.59
596.746	10346.55
597.104	10284.86
597.463	10267
597.822	10271.3
598.18	10235.59
598.538	10257.51
598.897	10311.97
599.255	10204.63
599.613	10337.51
599.972	10357.62
600.33	10311.75
600.688	10260.45
601.046	10300.22
601.404	10337.28
601.762	10388.13
602.12	10396.94
602.478	10361.46
602.836	10416.38
603.194	10309.04
603.552	10376.15
603.91	10324.63
604.268	10370.73
604.625	10342.93
604.983	10347.45
605.341	10317.62
605.698	10386.32
606.056	10457.96
606.413	10372.99
606.771	10465.64
607.128	10513.78
607.485	10403.72
607.843	10411.86
608.2	10413.67
608.557	10517.39
608.914	10428.13
609.272	10524.62
609.629	10513.33
609.986	10600.78
610.343	10467.22
610.7	10632.64
611.057	10620.89
611.414	10568.47
611.771	10603.04
612.127	10638.52
612.484	10540.44
612.841	10637.16
613.198	10625.41
613.554	10563.27
613.911	10654.34
614.267	10684.62
614.624	10638.52
614.98	10685.07
615.337	10720.1
615.693	10693.89
616.05	10680.1
616.406	10714.9
616.762	10695.24
617.118	10698.18
617.475	10703.83
617.831	10739.99
618.187	10759.42
618.543	10806.42
618.899	10783.6
619.255	10786.09
619.611	10730.27
619.967	10771.62
620.323	10820.89
620.678	10814.79
621.034	10773.88
621.39	10753.32
621.746	10726.43
622.101	10860.66
622.457	10832.41
622.812	10855.24
623.168	10828.8
623.523	10876.71
623.879	10826.31
624.234	10755.13
624.589	10730.04
624.945	10806.42
625.3	10726.2
625.655	10777.5
626.01	10810.27
626.365	10805.07
626.72	10854.11
627.075	10780.66
627.43	10755.58
627.785	10696.37
628.14	10741.79
628.495	10785.63
628.85	10799.19
629.205	10686.88
629.559	10777.27
629.914	10737.73
630.269	10750.38
630.623	10705.18
630.978	10745.18
631.332	10695.24
631.687	10713.77
632.041	10627.45
632.396	10723.04
632.75	10643.27
633.104	10632.87
633.459	10628.35
633.813	10619.99
634.167	10617.73
634.521	10555.81
634.875	10653.89
635.229	10660.67
635.583	10554.23
635.937	10589.48
636.291	10496.15
636.645	10566.21
636.999	10418.86
637.352	10561.23
637.706	10467.45
638.06	10534.12
638.413	10452.31
638.767	10455.47
639.121	10470.61
639.474	10404.18
639.828	10311.3
640.181	10394.01
640.534	10407.34
640.888	10375.25
641.241	10330.73
641.594	10346.1
641.947	10424.29
642.301	10381.8
642.654	10307
643.007	10292.54
643.36	10303.61
643.713	10334.8
644.066	10317.85
644.419	10275.14
644.771	10292.77
645.124	10134.35
645.477	10102.04
645.83	10072.43
646.182	10030.4
646.535	9958.31
646.888	9943.85
647.24	9888.26
647.593	10005.09
647.945	9942.04
648.298	9885.77
648.65	9851.2
649.002	9875.38
649.355	9927.13
649.707	9881.48
650.059	9999.21
650.411	10077.63
650.763	10081.25
651.115	10131.19
651.467	10139.1
651.819	10096.39
652.171	10154.69
652.523	10130.74
652.875	10150.17
653.227	10091.87
653.578	10132.77
653.93	10044.41
654.282	10048.93
654.633	10030.63
654.985	10063.17
655.337	10096.61
655.688	10127.57
656.039	10102.04
656.391	10003.06
656.742	10062.26
657.094	10111.98
657.445	10104.52
657.796	10071.98
658.147	10084.18
658.498	10034.02
658.849	10052.09
659.2	10008.71
659.551	10014.36
659.902	10076.95
660.253	10044.19
660.604	10120.34
660.955	10043.51
661.306	10103.39
661.656	10012.77
662.007	10039.44
662.358	10099.55
662.708	10090.29
663.059	10051.87
663.409	10066.78
663.76	10139.78
664.11	10079.66
664.461	10098.42
664.811	10050.74
665.161	10057.74
665.511	10029.27
665.862	10069.95
666.212	10112.66
666.562	10085.09
666.912	10065.2
667.262	10041.47
667.612	10066.56
667.962	10031.98
668.312	10025.65
668.662	10108.59
669.011	10024.98
669.361	9978.42
669.711	10003.73
670.06	9985.43
670.41	10015.26
670.76	9972.77
671.109	9966.9
671.459	9957.41
671.808	10022.49
672.157	9977.97
672.507	9926
672.856	9946.56
673.205	9997.86
673.554	9930.29
673.904	9967.35
674.253	10018.87
674.602	9898.2
674.951	9819.56
675.3	9755.15
675.649	9885.09
675.998	9814.36
676.346	9895.26
676.695	9966.9
677.044	9840.35
677.393	9883.96
677.741	9886
678.09	9822.72
678.438	9813.68
678.787	9846.9
679.135	9850.52
679.484	9751.09
679.832	9816.39
680.181	9749.5
680.529	9836.05
680.877	9692.78
681.225	9749.96
681.573	9818.43
681.922	9697.08
682.27	9617.3
682.618	9600.58
682.966	9611.65
683.314	9707.7
683.661	9624.31
684.009	9549.51
684.357	9494.82
684.705	9507.7
685.053	9584.31
685.4	9532.79
685.748	9495.27
686.095	9518.55
686.443	9449.4
686.79	9373.47
687.138	9419.57
687.485	9432.68
687.832	9386.12
688.18	9413.02
688.527	9263.64
688.874	9337.09
689.221	9249.4
689.568	9249.18
689.915	9239.23
690.262	9213.25
690.609	9270.19
690.956	9151.78
691.303	9166.02
691.65	9105.9
691.997	9066.36
692.344	9045.12
692.69	9038.34
693.037	9003.99
693.383	9022.29
693.73	8940.49
694.077	8921.95
694.423	8859.13
694.769	8913.14
695.116	8916.31
695.462	8821.39
695.808	8777.78
696.155	8879.24
696.501	8736.65
696.847	8646.03
697.193	8594.51
697.539	8673.83
697.885	8651.45
698.231	8619.59
698.577	8540.04
698.923	8575.3
699.269	8565.81
699.614	8476.09
699.96	8416.21
700.306	8444.23
700.651	8434.51
700.997	8441.06
701.342	8362.42
701.688	8327.17
702.033	8291.69
702.379	8299.6
702.724	8342.99
703.069	8246.27
703.415	8171.24
703.76	8147.96
704.105	8150.9
704.45	8187.96
704.795	8075.2
705.14	8115.42
705.485	8056.67
705.83	8027.51
706.175	8034.52
706.52	7950.23
706.865	7956.78
707.209	7971.92
707.554	7927.4
707.899	7935.09
708.243	7871.36
708.588	7845.6
708.932	7781.42
709.277	7798.82
709.621	7844.02
709.966	7750.69
710.31	7759.27
710.654	7740.06
710.998	7708.65
711.342	7730.57
711.687	7677.92
712.031	7692.38
712.375	7603.35
712.719	7637.92
713.063	7559.73
713.407	7524.03
713.75	7541.43
714.094	7557.47
714.438	7520.86
714.782	7534.42
715.125	7484.7
715.469	7517.47
715.812	7382.11
716.156	7443.35
716.499	7483.12
716.843	7450.81
717.186	7383.92
717.53	7430.24
717.873	7431.37
718.216	7458.26
718.559	7366.52
718.902	7346.85
719.246	7329.23
719.589	7328.55
719.932	7303.47
720.275	7304.37
720.617	7229.34
720.96	7291.72
721.303	7309.34
721.646	7272.96
721.989	7280.64
722.331	7279.06
722.674	7278.38
723.016	7281.77
723.359	7253.07
723.701	7313.41
724.044	7148.67
724.386	7201.1
724.729	7205.84
725.071	7145.05
725.413	7210.14
725.755	7185.96
726.097	7092.62
726.439	7107.09
726.782	7153.41
727.124	7196.58
727.465	7080.87
727.807	7167.2
728.149	7082
728.491	7046.07
728.833	7126.52
729.175	7042.68
729.516	7090.14
729.858	7098.05
730.199	7107.99
730.541	7055.34
730.882	7109.57
731.224	7055.79
731.565	7002.46
731.906	7049.24
732.248	7080.42
732.589	7055.56
732.93	6976.47
733.271	7044.72
733.612	7029.8
733.953	7085.84
734.294	7016.24
734.635	7068.22
734.976	7027.09
735.317	6996.58
735.658	6983.02
735.999	7012.63
736.339	6989.12
736.68	6999.52
737.021	7022.8
737.361	6980.99
737.702	7036.35
738.042	7012.63
738.383	7003.81
738.723	7061.66
739.063	6987.77
739.404	7003.81
739.744	7003.36
740.084	6962.23
740.424	7060.53
740.764	7022.12
741.104	7022.57
741.444	7019.41
741.784	7009.46
742.124	7060.99
742.464	7043.36
742.804	7100.99
743.143	7093.3
743.483	7069.57
743.823	7092.4
744.162	7082.91
744.502	7138.05
744.841	7121.55
745.181	7141.21
745.52	7115
745.86	7177.82
746.199	7264.37
746.538	7257.14
746.877	7316.8
747.216	7218.27
747.556	7277.7
747.895	7330.58
748.234	7312.05
748.573	7343.24
748.911	7366.97
749.25	7446.97
749.589	7453.29
749.928	7504.82
750.267	7548.43
750.605	7590.46
750.944	7658.03
751.283	7680.18
751.621	7719.5
751.96	7807.86
752.298	7833.17
752.636	7945.03
752.975	7896.22
753.313	7949.32
753.651	8037.46
753.989	8121.07
754.327	8153.16
754.666	8268.19
755.004	8295.08
755.342	8385.02
755.679	8458.24
756.017	8463.44
756.355	8675.18
756.693	8702.75
757.031	8774.61
757.368	8843.09
757.706	8968.51
758.044	9008.28
758.381	9135.06
758.719	9177.77
759.056	9281.27
759.394	9424.54
759.731	9435.39
760.068	9588.38
760.405	9664.53
760.743	9690.97
761.08	9841.7
761.417	9923.51
761.754	10055.26
762.091	10179.77
762.428	10202.6
762.765	10269.04
763.102	10465.42
763.438	10465.87
763.775	10621.57
764.112	10678.52
764.449	10837.38
764.785	10850.94
