Data from hue_60_FLMS001491_12.txt Node
Date: Mon Feb 06 15:11:59 GMT 2017
User: dcchb
Spectrometer: FLMS00149
Trigger mode: 0
Integration Time (sec): 2.000000E-2
Scans to average: 10
Electric dark correction enabled: true
Nonlinearity correction enabled: false
Boxcar width: 0
XAxis mode: Wavelengths
Number of Pixels in Spectrum: 2048
>>>>>Begin Spectral Data<<<<<
341.393	-10.55
341.776	-10.55
342.16	-10.55
342.543	-45.13
342.927	-44.67
343.31	-58.01
343.693	-77.67
344.077	-74.96
344.46	-60.04
344.843	-41.96
345.226	-45.58
345.61	-32.02
345.993	-20.95
346.376	2.1
346.759	5.72
347.142	10.69
347.525	43.69
347.908	52.95
348.291	80.97
348.674	91.14
349.057	123.91
349.44	128.88
349.823	131.59
350.206	171.14
350.588	206.17
350.971	219.27
351.354	219.73
351.737	247.52
352.119	272.83
352.502	275.09
352.884	269.89
353.267	294.07
353.65	301.76
354.032	299.95
354.414	314.19
354.797	316.9
355.179	308.31
355.562	324.81
355.944	320.74
356.326	345.37
356.709	330.46
357.091	363.22
357.473	345.15
357.855	337.01
358.238	348.54
358.62	359.38
359.002	337.91
359.384	338.37
359.766	344.92
360.148	337.24
360.53	352.15
360.912	336.33
361.294	330.01
361.676	340.63
362.057	333.4
362.439	340.85
362.821	349.44
363.203	328.2
363.584	322.32
363.966	320.97
364.348	316.45
364.729	345.15
365.111	329.55
365.493	325.71
365.874	327.29
366.256	310.12
366.637	326.84
367.019	315.09
367.4	291.81
367.781	317.35
368.163	328.88
368.544	332.27
368.925	311.93
369.306	329.78
369.688	314.86
370.069	331.81
370.45	316.9
370.831	328.42
371.212	316.9
371.593	306.05
371.974	322.1
372.355	327.97
372.736	308.09
373.117	325.49
373.498	337.91
373.879	323.68
374.26	302.44
374.641	332.49
375.021	314.64
375.402	324.36
375.783	320.97
376.163	333.4
376.544	326.84
376.925	323.68
377.305	341.53
377.686	328.88
378.066	336.78
378.447	327.97
378.827	321.87
379.208	335.2
379.588	337.01
379.968	328.88
380.349	326.16
380.729	322.77
381.109	314.64
381.489	349.89
381.87	332.49
382.25	345.37
382.63	349.67
383.01	333.85
383.39	324.81
383.77	356.22
384.15	346.28
384.53	355.32
384.91	335.88
385.29	339.27
385.67	328.88
386.049	352.6
386.429	346.5
386.809	362.32
387.189	345.37
387.568	350.34
387.948	362.77
388.328	353.06
388.707	360.51
389.087	353.96
389.466	365.26
389.846	353.96
390.225	344.02
390.605	347.86
390.984	361.19
391.363	367.74
391.743	351.25
392.122	356.22
392.501	366.16
392.881	372.04
393.26	358.25
393.639	366.16
394.018	369.33
394.397	370.91
394.776	341.98
395.155	375.43
395.534	379.95
395.913	366.16
396.292	384.47
396.671	366.84
397.05	393.28
397.429	388.31
397.808	369.1
398.186	391.92
398.565	374.52
398.944	387.86
399.323	386.73
399.701	378.82
400.08	390.12
400.458	376.33
400.837	394.18
401.215	380.4
401.594	382.89
401.972	386.73
402.351	384.47
402.729	393.51
403.107	406.39
403.486	421.75
403.864	437.35
404.242	396.44
404.62	395.77
404.999	391.7
405.377	398.48
405.755	423.56
406.133	410.68
406.511	426.05
406.889	400.06
407.267	433.96
407.645	405.03
408.023	420.85
408.401	426.95
408.779	425.6
409.156	435.54
409.534	440.74
409.912	428.99
410.29	447.06
410.667	440.96
411.045	438.93
411.422	448.42
411.8	427.18
412.178	450
412.555	473.5
412.933	447.97
413.31	471.7
413.687	452.94
414.065	465.14
414.442	463.56
414.819	469.44
415.197	458.59
415.574	457.46
415.951	463.34
416.328	472.15
416.705	452.49
417.082	490.91
417.46	467.4
417.837	500.4
418.214	484.58
418.591	480.96
418.967	503.56
419.344	500.62
419.721	485.26
420.098	512.6
420.475	527.51
420.852	506.72
421.228	519.15
421.605	530.45
421.982	511.7
422.358	509.66
422.735	539.04
423.111	536.1
423.488	521.64
423.864	525.71
424.241	546.95
424.617	535.88
424.994	537.68
425.37	549.89
425.746	520.28
426.123	553.95
426.499	548.53
426.875	548.98
427.251	558.93
427.627	545.59
428.003	565.93
428.379	567.51
428.756	592.6
429.132	594.41
429.507	575.42
429.883	587.63
430.259	583.78
430.635	602.77
431.011	595.99
431.387	591.02
431.763	610.68
432.138	586.27
432.514	629.43
432.89	607.51
433.265	637.79
433.641	613.84
434.016	625.14
434.392	657.91
434.767	652.03
435.143	649.09
435.518	647.51
435.894	656.78
436.269	671.24
436.644	653.84
437.02	666.49
437.395	666.04
437.77	671.24
438.145	681.41
438.52	688.41
438.895	701.07
439.271	688.41
439.646	697.68
440.021	708.3
440.395	694.29
440.77	694.52
441.145	722.99
441.52	728.41
441.895	711.92
442.27	728.41
442.645	753.05
443.019	726.38
443.394	721.63
443.769	741.52
444.143	737.68
444.518	743.78
444.892	732.03
445.267	752.59
445.641	765.7
446.016	754.85
446.39	764.12
446.764	770.22
447.139	785.81
447.513	808.18
447.887	782.42
448.262	780.84
448.636	799.37
449.01	817.45
449.384	790.56
449.758	798.69
450.132	829.43
450.506	821.52
450.88	838.01
451.254	826.49
451.628	858.13
452.002	852.48
452.376	854.06
452.75	848.18
453.123	850.9
453.497	858.58
453.871	859.71
454.244	877.79
454.618	882.31
454.992	894.74
455.365	908.97
455.739	918.92
456.112	936.77
456.486	940.38
456.859	942.42
457.232	951.01
457.606	950.1
457.979	943.32
458.352	968.63
458.725	1002.53
459.099	976.54
459.472	1022.87
459.845	1018.57
460.218	1003.66
460.591	1024.45
460.964	1054.73
461.337	1077.1
461.71	1085.92
462.083	1078.01
462.456	1070.78
462.829	1087.05
463.201	1134.05
463.574	1122.08
463.947	1161.4
464.32	1192.58
464.692	1164.79
465.065	1195.29
465.438	1242.98
465.81	1217.21
466.183	1246.37
466.555	1256.31
466.928	1265.8
467.3	1248.4
467.672	1306.48
468.045	1335.18
468.417	1362.07
468.789	1346.48
469.161	1390.09
469.534	1386.25
469.906	1429.41
470.278	1448.17
470.65	1458.34
471.022	1491.1
471.394	1557.77
471.766	1566.58
472.138	1613.59
472.51	1618.11
472.882	1670.99
473.253	1700.14
473.625	1721.16
473.997	1783.3
474.369	1802.74
474.74	1835.05
475.112	1864.88
475.484	1918.66
475.855	1986.69
476.227	2009.96
476.598	2079.11
476.97	2084.54
477.341	2169.96
477.713	2243.63
478.084	2273.01
478.455	2374.25
478.827	2417.63
479.198	2522.04
479.569	2538.76
479.94	2654.92
480.311	2674.12
480.682	2809.49
481.053	2893.33
481.424	2959.09
481.795	3034.34
482.166	3120.44
482.537	3202.02
482.908	3329.93
483.279	3392.07
483.65	3505.97
484.021	3612.63
484.391	3723.59
484.762	3792.74
485.133	3889.69
485.503	3998.84
485.874	4160.19
486.244	4282.22
486.615	4361.76
486.985	4510.91
487.356	4658.25
487.726	4728.31
488.097	4867.51
488.467	5011.46
488.837	5151.8
489.207	5248.75
489.578	5451.23
489.948	5616.65
490.318	5714.72
490.688	5822.29
491.058	6031.32
491.428	6145.22
491.798	6314.93
492.168	6523.74
492.538	6582.95
492.908	6776.39
493.278	6966.44
493.648	6969.15
494.017	7222.25
494.387	7384.28
494.757	7558.97
495.126	7704.5
495.496	7772.75
495.866	7930.48
496.235	8149.69
496.605	8341.09
496.974	8410.92
497.344	8637.13
497.713	8725.49
498.082	8924.13
498.452	9070.34
498.821	9204.57
499.19	9315.98
499.559	9470.56
499.928	9623.55
500.298	9739.02
500.667	9936.08
501.036	10052.91
501.405	10235.28
501.774	10295.85
502.143	10548.95
502.512	10618.55
502.88	10742.16
503.249	10926.56
503.618	11027.13
503.987	11160.68
504.356	11389.38
504.724	11364.29
505.093	11498.75
505.462	11677.96
505.83	11844.73
506.199	12072.07
506.567	12105.06
506.936	12249.01
507.304	12511.15
507.672	12486.97
508.041	12672.05
508.409	12821.2
508.777	12993.4
509.145	13094.19
509.514	13180.52
509.882	13317.46
510.25	13432.03
510.618	13600.84
510.986	13733.49
511.354	13839.71
511.722	14041.06
512.09	14177.1
512.458	14238.11
512.826	14427.94
513.193	14465.9
513.561	14614.83
513.929	14787.25
514.297	14995.83
514.664	15053.01
515.032	15174.81
515.4	15368.25
515.767	15437.63
516.135	15651.41
516.502	15540.68
516.869	15911.52
517.237	15944.74
517.604	15982.7
517.972	16161.23
518.339	16350.83
518.706	16350.15
519.073	16395.57
519.44	16753.75
519.808	16898.84
520.175	16924.82
520.542	17123.24
520.909	17264.48
521.276	17351.7
521.643	17552.15
522.009	17742.2
522.376	17779.94
522.743	17925.02
523.11	18032.59
523.477	18399.81
523.843	18435.52
524.21	18625.57
524.577	18776.53
524.943	18861.5
525.31	18963.41
525.676	19156.4
526.043	19316.17
526.409	19425.55
526.776	19647.69
527.142	19593.23
527.508	19900.56
527.874	20039.54
528.241	20113.21
528.607	20271.18
528.973	20447.22
529.339	20424.39
529.705	20533.54
530.071	20777.6
530.437	20917.49
530.803	21050.59
531.169	21071.61
531.535	21201.32
531.901	21208.55
532.267	21342.11
532.632	21431.37
532.998	21687.18
533.364	21803.79
533.73	21744.58
534.095	21960.85
534.461	22002.66
534.826	22176.44
535.192	22288.52
535.557	22418.24
535.923	22360.39
536.288	22515.64
536.653	22576.88
537.019	22570.55
537.384	22769.19
537.749	22876.31
538.114	22978.68
538.479	22933.03
538.845	23125.11
539.21	22973.03
539.575	23201.95
539.94	23197.2
540.305	23495.95
540.67	23479.91
541.034	23527.81
541.399	23616.17
541.764	23695.49
542.129	23783.4
542.494	23757.86
542.858	23957.86
543.223	24038.99
543.587	24221.81
543.952	24236.5
544.316	24216.38
544.681	24294.8
545.045	24362.59
545.41	24516.71
545.774	24580.22
546.138	24575.92
546.503	24734.34
546.867	24692.3
547.231	25018.62
547.595	24965.52
547.959	25033.99
548.324	25030.15
548.688	25173.87
549.052	25258.16
549.416	25276.47
549.779	25318.5
550.143	25417.26
550.507	25615.67
550.871	25734.08
551.235	25609.34
551.599	25877.36
551.962	25935.21
552.326	25949.67
552.689	26164.81
553.053	26127.97
553.417	26081.64
553.78	26543.55
554.143	26472.37
554.507	26662.42
554.87	26549.66
555.234	26874.39
555.597	26658.8
555.96	26929.31
556.323	27033.94
556.686	26959.14
557.05	27250.2
557.413	27362.29
557.776	27312.12
558.139	27566.13
558.502	27579.91
558.865	27781.04
559.228	27943.52
559.59	28018.09
559.953	28068.26
560.316	28371.08
560.679	28322.72
561.041	28457.18
561.404	28692.42
561.767	28845.19
562.129	28740.78
562.492	29068.46
562.854	29075.46
563.217	29045.63
563.579	29303.93
563.941	29278.62
564.304	29558.84
564.666	29799.51
565.028	29812.85
565.39	29850.13
565.753	29992.73
566.115	30156.34
566.477	30314.75
566.839	30338.26
567.201	30612.37
567.563	30618.02
567.925	30798.36
568.287	30812.59
568.648	30868.19
569.01	31040.16
569.372	31242.86
569.734	31231.57
570.095	31494.38
570.457	31486.47
570.819	31568.05
571.18	31598.34
571.542	31870.65
571.903	31910.19
572.265	32029.06
572.626	32027.25
572.987	32132.79
573.349	32224.31
573.71	32461.14
574.071	32430.18
574.432	32483.06
574.794	32820.9
575.155	32729.38
575.516	32836.5
575.877	32682.38
576.238	32871.75
576.599	33049.6
576.96	33073.33
577.32	33047.11
577.681	33283.94
578.042	33367.1
578.403	33394.67
578.763	33415.69
579.124	33560.09
579.485	33612.97
579.845	33670.37
580.206	33631.95
580.566	33621.79
580.927	33617.27
581.287	33896.35
581.648	33696.13
582.008	33875.56
582.368	33821.1
582.728	33930.7
583.089	33930.25
583.449	33844.38
583.809	33922.79
584.169	33996.69
584.529	33991.04
584.889	34146.29
585.249	34083.02
585.609	33951.27
585.969	34110.59
586.329	34089.8
586.688	34289.79
587.048	34209.11
587.408	34003.92
587.768	34104.94
588.127	34039.63
588.487	34174.09
588.846	34297.02
589.206	34188.78
589.565	34137.93
589.925	34359.39
590.284	34123.02
590.643	34223.13
591.003	34315.78
591.362	34391.48
591.721	34277.59
592.08	34385.83
592.44	34320.98
592.799	34469.67
593.158	34410.24
593.517	34509.67
593.876	34562.55
594.235	34322.11
594.593	34429.67
594.952	34577.92
595.311	34401.2
595.67	34649.78
596.029	34708.08
596.387	34862.43
596.746	34967.06
597.104	34645.71
597.463	34723.9
597.822	34877.12
598.18	34763.45
598.538	34802.32
598.897	34932.49
599.255	34723.45
599.613	35161.18
599.972	35063.33
600.33	35055.19
600.688	34922.77
601.046	35188.07
601.404	35418.35
601.762	35185.13
602.12	35315.53
602.478	35475.52
602.836	35411.79
603.194	35285.24
603.552	35398.24
603.91	35222.87
604.268	35503.77
604.625	35453.83
604.983	35631
605.341	35445.47
605.698	35802.75
606.056	35664.22
606.413	35625.8
606.771	35754.61
607.128	35852.24
607.485	35832.57
607.843	35830.99
608.2	35946.47
608.557	36132.45
608.914	36038.22
609.272	36226.46
609.629	36357.53
609.986	36495.61
610.343	36270.3
610.7	36551.88
611.057	36473.91
611.414	36529.51
611.771	36571.09
612.127	36691.99
612.484	36755.94
612.841	36914.13
613.198	36732.44
613.554	36821.93
613.911	37071.19
614.267	36941.25
614.624	36936.05
614.98	37090.85
615.337	37256.04
615.693	37251.29
616.05	37140.34
616.406	37339.65
616.762	37353.66
617.118	37258.75
617.475	37425.75
617.831	37470.05
618.187	37520.67
618.543	37589.36
618.899	37811.73
619.255	37768.12
619.611	37705.75
619.967	37999.07
620.323	38041.33
620.678	37776.03
621.034	37774.9
621.39	37794.11
621.746	37767.21
622.101	38273.19
622.457	37952.52
622.812	38169.01
623.168	38072.29
623.523	38124.27
623.879	38235
624.234	38044.95
624.589	38133.76
624.945	38383.02
625.3	38327.65
625.655	38210.14
626.01	38281.1
626.365	38312.51
626.72	38223.47
627.075	38467.76
627.43	38282.91
627.785	38319.52
628.14	38499.85
628.495	38453.75
628.85	38379.85
629.205	38378.5
629.559	38596.12
629.914	38349.34
630.269	38419.4
630.623	38328.33
630.978	38213.76
631.332	38456.69
631.687	38418.72
632.041	38358.84
632.396	38377.14
632.75	38362.9
633.104	38290.59
633.459	38235.22
633.813	38183.02
634.167	38220.53
634.521	38077.71
634.875	38339.18
635.229	38275.22
635.583	37990.03
635.937	37984.38
636.291	38124.49
636.645	38062.35
636.999	38082.69
637.352	38086.53
637.706	37890.6
638.06	37939.41
638.413	37940.32
638.767	37816.25
639.121	37987.77
639.474	37681.57
639.828	37882.24
640.181	37901.67
640.534	37910.94
640.888	37681.57
641.241	37596.6
641.594	37696.93
641.947	37688.8
642.301	37683.6
642.654	37721.56
643.007	37715.01
643.36	37702.81
643.713	37552.76
644.066	37678.18
644.419	37369.26
644.771	37157.51
645.124	36880.23
645.477	36766.79
645.83	36613.57
646.182	36457.42
646.535	36342.62
646.888	36398.44
647.24	36254.94
647.593	36567.92
647.945	36394.59
648.298	36254.94
648.65	36196.86
649.002	36167.93
649.355	36255.84
649.707	36336.06
650.059	36440.24
650.411	36641.82
650.763	36771.31
651.115	37164.29
651.467	37106.44
651.819	36900.8
652.171	36883.85
652.523	36911.19
652.875	36906.67
653.227	36760.46
653.578	37089.26
653.93	36808.14
654.282	36740.35
654.633	36609.05
654.985	36815.6
655.337	36697.86
655.688	36727.24
656.039	36767.69
656.391	36570.63
656.742	36582.16
657.094	36626.68
657.445	36759.56
657.796	36632.78
658.147	36637.98
658.498	36617.19
658.849	36577.87
659.2	36499.68
659.551	36505.33
659.902	36747.58
660.253	36591.88
660.604	36696.28
660.955	36472.11
661.306	36618.99
661.656	36426.46
662.007	36375.61
662.358	36516.62
662.708	36442.5
663.059	36313.01
663.409	36222.4
663.76	36520.47
664.11	36414.03
664.461	36456.29
664.811	36410.19
665.161	36371.32
665.511	36317.08
665.862	36350.98
666.212	36520.01
666.562	36469.17
666.912	36382.62
667.262	36254.94
667.612	36293.35
667.962	36422.84
668.312	36228.72
668.662	36361.15
669.011	36386.68
669.361	36306.69
669.711	36213.36
670.06	36230.53
670.41	36146.46
670.76	36080.93
671.109	36296.29
671.459	36204.32
671.808	36161.83
672.157	36236.41
672.507	36038.22
672.856	36129.29
673.205	36092.45
673.554	36289.96
673.904	36051.33
674.253	36168.16
674.602	36193.7
674.951	35496.54
675.3	35349.42
675.649	35991.67
675.998	35912.57
676.346	36004.32
676.695	36045.9
677.044	35732.92
677.393	35908.96
677.741	35915.51
678.09	35830.54
678.438	35639.59
678.787	35893.36
679.135	35724.56
679.484	35592.58
679.832	35631.22
680.181	35553.03
680.529	35530.21
680.877	35519.14
681.225	35514.39
681.573	35593.71
681.922	35382.19
682.27	35352.14
682.618	35425.13
682.966	35284.57
683.314	35297.45
683.661	35191.01
684.009	35028.98
684.357	34992.82
684.705	34960.51
685.053	34954.86
685.4	34971.35
685.748	34880.28
686.095	34797.57
686.443	34567.07
686.79	34493.63
687.138	34664.7
687.485	34598.26
687.832	34398.71
688.18	34499.28
688.527	34310.81
688.874	34193.07
689.221	34292.95
689.568	34258.38
689.915	34214.54
690.262	34114.2
690.609	34083.92
690.956	33886.41
691.303	33689.81
691.65	33689.13
691.997	33743.59
692.344	33382.02
692.69	33503.14
693.037	33506.53
693.383	33264.28
693.73	33429.47
694.077	33149.03
694.423	33143.61
694.769	33165.98
695.116	32912.88
695.462	32843.27
695.808	32823.39
696.155	32770.96
696.501	32640.34
696.847	32695.71
697.193	32420.24
697.539	32501.36
697.885	32366.23
698.231	32214.14
698.577	32317.19
698.923	32187.02
699.269	31975.73
699.614	31905.45
699.96	31764.89
700.306	31841.95
700.651	31717.65
700.997	31543.65
701.342	31636.98
701.688	31478.34
702.033	31482.86
702.379	31442.63
702.724	31239.48
703.069	31431.11
703.415	31046.71
703.76	31062.98
704.105	31060.72
704.45	30980.5
704.795	30853.72
705.14	30522.66
705.485	30707.74
705.83	30653.05
706.175	30611.7
706.52	30654.18
706.865	30408.31
707.209	30367.41
707.554	30303.68
707.899	30358.82
708.243	30155.66
708.588	30087.87
708.932	29953.63
709.277	29919.28
709.621	29964.03
709.966	29707.54
710.31	29713.64
710.654	29417.15
710.998	29600.42
711.342	29663.47
711.687	29456.02
712.031	29272.52
712.375	29155.69
712.719	29212.41
713.063	29217.83
713.407	29354.55
713.75	29159.3
714.094	29146.42
714.438	28934.9
714.782	29049.25
715.125	28887.9
715.469	28943.94
715.812	28877.5
716.156	28616.72
716.499	28674.12
716.843	28758.86
717.186	28512.54
717.53	28788.47
717.873	28572.65
718.216	28551.41
718.559	28482.71
718.902	28267.58
719.246	28457.85
719.589	28227.13
719.932	28073.91
720.275	28153.68
720.617	28116.62
720.96	27984.19
721.303	27975.83
721.646	28014.02
721.989	27762.5
722.331	27820.81
722.674	27860.36
723.016	27862.61
723.359	27627.59
723.701	27761.83
724.044	27482.51
724.386	27492.23
724.729	27566.8
725.071	27525.9
725.413	27416.07
725.755	27429.63
726.097	27251.78
726.439	27091.56
726.782	27125.91
727.124	27213.82
727.465	27189.86
727.807	27148.51
728.149	26917.33
728.491	26928.63
728.833	27105.8
729.175	26807.28
729.516	26881.17
729.858	26796.88
730.199	26823.55
730.541	26741.97
730.882	26659.26
731.224	26769.31
731.565	26588.07
731.906	26676.88
732.248	26677.79
732.589	26558.69
732.93	26515.53
733.271	26454.97
733.612	26477.57
733.953	26617
734.294	26358.93
734.635	26315.54
734.976	26306.27
735.317	26235.99
735.658	26147.41
735.999	26231.47
736.339	26073.96
736.68	26096.11
737.021	26161.42
737.361	26010.69
737.702	26129.78
738.042	25925.49
738.383	25984.02
738.723	25981.08
739.063	25809.56
739.404	25856.34
739.744	25708.77
740.084	25686.4
740.424	25717.59
740.764	25686.85
741.104	25606.18
741.444	25519.85
741.784	25531.6
742.124	25435.33
742.464	25467.88
742.804	25438.72
743.143	25341.1
743.483	25437.14
743.823	25284.83
744.162	25257.71
744.502	25338.84
744.841	25171.61
745.181	25223.36
745.52	25145.4
745.86	25118.73
746.199	24903.6
746.538	25089.58
746.877	25084.61
747.216	25010.94
747.556	24986.98
747.895	24883.71
748.234	24893.88
748.573	24799.42
748.911	24774.11
749.25	24728.46
749.589	24556.49
749.928	24650.5
750.267	24714.45
750.605	24655.24
750.944	24519.43
751.283	24398.07
751.621	24478.97
751.96	24363.72
752.298	24284.18
752.636	24245.53
752.975	24164.18
753.313	24132.54
753.651	24180.23
753.989	24072.21
754.327	24069.95
754.666	23907.69
755.004	23789.05
755.342	23848.03
755.679	23824.75
756.017	23685.1
756.355	23786.11
