Data from hue_40_FLMS001491_6.txt Node
Date: Mon Feb 06 15:07:21 GMT 2017
User: dcchb
Spectrometer: FLMS00149
Trigger mode: 0
Integration Time (sec): 2.000000E-2
Scans to average: 10
Electric dark correction enabled: true
Nonlinearity correction enabled: false
Boxcar width: 0
XAxis mode: Wavelengths
Number of Pixels in Spectrum: 2048
>>>>>Begin Spectral Data<<<<<
341.393	-12.56
341.776	-12.56
342.16	-12.56
342.543	-42.84
342.927	-56.4
343.31	-63.85
343.693	-64.53
344.077	-63.4
344.46	-65.44
344.843	-57.3
345.226	-61.82
345.61	-17.75
345.993	-16.85
346.376	6.88
346.759	-9.39
347.142	29.25
347.525	46.2
347.908	71.51
348.291	65.18
348.674	83.49
349.057	117.84
349.44	130.26
349.823	142.24
350.206	170.26
350.588	196.48
350.971	212.97
351.354	224.05
351.737	248.23
352.119	253.2
352.502	274.67
352.884	272.86
353.267	287.1
353.65	297.27
354.032	288.68
354.414	304.5
354.797	318.28
355.179	295.91
355.562	322.8
355.944	338.62
356.326	332.29
356.709	330.26
357.091	342.01
357.473	357.38
357.855	351.28
358.238	343.59
358.62	348.11
359.002	343.37
359.384	352.41
359.766	335.46
360.148	344.27
360.53	321.45
360.912	348.11
361.294	330.71
361.676	316.02
362.057	313.31
362.439	332.29
362.821	332.07
363.203	322.12
363.584	344.95
363.966	324.84
364.348	330.03
364.729	295.46
365.111	295.91
365.493	321.22
365.874	323.03
366.256	332.52
366.637	350.6
367.019	304.95
367.4	316.7
367.781	326.64
368.163	313.76
368.544	308.79
368.925	322.58
369.306	341.78
369.688	324.61
370.069	304.72
370.45	319.64
370.831	321.67
371.212	318.51
371.593	317.15
371.974	313.31
372.355	307.44
372.736	293.65
373.117	316.7
373.498	319.64
373.879	314.89
374.26	324.61
374.641	331.84
375.021	317.83
375.402	329.58
375.783	310.15
376.163	318.73
376.544	334.33
376.925	313.99
377.305	324.61
377.686	318.73
378.066	356.7
378.447	328
378.827	340.88
379.208	362.8
379.588	329.36
379.968	329.81
380.349	346.08
380.729	323.48
381.109	345.85
381.489	335.68
381.87	341.33
382.25	325.51
382.63	339.75
383.01	326.42
383.39	334.78
383.77	342.24
384.15	349.47
384.53	340.88
384.91	339.75
385.29	344.27
385.67	354.44
386.049	349.69
386.429	368.68
386.809	347.43
387.189	374.33
387.568	363.71
387.948	368.9
388.328	356.93
388.707	365.74
389.087	368.45
389.466	352.41
389.846	349.02
390.225	367.77
390.605	366.19
390.984	373.42
391.363	372.52
391.743	374.55
392.122	376.81
392.501	372.07
392.881	362.8
393.26	377.26
393.639	370.94
394.018	374.33
394.397	391.05
394.776	389.69
395.155	386.3
395.534	387.66
395.913	405.06
396.292	388.56
396.671	365.51
397.05	395.79
397.429	374.33
397.808	383.82
398.186	400.99
398.565	393.99
398.944	400.77
399.323	398.73
399.701	382.69
400.08	394.89
400.458	397.15
400.837	406.87
401.215	390.15
401.594	394.21
401.972	422.46
402.351	412.97
402.729	393.53
403.107	412.52
403.486	414.78
403.864	424.72
404.242	424.49
404.62	417.26
404.999	409.13
405.377	406.19
405.755	423.82
406.133	437.83
406.511	430.14
406.889	419.3
407.267	432.86
407.645	440.77
408.023	438.05
408.401	445.28
408.779	434.21
409.156	453.65
409.534	442.8
409.912	445.06
410.29	467.66
410.667	456.81
411.045	458.62
411.422	475.57
411.8	460.2
412.178	460.65
412.555	457.71
412.933	474.89
413.31	465.85
413.687	454.1
414.065	510.59
414.442	481.22
414.819	490.93
415.197	491.39
415.574	491.84
415.951	502.46
416.328	499.75
416.705	508.79
417.082	510.14
417.46	499.29
417.837	501.1
418.214	506.75
418.591	491.39
418.967	536.58
419.344	501.33
419.721	500.65
420.098	526.86
420.475	555.79
420.852	530.93
421.228	544.49
421.605	534.1
421.982	536.13
422.358	542.91
422.735	539.29
423.111	539.07
423.488	558.05
423.864	561.67
424.241	557.6
424.617	566.64
424.994	563.47
425.37	557.37
425.746	577.26
426.123	586.3
426.499	601.44
426.875	586.52
427.251	578.39
427.627	560.54
428.003	569.8
428.379	619.52
428.756	629.91
429.132	597.6
429.507	626.52
429.883	625.17
430.259	625.39
430.635	622.68
431.011	632.17
431.387	653.42
431.763	639.86
432.138	657.48
432.514	659.52
432.89	677.14
433.265	666.75
433.641	650.25
434.016	693.19
434.392	670.59
434.767	695
435.143	699.06
435.518	685.05
435.894	713.53
436.269	696.58
436.644	688.89
437.02	722.57
437.395	710.81
437.77	727.09
438.145	733.86
438.52	717.14
438.895	744.71
439.271	738.84
439.646	755.33
440.021	753.53
440.395	774.32
440.77	755.11
441.145	789.46
441.52	790.36
441.895	799.85
442.27	776.8
442.645	791.26
443.019	792.39
443.394	805.05
443.769	776.58
444.143	789.68
444.518	803.47
444.892	808.89
445.267	832.62
445.641	845.95
446.016	826.07
446.39	866.06
446.764	836.24
447.139	838.49
447.513	847.99
447.887	817.93
448.262	842.34
448.636	871.71
449.01	873.07
449.384	874.43
449.758	865.39
450.132	889.12
450.506	876.01
450.88	894.09
451.254	897.02
451.628	922.79
452.002	941.77
452.376	918.49
452.75	918.72
453.123	937.7
453.497	930.7
453.871	943.8
454.244	971.37
454.618	954.2
454.992	982.9
455.365	983.35
455.739	1003.46
456.112	1019.51
456.486	1007.3
456.859	1035.78
457.232	1038.72
457.606	1036.46
457.979	1077.58
458.352	1035.33
458.725	1056.57
459.099	1082.78
459.472	1109.45
459.845	1117.13
460.218	1131.14
460.591	1114.87
460.964	1125.94
461.337	1166.62
461.71	1171.14
462.083	1205.72
462.456	1201.65
462.829	1211.82
463.201	1215.21
463.574	1240.97
463.947	1232.16
464.32	1277.81
464.692	1262.44
465.065	1309.22
465.438	1292.49
465.81	1333.62
466.183	1356.67
466.555	1390.57
466.928	1414.52
467.3	1405.94
467.672	1429.21
468.045	1449.1
468.417	1454.07
468.789	1458.14
469.161	1484.58
469.534	1504.47
469.906	1566.39
470.278	1555.09
470.65	1587.18
471.022	1629.43
471.394	1669.21
471.766	1686.38
472.138	1660.62
472.51	1697
472.882	1783.78
473.253	1748.08
473.625	1829.43
473.997	1866.49
474.369	1892.48
474.74	1922.76
475.112	1979.71
475.484	2028.07
475.855	2032.81
476.227	2099.7
476.598	2137.22
476.97	2175.41
477.341	2226.26
477.713	2290.89
478.084	2311.22
478.455	2376.99
478.827	2414.5
479.198	2489.3
479.569	2511.45
479.94	2647.03
480.311	2649.52
480.682	2710.76
481.053	2794.83
481.424	2901.49
481.795	2905.79
482.166	3015.61
482.537	3056.97
482.908	3185.33
483.279	3221.48
483.65	3317.98
484.021	3424.42
484.391	3485.43
484.762	3559.55
485.133	3578.54
485.503	3692.21
485.874	3841.81
486.244	3844.74
486.615	3937.85
486.985	4083.38
487.356	4161.35
487.726	4277.73
488.097	4337.39
488.467	4439.98
488.837	4544.16
489.207	4697.38
489.578	4755.91
489.948	4905.51
490.318	4967.43
490.688	5033.19
491.058	5113.86
491.428	5235.44
491.798	5347.08
492.168	5482.44
492.538	5548.88
492.908	5695.54
493.278	5776.67
493.648	5842.43
494.017	5929.66
494.387	6063.67
494.757	6186.83
495.126	6282.65
495.496	6279.48
495.866	6465.47
496.235	6512.47
496.605	6651
496.974	6720.6
497.344	6830.43
497.713	6855.06
498.082	7038.78
498.452	7116.97
498.821	7207.82
499.19	7249.63
499.559	7344.99
499.928	7498.43
500.298	7589.28
500.667	7676.51
501.036	7671.76
501.405	7837.18
501.774	7916.5
502.143	7932.09
502.512	8067.23
502.88	8118.3
503.249	8217.28
503.618	8327.34
503.987	8398.75
504.356	8401.01
504.724	8509.25
505.093	8602.58
505.462	8743.6
505.83	8761.68
506.199	8869.47
506.567	9004.61
506.936	9010.71
507.304	9164.38
507.672	9220.87
508.041	9259.52
508.409	9333.41
508.777	9416.57
509.145	9487.08
509.514	9584.71
509.882	9695.21
510.25	9744.48
510.618	9808.2
510.986	9797.58
511.354	9938.37
511.722	10003.23
512.09	10147.85
512.458	10118.93
512.826	10293.84
513.193	10291.81
513.561	10379.04
513.929	10492.25
514.297	10545.58
514.664	10626.94
515.032	10610.44
515.4	10773.37
515.767	10883.65
516.135	10871.45
516.502	10856.76
516.869	11089.98
517.237	11098.34
517.604	11065.12
517.972	11188.73
518.339	11310.76
518.706	11296.75
519.073	11325.22
519.44	11476.41
519.808	11611.32
520.175	11649.51
520.542	11747.81
520.909	11883.63
521.276	11910.97
521.643	11932.67
522.009	11976.28
522.376	12131.53
522.743	12162.26
523.11	12270.74
523.477	12345.99
523.843	12391.19
524.21	12580.79
524.577	12653.55
524.943	12696.49
525.31	12784.85
525.676	12856.26
526.043	13032.75
526.409	13016.25
526.776	13134.44
527.142	13280.2
527.508	13240.65
527.874	13340.77
528.241	13505.96
528.607	13467.09
528.973	13623.47
529.339	13681.32
529.705	13794.54
530.071	13808.55
530.437	13920.64
530.803	13970.8
531.169	14122.89
531.535	14031.14
531.901	14107.07
532.267	14174.19
532.632	14306.84
532.998	14409.89
533.364	14488.08
533.73	14488.53
534.095	14561.52
534.461	14682.65
534.826	14789.54
535.192	14818.92
535.557	14845.58
535.923	14905.24
536.288	14948.18
536.653	15113.83
537.019	15001.96
537.384	15117.44
537.749	15185.01
538.114	15272.69
538.479	15274.05
538.845	15324.89
539.21	15396.53
539.575	15466.13
539.94	15538.9
540.305	15651.44
540.67	15625
541.034	15689.18
541.399	15830.87
541.764	15810.3
542.129	15933.01
542.494	15966.91
542.858	15980.24
543.223	16017.53
543.587	16216.4
543.952	16168.71
544.316	16189.5
544.681	16153.12
545.045	16356.28
545.41	16431.98
545.774	16463.62
546.138	16519.44
546.503	16591.53
546.867	16605.09
547.231	16723.73
547.595	16812.76
547.959	16839.2
548.324	16839.43
548.688	16852.31
549.052	17058.41
549.416	17012.98
549.779	17041.01
550.143	17141.57
550.507	17195.13
550.871	17304.95
551.235	17294.56
551.599	17498.85
551.962	17469.02
552.326	17457.04
552.689	17639.41
553.053	17540.43
553.417	17605.29
553.78	17848.22
554.143	17779.07
554.507	17845.96
554.87	17959.85
555.234	18061.54
555.597	17989
555.96	18116.23
556.323	18186.29
556.686	18148.1
557.05	18289.34
557.413	18348.54
557.776	18360.07
558.139	18506.73
558.502	18444.36
558.865	18592.6
559.228	18719.83
559.59	18801.86
559.953	18784.24
560.316	19035.3
560.679	18929.32
561.041	19091.12
561.404	19174.74
561.767	19244.79
562.129	19218.58
562.492	19403.66
562.854	19471.23
563.217	19412.02
563.579	19648.62
563.941	19754.16
564.304	19684.1
564.666	19874.83
565.028	19860.82
565.39	19933.59
565.753	20115.73
566.115	20004.09
566.477	20021.27
566.839	20153.92
567.201	20323.86
567.563	20311.43
567.925	20470.52
568.287	20480.92
568.648	20591.2
569.01	20652.66
569.372	20779.89
569.734	20777.86
570.095	20875.93
570.457	20967.46
570.819	21041.35
571.18	21114.12
571.542	21299.43
571.903	21285.41
572.265	21380.78
572.626	21429.37
572.987	21517.73
573.349	21709.81
573.71	21658.74
574.071	21832.75
574.432	21837.26
574.794	22085.62
575.155	22137.6
575.516	22107.54
575.877	22276.35
576.238	22364.03
576.599	22540.07
576.96	22552.27
577.32	22709.33
577.681	22817.13
578.042	22874.53
578.403	23099.6
578.763	23181.86
579.124	23158.81
579.485	23430.67
579.845	23612.13
580.206	23617.11
580.566	23749.3
580.927	23932.12
581.287	24247.6
581.648	24139.8
582.008	24447.82
582.368	24458.66
582.728	24611.2
583.089	24783.4
583.449	24917.86
583.809	25035.82
584.169	25301.58
584.529	25380.67
584.889	25670.61
585.249	25842.13
585.609	25879.19
585.969	26141.33
586.329	26229.69
586.688	26486.63
587.048	26678.27
587.408	26773.86
587.768	26996.45
588.127	27207.97
588.487	27290.23
588.846	27595.31
589.206	27659.94
589.565	27859.71
589.925	28126.82
590.284	28242.52
590.643	28394.38
591.003	28687.48
591.362	28920.92
591.721	29073.46
592.08	29207.69
592.44	29590.28
592.799	29758.19
593.158	29785.98
593.517	29962.25
593.876	30144.17
594.235	30325.4
594.593	30439.98
594.952	30730.14
595.311	30811.49
595.67	31021.66
596.029	31245.83
596.387	31650.11
596.746	31731.24
597.104	31636.78
597.463	31918.36
597.822	32220.72
598.18	32233.83
598.538	32414.16
598.897	32654.38
599.255	32549.75
599.613	33240.13
599.972	33104.31
600.33	33303.18
600.688	33394.93
601.046	33711.98
601.404	33925.08
601.762	33903.84
602.12	34278.29
602.478	34347.22
602.836	34438.74
603.194	34419.31
603.552	34673.99
603.91	34631.5
604.268	35002.34
604.625	35119.18
604.983	35298.61
605.341	35216.12
605.698	35470.35
606.056	35664.25
606.413	35589.22
606.771	35911.25
607.128	36025.37
607.485	35936.1
607.843	36100.62
608.2	36372.93
608.557	36583.77
608.914	36655.18
609.272	36999.8
609.629	36993.02
609.986	37148.5
610.343	37110.08
610.7	37364.77
611.057	37520.92
611.414	37458.55
611.771	37728.15
612.127	37887.92
612.484	37799.78
612.841	38141.92
613.198	38069.61
613.554	38119.77
613.911	38409.94
614.267	38493.78
614.624	38461.23
614.98	38461.46
615.337	38776.71
615.693	38738.06
616.05	38846.54
616.406	39125.85
616.762	38830.72
617.118	39084.72
617.475	39042.01
617.831	39328.1
618.187	39319.29
618.543	39534.2
618.899	39711.15
619.255	39738.26
619.611	39730.13
619.967	39861.2
620.323	39993.17
620.678	39886.28
621.034	39915.89
621.39	40012.15
621.746	39911.82
622.101	40495.98
622.457	40216.67
622.812	40245.82
623.168	40375.08
623.523	40453.5
623.879	40691.01
624.234	40246.95
624.589	40519.26
624.945	40639.48
625.3	40678.58
625.655	40756.77
626.01	40795.86
626.365	40658.01
626.72	40741.4
627.075	40759.25
627.43	40763.09
627.785	40832.92
628.14	40945.46
628.495	40852.13
628.85	40843.77
629.205	40820.72
629.559	41077.66
629.914	40885.13
630.269	40822.3
630.623	40862.3
630.978	40720.16
631.332	40884.45
631.687	40956.31
632.041	40903.66
632.396	41104.33
632.75	40870.89
633.104	40872.24
633.459	40846.26
633.813	40814.39
634.167	40772.13
634.521	40893.03
634.875	40855.07
635.229	40911.34
635.583	40743.21
635.937	40791.79
636.291	40573.5
636.645	40757.9
636.999	40630.89
637.352	40934.62
637.706	40630.22
638.06	40681.29
638.413	40654.62
638.767	40503.44
639.121	40610.78
639.474	40354.74
639.828	40358.36
640.181	40540.28
640.534	40336.21
640.888	40400.17
641.241	40390.9
641.594	40336.67
641.947	40464.8
642.301	40284.01
642.654	40355.2
643.007	40370.56
643.36	40315.2
643.713	40221.41
644.066	40405.59
644.419	40154.75
644.771	40026.17
645.124	39694.42
645.477	39437.93
645.83	39272.51
646.182	39263.02
646.535	39193.42
646.888	39179.63
647.24	38878.85
647.593	39199.07
647.945	39159.75
648.298	38861.45
648.65	38734.22
649.002	38822.35
649.355	39006.53
649.707	38843.37
650.059	39017.6
650.411	39400.19
650.763	39456.01
651.115	39921.76
651.467	39685.38
651.819	39785.49
652.171	39693.07
652.523	39600.41
652.875	39580.75
653.227	39455.33
653.578	39724.93
653.93	39526.97
654.282	39566.52
654.633	39277.03
654.985	39450.36
655.337	39446.52
655.688	39332.85
656.039	39671.6
656.391	39122.01
656.742	39292.4
657.094	39277.26
657.445	39457.37
657.796	39307.09
658.147	39195.9
658.498	39254.89
658.849	39311.83
659.2	39275
659.551	39273.19
659.902	39379.85
660.253	39273.64
660.604	39297.14
660.955	39028.23
661.306	39278.39
661.656	39119.07
662.007	39129.92
662.358	39058.51
662.708	39209.24
663.059	39256.24
663.409	39003.14
663.76	39169.46
664.11	39151.16
664.461	39263.93
664.811	39206.53
665.161	39254.21
665.511	39027.1
665.862	39347.76
666.212	39245.17
666.562	39175.79
666.912	39117.26
667.262	39023.93
667.612	38995.91
667.962	39176.02
668.312	38974.89
668.662	39201.33
669.011	39025.29
669.361	38916.59
669.711	38865.52
670.06	38859.42
670.41	38905.97
670.76	38955.23
671.109	38986.87
671.459	38905.74
671.808	38857.16
672.157	38873.65
672.507	38781.9
672.856	38733.54
673.205	38803.6
673.554	38817.38
673.904	38660.78
674.253	38913.88
674.602	38738.06
674.951	38380.33
675.3	37915.49
675.649	38578.07
675.998	38644.73
676.346	38691.28
676.695	38850.38
677.044	38484.96
677.393	38643.6
677.741	38611.96
678.09	38466.66
678.438	38298.53
678.787	38371.52
679.135	38336.49
679.484	38204.29
679.832	38309.83
680.181	38149.6
680.529	38244.74
680.877	38187.12
681.225	37952.77
681.573	38214.69
681.922	38057.86
682.27	37916.62
682.618	37910.74
682.966	37880.68
683.314	37961.59
683.661	37930.85
684.009	37685.66
684.357	37548.72
684.705	37587.59
685.053	37785.55
685.4	37536.51
685.748	37445.67
686.095	37380.58
686.443	37228.95
686.79	37231.21
687.138	37366.57
687.485	37179.46
687.832	37056.98
688.18	37152.34
688.527	36793.03
688.874	36894.27
689.221	36807.94
689.568	36852.01
689.915	36642.75
690.262	36717.55
690.609	36574.05
690.956	36521.4
691.303	36454.96
691.65	36167.06
691.997	36247.06
692.344	36027.85
692.69	36049.77
693.037	36019.94
693.383	35683.23
693.73	35743.79
694.077	35612.04
694.423	35690.69
694.769	35499.73
695.116	35500.86
695.462	35291.15
695.808	35230.81
696.155	35439.62
696.501	35044.6
696.847	35121.89
697.193	34853.19
697.539	35009.57
697.885	34730.94
698.231	34512.64
698.577	34700.43
698.923	34550.6
699.269	34496.59
699.614	34207.11
699.96	34211.63
700.306	34258.41
700.651	34074.91
700.997	33986.32
701.342	33826.55
701.688	33928.47
702.033	33839.44
702.379	33835.59
702.724	33629.05
703.069	33535.49
703.415	33356.06
703.76	33486
704.105	33288.49
704.45	33313.57
704.795	33039.91
705.14	32996.97
705.485	32903.64
705.83	32841.04
706.175	32804.21
706.52	32765.79
706.865	32703.65
707.209	32577.55
707.554	32481.05
707.899	32511.33
708.243	32437.44
708.588	32316.76
708.932	32137.33
709.277	32162.87
709.621	32177.78
709.966	31884.46
710.31	32033.38
710.654	31786.16
710.998	31785.93
711.342	31790.68
711.687	31645.59
712.031	31639.49
712.375	31534.64
712.719	31591.13
713.063	31535.54
713.407	31479.5
713.75	31373.51
714.094	31400.4
714.438	31262.55
714.782	31288.54
715.125	31176.23
715.469	31113.18
715.812	30995.89
716.156	30811.27
716.499	30866.41
716.843	30924.26
717.186	30681.1
717.53	30710.93
717.873	30795
718.216	30676.58
718.559	30559.75
718.902	30320.66
719.246	30438.17
719.589	30313.88
719.932	30201.11
720.275	30159.08
720.617	30154.33
720.96	30108.69
721.303	30063.72
721.646	30101
721.989	29943.27
722.331	29996.6
722.674	29906.21
723.016	29856.71
723.359	29808.81
723.701	29745.08
724.044	29635.48
724.386	29439.55
724.729	29641.81
725.071	29512.09
725.413	29554.12
725.755	29497.18
726.097	29276.39
726.439	29317.52
726.782	29267.8
727.124	29387.35
727.465	29148.03
727.807	29120.92
728.149	29092.22
728.491	29003.4
728.833	29125.21
729.175	28970.64
729.516	28902.39
729.858	28892.22
730.199	28817.42
730.541	28779.68
730.882	28871.43
731.224	28809.51
731.565	28631.89
731.906	28744.2
732.248	28596.18
732.589	28532.68
732.93	28455.62
733.271	28487.03
733.612	28413.14
733.953	28419.01
734.294	28301.95
734.635	28281.62
734.976	28370.43
735.317	28176.53
735.658	28125.01
735.999	28188.74
736.339	28032.13
736.68	28106.93
737.021	27922.75
737.361	27974.73
737.702	28087.04
738.042	27989.19
738.383	27767.5
738.723	27827.39
739.063	27737.67
739.404	27894.73
739.744	27669.43
740.084	27605.47
740.424	27708.52
740.764	27577
741.104	27711.23
741.444	27465.59
741.784	27414.29
742.124	27437.12
742.464	27344.69
742.804	27378.14
743.143	27289.1
743.483	27266.73
743.823	27218.14
744.162	27108.09
744.502	27235.31
744.841	27077.35
745.181	27246.39
745.52	27029.44
745.86	27112.83
746.199	27127.75
746.538	26896.34
746.877	26966.4
747.216	26954.19
747.556	26914.87
747.895	26916.91
748.234	26760.3
748.573	26770.47
748.911	26697.02
749.25	26700.41
749.589	26473.3
749.928	26485.05
750.267	26476.69
750.605	26331.84
750.944	26496.8
751.283	26298.62
751.621	26373.42
751.96	26086.87
752.298	26184.95
752.636	26056.36
752.975	26061.11
753.313	25950.38
753.651	25916.48
753.989	25994.67
754.327	25844.39
754.666	25730.04
755.004	25771.17
755.342	25761.46
755.679	25698.86
756.017	25531.86
756.355	25503.38
756.693	25392.65
757.031	25497.96
