Data from hue_300_FLMS001491_00089.txt Node
Date: Tue Feb 07 15:51:20 GMT 2017
User: dcchb
Spectrometer: FLMS00149
Trigger mode: 0
Integration Time (sec): 2.000000E-2
Scans to average: 10
Electric dark correction enabled: true
Nonlinearity correction enabled: false
Boxcar width: 0
XAxis mode: Wavelengths
Number of Pixels in Spectrum: 2048
>>>>>Begin Spectral Data<<<<<
341.393	-22.63
341.776	-22.63
342.16	-22.63
342.543	-57.43
342.927	-61.27
343.31	-79.57
343.693	-69.63
344.077	-60.14
344.46	-81.16
344.843	-42.06
345.226	-36.41
345.61	-35.51
345.993	-5.23
346.376	-3.87
346.759	16.24
347.142	22.57
347.525	41.78
347.908	46.98
348.291	89.91
348.674	92.4
349.057	103.7
349.44	110.25
349.823	149.35
350.206	145.5
350.588	202.45
350.971	208.55
351.354	246.29
351.737	224.6
352.119	240.19
352.502	269.34
352.884	286.97
353.267	274.99
353.65	299.62
354.032	305.27
354.414	292.85
354.797	313.41
355.179	307.31
355.562	334.88
355.944	330.58
356.326	326.52
356.709	327.42
357.091	327.42
357.473	356.12
357.855	325.61
358.238	350.47
358.62	362
359.002	339.62
359.384	339.17
359.766	334.2
360.148	340.08
360.53	333.75
360.912	342.34
361.294	316.12
361.676	338.72
362.057	349.57
362.439	344.37
362.821	329
363.203	326.29
363.584	329.45
363.966	318.83
364.348	334.65
364.729	353.86
365.111	330.81
365.493	315.22
365.874	304.14
366.256	322.45
366.637	316.57
367.019	325.16
367.4	325.16
367.781	318.83
368.163	302.79
368.544	338.27
368.925	314.31
369.306	316.12
369.688	308.89
370.069	321.09
370.45	325.16
370.831	307.76
371.212	304.6
371.593	331.71
371.974	329.23
372.355	324.03
372.736	327.65
373.117	328.78
373.498	331.26
373.879	324.71
374.26	312.05
374.641	312.28
375.021	315.67
375.402	312.28
375.783	338.72
376.163	341.88
376.544	332.62
376.925	344.6
377.305	327.87
377.686	332.62
378.066	344.6
378.447	344.6
378.827	343.69
379.208	329
379.588	347.08
379.968	316.35
380.349	349.34
380.729	334.65
381.109	366.29
381.489	342.34
381.87	372.17
382.25	325.84
382.63	337.36
383.01	351.83
383.39	349.57
383.77	349.79
384.15	354.31
384.53	374.88
384.91	355.44
385.29	358.15
385.67	338.72
386.049	360.87
386.429	362.22
386.809	370.81
387.189	378.72
387.568	364.26
387.948	366.97
388.328	378.72
388.707	381.2
389.087	375.1
389.466	394.09
389.846	388.66
390.225	388.44
390.605	403.12
390.984	402.9
391.363	389.34
391.743	395.89
392.122	394.99
392.501	409.45
392.881	411.94
393.26	403.58
393.639	401.77
394.018	429.56
394.397	406.06
394.776	403.8
395.155	416.46
395.534	390.02
395.913	421.66
396.292	408.1
396.671	438.6
397.05	413.97
397.429	436.34
397.808	409.68
398.186	417.59
398.565	435.21
398.944	437.25
399.323	443.8
399.701	444.48
400.08	437.25
400.458	428.44
400.837	464.59
401.215	468.66
401.594	452.62
401.972	449
402.351	449.9
402.729	461.43
403.107	471.37
403.486	469.79
403.864	468.21
404.242	458.72
404.62	459.17
404.999	507.08
405.377	489.68
405.755	501.2
406.133	490.58
406.511	500.52
406.889	520.64
407.267	535.32
407.645	516.79
408.023	521.99
408.401	519.05
408.779	555.21
409.156	557.25
409.534	572.61
409.912	541.88
410.29	548.21
410.667	556.79
411.045	605.61
411.422	606.51
411.8	594.53
412.178	594.08
412.555	604.02
412.933	598.83
413.31	643.8
413.687	646.28
414.065	641.54
414.442	667.52
414.819	689.9
415.197	692.16
415.574	714.3
415.951	706.62
416.328	722.44
416.705	740.97
417.082	734.19
417.46	742.78
417.837	781.87
418.214	771.48
418.591	785.26
418.967	792.49
419.344	791.14
419.721	821.87
420.098	823.9
420.475	820.29
420.852	850.57
421.228	862.77
421.605	863.9
421.982	892.15
422.358	901.64
422.735	897.58
423.111	902.55
423.488	934.41
423.864	953.62
424.241	934.86
424.617	980.51
424.994	951.13
425.37	980.96
425.746	978.25
426.123	987.97
426.499	988.87
426.875	1017.57
427.251	1035.42
427.627	1062.09
428.003	1042.43
428.379	1086.5
428.756	1066.61
429.132	1073.39
429.507	1089.43
429.883	1107.74
430.259	1138.25
430.635	1159.94
431.011	1141.64
431.387	1161.75
431.763	1214.4
432.138	1227.28
432.514	1212.6
432.89	1220.05
433.265	1266.83
433.641	1276.55
434.016	1267.51
434.392	1263.67
434.767	1279.49
435.143	1324.46
435.518	1338.47
435.894	1350.67
436.269	1370.11
436.644	1379.14
437.02	1398.58
437.395	1392.48
437.77	1452.14
438.145	1443.78
438.52	1457.56
438.895	1458.24
439.271	1480.84
439.646	1513.83
440.021	1500.05
440.395	1529.42
440.77	1498.24
441.145	1527.16
441.52	1524.9
441.895	1542.98
442.27	1552.7
442.645	1532.81
443.019	1554.73
443.394	1574.39
443.769	1586.37
444.143	1583.66
444.518	1600.16
444.892	1628.18
445.267	1596.54
445.641	1609.87
446.016	1593.6
446.39	1652.13
446.764	1642.19
447.139	1623.88
447.513	1652.58
447.887	1669.98
448.262	1653.26
448.636	1645.13
449.01	1692.13
449.384	1693.71
449.758	1703.2
450.132	1685.13
450.506	1737.78
450.88	1738.23
451.254	1732.13
451.628	1732.58
452.002	1718.8
452.376	1756.54
452.75	1783.65
453.123	1740.49
453.497	1834.5
453.871	1827.72
454.244	1823.65
454.618	1844.22
454.992	1848.96
455.365	1883.99
455.739	1895.74
456.112	1954.27
456.486	1912.46
456.859	1908.17
457.232	1915.63
457.606	1920.83
457.979	1975.96
458.352	1990.43
458.725	2002.63
459.099	2020.71
459.472	2062.97
459.845	2086.24
460.218	2090.09
460.591	2092.8
460.964	2045.79
461.337	2127.6
461.71	2162.63
462.083	2168.05
462.456	2180.48
462.829	2122.85
463.201	2213.47
463.574	2209.63
463.947	2236.98
464.32	2265
464.692	2268.61
465.065	2301.83
465.438	2296.86
465.81	2333.47
466.183	2294.83
466.555	2377.31
466.928	2358.55
467.3	2359.01
467.672	2417.08
468.045	2501.37
468.417	2484.88
468.789	2471.09
469.161	2457.31
469.534	2544.31
469.906	2535.95
470.278	2561.26
470.65	2594.93
471.022	2641.94
471.394	2662.5
471.766	2666.57
472.138	2686
472.51	2749.96
472.882	2763.74
473.253	2803.06
473.625	2806.23
473.997	2858.2
474.369	2862.27
474.74	2884.19
475.112	2930.06
475.484	2981.81
475.855	2995.83
476.227	3008.48
476.598	3078.76
476.97	3145.65
477.341	3133.9
477.713	3203.96
478.084	3180
478.455	3243.5
478.827	3280.56
479.198	3317.85
479.569	3298.19
479.94	3423.61
480.311	3440.79
480.682	3458.86
481.053	3560.78
481.424	3543.61
481.795	3558.75
482.166	3653.89
482.537	3635.36
482.908	3726.43
483.279	3723.94
483.65	3794.67
484.021	3813.43
484.391	3876.03
484.762	3888.23
485.133	3906.76
485.503	3968.23
485.874	4017.72
486.244	4020.43
486.615	4100.2
486.985	4113.31
487.356	4205.28
487.726	4199.41
488.097	4252.97
488.467	4234.66
488.837	4327.54
489.207	4399.86
489.578	4430.59
489.948	4442.57
490.318	4538.38
490.688	4469.68
491.058	4524.82
491.428	4585.39
491.798	4625.39
492.168	4690.02
492.538	4711.26
492.908	4715.55
493.278	4823.8
493.648	4815.89
494.017	4859.5
494.387	4936.79
494.757	4897.7
495.126	4966.62
495.496	4963.23
495.866	4990.12
496.235	5015.66
496.605	5054.08
496.974	5058.37
497.344	5093.85
497.713	5120.29
498.082	5187.63
498.452	5180.85
498.821	5208.42
499.19	5233.96
499.559	5266.95
499.928	5270.34
500.298	5284.8
500.667	5302.43
501.036	5299.27
501.405	5363.67
501.774	5363.9
502.143	5445.25
502.512	5405.25
502.88	5451.81
503.249	5488.42
503.618	5472.37
503.987	5491.35
504.356	5518.47
504.724	5537.23
505.093	5548.53
505.462	5595.53
505.83	5596.66
506.199	5639.37
506.567	5667.17
506.936	5654.74
507.304	5727.28
507.672	5715.08
508.041	5742.87
508.409	5790.55
508.777	5870.1
509.145	5871.68
509.514	5821.74
509.882	5899.25
510.25	5910.55
510.618	5861.29
510.986	5912.58
511.354	5977.22
511.722	5977.67
512.09	6016.99
512.458	6019.25
512.826	6060.38
513.193	6008.4
513.561	6095.63
513.929	6055.86
514.297	6127.49
514.664	6149.41
515.032	6194.61
515.4	6224.44
515.767	6202.52
516.135	6211.11
516.502	6169.53
516.869	6240.49
517.237	6270.77
517.604	6250.88
517.972	6358.67
518.339	6337.21
518.706	6346.47
519.073	6327.94
519.44	6363.65
519.808	6396.64
520.175	6378.34
520.542	6462.4
520.909	6476.41
521.276	6435.28
521.643	6568.16
522.009	6601.15
522.376	6576.97
522.743	6660.81
523.11	6652.23
523.477	6728.38
523.843	6779.45
524.21	6820.13
524.577	6790.3
524.943	6845.22
525.31	6850.19
525.676	6914.37
526.043	6976.06
526.409	6981.71
526.776	7057.41
527.142	7053.12
527.508	7077.3
527.874	7138.09
528.241	7177.18
528.607	7211.53
528.973	7244.53
529.339	7257.41
529.705	7258.76
530.071	7313
530.437	7400.91
530.803	7403.39
531.169	7460.79
531.535	7413.34
531.901	7455.59
532.267	7505.31
532.632	7536.27
532.998	7565.87
533.364	7608.36
533.73	7610.62
534.095	7723.16
534.461	7699.43
534.826	7841.57
535.192	7832.08
535.557	7842.48
535.923	7846.09
536.288	7900.78
536.653	7977.39
537.019	7873.21
537.384	7935.13
537.749	7953.21
538.114	7977.62
538.479	8029.14
538.845	8019.87
539.21	8016.71
539.575	8056.26
539.94	8134.45
540.305	8214.9
540.67	8190.72
541.034	8209.25
541.399	8286.53
541.764	8317.95
542.129	8391.39
542.494	8360.88
542.858	8326.76
543.223	8451.95
543.587	8502.35
543.952	8497.15
544.316	8508
544.681	8492.4
545.045	8581.67
545.41	8590.71
545.774	8651.95
546.138	8606.07
546.503	8700.08
546.867	8733.75
547.231	8807.88
547.595	8818.5
547.959	8829.57
548.324	8817.37
548.688	8910.92
549.052	8910.47
549.416	8971.04
549.779	8933.07
550.143	8958.61
550.507	9044.71
550.871	9081.77
551.235	9066.63
551.599	9126.74
551.962	9112.27
552.326	9234.76
552.689	9221.2
553.053	9235.21
553.417	9208.54
553.78	9296.22
554.143	9245.6
554.507	9383.91
554.87	9330.57
555.234	9449.67
555.597	9396.56
555.96	9431.81
556.323	9424.58
556.686	9480.85
557.05	9515.88
557.413	9510
557.776	9637.46
558.139	9604.24
558.502	9654.18
558.865	9670
559.228	9720.62
559.59	9719.04
559.953	9771.92
560.316	9825.93
560.679	9847.62
561.041	9923.1
561.404	9834.97
561.767	9990.44
562.129	9960.61
562.492	10012.59
562.854	10039.26
563.217	10052.59
563.579	10058.69
563.941	10185.69
564.304	10203.55
564.666	10252.36
565.028	10218.69
565.39	10238.57
565.753	10300.27
566.115	10304.79
566.477	10356.99
566.839	10379.59
567.201	10448.51
567.563	10497.32
567.925	10552.01
568.287	10579.35
568.648	10555.17
569.01	10612.12
569.372	10717.2
569.734	10669.75
570.095	10731.67
570.457	10828.39
570.819	10798.11
571.18	10872.91
571.542	10987.93
571.903	10979.8
572.265	10987.93
572.626	11077.19
572.987	11136.18
573.349	11229.51
573.71	11282.16
574.071	11351.54
574.432	11405.1
574.794	11507.01
575.155	11503.17
575.516	11578.42
575.877	11676.5
576.238	11762.83
576.599	11893.22
576.96	11986.32
577.32	12026.1
577.681	12153.32
578.042	12282.13
578.403	12367.33
578.763	12506.08
579.124	12624.72
579.485	12806.64
579.845	12851.39
580.206	12967.31
580.566	13193.3
580.927	13243.69
581.287	13476.68
581.648	13558.03
582.008	13848.2
582.368	13955.31
582.728	14176.32
583.089	14338.58
583.449	14540.61
583.809	14740.6
584.169	14910.77
584.529	15149.4
584.889	15559.34
585.249	15570.18
585.609	15872.1
585.969	16268.92
586.329	16367.23
586.688	16650.83
587.048	16885.18
587.408	17187.54
587.768	17496.23
588.127	17761.09
588.487	18090.34
588.846	18456.21
589.206	18658.69
589.565	18866.14
589.925	19403.3
590.284	19503.41
590.643	19935.94
591.003	20259.1
591.362	20637.4
591.721	21022.7
592.08	21263.37
592.44	21639.85
592.799	22030.13
593.158	22335.43
593.517	22688.41
593.876	22931.57
594.235	23322.75
594.593	23731.1
594.952	24061.71
595.311	24270.29
595.67	24613.11
596.029	25091.52
596.387	25434.33
596.746	25759.07
597.104	26025.73
597.463	26467.98
597.822	26751.81
598.18	27119.03
598.538	27419.59
598.897	27842.86
599.255	27946.58
599.613	28649.16
599.972	28820.68
600.33	29194.01
600.688	29370.72
601.046	29861.56
601.404	30189.23
601.762	30495.44
602.12	30939.72
602.478	31140.17
602.836	31464.46
603.194	31544
603.552	31975.63
603.91	32080.94
604.268	32587.59
604.625	32683.41
604.983	33150.96
605.341	33248.14
605.698	33583.27
606.056	33963.15
606.413	34189.81
606.771	34599.06
607.128	34820.53
607.485	34868.66
607.843	35194.07
608.2	35528.3
608.557	35869.31
608.914	36006.93
609.272	36382.07
609.629	36498.45
609.986	36982.05
610.343	36901.83
610.7	37458.2
611.057	37463.17
611.414	37761.69
611.771	37837.85
612.127	38301.56
612.484	38389.7
612.841	38756.01
613.198	38656.58
613.554	38892.28
613.911	39230.8
614.267	39330.46
614.624	39306.06
614.98	39724.8
615.337	39991.01
615.693	40197.78
616.05	40222.87
616.406	40587.15
616.762	40541.73
617.118	40742.18
617.475	40927.48
617.831	41005.45
618.187	41236.18
618.543	41458.32
618.899	41767.46
619.255	41687.92
619.611	41828.7
619.967	42055.14
620.323	42151.18
620.678	42264.17
621.034	42239.31
621.39	42381
621.746	42347.33
622.101	43000.2
622.457	42747.77
622.812	42898.96
623.168	43049.69
623.523	43199.97
623.879	43411.03
624.234	43092.4
624.589	43469.79
624.945	43450.81
625.3	43550.69
625.655	43561.99
626.01	43641.08
626.365	43818.48
626.72	43899.16
627.075	43816.22
627.43	43856.45
627.785	43927.86
628.14	43964.69
628.495	44128.53
628.85	44290.78
629.205	43959.95
629.559	44243.1
629.914	44258.7
630.269	44277.23
630.623	44286.72
630.978	44115.42
631.332	44364.45
631.687	44564
632.041	44307.96
632.396	44438.35
632.75	44299.15
633.104	44394.96
633.459	44352.48
633.813	44263.89
634.167	44325.13
634.521	44423.44
634.875	44343.21
635.229	44395.87
635.583	44252.37
635.937	44278.13
636.291	44171.24
636.645	44371.46
636.999	44202.2
637.352	44353.61
637.706	44299.15
638.06	44394.96
638.413	44360.39
638.767	44348.41
639.121	44405.36
639.474	44020.06
639.828	44164.01
640.181	44366.26
640.534	44260.73
640.888	44159.26
641.241	44067.29
641.594	44038.36
641.947	44338.69
642.301	44282.42
642.654	44136.66
643.007	44246.49
643.36	44165.59
643.713	44046.5
644.066	44249.88
644.419	44081.52
644.771	43829.55
645.124	43332.62
645.477	43321.54
645.83	43068.67
646.182	43016.92
646.535	42931.5
646.888	43074.77
647.24	42832.97
647.593	43160.19
647.945	43043.81
648.298	42868.9
648.65	42905.06
649.002	42752.75
649.355	42913.42
649.707	42916.13
650.059	42870.48
650.411	43449.22
650.763	43370.36
651.115	43862.32
651.467	43852.83
651.819	43798.59
652.171	43673.17
652.523	43478.38
652.875	43568.09
653.227	43368.77
653.578	43766.5
653.93	43655.77
654.282	43458.49
654.633	43306.4
654.985	43544.82
655.337	43590.46
655.688	43474.99
656.039	43642.67
656.391	43384.59
656.742	43371.71
657.094	43445.61
657.445	43508.88
657.796	43441.54
658.147	43367.87
658.498	43390.7
658.849	43486.74
659.2	43410.13
659.551	43213.75
659.902	43415.33
660.253	43324.48
660.604	43484.25
660.955	43241.77
661.306	43465.5
661.656	43391.6
662.007	43265.73
662.358	43143.02
662.708	43321.32
663.059	43232.51
663.409	43085.62
663.76	43275.67
664.11	43376.01
664.461	43335.33
664.811	43233.86
665.161	43411.94
665.511	43132.4
665.862	43141.21
666.212	43264.37
666.562	43283.58
666.912	43258.95
667.262	43241.77
667.612	43166.97
667.962	43187.08
668.312	43167.65
668.662	43387.08
669.011	43179.63
669.361	43118.61
669.711	43119.97
670.06	43027.09
670.41	43080.87
670.76	42943.48
671.109	43047.2
671.459	43079.74
671.808	43034.32
672.157	43083.13
672.507	42697.15
672.856	42965.17
673.205	42928.33
673.554	42979.41
673.904	42839.52
674.253	43013.53
674.602	42886.08
674.951	42145.53
675.3	42089.94
675.649	42769.69
675.998	42787.32
676.346	42751.16
676.695	42795.23
677.044	42536.25
677.393	42628.23
677.741	42693.54
678.09	42416.48
678.438	42578.29
678.787	42510.49
679.135	42459.42
679.484	42182.14
679.832	42431.85
680.181	42268.69
680.529	42386.43
680.877	42215.81
681.225	42222.14
681.573	42351.17
681.922	42090.62
682.27	42040
682.618	42116.38
682.966	41939.21
683.314	41955.48
683.661	42001.35
684.009	41716.16
684.357	41602.04
684.705	41651.76
685.053	41647.92
685.4	41543.51
685.748	41493.8
686.095	41607.92
686.443	41263.75
686.79	41200.02
687.138	41253.12
687.485	41261.94
687.832	41061.26
688.18	41220.81
688.527	40965
688.874	40823.98
689.221	40774.27
689.568	40704.21
689.915	40506.7
690.262	40619.92
690.609	40414.05
690.956	40361.17
691.303	40278.69
691.65	40194.62
691.997	40199.82
692.344	39842.99
692.69	39865.82
693.037	39932.93
693.383	39603.45
693.73	39701.07
694.077	39577.46
694.423	39487.97
694.769	39343.34
695.116	39360.97
695.462	39220.86
695.808	38952.17
696.155	39097.02
696.501	38895.45
696.847	38824.04
697.193	38589.01
697.539	38735.9
697.885	38416.14
698.231	38335.91
698.577	38268.12
698.923	38362.13
699.269	38164.84
699.614	38011.85
699.96	37866.32
700.306	38016.6
700.651	37595.37
700.997	37563.96
701.342	37634.24
701.688	37575.03
702.033	37433.56
702.379	37335.94
702.724	37263.4
703.069	37368.71
703.415	36895.27
703.76	36925.78
704.105	36773.92
704.45	36817.99
704.795	36674.49
705.14	36515.4
705.485	36417.09
705.83	36354.95
706.175	36453.93
706.52	36349.75
706.865	36022.98
707.209	36044
707.554	36011.91
707.899	36099.59
708.243	35746.38
708.588	35779.14
708.932	35565.36
709.277	35506.16
709.621	35578.25
709.966	35355.65
710.31	35380.74
710.654	35173.74
710.998	35178.48
711.342	35211.48
711.687	35080.41
712.031	34860.3
712.375	34896.46
712.719	34838.15
713.063	34760.41
713.407	34989.11
713.75	34584.15
714.094	34678.16
714.438	34546.41
714.782	34597.25
715.125	34398.16
715.469	34436.13
715.812	34240.43
716.156	33978.51
716.499	34061.68
716.843	34077.72
717.186	33941.68
717.53	34026.87
717.873	33998.63
718.216	33865.07
718.559	33744.4
718.902	33664.62
719.246	33642.93
719.589	33579.43
719.932	33386.44
720.275	33468.24
720.617	33357.06
720.96	33418.08
721.303	33221.02
721.646	33345.76
721.989	33129.5
722.331	33198.87
722.674	33128.14
723.016	33174.47
723.359	33105.09
723.701	33073.9
724.044	32834.36
724.386	32777.19
724.729	32911.2
725.071	32667.36
725.413	32675.5
725.755	32654.48
726.097	32576.97
726.439	32412.9
726.782	32439.8
727.124	32634.37
727.465	32319.57
727.807	32360.7
728.149	32218.56
728.491	32161.16
728.833	32294.94
729.175	32239.35
729.516	32122.52
729.858	32076.19
730.199	32118.9
730.541	31982.86
730.882	32031.67
731.224	32041.39
731.565	31707.61
731.906	31849.53
732.248	31835.29
732.589	31627.16
732.93	31530.67
733.271	31611.12
733.612	31721.85
733.953	31553.72
734.294	31362.99
734.635	31419.03
734.976	31358.24
735.317	31223.33
735.658	31320.05
735.999	31334.74
736.339	31214.07
736.68	31289.77
737.021	31200.96
737.361	30989.67
737.702	31125.93
738.042	31072.83
738.383	31041.87
738.723	31175.65
739.063	30949.89
739.404	30877.58
739.744	30972.04
740.084	30742.44
740.424	30855.21
740.764	30700.41
741.104	30918.03
741.444	30867.63
741.784	30659.73
742.124	30619.05
742.464	30437.14
742.804	30591.48
743.143	30507.87
743.483	30485.72
743.823	30378.38
744.162	30308.1
744.502	30300.87
744.841	30184.04
745.181	30377.93
745.52	30233.75
745.86	30151.04
746.199	30109.24
746.538	30161.66
746.877	30321.43
747.216	30086.86
747.556	29975.91
747.895	30010.93
748.234	29977.71
748.573	29880.77
748.911	29835.12
749.25	29918.51
749.589	29822.92
749.928	29837.83
750.267	29821.33
750.605	29838.06
750.944	29657.5
751.283	29658.85
751.621	29771.62
751.96	29490.95
752.298	29530.27
752.636	29571.17
752.975	29498.86
753.313	29332.76
753.651	29407.11
753.989	29330.73
754.327	29304.74
754.666	29208.24
755.004	29248.69
755.342	29249.6
755.679	29195.14
756.017	29061.35
756.355	29132.54
756.693	29002.82
757.031	28997.4
757.368	28927.8
757.706	29041.69
758.044	28765.32
758.381	28752.44
758.719	28690.74
