Data from hue_210_FLMS001491_00016.txt Node
Date: Tue Feb 07 16:40:49 GMT 2017
User: dcchb
Spectrometer: FLMS00149
Trigger mode: 0
Integration Time (sec): 2.000000E-2
Scans to average: 10
Electric dark correction enabled: true
Nonlinearity correction enabled: false
Boxcar width: 0
XAxis mode: Wavelengths
Number of Pixels in Spectrum: 2048
>>>>>Begin Spectral Data<<<<<
341.393	-21.79
341.776	-21.79
342.16	-21.79
342.543	-65.41
342.927	-69.48
343.31	-61.11
343.693	-78.06
344.077	-76.26
344.46	-51.62
344.843	-45.52
345.226	-47.1
345.61	-37.39
345.993	-14.79
346.376	-19.08
346.759	-11.4
347.142	29.73
347.525	32.44
347.908	66.34
348.291	72.22
348.674	107.47
349.057	134.13
349.44	141.82
349.823	147.02
350.206	154.25
350.588	202.61
350.971	211.87
351.354	219.56
351.737	222.72
352.119	266.33
352.502	274.02
352.884	271.31
353.267	275.37
353.65	295.49
354.032	309.5
354.414	311.98
354.797	308.82
355.179	337.52
355.562	323.96
355.944	331.87
356.326	325.99
356.709	352.21
357.091	323.28
357.473	349.95
357.855	349.04
358.238	345.65
358.62	328.93
359.002	341.14
359.384	328.93
359.766	314.47
360.148	328.03
360.53	333.45
360.912	327.12
361.294	328.48
361.676	327.8
362.057	339.33
362.439	309.95
362.821	346.78
363.203	322.6
363.584	321.47
363.966	330.29
364.348	330.51
364.729	322.15
365.111	314.92
365.493	309.72
365.874	308.82
366.256	315.6
366.637	314.02
367.019	312.66
367.4	317.63
367.781	302.49
368.163	313.79
368.544	297.97
368.925	306.56
369.306	291.64
369.688	313.79
370.069	297.75
370.45	295.71
370.831	303.85
371.212	303.85
371.593	297.07
371.974	314.02
372.355	305.43
372.736	290.51
373.117	318.54
373.498	320.57
373.879	295.71
374.26	309.95
374.641	285.54
375.021	300.46
375.402	318.99
375.783	315.83
376.163	325.32
376.544	327.12
376.925	331.64
377.305	317.41
377.686	329.16
378.066	339.55
378.447	329.84
378.827	334.13
379.208	339.55
379.588	324.41
379.968	329.16
380.349	324.86
380.729	325.77
381.109	343.85
381.489	340.46
381.87	347.46
382.25	320.8
382.63	351.76
383.01	328.48
383.39	317.63
383.77	334.58
384.15	335.03
384.53	344.07
384.91	339.1
385.29	343.62
385.67	350.63
386.049	370.96
386.429	347.46
386.809	359.67
387.189	344.07
387.568	373
387.948	348.14
388.328	353.56
388.707	363.73
389.087	360.34
389.466	340.23
389.846	341.59
390.225	375.26
390.605	360.34
390.984	385.65
391.363	366.22
391.743	358.54
392.122	370.74
392.501	369.16
392.881	373.68
393.26	387.91
393.639	375.71
394.018	403.05
394.397	384.52
394.776	390.4
395.155	393.34
395.534	390.4
395.913	408.03
396.292	385.43
396.671	382.04
397.05	386.33
397.429	386.11
397.808	395.37
398.186	383.85
398.565	412.32
398.944	406.22
399.323	383.17
399.701	406.44
400.08	416.39
400.458	431.3
400.837	414.81
401.215	431.53
401.594	418.2
401.972	411.64
402.351	435.82
402.729	408.93
403.107	450.51
403.486	421.13
403.864	426.78
404.242	445.31
404.62	444.18
404.999	455.93
405.377	462.49
405.755	464.07
406.133	441.92
406.511	465.43
406.889	470.62
407.267	473.34
407.645	472.21
408.023	470.17
408.401	490.74
408.779	497.06
409.156	493
409.534	511.07
409.912	528.93
410.29	537.06
410.667	545.88
411.045	545.42
411.422	548.36
411.8	540.45
412.178	571.64
412.555	570.73
412.933	576.84
413.31	588.36
413.687	605.76
414.065	588.59
414.442	632.43
414.819	644.4
415.197	643.05
415.574	665.19
415.951	643.27
416.328	664.97
416.705	661.58
417.082	678.08
417.46	696.83
417.837	710.62
418.214	677.4
418.591	695.48
418.967	717.85
419.344	718.98
419.721	751.29
420.098	720.11
420.475	745.42
420.852	756.94
421.228	785.42
421.605	785.19
421.982	807.56
422.358	828.58
422.735	855.02
423.111	860.9
423.488	854.12
423.864	881.23
424.241	895.24
424.617	908.35
424.994	924.85
425.37	928.01
425.746	955.81
426.123	966.2
426.499	959.42
426.875	1008.01
427.251	1025.18
427.627	1040.1
428.003	1024.96
428.379	1056.82
428.756	1054.79
429.132	1034.9
429.507	1074.68
429.883	1089.36
430.259	1110.15
430.635	1108.57
431.011	1111.74
431.387	1129.14
431.763	1169.59
432.138	1194.22
432.514	1185.18
432.89	1225.86
433.265	1250.94
433.641	1256.82
434.016	1294.1
434.392	1291.62
434.767	1321.45
435.143	1341.79
435.518	1362.13
435.894	1375.68
436.269	1429.92
436.644	1452.29
437.02	1437.6
437.395	1497.49
437.77	1527.09
438.145	1542.01
438.52	1569.58
438.895	1577.03
439.271	1595.79
439.646	1616.36
440.021	1663.81
440.395	1677.6
440.77	1691.83
441.145	1716.92
441.52	1746.3
441.895	1728.22
442.27	1762.79
442.645	1771.38
443.019	1785.84
443.394	1800.08
443.769	1817.48
444.143	1855.9
444.518	1878.04
444.892	1863.35
445.267	1926.4
445.641	1962.34
446.016	1934.77
446.39	1973.41
446.764	1966.86
447.139	1966.86
447.513	1980.19
447.887	2006.18
448.262	2023.58
448.636	2047.98
449.01	2071.49
449.384	2116
449.758	2087.76
450.132	2155.32
450.506	2133.63
450.88	2167.08
451.254	2147.19
451.628	2193.74
452.002	2213.4
452.376	2235.55
452.75	2278.26
453.123	2273.74
453.497	2297.47
453.871	2334.75
454.244	2344.02
454.618	2356.68
454.992	2376.11
455.365	2396.9
455.739	2450.68
456.112	2490.01
456.486	2502.89
456.859	2524.81
457.232	2554.41
457.606	2555.31
457.979	2589.89
458.352	2677.8
458.725	2683.45
459.099	2703.56
459.472	2735.87
459.845	2750.79
460.218	2761.41
460.591	2777.23
460.964	2816.32
461.337	2856.32
461.71	2920.28
462.083	2955.53
462.456	2968.41
462.829	2987.62
463.201	3059.26
463.574	3031.46
463.947	3084.34
464.32	3102.87
464.692	3184
465.065	3195.52
465.438	3247.73
465.81	3292.7
466.183	3312.58
466.555	3391.68
466.928	3375.18
467.3	3378.8
467.672	3421.73
468.045	3552.12
468.417	3530.88
468.789	3566.81
469.161	3627.15
469.534	3670.54
469.906	3750.76
470.278	3756.41
470.65	3769.07
471.022	3839.12
471.394	3899.91
471.766	3933.36
472.138	3934.03
472.51	4035.5
472.882	4097.42
473.253	4182.62
473.625	4196.4
473.997	4254.25
474.369	4326.34
474.74	4333.8
475.112	4407.47
475.484	4515.94
475.855	4550.29
476.227	4539.44
476.598	4724.3
476.97	4705.54
477.341	4823.96
477.713	4840.68
478.084	4917.51
478.455	5056.72
478.827	5026.44
479.198	5246.77
479.569	5195.24
479.94	5357.05
480.311	5397.95
480.682	5452.19
481.053	5566.53
481.424	5601.34
481.795	5696.7
482.166	5703.93
482.537	5855.79
482.908	5957.94
483.279	5985.51
483.65	6064.37
484.021	6186.18
484.391	6233.64
484.762	6296.01
485.133	6322.45
485.503	6390.69
485.874	6492.39
486.244	6559.05
486.615	6677.92
486.985	6743
487.356	6816.45
487.726	6873.39
488.097	7020.28
488.467	7001.3
488.837	7172.59
489.207	7207.4
489.578	7331.46
489.948	7344.57
490.318	7473.38
490.688	7456.65
491.058	7568.74
491.428	7642.86
491.798	7667.95
492.168	7821.39
492.538	7868.39
492.908	7954.95
493.278	8052.57
493.648	8093.7
494.017	8096.41
494.387	8168.27
494.757	8239.23
495.126	8281.27
495.496	8263.19
495.866	8367.14
496.235	8371.21
496.605	8490.75
496.974	8449.62
497.344	8587.02
497.713	8568.26
498.082	8639.67
498.452	8679.45
498.821	8718.09
499.19	8724.42
499.559	8833.34
499.928	8836.28
500.298	8875.83
500.667	8975.26
501.036	8940.01
501.405	8975.03
501.774	8981.81
502.143	9084.18
502.512	9036.73
502.88	9141.13
503.249	9140.23
503.618	9101.36
503.987	9152.43
504.356	9109.94
504.724	9252.09
505.093	9210.96
505.462	9274.23
505.83	9324.85
506.199	9392.2
506.567	9413.44
506.936	9416.15
507.304	9410.73
507.672	9485.3
508.041	9493.89
508.409	9615.24
508.777	9593.1
509.145	9565.3
509.514	9526.88
509.882	9573.89
510.25	9582.7
510.618	9663.83
510.986	9714.9
511.354	9703.37
511.722	9722.36
512.09	9831.73
512.458	9784.28
512.826	9896.59
513.193	9834.67
513.561	9845.52
513.929	9851.62
514.297	9913.54
514.664	9877.38
515.032	9977.72
515.4	9965.51
515.767	9992.18
516.135	9926.65
516.502	9902.01
516.869	10006.87
517.237	10035.12
517.604	9978.4
517.972	10020.88
518.339	10026.3
518.706	10026.08
519.073	10074.89
519.44	10046.87
519.808	10145.62
520.175	10104.04
520.542	10154.89
520.909	10152.85
521.276	10097.26
521.643	10187.2
522.009	10161.44
522.376	10196.7
522.743	10205.73
523.11	10242.12
523.477	10266.07
523.843	10274.21
524.21	10327.09
524.577	10357.14
524.943	10396.92
525.31	10277.82
525.676	10288.67
526.043	10342.91
526.409	10335.9
526.776	10392.4
527.142	10384.71
527.508	10424.03
527.874	10418.16
528.241	10376.13
528.607	10343.81
528.973	10417.03
529.339	10413.86
529.705	10423.13
530.071	10375
530.437	10415.67
530.803	10443.69
531.169	10397.82
531.535	10332.28
531.901	10297.94
532.267	10323.47
532.632	10384.26
532.998	10344.04
533.364	10318.95
533.73	10338.61
534.095	10322.34
534.461	10331.83
534.826	10320.53
535.192	10306.52
535.557	10295.9
535.923	10219.07
536.288	10271.04
536.653	10260.42
537.019	10138.39
537.384	10156.02
537.749	10127.09
538.114	10103.82
538.479	10064.95
538.845	9982.92
539.21	9982.01
539.575	9954.89
539.94	9965.74
540.305	9965.29
540.67	9890.49
541.034	9795.12
541.399	9847.55
541.764	9772.98
542.129	9769.36
542.494	9767.33
542.858	9772.53
543.223	9701.11
543.587	9716.26
543.952	9715.35
544.316	9691.4
544.681	9596.48
545.045	9612.3
545.41	9631.74
545.774	9554.68
546.138	9496.6
546.503	9498.41
546.867	9380.67
547.231	9482.59
547.595	9389.48
547.959	9339.99
548.324	9388.81
548.688	9328.92
549.052	9281.46
549.416	9271.07
549.779	9263.16
550.143	9214.35
550.507	9278.3
550.871	9238.3
551.235	9076.5
551.599	9167.34
551.962	9083.05
552.326	9078.98
552.689	9063.84
553.053	8966.67
553.417	9005.99
553.78	9057.29
554.143	8988.82
554.507	9031.75
554.87	8987.91
555.234	9023.17
555.597	8908.37
555.96	8878.99
556.323	8962.38
556.686	8854.58
557.05	8901.81
557.413	8818.2
557.776	8845.77
558.139	8926.67
558.502	8798.54
558.865	8777.75
559.228	8865.43
559.59	8813.68
559.953	8782.95
560.316	8876.05
560.679	8832.89
561.041	8842.61
561.404	8795.15
561.767	8802.83
562.129	8736.62
562.492	8851.42
562.854	8857.52
563.217	8829.73
563.579	8804.87
563.941	8859.1
564.304	8862.49
564.666	8869.5
565.028	8752.67
565.39	8828.82
565.753	8893.68
566.115	8844.64
566.477	8900.91
566.839	8893.68
567.201	8950.17
567.563	8890.97
567.925	8938.88
568.287	8969.61
568.648	8896.39
569.01	8954.47
569.372	8932.32
569.734	8922.15
570.095	8911.31
570.457	9002.15
570.819	9047.57
571.18	9005.54
571.542	8967.57
571.903	9037.86
572.265	9095.71
572.626	9006.44
572.987	9046.44
573.349	9043.73
573.71	9122.83
574.071	9089.38
574.432	9095.26
574.794	9185.87
575.155	9111.53
575.516	9162.82
575.877	9149.27
576.238	9112.66
576.599	9180
576.96	9150.39
577.32	9208.25
577.681	9276.72
578.042	9232.65
578.403	9229.49
578.763	9221.35
579.124	9228.59
579.485	9268.36
579.845	9283.72
580.206	9263.84
580.566	9298.87
580.927	9213.44
581.287	9284.4
581.648	9216.38
582.008	9354.91
582.368	9264.97
582.728	9316.27
583.089	9311.52
583.449	9266.55
583.809	9313.78
584.169	9322.14
584.529	9244.18
584.889	9405.76
585.249	9297.74
585.609	9316.04
585.969	9398.3
586.329	9352.65
586.688	9407.11
587.048	9337.28
587.408	9328.24
587.768	9349.03
588.127	9342.71
588.487	9304.06
588.846	9415.25
589.206	9336.6
589.565	9396.26
589.925	9429.94
590.284	9376.15
590.643	9356.72
591.003	9416.38
591.362	9420.22
591.721	9433.78
592.08	9388.58
592.44	9368.69
592.799	9423.83
593.158	9405.98
593.517	9392.42
593.876	9438.75
594.235	9434.68
594.593	9422.93
594.952	9509.03
595.311	9352.2
595.67	9325.76
596.029	9485.98
596.387	9473.1
596.746	9439.2
597.104	9410.73
597.463	9441.23
597.822	9445.53
598.18	9442.82
598.538	9370.5
598.897	9461.12
599.255	9424.29
599.613	9487.11
599.972	9389.03
600.33	9510.84
600.688	9405.08
601.046	9464.06
601.404	9461.8
601.762	9523.94
602.12	9541.8
602.478	9496.6
602.836	9521.91
603.194	9456.83
603.552	9538.41
603.91	9486.88
604.268	9485.75
604.625	9432.2
604.983	9488.92
605.341	9481.23
605.698	9483.72
606.056	9518.07
606.413	9451.86
606.771	9513.32
607.128	9566.88
607.485	9489.6
607.843	9563.04
608.2	9557.62
608.557	9554.45
608.914	9559.2
609.272	9604.17
609.629	9594.9
609.986	9643.26
610.343	9565.98
610.7	9625.41
611.057	9626.99
611.414	9580.21
611.771	9547.22
612.127	9621.12
612.484	9618.86
612.841	9666.99
613.198	9607.11
613.554	9603.94
613.911	9666.09
614.267	9713.77
614.624	9676.03
614.98	9632.42
615.337	9760.55
615.693	9704.28
616.05	9684.17
616.406	9722.13
616.762	9688.23
617.118	9672.64
617.475	9709.93
617.831	9722.36
618.187	9778.18
618.543	9763.71
618.899	9802.81
619.255	9781.79
619.611	9806.42
619.967	9778.85
620.323	9828.8
620.678	9726.43
621.034	9774.33
621.39	9799.19
621.746	9728.68
622.101	9786.99
622.457	9810.72
622.812	9766.88
623.168	9857.72
623.523	9869.47
623.879	9872.18
624.234	9760.77
624.589	9819.3
624.945	9851.85
625.3	9850.26
625.655	9829.25
626.01	9805.74
626.365	9796.93
626.72	9746.31
627.075	9771.62
627.43	9733.43
627.785	9772.53
628.14	9738.63
628.495	9771.62
628.85	9762.58
629.205	9697.27
629.559	9746.31
629.914	9709.7
630.269	9682.81
630.623	9733.88
630.978	9722.13
631.332	9749.02
631.687	9739.53
632.041	9669.25
632.396	9698.4
632.75	9627.9
633.104	9675.35
633.459	9618.86
633.813	9601.23
634.167	9614.79
634.521	9570.27
634.875	9653.88
635.229	9619.99
635.583	9557.84
635.937	9548.8
636.291	9566.2
636.645	9507.67
636.999	9521.01
637.352	9527.11
637.706	9538.86
638.06	9545.64
638.413	9452.31
638.767	9535.92
639.121	9475.81
639.474	9419.31
639.828	9415.02
640.181	9388.81
640.534	9446.66
640.888	9402.14
641.241	9320.56
641.594	9346.77
641.947	9435.36
642.301	9422.93
642.654	9407.11
643.007	9348.36
643.36	9328.92
643.713	9381.8
644.066	9397.85
644.419	9292.99
644.771	9273.78
645.124	9200.11
645.477	9168.7
645.83	9128.7
646.182	9064.52
646.535	9066.33
646.888	9057.74
647.24	9027.23
647.593	9100.23
647.945	9036.5
648.298	9015.71
648.65	8971.42
649.002	9015.48
649.355	8981.13
649.707	9003.96
650.059	9060.45
650.411	9165.76
650.763	9125.99
651.115	9247.34
651.467	9232.88
651.819	9227.68
652.171	9143.62
652.523	9153.33
652.875	9174.8
653.227	9126.21
653.578	9231.52
653.93	9229.71
654.282	9161.69
654.633	9175.03
654.985	9180.22
655.337	9203.95
655.688	9218.42
656.039	9244.86
656.391	9173.22
656.742	9207.79
657.094	9243.05
657.445	9262.26
657.796	9198.76
658.147	9252.54
658.498	9245.99
658.849	9300
659.2	9180.22
659.551	9167.8
659.902	9287.34
660.253	9203.95
660.604	9232.88
660.955	9210.51
661.306	9235.59
661.656	9205.99
662.007	9251.18
662.358	9280.79
662.708	9241.69
663.059	9251.64
663.409	9177.74
663.76	9309.71
664.11	9247.34
664.461	9222.71
664.811	9281.69
665.161	9268.13
665.511	9235.59
665.862	9260
666.212	9245.99
666.562	9321.01
666.912	9264.97
667.262	9248.25
667.612	9278.08
667.962	9268.81
668.312	9255.93
668.662	9294.8
669.011	9260.45
669.361	9153.11
669.711	9264.52
670.06	9231.97
670.41	9227
670.76	9259.09
671.109	9235.14
671.459	9168.93
671.808	9224.07
672.157	9253.9
672.507	9134.35
672.856	9190.39
673.205	9183.39
673.554	9210.73
673.904	9130.73
674.253	9147.46
674.602	9143.84
674.951	9010.06
675.3	9043.51
675.649	9155.37
675.998	9044.86
676.346	9096.39
676.695	9141.81
677.044	9047.8
677.393	9098.64
677.741	9122.15
678.09	9026.1
678.438	9078.76
678.787	9041.7
679.135	9031.98
679.484	9034.24
679.832	8990.85
680.181	8909.95
680.529	8934.36
680.877	8984.3
681.225	8947.24
681.573	9009.61
681.922	8897.29
682.27	8866.33
682.618	8916.05
682.966	8835.15
683.314	8891.42
683.661	8840.57
684.009	8826.56
684.357	8751.99
684.705	8792.44
685.053	8773.23
685.4	8779.33
685.748	8715.83
686.095	8668.37
686.443	8645.78
686.79	8709.05
687.138	8688.49
687.485	8664.53
687.832	8658.88
688.18	8646.23
688.527	8589.96
688.874	8591.31
689.221	8467.02
689.568	8521.71
689.915	8507.93
690.262	8459.57
690.609	8527.13
690.956	8370.3
691.303	8405.33
691.65	8416.63
691.997	8385.22
692.344	8293.47
692.69	8253.47
693.037	8258.67
693.383	8217.99
693.73	8228.61
694.077	8155.17
694.423	8179.35
694.769	8096.41
695.116	8112.23
695.462	8110.65
695.808	8043.98
696.155	8025.68
696.501	7940.03
696.847	8016.41
697.193	7959.24
697.539	7914.72
697.885	7873.59
698.231	7828.62
698.577	7804.44
698.923	7789.75
699.269	7756.99
699.614	7671.79
699.96	7659.36
700.306	7675.41
700.651	7622.53
700.997	7588.63
701.342	7567.39
701.688	7572.81
702.033	7529.65
702.379	7540.49
702.724	7486.48
703.069	7514.51
703.415	7412.36
703.76	7417.56
704.105	7441.06
704.45	7416.43
704.795	7340.05
705.14	7348.63
705.485	7321.06
705.83	7237.9
706.175	7241.07
706.52	7201.07
706.865	7234.97
707.209	7195.64
707.554	7153.61
707.899	7159.94
708.243	7181.86
708.588	7118.36
708.932	7082.88
709.277	7062.09
709.621	7075.87
709.966	7051.02
710.31	7083.78
710.654	6989.55
710.998	7000.85
711.342	6994.97
711.687	7001.3
712.031	6928.76
712.375	6904.58
712.719	6944.8
713.063	6879.04
713.407	6913.39
713.75	6841.08
714.094	6867.97
714.438	6804.24
714.782	6840.85
715.125	6769.21
715.469	6817.57
715.812	6793.85
716.156	6718.59
716.499	6787.97
716.843	6747.97
717.186	6724.02
717.53	6731.02
717.873	6736.22
718.216	6734.41
718.559	6702.78
718.902	6642.44
719.246	6673.4
719.589	6603.57
719.932	6611.03
720.275	6601.99
720.617	6604.25
720.96	6628.88
721.303	6632.5
721.646	6625.26
721.989	6584.13
722.331	6581.42
722.674	6613.96
723.016	6561.54
723.359	6594.76
723.701	6597.92
724.044	6545.27
724.386	6552.5
724.729	6547.75
725.071	6588.43
725.413	6546.4
725.755	6535.1
726.097	6510.92
726.439	6503.68
726.782	6480.41
727.124	6502.33
727.465	6510.46
727.807	6478.6
728.149	6434.08
728.491	6443.12
728.833	6512.27
729.175	6461.2
729.516	6509.79
729.858	6418.49
730.199	6468.21
730.541	6483.57
730.882	6419.62
731.224	6503.23
731.565	6414.87
731.906	6509.11
732.248	6541.42
732.589	6421.43
732.93	6428.21
733.271	6418.04
733.612	6399.28
733.953	6429.56
734.294	6416.68
734.635	6406.74
734.976	6485.38
735.317	6425.72
735.658	6451.48
735.999	6420.75
736.339	6434.53
736.68	6517.02
737.021	6450.8
737.361	6435.44
737.702	6499.62
738.042	6414.87
738.383	6440.41
738.723	6469.79
739.063	6463.69
739.404	6536.45
739.744	6513.18
740.084	6527.64
740.424	6550.46
740.764	6507.98
741.104	6559.95
741.444	6574.42
741.784	6572.61
742.124	6576.9
742.464	6591.37
742.804	6601.99
743.143	6623.23
743.483	6649.44
743.823	6641.08
744.162	6703.68
744.502	6686.73
744.841	6652.61
745.181	6783.9
745.52	6775.77
745.86	6785.49
746.199	6819.83
746.538	6891.7
746.877	6912.26
747.216	6921.53
747.556	6985.03
747.895	7067.96
748.234	7046.95
748.573	7148.19
748.911	7134.4
749.25	7195.42
749.589	7249.43
749.928	7318.13
750.267	7399.71
750.605	7438.35
750.944	7546.37
751.283	7538.23
751.621	7714.27
751.96	7785.91
752.298	7832.92
752.636	7984.78
752.975	7967.38
753.313	8056.41
753.651	8194.04
753.989	8225.67
754.327	8335.05
754.666	8414.37
755.004	8640.13
755.342	8651.88
755.679	8807.81
756.017	8902.49
756.355	9083.73
756.693	9183.39
757.031	9425.42
757.368	9458.18
757.706	9604.85
758.044	9801.45
758.381	9885.52
758.719	10014.1
759.056	10174.1
759.394	10337.48
759.731	10492.96
760.068	10688.89
760.405	10855.21
760.743	11047.29
761.08	11186.27
761.417	11266.95
761.754	11464.46
762.091	11657.9
762.428	11803.21
762.765	12002.07
763.102	12121.62
763.438	12252.69
763.775	12445.68
764.112	12666.01
764.449	12853.57
764.785	12950.97
765.122	13073.91
765.458	13250.4
765.795	13415.59
766.131	13635.25
766.467	13783.04
766.804	13857.84
767.14	14007.22
767.476	14185.06
