Data from hue_270_FLMS001491_00086.txt Node
Date: Tue Feb 07 15:57:49 GMT 2017
User: dcchb
Spectrometer: FLMS00149
Trigger mode: 0
Integration Time (sec): 2.000000E-2
Scans to average: 10
Electric dark correction enabled: true
Nonlinearity correction enabled: false
Boxcar width: 0
XAxis mode: Wavelengths
Number of Pixels in Spectrum: 2048
>>>>>Begin Spectral Data<<<<<
341.393	-10.72
341.776	-10.72
342.16	-10.72
342.543	-46.88
342.927	-77.16
343.31	-81
343.693	-83.94
344.077	-58.85
344.46	-66.99
344.843	-43.04
345.226	-47.33
345.61	-12.3
345.993	-27.44
346.376	-8.69
346.759	3.97
347.142	27.7
347.525	44.65
347.908	72.89
348.291	87.13
348.674	86.45
349.057	106.79
349.44	139.56
349.823	156.06
350.206	163.51
350.588	196.05
350.971	194.47
351.354	217.97
351.737	221.82
352.119	230.63
352.502	259.78
352.884	274.92
353.267	268.82
353.65	300.91
354.032	277.18
354.414	309.05
354.797	301.81
355.179	316.95
355.562	308.82
355.944	293
356.326	344.3
356.709	316.73
357.091	314.92
357.473	331.87
357.855	348.14
358.238	315.15
358.62	342.49
359.002	330.06
359.384	350.85
359.766	327.12
360.148	354.02
360.53	344.98
360.912	323.51
361.294	317.18
361.676	336.16
362.057	322.83
362.439	323.28
362.821	322.83
363.203	328.25
363.584	321.02
363.966	325.32
364.348	323.06
364.729	312.21
365.111	328.93
365.493	332.55
365.874	316.28
366.256	311.76
366.637	314.47
367.019	314.47
367.4	309.72
367.781	323.73
368.163	319.67
368.544	313.34
368.925	317.86
369.306	328.71
369.688	319.89
370.069	309.5
370.45	315.83
370.831	308.59
371.212	304.98
371.593	324.19
371.974	302.49
372.355	312.21
372.736	310.4
373.117	310.4
373.498	334.58
373.879	312.89
374.26	333.23
374.641	307.92
375.021	319.67
375.402	316.5
375.783	323.51
376.163	333.45
376.544	327.58
376.925	327.8
377.305	339.1
377.686	318.31
378.066	335.26
378.447	329.38
378.827	330.29
379.208	344.52
379.588	313.34
379.968	347.46
380.349	337.97
380.729	334.58
381.109	327.58
381.489	339.78
381.87	354.24
382.25	341.59
382.63	350.17
383.01	323.73
383.39	332.32
383.77	334.13
384.15	347.01
384.53	342.94
384.91	317.18
385.29	366.45
385.67	352.43
386.049	359.67
386.429	342.04
386.809	340.68
387.189	351.53
387.568	350.63
387.948	370.06
388.328	353.11
388.707	350.17
389.087	364.86
389.466	377.52
389.846	373.45
390.225	363.28
390.605	372.09
390.984	362.15
391.363	378.2
391.743	356.05
392.122	374.13
392.501	372.77
392.881	387.24
393.26	375.48
393.639	376.16
394.018	367.58
394.397	368.03
394.776	392.89
395.155	377.97
395.534	417.74
395.913	377.07
396.292	403.73
396.671	397.63
397.05	396.5
397.429	399.44
397.808	397.86
398.186	434.24
398.565	422.49
398.944	419.55
399.323	413.22
399.701	406.44
400.08	414.35
400.458	404.41
400.837	423.17
401.215	421.36
401.594	427.69
401.972	432.88
402.351	431.98
402.729	427.91
403.107	424.97
403.486	430.4
403.864	434.92
404.242	448.48
404.62	435.37
404.999	461.81
405.377	474.24
405.755	447.8
406.133	456.39
406.511	450.51
406.889	462.94
407.267	473.79
407.645	458.65
408.023	471.3
408.401	460.45
408.779	495.71
409.156	491.87
409.534	491.19
409.912	515.14
410.29	507.91
410.667	516.5
411.045	518.31
411.422	521.92
411.8	539.1
412.178	562.15
412.555	561.02
412.933	562.82
413.31	565.76
413.687	564.18
414.065	563.05
414.442	584.52
414.819	584.74
415.197	578.87
415.574	592.88
415.951	628.81
416.328	637.62
416.705	601.47
417.082	611.64
417.46	630.39
417.837	637.85
418.214	642.37
418.591	638.08
418.967	662.26
419.344	636.04
419.721	669.04
420.098	701.13
420.475	693.44
420.852	695.48
421.228	720.79
421.605	718.75
421.982	729.6
422.358	723.5
422.735	762.82
423.111	754.68
423.488	764.85
423.864	763.27
424.241	770.05
424.617	793.33
424.994	801.01
425.37	822.7
425.746	831.74
426.123	831.07
426.499	816.83
426.875	852.08
427.251	866.55
427.627	885.98
428.003	905.19
428.379	900.44
428.756	910.39
429.132	916.94
429.507	927.79
429.883	930.72
430.259	941.35
430.635	947.45
431.011	972.08
431.387	968.46
431.763	989.71
432.138	994.45
432.514	1000.78
432.89	1031.06
433.265	1063.83
433.641	1092.3
434.016	1081.68
434.392	1108.12
434.767	1103.83
435.143	1114.67
435.518	1146.09
435.894	1157.16
436.269	1170.94
436.644	1177.95
437.02	1205.52
437.395	1231.73
437.77	1226.54
438.145	1243.94
438.52	1299.98
438.895	1271.73
439.271	1309.7
439.646	1331.17
440.021	1323.71
440.395	1373.42
440.77	1343.14
441.145	1349.02
441.52	1402.8
441.895	1381.56
442.27	1418.39
442.645	1377.27
443.019	1452.52
443.394	1426.08
443.769	1460.88
444.143	1449.13
444.518	1469.69
444.892	1474.21
445.267	1500.2
445.641	1490.03
446.016	1488.22
446.39	1558.05
446.764	1510.6
447.139	1510.6
447.513	1536.58
447.887	1549.01
448.262	1573.42
448.636	1556.24
449.01	1603.93
449.384	1600.99
449.758	1582.01
450.132	1627.2
450.506	1640.08
450.88	1652.74
451.254	1648.45
451.628	1649.35
452.002	1674.66
452.376	1703.81
452.75	1723.25
453.123	1710.59
453.497	1755.56
453.871	1774.54
454.244	1752.4
454.618	1777.71
454.992	1789.23
455.365	1798.27
455.739	1824.49
456.112	1853.19
456.486	1870.81
456.859	1882.79
457.232	1895.44
457.606	1925.5
457.979	1916.46
458.352	1979.06
458.725	1960.53
459.099	1972.28
459.472	2043.46
459.845	2036.91
460.218	2055.89
460.591	2075.33
460.964	2057.7
461.337	2101.99
461.71	2116.46
462.083	2155.32
462.456	2186.06
462.829	2174.53
463.201	2232.16
463.574	2211.82
463.947	2261.99
464.32	2285.49
464.692	2312.61
465.065	2323.23
465.438	2328.88
465.81	2376.56
466.183	2372.27
466.555	2396.9
466.928	2415.2
467.3	2437.8
467.672	2483.45
468.045	2502.21
468.417	2514.86
468.789	2529.1
469.161	2571.81
469.534	2584.47
469.906	2637.8
470.278	2644.58
470.65	2687.51
471.022	2741.07
471.394	2741.75
471.766	2715.99
472.138	2778.59
472.51	2820.84
472.882	2857
473.253	2905.14
473.625	2941.97
473.997	2984.68
474.369	2980.61
474.74	3001.4
475.112	3063.32
475.484	3130.44
475.855	3162.3
476.227	3161.85
476.598	3250.89
476.97	3244.34
477.341	3279.14
477.713	3384.9
478.084	3340.83
478.455	3478.45
478.827	3464.89
479.198	3534.72
479.569	3567.94
479.94	3592.8
480.311	3665.12
480.682	3669.64
481.053	3786.69
481.424	3827.37
481.795	3832.79
482.166	3917.09
482.537	3937.2
482.908	3986.69
483.279	4003.64
483.65	4071.66
484.021	4164.54
484.391	4125.22
484.762	4167.93
485.133	4229.39
485.503	4275.04
485.874	4306.23
486.244	4418.77
486.615	4442.5
486.985	4475.04
487.356	4519.33
487.726	4552.32
488.097	4630.51
488.467	4687.24
488.837	4774.69
489.207	4746.22
489.578	4842.94
489.948	4834.8
490.318	4923.16
490.688	4941.92
491.058	4968.81
491.428	5063.27
491.798	5103.5
492.168	5136.49
492.538	5231.18
492.908	5241.12
493.278	5257.16
493.648	5245.86
494.017	5265.53
494.387	5339.2
494.757	5362.47
495.126	5430.72
495.496	5379.65
495.866	5446.76
496.235	5494.67
496.605	5553.65
496.974	5570.6
497.344	5623.03
497.713	5612.86
498.082	5652.41
498.452	5632.75
498.821	5722.01
499.19	5671.62
499.559	5763.14
499.928	5764.27
500.298	5803.82
500.667	5891.72
501.036	5842.01
501.405	5887.88
501.774	5918.39
502.143	5944.83
502.512	5911.16
502.88	5991.83
503.249	5927.43
503.618	6009.69
503.987	5964.04
504.356	5997.03
504.724	5995.9
505.093	6095.33
505.462	6100.31
505.83	6091.72
506.199	6095.79
506.567	6192.73
506.936	6224.82
507.304	6240.64
507.672	6208.55
508.041	6289.45
508.409	6274.99
508.777	6330.58
509.145	6335.33
509.514	6393.18
509.882	6361.99
510.25	6366.29
510.618	6388.89
510.986	6414.65
511.354	6498.71
511.722	6437.02
512.09	6516.79
512.458	6457.36
512.826	6493.29
513.193	6496
513.561	6460.3
513.929	6616
514.297	6629.56
514.664	6632.04
515.032	6651.93
515.4	6663.68
515.767	6670.23
516.135	6662.1
516.502	6608.31
516.869	6713.62
517.237	6778.48
517.604	6667.75
517.972	6792.94
518.339	6714.3
518.706	6782.55
519.073	6773.96
519.44	6799.5
519.808	6856.67
520.175	6857.8
520.542	6874.75
520.909	6873.39
521.276	6890.79
521.643	6918.14
522.009	6923.56
522.376	6962.43
522.743	6969.44
523.11	6992.71
523.477	6995.42
523.843	7032.03
524.21	7137.79
524.577	7113.84
524.943	7143.44
525.31	7136.89
525.676	7209.2
526.043	7168.98
526.409	7224.34
526.776	7206.72
527.142	7249.65
527.508	7322.65
527.874	7302.08
528.241	7377.79
528.607	7296.43
528.973	7359.93
529.339	7343.66
529.705	7390.22
530.071	7485.13
530.437	7475.86
530.803	7541.85
531.169	7505.01
531.535	7472.47
531.901	7516.99
532.267	7526.71
532.632	7538.46
532.998	7580.72
533.364	7644.22
533.73	7594.5
534.095	7640.38
534.461	7643.54
534.826	7589.31
535.192	7625.01
535.557	7669.76
535.923	7660.04
536.288	7691.9
536.653	7725.57
537.019	7695.74
537.384	7672.47
537.749	7729.87
538.114	7726.03
538.479	7726.25
538.845	7773.26
539.21	7714.73
539.575	7753.37
539.94	7744.56
540.305	7788.85
540.67	7834.05
541.034	7759.02
541.399	7758.12
541.764	7779.36
542.129	7814.61
542.494	7871.33
542.858	7805.35
543.223	7830.88
543.587	7886.93
543.952	7862.75
544.316	7848.06
544.681	7818
545.045	7970.99
545.41	7867.04
545.774	7916.08
546.138	7873.37
546.503	7888.73
546.867	7935.74
547.231	8000.82
547.595	8022.97
547.959	7989.3
548.324	7926.7
548.688	8007.83
549.052	7978.67
549.416	7914.95
549.779	7967.83
550.143	7980.48
550.507	8034.04
550.871	7978.9
551.235	8063.19
551.599	8066.13
551.962	8063.19
552.326	8046.47
552.689	8101.83
553.053	8007.37
553.417	8097.99
553.78	8198.33
554.143	8083.53
554.507	8173.02
554.87	8072.91
555.234	8219.57
555.597	8163.98
555.96	8190.87
556.323	8221.83
556.686	8167.37
557.05	8251.89
557.413	8302.73
557.776	8213.47
558.139	8334.37
558.502	8257.76
558.865	8310.64
559.228	8336.18
559.59	8337.99
559.953	8283.98
560.316	8465.89
560.679	8373.24
561.041	8501.82
561.404	8459.11
561.767	8518.55
562.129	8563.29
562.492	8566.68
562.854	8574.14
563.217	8591.99
563.579	8629.96
563.941	8716.28
564.304	8643.52
564.666	8740.46
565.028	8683.29
565.39	8689.62
565.753	8733.46
566.115	8812.32
566.477	8919.44
566.839	8860.01
567.201	8947.69
567.563	8906.33
567.925	9048.02
568.287	8992.43
568.648	9024.97
569.01	9036.27
569.372	9057.52
569.734	9093
570.095	9137.51
570.457	9143.39
570.819	9138.87
571.18	9236.27
571.542	9264.06
571.903	9203.27
572.265	9307.9
572.626	9346.1
572.987	9376.6
573.349	9388.81
573.71	9389.03
574.071	9442.36
574.432	9497.05
574.794	9567.79
575.155	9552.64
575.516	9519.88
575.877	9603.94
576.238	9637.39
576.599	9596.48
576.96	9678.06
577.32	9678.97
577.681	9761
578.042	9695.69
578.403	9830.38
578.763	9815.69
579.124	9777.72
579.485	9827.67
579.845	9914.67
580.206	9993.31
580.566	9942.24
580.927	10004.61
581.287	9989.47
581.648	10029.24
582.008	10093.2
582.368	10072.4
582.728	10142.01
583.089	10134.1
583.449	10168.67
583.809	10147.66
584.169	10222.01
584.529	10217.94
584.889	10346.97
585.249	10248.9
585.609	10280.08
585.969	10311.72
586.329	10360.98
586.688	10376.35
587.048	10367.99
587.408	10450.02
587.768	10451.38
588.127	10457.71
588.487	10445.73
588.846	10535.44
589.206	10523.01
589.565	10608.44
589.925	10643.01
590.284	10571.83
590.643	10710.58
591.003	10596.23
591.362	10666.97
591.721	10714.2
592.08	10725.95
592.44	10729.34
592.799	10778.6
593.158	10783.35
593.517	10817.7
593.876	10870.8
594.235	10846.4
594.593	10851.37
594.952	10873.29
595.311	10860.41
595.67	10810.24
596.029	11007.97
596.387	10946.51
596.746	11077.35
597.104	10956.45
597.463	11007.3
597.822	11029.89
598.18	10984.25
598.538	11078.25
598.897	11156.67
599.255	11044.58
599.613	11110.34
599.972	11044.36
600.33	11109.44
600.688	11070.34
601.046	11122.55
601.404	11258.36
601.762	11190.79
602.12	11221.3
602.478	11278.25
602.836	11216.33
603.194	11173.62
603.552	11243.22
603.91	11223.33
604.268	11268.31
604.625	11231.47
604.983	11207.52
605.341	11243.45
605.698	11312.37
606.056	11339.26
606.413	11311.92
606.771	11361.86
607.128	11406.61
607.485	11370.68
607.843	11407.96
608.2	11412.48
608.557	11469.88
608.914	11440.28
609.272	11352.37
609.629	11486.6
609.986	11568.41
610.343	11473.27
610.7	11546.72
611.057	11553.04
611.414	11528.64
611.771	11586.49
612.127	11574.29
612.484	11649.09
612.841	11648.18
613.198	11560.05
613.554	11588.52
613.911	11688.18
614.267	11619.48
614.624	11637.11
614.98	11645.47
615.337	11776.09
615.693	11739.48
616.05	11795.52
616.406	11724.34
616.762	11680.95
617.118	11701.97
617.475	11700.16
617.831	11787.61
618.187	11762.76
618.543	11818.57
618.899	11867.39
619.255	11865.35
619.611	11834.84
619.967	11803.66
620.323	11793.94
620.678	11867.61
621.034	11816.09
621.39	11790.1
621.746	11803.43
622.101	11903.32
622.457	11790.78
622.812	11770.44
623.168	11899.25
623.523	11878.46
623.879	11836.65
624.234	11811.57
624.589	11858.12
624.945	11898.12
625.3	11817.9
625.655	11866.48
626.01	11856.76
626.365	11852.47
626.72	11889.76
627.075	11814.96
627.43	11853.37
627.785	11813.6
628.14	11860.15
628.495	11912.36
628.85	11785.81
629.205	11835.07
629.559	11789.65
629.914	11743.1
630.269	11800.27
630.623	11748.97
630.978	11734.51
631.332	11762.98
631.687	11788.97
632.041	11724.56
632.396	11777.44
632.75	11734.06
633.104	11753.49
633.459	11657.45
633.813	11670.55
634.167	11619.03
634.521	11660.61
634.875	11699.93
635.229	11699.25
635.583	11628.52
635.937	11651.35
636.291	11617.22
636.645	11593.27
636.999	11545.81
637.352	11534.06
637.706	11506.49
638.06	11545.59
638.413	11551.46
638.767	11537.45
639.121	11482.09
639.474	11433.27
639.828	11439.37
640.181	11495.42
640.534	11434.63
640.888	11386.04
641.241	11365.03
641.594	11410.67
641.947	11511.46
642.301	11404.57
642.654	11379.71
643.007	11345.14
643.36	11382.43
643.713	11314.41
644.066	11366.83
644.419	11277.57
644.771	11284.58
645.124	11171.36
645.477	11147.4
645.83	11062.21
646.182	11043.68
646.535	11028.76
646.888	11032.83
647.24	10961.87
647.593	10969.33
647.945	10955.55
648.298	10897.92
648.65	10924.59
649.002	10894.08
649.355	10955.32
649.707	10942.44
650.059	10993.06
650.411	11125.94
650.763	11166.39
651.115	11205.71
651.467	11164.35
651.819	11249.1
652.171	11163.68
652.523	11089.1
652.875	11177.01
653.227	11085.49
653.578	11179.49
653.93	11189.66
654.282	11074.86
654.633	11167.74
654.985	11197.57
655.337	11130.46
655.688	11161.87
656.039	11243.9
656.391	11105.37
656.742	11179.95
657.094	11180.85
657.445	11256.1
657.796	11164.13
658.147	11131.81
658.498	11168.87
658.849	11235.31
659.2	11179.49
659.551	11159.61
659.902	11188.53
660.253	11180.17
660.604	11169.32
660.955	11112.6
661.306	11222.88
661.656	11173.17
662.007	11191.92
662.358	11204.8
662.708	11179.27
663.059	11148.31
663.409	11127.97
663.76	11172.04
664.11	11120.96
664.461	11210.23
664.811	11138.14
665.161	11197.35
665.511	11191.25
665.862	11174.75
666.212	11213.39
666.562	11243
666.912	11228.98
667.262	11137.24
667.612	11190.57
667.962	11185.14
668.312	11210
668.662	11311.47
669.011	11151.7
669.361	11084.81
669.711	11141.76
670.06	11110.8
670.41	11111.02
670.76	11114.64
671.109	11166.84
671.459	11067.41
671.808	11050.01
672.157	11097.69
672.507	11077.35
672.856	11033.51
673.205	11045.71
673.554	11074.19
673.904	11059.95
674.253	11127.29
674.602	11081.42
674.951	10940.18
675.3	10844.14
675.649	11024.47
675.998	11002.78
676.346	10997.58
676.695	11032.15
677.044	10907.41
677.393	10934.3
677.741	10928.88
678.09	10991.93
678.438	10900.63
678.787	10935.88
679.135	10918.94
679.484	10877.58
679.832	10869.45
680.181	10873.06
680.529	10856.56
680.877	10809.79
681.225	10796.23
681.573	10834.42
681.922	10794.19
682.27	10733.4
682.618	10744.7
682.966	10684.82
683.314	10779.96
683.661	10740.41
684.009	10640.53
684.357	10645.27
684.705	10580.19
685.053	10619.96
685.4	10590.81
685.748	10511.94
686.095	10474.2
686.443	10455.67
686.79	10457.48
687.138	10505.16
687.485	10492.05
687.832	10389.23
688.18	10487.31
688.527	10333.41
688.874	10365.96
689.221	10260.65
689.568	10249.12
689.915	10266.98
690.262	10194.44
690.609	10191.5
690.956	10163.93
691.303	10156.02
691.65	10118.73
691.997	10078.51
692.344	10020.43
692.69	10078.28
693.037	10010.94
693.383	9926.19
693.73	9916.93
694.077	9873.31
694.423	9866.76
694.769	9839.64
695.116	9804.39
695.462	9843.03
695.808	9743.83
696.155	9763.49
696.501	9698.63
696.847	9697.27
697.193	9669.25
697.539	9717.39
697.885	9537.73
698.231	9518.29
698.577	9525.3
698.923	9458.41
699.269	9501.35
699.614	9418.64
699.96	9373.89
700.306	9384.06
700.651	9341.12
700.997	9314.01
701.342	9302.48
701.688	9295.02
702.033	9206.44
702.379	9241.01
702.724	9136.38
703.069	9110.62
703.415	9069.72
703.76	9107.01
704.105	9025.2
704.45	8973
704.795	9020.68
705.14	8911.76
705.485	8925.09
705.83	8917.86
706.175	8830.18
706.52	8832.21
706.865	8832.21
707.209	8701.82
707.554	8727.58
707.899	8785.21
708.243	8759.9
708.588	8682.16
708.932	8628.37
709.277	8669.73
709.621	8639.45
709.966	8607.81
710.31	8609.62
710.654	8502.95
710.998	8536.85
711.342	8525.55
711.687	8521.48
712.031	8414.37
712.375	8388.16
712.719	8395.84
713.063	8437.42
713.407	8392
713.75	8372.11
714.094	8325.56
714.438	8354.03
714.782	8333.92
715.125	8237.42
715.469	8359.68
715.812	8255.05
716.156	8203.98
716.499	8199.69
716.843	8234.26
717.186	8216.63
717.53	8251.89
717.873	8270.19
718.216	8204.21
718.559	8186.13
718.902	8098.45
719.246	8198.78
719.589	8119.69
719.932	8145
720.275	8122.4
720.617	8110.2
720.96	8116.75
721.303	8072.46
721.646	8111.78
721.989	8019.35
722.331	8061.16
722.674	8059.58
723.016	8089.63
723.359	8027.71
723.701	8022.06
724.044	7965.12
724.386	7940.71
724.729	8024.77
725.071	7904.78
725.413	7986.13
725.755	8014.15
726.097	7846.02
726.439	7875.63
726.782	7934.38
727.124	7951.1
727.465	7918.11
727.807	7892.8
728.149	7899.13
728.491	7924.66
728.833	7879.92
729.175	7907.04
729.516	7895.74
729.858	7901.84
730.199	7850.09
730.541	7863.65
730.882	7904.1
731.224	7966.02
731.565	7798.11
731.906	7858.23
732.248	7853.93
732.589	7833.82
732.93	7793.14
733.271	7867.72
733.612	7772.13
733.953	7815.29
734.294	7836.08
734.635	7757.89
734.976	7840.37
735.317	7881.05
735.658	7834.5
735.999	7789.98
736.339	7822.52
736.68	7857.77
737.021	7779.81
737.361	7835.18
737.702	7880.15
738.042	7800.6
738.383	7769.41
738.723	7799.02
739.063	7867.94
739.404	7885.34
739.744	7835.4
740.084	7816.87
740.424	7878.79
740.764	7811.67
741.104	7963.99
741.444	7828.62
741.784	7833.14
742.124	7883.08
742.464	7916.98
742.804	7968.51
743.143	7963.08
743.483	7968.96
743.823	7972.12
744.162	7927.83
744.502	7967.15
744.841	7963.76
745.181	8043.98
745.52	8097.09
745.86	8105
746.199	8099.12
746.538	8135.05
746.877	8228.39
747.216	8249.18
747.556	8254.37
747.895	8297.99
748.234	8300.25
748.573	8314.71
748.911	8469.96
749.25	8462.5
749.589	8553.57
749.928	8550.18
750.267	8668.6
750.605	8685.1
750.944	8766.45
751.283	8815.26
751.621	8925.99
751.96	8931.87
752.298	9011.64
752.636	9057.97
752.975	9161.69
753.313	9234.46
753.651	9339.99
753.989	9367.11
754.327	9504.06
754.666	9600.33
755.004	9731.85
755.342	9803.26
755.679	9959.19
756.017	10104.04
756.355	10237.82
756.693	10302.68
757.031	10500.87
757.368	10541.09
757.706	10697.25
758.044	10833.29
758.381	10978.6
758.719	11132.26
759.056	11320.51
759.394	11368.42
759.731	11538.13
760.068	11652.25
760.405	11775.86
760.743	11993.94
761.08	12112.8
761.417	12268.96
761.754	12434.83
762.091	12566.58
762.428	12768.6
762.765	12830.98
763.102	13045.66
