Data from hue_320_FLMS001491_50.txt Node
Date: Mon Feb 06 15:47:16 GMT 2017
User: dcchb
Spectrometer: FLMS00149
Trigger mode: 0
Integration Time (sec): 2.000000E-2
Scans to average: 10
Electric dark correction enabled: true
Nonlinearity correction enabled: false
Boxcar width: 0
XAxis mode: Wavelengths
Number of Pixels in Spectrum: 2048
>>>>>Begin Spectral Data<<<<<
341.393	-24.58
341.776	-24.58
342.16	-24.58
342.543	-64.57
342.927	-67.51
343.31	-70.22
343.693	-67.74
344.077	-73.84
344.46	-52.6
344.843	-46.5
345.226	-39.72
345.61	-35.87
345.993	-28.64
346.376	-6.95
346.759	14.97
347.142	29.66
347.525	39.83
347.908	70.79
348.291	72.14
348.674	82.54
349.057	112.14
349.44	123.67
349.823	126.83
350.206	157.34
350.588	180.84
350.971	215.42
351.354	220.39
351.737	255.87
352.119	251.35
352.502	261.74
352.884	242.76
353.267	274.4
353.65	290.9
354.032	287.05
354.414	287.73
354.797	319.37
355.179	324.79
355.562	308.3
355.944	329.77
356.326	331.57
356.709	321.86
357.091	333.83
357.473	353.72
357.855	338.58
358.238	356.66
358.62	318.69
359.002	332.03
359.384	355.3
359.766	331.12
360.148	322.31
360.53	332.93
360.912	339.26
361.294	343.1
361.676	318.69
362.057	337
362.439	305.59
362.821	319.37
363.203	299.26
363.584	304.91
363.966	332.03
364.348	325.92
364.729	302.42
365.111	296.55
365.493	311.91
365.874	334.51
366.256	298.81
366.637	321.18
367.019	318.92
367.4	300.84
367.781	321.4
368.163	316.21
368.544	319.37
368.925	293.61
369.306	308.75
369.688	311.01
370.069	314.85
370.45	314.17
370.831	303.33
371.212	289.09
371.593	308.07
371.974	306.72
372.355	297.9
372.736	315.98
373.117	331.57
373.498	321.63
373.879	324.12
374.26	303.33
374.641	302.42
375.021	310.78
375.402	294.51
375.783	305.36
376.163	317.56
376.544	334.96
376.925	323.21
377.305	311.23
377.686	306.72
378.066	321.18
378.447	327.28
378.827	325.02
379.208	320.05
379.588	329.54
379.968	327.96
380.349	320.73
380.729	308.52
381.109	325.7
381.489	315.98
381.87	324.79
382.25	308.75
382.63	338.8
383.01	339.26
383.39	355.08
383.77	322.99
384.15	329.31
384.53	329.09
384.91	339.26
385.29	332.03
385.67	325.47
386.049	331.12
386.429	321.18
386.809	312.14
387.189	339.26
387.568	347.84
387.948	346.71
388.328	337.45
388.707	376.32
389.087	346.04
389.466	356.21
389.846	357.34
390.225	360.27
390.605	349.65
390.984	376.77
391.363	353.95
391.743	351.46
392.122	374.28
392.501	364.34
392.881	364.57
393.26	365.24
393.639	360.27
394.018	365.24
394.397	367.96
394.776	381.06
395.155	375.41
395.534	373.38
395.913	381.97
396.292	383.55
396.671	387.84
397.05	371.57
397.429	384.91
397.808	358.69
398.186	377
398.565	380.84
398.944	368.63
399.323	376.09
399.701	362.08
400.08	381.06
400.458	388.97
400.837	386.49
401.215	390.55
401.594	399.59
401.972	405.47
402.351	387.62
402.729	402.31
403.107	405.47
403.486	406.6
403.864	411.35
404.242	419.48
404.62	405.02
404.999	418.58
405.377	411.8
405.755	415.41
406.133	419.25
406.511	422.64
406.889	414.51
407.267	419.93
407.645	432.59
408.023	426.94
408.401	443.66
408.779	457.22
409.156	451.57
409.534	451.12
409.912	454.51
410.29	447.5
410.667	461.29
411.045	456.54
411.422	477.78
411.8	462.42
412.178	506.26
412.555	505.35
412.933	494.28
413.31	491.79
413.687	506.71
414.065	527.5
414.442	514.62
414.819	527.5
415.197	536.09
415.574	541.74
415.951	539.25
416.328	562.98
416.705	562.08
417.082	549.42
417.46	550.78
417.837	568.86
418.214	583.54
418.591	577.67
418.967	589.65
419.344	600.94
419.721	607.05
420.098	592.81
420.475	616.54
420.852	623.77
421.228	627.61
421.605	603.88
421.982	640.04
422.358	608.18
422.735	641.62
423.111	641.4
423.488	639.14
423.864	669.87
424.241	681.62
424.617	671.45
424.994	685.69
425.37	688.63
425.746	706.93
426.123	686.59
426.499	712.13
426.875	694.5
427.251	719.13
427.627	729.3
428.003	743.09
428.379	729.53
428.756	746.03
429.132	759.36
429.507	754.84
429.883	762.97
430.259	760.71
430.635	795.52
431.011	788.06
431.387	804.1
431.763	801.62
432.138	803.88
432.514	814.95
432.89	818.34
433.265	828.96
433.641	860.37
434.016	861.28
434.392	865.12
434.767	901.73
435.143	893.82
435.518	874.16
435.894	900.82
436.269	931.78
436.644	931.11
437.02	919.81
437.395	941.95
437.77	956.42
438.145	973.36
438.52	958.68
438.895	951.9
439.271	962.07
439.646	971.78
440.021	970.65
440.395	995.28
440.77	989.86
441.145	1023.31
441.52	1015.85
441.895	1015.85
442.27	1010.65
442.645	1037.77
443.019	1046.58
443.394	1030.09
443.769	1057.66
444.143	1043.64
444.518	1059.01
444.892	1057.2
445.267	1056.3
445.641	1079.58
446.016	1058.56
446.39	1063.31
446.764	1069.86
447.139	1073.02
447.513	1075.28
447.887	1075.73
448.262	1095.39
448.636	1093.14
449.01	1092.91
449.384	1113.93
449.758	1117.09
450.132	1111.67
450.506	1093.36
450.88	1112.57
451.254	1099.69
451.628	1147.14
452.002	1140.37
452.376	1139.24
452.75	1151.21
453.123	1156.18
453.497	1172.46
453.871	1169.52
454.244	1190.53
454.618	1172.23
454.992	1199.35
455.365	1194.15
455.739	1238.22
456.112	1213.58
456.486	1229.63
456.859	1219.23
457.232	1256.07
457.606	1214.94
457.979	1227.59
458.352	1259.91
458.725	1280.25
459.099	1280.47
459.472	1320.02
459.845	1299.91
460.218	1302.4
460.591	1336.74
460.964	1349.17
461.337	1331.09
461.71	1353.47
462.083	1385.56
462.456	1362.28
462.829	1358.89
463.201	1393.92
463.574	1389.85
463.947	1398.89
464.32	1448.38
464.692	1401.83
465.065	1440.92
465.438	1450.87
465.81	1465.1
466.183	1450.64
466.555	1488.6
466.928	1486.8
467.3	1493.8
467.672	1482.05
468.045	1513.46
468.417	1527.02
468.789	1565.67
469.161	1534.93
469.534	1592.11
469.906	1600.47
470.278	1602.5
470.65	1667.36
471.022	1616.74
471.394	1634.59
471.766	1639.34
472.138	1696.06
472.51	1703.29
472.882	1748.49
473.253	1723.85
473.625	1760.69
473.997	1760.01
474.369	1797.3
474.74	1824.87
475.112	1803.85
475.484	1841.14
475.855	1840.23
476.227	1852.21
476.598	1921.14
476.97	1909.16
477.341	1913.9
477.713	1965.65
478.084	1966.56
478.455	2006.11
478.827	2032.77
479.198	2056.05
479.569	2046.56
479.94	2051.53
480.311	2099.21
480.682	2166.33
481.053	2184.18
481.424	2189.6
481.795	2223.73
482.166	2237.06
482.537	2236.16
482.908	2279.77
483.279	2299.66
483.65	2343.05
484.021	2388.24
484.391	2381.01
484.762	2401.8
485.133	2418.75
485.503	2447.22
485.874	2455.36
486.244	2482.25
486.615	2563.15
486.985	2521.35
487.356	2557.28
487.726	2595.02
488.097	2642.47
488.467	2655.13
488.837	2686.09
489.207	2703.04
489.578	2720.44
489.948	2738.52
490.318	2790.04
490.688	2797.72
491.058	2819.42
491.428	2856.25
491.798	2835.46
492.168	2898.96
492.538	2934.67
492.908	2923.37
493.278	2956.14
493.648	2942.13
494.017	2976.48
494.387	3003.59
494.757	3048.79
495.126	3014.67
495.496	3059.86
495.866	3080.88
496.235	3120.43
496.605	3136.47
496.974	3164.04
497.344	3157.94
497.713	3165.85
498.082	3161.56
498.452	3181.22
498.821	3215.79
499.19	3206.75
499.559	3277.48
499.928	3240.42
500.298	3252.4
500.667	3291.04
501.036	3280.2
501.405	3309.57
501.774	3304.6
502.143	3333.08
502.512	3379.85
502.88	3382.57
503.249	3384.6
503.618	3418.95
503.987	3416.01
504.356	3430.93
504.724	3389.57
505.093	3436.35
505.462	3447.65
505.83	3427.31
506.199	3472.73
506.567	3519.74
506.936	3476.35
507.304	3538.95
507.672	3522.68
508.041	3552.28
508.409	3574.2
508.777	3548.89
509.145	3618.04
509.514	3579.4
509.882	3597.7
510.25	3604.93
510.618	3597.02
510.986	3654.42
511.354	3625.27
511.722	3637.7
512.09	3671.82
512.458	3655.33
512.826	3692.61
513.193	3692.16
513.561	3682.67
513.929	3687.42
514.297	3782.33
514.664	3726.29
515.032	3718.6
515.4	3766.51
515.767	3774.19
516.135	3761.77
516.502	3765.38
516.869	3823.23
517.237	3815.78
517.604	3789.11
517.972	3821.42
518.339	3823.68
518.706	3811.48
519.073	3849.22
519.44	3839.05
519.808	3885.15
520.175	3837.92
520.542	3903.46
520.909	3848.77
521.276	3902.78
521.643	3918.37
522.009	3906.62
522.376	3967.18
522.743	3927.86
523.11	3925.38
523.477	3977.81
523.843	3999.5
524.21	4057.12
524.577	4055.77
524.943	4049.44
525.31	4052.15
525.676	4101.87
526.043	4117.91
526.409	4075.2
526.776	4168.31
527.142	4155.2
527.508	4198.36
527.874	4234.07
528.241	4205.14
528.607	4203.11
528.973	4245.59
529.339	4244.24
529.705	4324.91
530.071	4297.34
530.437	4328.3
530.803	4383.22
531.169	4397.45
531.535	4377.12
531.901	4406.49
532.267	4406.04
532.632	4460.73
532.998	4469.32
533.364	4468.64
533.73	4474.52
534.095	4509.99
534.461	4503.44
534.826	4561.29
535.192	4566.94
535.557	4571.46
535.923	4554.74
536.288	4591.35
536.653	4608.07
537.019	4629.77
537.384	4613.04
537.749	4666.83
538.114	4689.88
538.479	4703.21
538.845	4725.36
539.21	4693.04
539.575	4751.12
539.94	4769.87
540.305	4787.73
540.67	4790.89
541.034	4850.1
541.399	4858.46
541.764	4872.47
542.129	4820.72
542.494	4925.12
542.858	4949.53
543.223	4940.04
543.587	4989.08
543.952	4975.52
544.316	5006.93
544.681	5039.47
545.045	5009.64
545.41	5117.21
545.774	5075.63
546.138	5081.96
546.503	5086.7
546.867	5111.56
547.231	5155.18
547.595	5146.59
547.959	5206.47
548.324	5179.36
548.688	5221.61
549.052	5200.15
549.416	5315.4
549.779	5248.51
550.143	5277.66
550.507	5312.23
550.871	5350.2
551.235	5354.04
551.599	5358.33
551.962	5349.29
552.326	5377.54
552.689	5437.43
553.053	5403.08
553.417	5397.88
553.78	5507.26
554.143	5459.35
554.507	5505.22
554.87	5535.5
555.234	5536.63
555.597	5516.07
555.96	5547.48
556.323	5580.25
556.686	5576.41
557.05	5561.49
557.413	5623.86
557.776	5620.47
558.139	5653.92
558.502	5685.78
558.865	5705.67
559.228	5696.63
559.59	5712.9
559.953	5729.62
560.316	5737.31
560.679	5784.31
561.041	5805.1
561.404	5815.04
561.767	5834.71
562.129	5825.67
562.492	5926
562.854	5916.96
563.217	5870.18
563.579	5913.12
563.941	5907.02
564.304	6009.16
564.666	5975.27
565.028	6003.97
565.39	5979.33
565.753	6013.68
566.115	6010.52
566.477	6036.51
566.839	6077.86
567.201	6092.33
567.563	6144.08
567.925	6142.27
568.287	6169.39
568.648	6165.77
569.01	6213.23
569.372	6254.36
569.734	6240.57
570.095	6261.36
570.457	6327.8
570.819	6336.61
571.18	6343.17
571.542	6413.22
571.903	6396.27
572.265	6485.99
572.626	6510.39
572.987	6563.73
573.349	6550.84
573.71	6610.05
574.071	6644.18
574.432	6691.63
574.794	6770.5
575.155	6788.13
575.516	6856.37
575.877	6906.77
576.238	6983.15
576.599	6983.83
576.96	7049.81
577.32	7137.5
577.681	7164.39
578.042	7246.19
578.403	7305.4
578.763	7423.36
579.124	7513.53
579.485	7607.54
579.845	7718.27
580.206	7786.07
580.566	7854.31
580.927	7967.08
581.287	8174.53
581.648	8256.79
582.008	8360.51
582.368	8421.76
582.728	8624.01
583.089	8748.98
583.449	8912.14
583.809	9026.94
584.169	9307.61
584.529	9377.44
584.889	9591.89
585.249	9645.23
585.609	9926.8
585.969	10131.09
586.329	10279.33
586.688	10507.35
587.048	10641.36
587.408	10899.43
587.768	11164.28
588.127	11329.48
588.487	11520.66
588.846	11845.39
589.206	12064.6
589.565	12243.58
589.925	12527.86
590.284	12761.75
590.643	13069.32
591.003	13250.1
591.362	13569.87
591.721	13893.7
592.08	14104.09
592.44	14460.92
592.799	14623.85
593.158	14929.38
593.517	15212.99
593.876	15467.22
594.235	15727.55
594.593	15971.84
594.952	16313.75
595.311	16615.66
595.67	16985.6
596.029	17211.58
596.387	17580.84
596.746	17860.38
597.104	18073.48
597.463	18373.58
597.822	18715.5
598.18	18963.85
598.538	19284.52
598.897	19637.96
599.255	19740.55
599.613	20380.54
599.972	20480.2
600.33	20699.85
600.688	21032.05
601.046	21346.84
601.404	21651.46
601.762	21932.14
602.12	22341.16
602.478	22537.77
602.836	22683.75
603.194	22978.44
603.552	23189.05
603.91	23341.59
604.268	23808.92
604.625	23987.45
604.983	24354.67
605.341	24382.69
605.698	24815.68
606.056	25090.02
606.413	25220.41
606.771	25621.98
607.128	25874.86
607.485	26007.51
607.843	26124.79
608.2	26585.8
608.557	26951.44
608.914	26821.72
609.272	27247.93
609.629	27520.46
609.986	27804.98
610.343	27691.53
610.7	28168.81
611.057	28404.73
611.414	28483.83
611.771	28679.3
612.127	28911.61
612.484	29172.85
612.841	29342.79
613.198	29496
613.554	29751.36
613.911	29863.68
614.267	30110.68
614.624	30227.96
614.98	30418.47
615.337	30690.1
615.693	30724.45
616.05	30881.96
616.406	31164.66
616.762	31195.62
617.118	31343.41
617.475	31502.51
617.831	31620.24
618.187	31838.99
618.543	31980.46
618.899	32282.15
619.255	32327.79
619.611	32301.81
619.967	32653.44
620.323	32798.97
620.678	32824.96
621.034	32775.24
621.39	32923.94
621.746	33128.45
622.101	33390.82
622.457	33253.65
622.812	33355.79
623.168	33553.52
623.523	33641.88
623.879	33821.77
624.234	33693.18
624.589	33878.26
624.945	34087.3
625.3	34085.71
625.655	34047.75
626.01	34422.43
626.365	34343.79
626.72	34378.14
627.075	34558.47
627.43	34461.98
627.785	34575.19
628.14	34581.97
628.495	34815.64
628.85	34784
629.205	34583.78
629.559	34790.33
629.914	34790.1
630.269	34938.12
630.623	34901.74
630.978	34814.96
631.332	35065.35
631.687	35184.67
632.041	34966.37
632.396	35208.62
632.75	34995.97
633.104	34993.71
633.459	34988.97
633.813	34982.41
634.167	35039.14
634.521	35067.61
634.875	35325.68
635.229	35174.05
635.583	35148.51
635.937	35124.56
636.291	35171.34
636.645	35162.52
636.999	35106.03
637.352	35238
637.706	35070.55
638.06	35262.86
638.413	35127.49
638.767	35108.74
639.121	35132.01
639.474	35076.65
639.828	35079.36
640.181	35151.67
640.534	35278.45
640.888	35022.64
641.241	35018.34
641.594	35050.89
641.947	35270.32
642.301	35100.15
642.654	35159.13
643.007	35201.62
643.36	35082.07
643.713	35106.93
644.066	35148.51
644.419	34907.61
644.771	34790.1
645.124	34455.87
645.477	34424.69
645.83	34227.86
646.182	34150.8
646.535	34105.6
646.888	34207.29
647.24	34010.69
647.593	34202.55
647.945	34084.81
648.298	33949.22
648.65	33861.99
649.002	33880.3
649.355	33890.92
649.707	33847.3
650.059	33989.67
650.411	34435.99
650.763	34475.53
651.115	34897.22
651.467	34795.3
651.819	34709.43
652.171	34683.44
652.523	34786.03
652.875	34645.25
653.227	34579.71
653.578	34771.12
653.93	34683.89
654.282	34627.39
654.633	34471.69
654.985	34521.63
655.337	34523.67
655.688	34592.59
656.039	34726.83
656.391	34374.52
656.742	34480.73
657.094	34394.63
657.445	34598.24
657.796	34500.84
658.147	34410.45
658.498	34390.56
658.849	34529.32
659.2	34456.1
659.551	34290.45
659.902	34525.25
660.253	34450.9
660.604	34590.79
660.955	34341.53
661.306	34430.34
661.656	34345.59
662.007	34348.76
662.358	34444.12
662.708	34304.24
663.059	34365.48
663.409	34204.58
663.76	34394.18
664.11	34333.17
664.461	34483.9
664.811	34373.84
665.161	34399.6
665.511	34315.31
665.862	34419.94
666.212	34451.81
666.562	34337.23
666.912	34322.32
667.262	34337.91
667.612	34272.15
667.962	34313.96
668.312	34208.65
668.662	34278.25
669.011	34212.26
669.361	34293.17
669.711	34268.08
670.06	34257.01
670.41	34163.9
670.76	34106.73
671.109	34289.32
671.459	34249.55
671.808	33929.79
672.157	34264.92
672.507	34010.01
672.856	34046.17
673.205	34104.02
673.554	34221.98
673.904	33941.99
674.253	34153.51
674.602	34023.12
674.951	33600.98
675.3	33524.15
675.649	34097.01
675.998	33920.07
676.346	33984.02
676.695	34072.83
677.044	33823.35
677.393	33907.64
677.741	34045.26
678.09	33916.9
678.438	33853.63
678.787	33839.84
679.135	33760.3
679.484	33599.4
679.832	33761.43
680.181	33497.48
680.529	33614.31
680.877	33549.46
681.225	33591.04
681.573	33635.56
681.922	33535.67
682.27	33393.53
682.618	33350.82
682.966	33197.15
683.314	33419.52
683.661	33306.75
684.009	33154.21
684.357	33104.5
684.705	33177.94
685.053	32978.17
685.4	32965.52
685.748	32902.24
686.095	32897.5
686.443	32726.2
686.79	32779.53
687.138	32787.22
687.485	32845.52
687.832	32728.46
688.18	32748.57
688.527	32595.81
688.874	32518.07
689.221	32520.33
689.568	32360.11
689.915	32351.75
690.262	32221.13
690.609	32139.78
690.956	32174.35
691.303	32043.73
691.65	31973.45
691.997	31972.55
692.344	31695.95
692.69	31749.96
693.037	31641.03
693.383	31467.25
693.73	31618.89
694.077	31359.46
694.423	31420.02
694.769	31309.06
695.116	31183.42
695.462	31251.21
695.808	31086.92
696.155	31159.69
696.501	30846.48
696.847	30843.54
697.193	30865.46
697.539	30827.72
697.885	30643.32
698.231	30441.06
698.577	30547.73
698.923	30372.37
699.269	30340.05
699.614	30187.96
699.96	30200.62
700.306	30127.85
700.651	30064.58
700.997	29890.34
701.342	29875.88
701.688	29913.39
702.033	29696.22
702.379	29658.71
702.724	29576
703.069	29587.3
703.415	29326.97
703.76	29397.02
704.105	29442.22
704.45	29334.2
704.795	29156.8
705.14	29136.69
705.485	29057.82
705.83	28981.44
706.175	28987.09
706.52	28812.63
706.865	28760.66
707.209	28839.98
707.554	28718.4
707.899	28592.98
708.243	28470.27
708.588	28447.44
708.932	28311.4
709.277	28330.39
709.621	28419.87
709.966	28155.47
710.31	28328.58
710.654	28030.96
710.998	28113.22
711.342	28020.11
711.687	27889.04
712.031	27796.39
712.375	27747.35
712.719	27742.15
713.063	27689.95
713.407	27717.29
713.75	27644.08
714.094	27639.33
714.438	27434.14
714.782	27447.7
715.125	27347.81
715.469	27350.75
715.812	27178.1
716.156	27123.19
716.499	27074.6
716.843	27105.11
717.186	26949.86
717.53	27165.9
717.873	27084.99
718.216	27002.51
718.559	26917.99
718.902	26579.47
719.246	26848.62
719.589	26620.37
719.932	26649.98
720.275	26610.88
720.617	26551.9
720.96	26527.49
721.303	26588.74
721.646	26459.93
721.989	26315.97
722.331	26475.07
722.674	26226.71
723.016	26338.12
723.359	26229.2
723.701	26325.24
724.044	26041.86
724.386	25930.45
724.729	26101.74
725.071	26111.46
725.413	25982.88
725.755	26009.99
726.097	25751.47
726.439	25762.77
726.782	25790.79
727.124	25890.22
727.465	25609.78
727.807	25616.11
728.149	25654.3
728.491	25596.22
728.833	25609.33
729.175	25535.88
729.516	25457.01
729.858	25436.9
730.199	25536.11
730.541	25443.91
730.882	25447.07
731.224	25471.93
731.565	25275.55
731.906	25289.34
732.248	25205.04
732.589	25189.9
732.93	25080.98
733.271	25020.42
733.612	25068.55
733.953	25108.55
734.294	24988.33
734.635	25044.37
734.976	25009.34
735.317	24895.9
735.658	24822.91
735.999	24850.48
736.339	24779.97
736.68	24834.66
737.021	24828.33
737.361	24599.41
737.702	24662.68
738.042	24700.42
738.383	24598.96
738.723	24549.47
739.063	24503.59
739.404	24602.35
739.744	24426.31
740.084	24405.97
740.424	24441
740.764	24350.38
741.104	24425.85
741.444	24339.76
741.784	24249.36
742.124	24226.99
742.464	24185.41
742.804	24099.54
743.143	24057.28
743.483	24111.29
743.823	23987
744.162	23974.12
744.502	24003.95
744.841	23883.5
745.181	24071.06
745.52	23828.58
745.86	23857.96
746.199	23782.71
746.538	23744.29
746.877	23793.56
747.216	23835.14
747.556	23665.87
747.895	23638.31
748.234	23591.3
748.573	23632.43
748.911	23422.72
749.25	23572.09
749.589	23320.12
749.928	23437.41
750.267	23336.17
750.605	23438.76
750.944	23311.53
751.283	23267.69
751.621	23351.31
751.96	23123.29
752.298	23131.2
752.636	23152.67
752.975	22890.3
753.313	22944.31
753.651	23109.96
753.989	22943.86
754.327	22855.27
754.666	22687.82
755.004	22824.99
755.342	22813.24
755.679	22689.4
756.017	22544.55
756.355	22640.82
756.693	22425.91
757.031	22625.45
757.368	22412.8
757.706	22250.32
758.044	22236.99
758.381	22377.55
758.719	22194.95
759.056	22183.65
759.394	22091.45
759.731	21990.44
760.068	21958.12
