Data from hue_50_FLMS001491_75.txt Node
Date: Mon Feb 06 15:10:57 GMT 2017
User: dcchb
Spectrometer: FLMS00149
Trigger mode: 0
Integration Time (sec): 2.000000E-2
Scans to average: 10
Electric dark correction enabled: true
Nonlinearity correction enabled: false
Boxcar width: 0
XAxis mode: Wavelengths
Number of Pixels in Spectrum: 2048
>>>>>Begin Spectral Data<<<<<
341.393	-10.71
341.776	-10.71
342.16	-10.71
342.543	-78.73
342.927	-58.16
343.31	-51.16
343.693	-61.33
344.077	-65.62
344.46	-78.05
344.843	-81.66
345.226	-43.25
345.61	-27.43
345.993	-23.36
346.376	3.08
346.759	14.6
347.142	27.26
347.525	41.72
347.908	54.6
348.291	69.74
348.674	113.13
349.057	107.71
349.44	117.43
349.823	142.51
350.206	161.94
350.588	187.25
350.971	195.16
351.354	221.83
351.737	239.01
352.119	244.43
352.502	262.51
352.884	280.13
353.267	292.56
353.65	292.34
354.032	295.27
354.414	310.64
354.797	307.25
355.179	312.9
355.562	330.53
355.944	328.04
356.326	341.15
356.709	339.12
357.091	327.36
357.473	351.09
357.855	356.52
358.238	340.47
358.62	346.8
359.002	332.11
359.384	339.34
359.766	338.89
360.148	343.41
360.53	350.87
360.912	324.65
361.294	339.57
361.676	343.86
362.057	320.13
362.439	328.95
362.821	340.02
363.203	337.31
363.584	335.5
363.966	321.49
364.348	312
364.729	317.2
365.111	306.57
365.493	327.14
365.874	328.27
366.256	308.61
366.637	310.64
367.019	311.32
367.4	329.17
367.781	315.84
368.163	309.96
368.544	302.51
368.925	333.01
369.306	310.87
369.688	317.2
370.069	310.42
370.45	292.11
370.831	328.95
371.212	297.31
371.593	317.87
371.974	309.96
372.355	321.94
372.736	333.24
373.117	323.97
373.498	299.34
373.879	308.61
374.26	321.71
374.641	311.32
375.021	314.03
375.402	309.96
375.783	318.55
376.163	315.84
376.544	336.4
376.925	325.56
377.305	323.75
377.686	306.57
378.066	344.76
378.447	317.87
378.827	321.71
379.208	320.13
379.588	334.6
379.968	331.43
380.349	343.18
380.729	329.85
381.109	344.54
381.489	346.8
381.87	330.53
382.25	338.89
382.63	341.83
383.01	348.38
383.39	326.46
383.77	321.49
384.15	317.42
384.53	349.96
384.91	346.57
385.29	352.45
385.67	352.45
386.049	340.92
386.429	351.54
386.809	348.61
387.189	356.97
387.568	348.83
387.948	354.93
388.328	344.76
388.707	368.04
389.087	333.92
389.466	350.87
389.846	371.2
390.225	354.26
390.605	369.17
390.984	358.1
391.363	369.62
391.743	369.17
392.122	369.4
392.501	351.09
392.881	341.83
393.26	358.78
393.639	381.83
394.018	377.31
394.397	375.05
394.776	363.52
395.155	377.76
395.534	352.9
395.913	377.53
396.292	371.2
396.671	398.32
397.05	366.46
397.429	360.58
397.808	361.04
398.186	380.7
398.565	348.15
398.944	390.87
399.323	378.89
399.701	387.93
400.08	403.75
400.458	378.89
400.837	357.19
401.215	384.54
401.594	389.96
401.972	373.46
402.351	364.2
402.729	391.09
403.107	405.33
403.486	395.16
403.864	389.74
404.242	409.62
404.62	418.89
404.999	400.81
405.377	408.49
405.755	431.54
406.133	411.66
406.511	413.92
406.889	400.36
407.267	425.44
407.645	406.91
408.023	417.76
408.401	399.9
408.779	417.31
409.156	415.05
409.534	427.93
409.912	431.99
410.29	417.31
410.667	429.96
411.045	444.65
411.422	446.91
411.8	436.06
412.178	443.07
412.555	444.65
412.933	441.03
413.31	447.36
413.687	452.33
414.065	467.47
414.442	474.25
414.819	477.87
415.197	472.45
415.574	455.04
415.951	469.51
416.328	470.41
416.705	500.69
417.082	481.94
417.46	472.9
417.837	471.54
418.214	486.68
418.591	483.74
418.967	476.74
419.344	470.19
419.721	499.79
420.098	483.07
420.475	520.58
420.852	500.92
421.228	510.41
421.605	517.42
421.982	519.45
422.358	516.96
422.735	524.65
423.111	507.47
423.488	509.05
423.864	521.94
424.241	511.09
424.617	547.7
424.994	533.91
425.37	511.54
425.746	546.79
426.123	534.59
426.499	542.27
426.875	545.21
427.251	566.23
427.627	547.25
428.003	560.35
428.379	545.66
428.756	561.26
429.132	568.04
429.507	587.02
429.883	598.09
430.259	575.49
430.635	606
431.011	612.55
431.387	598.77
431.763	576.17
432.138	592.22
432.514	581.82
432.89	593.8
433.265	624.08
433.641	634.7
434.016	611.65
434.392	638.54
434.767	639.22
435.143	635.83
435.518	614.36
435.894	660.91
436.269	666.11
436.644	670.18
437.02	641.03
437.395	674.47
437.77	634.47
438.145	684.64
438.52	677.41
438.895	687.13
439.271	691.2
439.646	702.72
440.021	702.04
440.395	689.39
440.77	660.69
441.145	722.38
441.52	703.63
441.895	706.11
442.27	733
442.645	718.31
443.019	708.37
443.394	705.89
443.769	731.2
444.143	733.23
444.518	742.27
444.892	730.29
445.267	722.83
445.641	752.44
446.016	765.77
446.39	760.12
446.764	759.22
447.139	767.8
447.513	751.99
447.887	748.6
448.262	770.74
448.636	785.21
449.01	774.81
449.384	788.82
449.758	791.31
450.132	801.25
450.506	788.14
450.88	836.5
451.254	791.08
451.628	803.74
452.002	836.5
452.376	843.96
452.75	850.51
453.123	853.9
453.497	849.38
453.871	857.75
454.244	867.24
454.618	873.11
454.992	917.63
455.365	881.25
455.739	887.35
456.112	919.67
456.486	870.85
456.859	930.96
457.232	945.65
457.606	929.83
457.979	965.31
458.352	957.63
458.725	962.15
459.099	965.09
459.472	992.43
459.845	1010.06
460.218	1029.72
460.591	1038.31
460.964	999.66
461.337	1061.58
461.71	1040.57
462.083	1054.12
462.456	1061.13
462.829	1097.29
463.201	1109.04
463.574	1102.03
463.947	1127.12
464.32	1119.89
464.692	1191.97
465.065	1156.5
465.438	1155.14
465.81	1202.14
466.183	1200.11
466.555	1250.96
466.928	1233.33
467.3	1260.45
467.672	1278.75
468.045	1304.97
468.417	1310.39
468.789	1333.21
469.161	1342.03
469.534	1360.78
469.906	1403.95
470.278	1448.46
470.65	1437.39
471.022	1471.97
471.394	1509.48
471.766	1543.38
472.138	1531.4
472.51	1583.38
472.882	1649.82
473.253	1643.49
473.625	1685.07
473.997	1725.52
474.369	1749.93
474.74	1772.75
475.112	1826.08
475.484	1860.21
475.855	1943.82
476.227	1952.86
476.598	2035.12
476.97	2073.08
477.341	2117.6
477.713	2173.42
478.084	2172.06
478.455	2277.37
478.827	2332.51
479.198	2435.11
479.569	2434.88
479.94	2489.34
480.311	2633.07
480.682	2663.35
481.053	2749.22
481.424	2835.77
481.795	2879.61
482.166	2964.36
482.537	3069.67
482.908	3159.38
483.279	3218.36
483.65	3332.03
484.021	3429.88
484.391	3526.15
484.762	3571.57
485.133	3651.57
485.503	3769.31
485.874	3882.07
486.244	3983.77
486.615	4138.56
486.985	4217.88
487.356	4329.07
487.726	4443.64
488.097	4594.37
488.467	4709.17
488.837	4844.99
489.207	4927.02
489.578	5078.2
489.948	5199.78
490.318	5312.09
490.688	5419.43
491.058	5565.19
491.428	5719.76
491.798	5828.01
492.168	5964.96
492.538	6088.57
492.908	6232.29
493.278	6392.52
493.648	6526.07
494.017	6637.71
494.387	6789.12
494.757	6867.76
495.126	7080.63
495.496	7144.36
495.866	7246.96
496.235	7383.45
496.605	7566.5
496.974	7689.43
497.344	7808.75
497.713	7934.62
498.082	8010.33
498.452	8258
498.821	8304.1
499.19	8406.02
499.559	8561.72
499.928	8730.31
500.298	8787.48
500.667	8959.91
501.036	9015.27
501.405	9116.74
501.774	9244.64
502.143	9325.09
502.512	9512.89
502.88	9681.24
503.249	9699.32
503.618	9878.3
503.987	9987.22
504.356	10159.42
504.724	10186.09
505.093	10245.75
505.462	10421.11
505.83	10495.46
506.199	10628.56
506.567	10803.47
506.936	10857.03
507.304	11038.27
507.672	11148.77
508.041	11235.55
508.409	11378.37
508.777	11453.4
509.145	11654.3
509.514	11597.35
509.882	11792.83
510.25	11855.42
510.618	11999.6
510.986	12068.98
511.354	12222.64
511.722	12329.53
512.09	12538.12
512.458	12512.35
512.826	12631.22
513.193	12863.98
513.561	12782.18
513.929	12969.07
514.297	13047.48
514.664	13145.56
515.032	13310.07
515.4	13450.41
515.767	13435.27
516.135	13605.43
516.502	13610.4
516.869	13846.1
517.237	13902.37
517.604	13920
517.972	14080.22
518.339	14226.66
518.706	14185.08
519.073	14334.68
519.44	14443.38
519.808	14535.35
520.175	14648.34
520.542	14785.74
520.909	14887.21
521.276	14868
521.643	15166.75
522.009	15203.13
522.376	15361.55
522.743	15419.85
523.11	15546.17
523.477	15765.83
523.843	15874.53
524.21	15979.61
524.577	16171.02
524.943	16212.14
525.31	16268.64
525.676	16493.72
526.043	16600.83
526.409	16685.13
526.776	16791.34
527.142	16924.44
527.508	17006.02
527.874	17081.27
528.241	17271.55
528.607	17310.65
528.973	17425.9
529.339	17449.17
529.705	17600.13
530.071	17801.71
530.437	17815.72
530.803	18010.52
531.169	18081.47
531.535	18101.13
531.901	18180.91
532.267	18307
532.632	18356.95
532.998	18444.4
533.364	18556.72
533.73	18627.45
534.095	18754.45
534.461	18857.27
534.826	18985.18
535.192	19005.29
535.557	19091.62
535.923	19240.09
536.288	19303.14
536.653	19300.42
537.019	19314.66
537.384	19410.7
537.749	19477.37
538.114	19587.2
538.479	19673.75
538.845	19737.02
539.21	19709
539.575	19885.49
539.94	19849.56
540.305	20016.79
540.67	20024.93
541.034	20121.19
541.399	20205.49
541.764	20346.05
542.129	20321.41
542.494	20465.14
542.858	20489.32
543.223	20562.76
543.587	20681.41
543.952	20700.16
544.316	20781.06
544.681	20726.38
545.045	20914.85
545.41	20992.58
545.774	21077.33
546.138	21167.04
546.503	21125.01
546.867	21220.15
547.231	21282.52
547.595	21499.91
547.959	21449.52
548.324	21484.77
548.688	21498.56
549.052	21601.38
549.416	21667.59
549.779	21666.24
550.143	21876.18
550.507	22048.15
550.871	22092.22
551.235	22160.91
551.599	22131.76
551.962	22364.07
552.326	22329.95
552.689	22472.09
553.053	22307.35
553.417	22556.38
553.78	22777.17
554.143	22772.88
554.507	22833.44
554.87	22842.48
555.234	23050.16
555.597	22969.25
555.96	23123.83
556.323	23147.78
556.686	23178.29
557.05	23404.27
557.413	23479.98
557.776	23529.92
558.139	23735.56
558.502	23731.95
558.865	23838.84
559.228	23963.8
559.59	24051.94
559.953	24136.23
560.316	24248.09
560.679	24293.29
561.041	24451.7
561.404	24578.03
561.767	24678.81
562.129	24792.71
562.492	24956.32
562.854	24881.52
563.217	24834.06
563.579	24958.36
563.941	25163.1
564.304	25244.68
564.666	25506.59
565.028	25549.07
565.39	25633.37
565.753	25665.91
566.115	25777.54
566.477	25846.02
566.839	25942.74
567.201	26202.84
567.563	26221.37
567.925	26309.51
568.287	26527.81
568.648	26538.2
569.01	26650.74
569.372	26841.47
569.734	26736.61
570.095	26931.64
570.457	27068.36
570.819	27036.04
571.18	27064.97
571.542	27276.03
571.903	27297.05
572.265	27448.23
572.626	27503.6
572.987	27605.29
573.349	27770.26
573.71	27859.52
574.071	27968.9
574.432	28031.72
574.794	28187.2
575.155	28201.89
575.516	28185.39
575.877	28358.49
576.238	28446.4
576.599	28587.41
576.96	28657.47
577.32	28689.1
577.681	28850.46
578.042	28928.87
578.403	29067.85
578.763	29133.16
579.124	29128.87
579.485	29195.53
579.845	29425.13
580.206	29490.44
580.566	29474.39
580.927	29551
581.287	29959.35
581.648	29754.61
582.008	29917.77
582.368	29950.31
582.728	30134.49
583.089	30284.32
583.449	30315.28
583.809	30496.51
584.169	30620.81
584.529	30493.58
584.889	30823.96
585.249	30734.7
585.609	30686.34
585.969	30984.41
586.329	30987.8
586.688	31195.93
587.048	31177.4
587.408	31265.53
587.768	31386.43
588.127	31409.03
588.487	31609.71
588.846	31806.08
589.206	31664.62
589.565	31935.12
589.925	32037.49
590.284	31976.25
590.643	32138.73
591.003	32275.9
591.362	32467.31
591.721	32453.98
592.08	32654.42
592.44	32751.6
592.799	32819.84
593.158	32785.72
593.517	33003.79
593.876	33021.19
594.235	33085.37
594.593	33186.39
594.952	33348.42
595.311	33309.32
595.67	33463.89
596.029	33711.57
596.387	33860.72
596.746	33861.62
597.104	33832.7
597.463	33747.95
597.822	33968.97
598.18	34057.32
598.538	34108.4
598.897	34261.16
599.255	34122.41
599.613	34728.49
599.972	34465.45
600.33	34641.49
600.688	34635.84
601.046	34829.28
601.404	34980.92
601.762	34948.6
602.12	35231.76
602.478	35183.4
602.836	35303.17
603.194	35081.03
603.552	35173
603.91	35158.76
604.268	35453.67
604.625	35403.5
604.983	35705.87
605.341	35557.85
605.698	35610.73
606.056	35840.55
606.413	35808.69
606.771	35987.67
607.128	36091.4
607.485	36058.85
607.843	36014.11
608.2	36411.61
608.557	36382.91
608.914	36477.37
609.272	36571.83
609.629	36734.09
609.986	36788.55
610.343	36794.65
610.7	36916.91
611.057	36798.04
611.414	36970.02
611.771	37032.61
612.127	37195.77
612.484	37153.97
612.841	37352.61
613.198	37260.4
613.554	37316.9
613.911	37596.44
614.267	37679.6
614.624	37762.31
614.98	37783.1
615.337	37874.63
615.693	37861.97
616.05	37853.84
616.406	38136.99
616.762	38039.82
617.118	38131.79
617.475	38106.26
617.831	38228.06
618.187	38179.48
618.543	38228.06
618.899	38665.34
619.255	38585.79
619.611	38521.16
619.967	38601.16
620.323	38626.92
620.678	38652.23
621.034	38592.12
621.39	38661.5
621.746	38539.47
622.101	39026.23
622.457	38948.04
622.812	38951.89
623.168	38874.37
623.523	39005.9
623.879	39155.95
624.234	38903.3
624.589	39087.25
624.945	38960.47
625.3	39224.42
625.655	39069.17
626.01	39219.67
626.365	39307.81
626.72	39041.15
627.075	39236.17
627.43	39353.46
627.785	39250.63
628.14	39363.17
628.495	39398.88
628.85	39262.39
629.205	39141.48
629.559	39347.13
629.914	39192.11
630.269	39260.58
630.623	39131.54
630.978	39107.81
631.332	39237.53
631.687	39404.98
632.041	39251.99
632.396	39231.2
632.75	39085.89
633.104	39185.78
633.459	39101.49
633.813	39109.85
634.167	39123.41
634.521	39190.07
634.875	39118.43
635.229	39189.17
635.583	38957.99
635.937	38922.96
636.291	39060.58
636.645	38927.48
636.999	38981.04
637.352	39041.15
637.706	38778.1
638.06	38941.26
638.413	38917.54
638.767	38686.36
639.121	38930.64
639.474	38601.61
639.828	38668.5
640.181	38688.84
640.534	38691.1
640.888	38634.38
641.241	38433.48
641.594	38655.4
641.947	38690.65
642.301	38598
642.654	38623.31
643.007	38607.71
643.36	38624.44
643.713	38379.02
644.066	38626.7
644.419	38417.44
644.771	38269.64
645.124	37788.53
645.477	37751.69
645.83	37517.35
646.182	37408.65
646.535	37332.04
646.888	37455.65
647.24	37082.56
647.593	37453.39
647.945	37355.54
648.298	37247.98
648.65	37101.31
649.002	37004.37
649.355	37192.38
649.707	37099.5
650.059	37206.39
650.411	37697.23
650.763	37670.79
651.115	38044.11
651.467	37955.08
651.819	37883.44
652.171	37849.54
652.523	37737.45
652.875	37799.6
653.227	37727.96
653.578	37951.91
653.93	37828.07
654.282	37756.21
654.633	37562.77
654.985	37630.11
655.337	37679.83
655.688	37822.2
656.039	37882.53
656.391	37416.11
656.742	37487.52
657.094	37414.3
657.445	37576.1
657.796	37585.59
658.147	37445.48
658.498	37353.28
658.849	37594.86
659.2	37515.76
659.551	37349.89
659.902	37607.06
660.253	37366.16
660.604	37578.14
660.955	37371.36
661.306	37429.89
661.656	37243
662.007	37497.23
662.358	37264.25
662.708	37418.37
663.059	37321.19
663.409	37111.03
663.76	37279.84
664.11	37393.28
664.461	37348.54
664.811	37368.2
665.161	37363.68
665.511	37129.56
665.862	37188.77
666.212	37398.48
666.562	37351.7
666.912	37251.37
667.262	37252.27
667.612	37272.83
667.962	37196
668.312	37104.7
668.662	37446.61
669.011	37238.48
669.361	37227.86
669.711	37217.92
670.06	37165.04
670.41	37130.92
670.76	37092.27
671.109	37158.94
671.459	37145.15
671.808	37075.1
672.157	37152.84
672.507	37000.98
672.856	36937.7
673.205	37088.21
673.554	37071.71
673.904	37010.24
674.253	37115.78
674.602	36916.01
674.951	36408
675.3	36372.74
675.649	36815.22
675.998	36779.06
676.346	36836.91
676.695	36867.42
677.044	36578.39
677.393	36652.74
677.741	36790.36
678.09	36642.12
678.438	36566.86
678.787	36676.47
679.135	36793.07
679.484	36556.92
679.832	36591.95
680.181	36444.83
680.529	36475.11
680.877	36382.91
681.225	36378.62
681.573	36537.71
681.922	36292.52
682.27	36192.41
682.618	36315.34
682.966	36188.12
683.314	36233.76
683.661	36198.06
684.009	35867.22
684.357	35909.03
684.705	35749.26
685.053	35881.46
685.4	35842.59
685.748	35667.45
686.095	35636.27
686.443	35499.77
686.79	35517.85
687.138	35497.06
687.485	35531.86
687.832	35360.79
688.18	35400.79
688.527	35182.72
688.874	35203.51
689.221	35050.29
689.568	34918.09
689.915	34947.02
690.262	34880.13
690.609	34876.51
690.956	34800.81
691.303	34793.12
691.65	34595.84
691.997	34551.32
692.344	34362.63
692.69	34469.07
693.037	34349.97
693.383	34169.19
693.73	34154.5
694.077	33992.24
694.423	33977.1
694.769	33969.87
695.116	33906.14
695.462	33872.47
695.808	33549.54
696.155	33697.11
696.501	33554.97
696.847	33530.33
697.193	33285.82
697.539	33340.51
697.885	33104.58
698.231	33058.26
698.577	33091.02
698.923	32956.79
699.269	32811.03
699.614	32659.17
699.96	32600.64
700.306	32652.62
700.651	32539.62
700.997	32453.07
701.342	32421.89
701.688	32380.98
702.033	32229.35
702.379	32302.34
702.724	31987.32
703.069	32253.08
703.415	31774.22
703.76	31746.43
704.105	31900.55
704.45	31762.7
704.795	31670.27
705.14	31447.22
705.485	31496.26
705.83	31167.91
706.175	31335.81
706.52	31238.19
706.865	31130.17
707.209	31220.34
707.554	30972.43
707.899	31087.46
708.243	30937.41
708.588	30793.68
708.932	30647.25
709.277	30736.51
709.621	30758.65
709.966	30541.03
710.31	30463.52
710.654	30275.28
710.998	30398.21
711.342	30280.02
711.687	30205.9
712.031	30113.47
712.375	29978.79
712.719	29958.68
713.063	30053.36
713.407	30058.79
713.75	29848.17
714.094	29882.75
714.438	29639.81
714.782	29864.89
715.125	29676.65
715.469	29619.48
715.812	29451.57
716.156	29360.5
716.499	29432.59
716.843	29315.3
717.186	29211.8
717.53	29414.51
717.873	29283.89
718.216	29152.14
718.559	29254.97
718.902	28945.82
719.246	29195.53
719.589	28905.6
719.932	28781.08
720.275	28862.66
720.617	28672.83
720.96	28634.42
721.303	28604.81
721.646	28745.37
721.989	28525.04
722.331	28652.04
722.674	28491.6
723.016	28428.77
723.359	28611.14
723.701	28430.81
724.044	28282.11
724.386	28202.56
724.729	28223.13
725.071	28120.53
725.413	28169.12
725.755	28111.49
726.097	28078.05
726.439	27884.61
726.782	27974.55
727.124	28040.08
727.465	27799.41
727.807	27829.69
728.149	27731.39
728.491	27705.85
728.833	27676.48
729.175	27576.59
729.516	27478.29
729.858	27491.17
730.199	27514.67
730.541	27537.95
730.882	27417.5
731.224	27531.39
731.565	27417.5
731.906	27332.76
732.248	27455.01
732.589	27135.02
732.93	27150.16
733.271	27100.45
733.612	27296.6
733.953	27188.8
734.294	27106.77
734.635	27039.43
734.976	26961.01
735.317	26982.26
735.658	26848.7
735.999	26911.52
736.339	26894.35
736.68	26877.4
737.021	26717.4
737.361	26669.27
737.702	26807.57
738.042	26741.58
738.383	26526.45
738.723	26686.45
739.063	26552.89
739.404	26512.21
739.744	26506.56
740.084	26324.87
740.424	26417.53
740.764	26279.45
741.104	26435.38
741.444	26249.17
741.784	26146.35
742.124	26254.37
742.464	26051.89
742.804	26156.52
743.143	26041.49
743.483	26090.53
743.823	25892.57
744.162	25816.64
744.502	26012.79
744.841	25836.75
745.181	25880.36
745.52	25805.79
745.86	25868.39
746.199	25699.8
746.538	25741.16
746.877	25857.77
747.216	25638.79
747.556	25682.86
747.895	25570.77
748.234	25514.27
748.573	25516.08
748.911	25371
749.25	25385.01
749.589	25213.26
749.928	25289.65
750.267	25251.23
750.605	25165.13
750.944	25141.85
751.283	25143.89
751.621	25161.74
751.96	25026.38
752.298	24955.19
752.636	24917.45
752.975	24737.57
753.313	24807.62
753.651	24885.59
753.989	24705.03
754.327	24613.05
754.666	24556.33
755.004	24675.65
755.342	24606.5
755.679	24539.38
756.017	24346.17
756.355	24444.7
756.693	24257.58
757.031	24418.48
757.368	24174.42
