Data from hue_330_FLMS001491_12.txt Node
Date: Mon Feb 06 15:44:58 GMT 2017
User: dcchb
Spectrometer: FLMS00149
Trigger mode: 0
Integration Time (sec): 2.000000E-2
Scans to average: 10
Electric dark correction enabled: true
Nonlinearity correction enabled: false
Boxcar width: 0
XAxis mode: Wavelengths
Number of Pixels in Spectrum: 2048
>>>>>Begin Spectral Data<<<<<
341.393	-5.55
341.776	-5.55
342.16	-5.55
342.543	-65.66
342.927	-67.92
343.31	-79.45
343.693	-76.51
344.077	-84.64
344.46	-74.7
344.843	-56.17
345.226	-30.63
345.61	-10.52
345.993	-25.21
346.376	14.11
346.759	-7.13
347.142	44.17
347.525	69.7
347.908	63.37
348.291	69.02
348.674	72.41
349.057	112.19
349.44	141.56
349.823	148.57
350.206	153.09
350.588	208
350.971	219.98
351.354	220.43
351.737	220.66
352.119	257.49
352.502	277.83
352.884	264.95
353.267	276.48
353.65	285.74
354.032	299.07
354.414	305.63
354.797	330.26
355.179	311.5
355.562	331.84
355.944	307.21
356.326	319.41
356.709	313.99
357.091	335.68
357.473	318.51
357.855	346.3
358.238	324.61
358.62	325.06
359.002	306.76
359.384	323.03
359.766	326.19
360.148	337.49
360.53	340.2
360.912	327.55
361.294	328
361.676	339.3
362.057	322.35
362.439	330.49
362.821	306.53
363.203	330.03
363.584	320.09
363.966	306.76
364.348	304.05
364.729	312.86
365.111	320.09
365.493	303.59
365.874	313.08
366.256	297.94
366.637	306.08
367.019	319.64
367.4	297.94
367.781	276.25
368.163	327.32
368.544	317.6
368.925	321.67
369.306	309.92
369.688	305.85
370.069	301.33
370.45	303.82
370.831	315.57
371.212	313.31
371.593	308.11
371.974	325.29
372.355	306.53
372.736	316.93
373.117	335.23
373.498	320.99
373.879	309.92
374.26	310.15
374.641	314.44
375.021	310.6
375.402	302.46
375.783	311.73
376.163	309.92
376.544	313.99
376.925	324.16
377.305	318.28
377.686	320.09
378.066	319.41
378.447	333.42
378.827	335.01
379.208	332.75
379.588	340.88
379.968	300.2
380.349	329.13
380.729	321.67
381.109	325.51
381.489	335.23
381.87	338.4
382.25	341.78
382.63	333.2
383.01	332.75
383.39	347.66
383.77	351.95
384.15	343.82
384.53	331.39
384.91	341.78
385.29	349.47
385.67	346.76
386.049	355.34
386.429	349.02
386.809	309.7
387.189	336.59
387.568	335.46
387.948	344.04
388.328	360.99
388.707	336.14
389.087	362.12
389.466	346.53
389.846	356.7
390.225	354.21
390.605	363.25
390.984	366.64
391.363	359.41
391.743	354.21
392.122	336.81
392.501	360.32
392.881	370.94
393.26	350.82
393.639	350.37
394.018	366.87
394.397	377.26
394.776	368.22
395.155	354.21
395.534	373.87
395.913	384.5
396.292	364.16
396.671	374.1
397.05	394.66
397.429	389.47
397.808	386.3
398.186	377.49
398.565	403.25
398.944	385.4
399.323	400.31
399.701	377.04
400.08	397.6
400.458	390.82
400.837	406.19
401.215	400.31
401.594	400.77
401.972	401.67
402.351	388.11
402.729	390.6
403.107	416.36
403.486	394.89
403.864	422.69
404.242	403.93
404.62	435.57
404.999	416.36
405.377	391.05
405.755	429.24
406.133	421.56
406.511	419.3
406.889	416.81
407.267	429.69
407.645	416.36
408.023	422.46
408.401	435.12
408.779	448.22
409.156	457.04
409.534	448.67
409.912	444.61
410.29	467.21
410.667	464.95
411.045	464.27
411.422	454.78
411.8	464.95
412.178	503.81
412.555	499.52
412.933	506.98
413.31	526.41
413.687	524.83
414.065	496.58
414.442	522.12
414.819	533.42
415.197	523.93
415.574	526.41
415.951	549.69
416.328	551.04
416.705	558.5
417.082	560.99
417.46	546.53
417.837	555.79
418.214	576.58
418.591	579.07
418.967	595.56
419.344	584.49
419.721	595.34
420.098	612.29
420.475	615.22
420.852	593.76
421.228	621.33
421.605	617.26
421.982	621.33
422.358	635.79
422.735	650.03
423.111	644.38
423.488	646.86
423.864	672.62
424.241	662.91
424.617	680.98
424.994	671.04
425.37	673.75
425.746	669.69
426.123	692.28
426.499	692.51
426.875	720.31
427.251	732.51
427.627	737.25
428.003	710.36
428.379	737.48
428.756	742.45
429.132	762.11
429.507	764.6
429.883	771.6
430.259	780.87
430.635	777.25
431.011	776.12
431.387	787.65
431.763	825.84
432.138	793.07
432.514	824.71
432.89	864.71
433.265	852.05
433.641	863.58
434.016	858.16
434.392	892.96
434.767	896.35
435.143	863.13
435.518	865.39
435.894	901.09
436.269	899.28
436.644	913.75
437.02	920.3
437.395	940.64
437.77	926.85
438.145	939.74
438.52	951.49
438.895	963.46
439.271	967.08
439.646	968.43
440.021	1004.82
440.395	1012.05
440.77	967.98
441.145	986.51
441.52	1010.24
441.895	1019.06
442.27	1025.16
442.645	1017.47
443.019	1021.54
443.394	1010.02
443.769	1035.33
444.143	1039.17
444.518	1049.79
444.892	1030.35
445.267	1059.51
445.641	1053.18
446.016	1064.25
446.39	1064.25
446.764	1078.71
447.139	1052.95
447.513	1068.55
447.887	1075.78
448.262	1105.15
448.636	1055.89
449.01	1070.58
449.384	1082.1
449.758	1128.43
450.132	1106.28
450.506	1112.84
450.88	1081.88
451.254	1127.75
451.628	1136.34
452.002	1128.66
452.376	1150.58
452.75	1164.59
453.123	1167.75
453.497	1170.92
453.871	1159.84
454.244	1185.38
454.618	1196
454.992	1171.14
455.365	1223.34
455.739	1234.87
456.112	1228.54
456.486	1235.77
456.859	1236.45
457.232	1256.11
457.606	1260.4
457.979	1257.47
458.352	1276.68
458.725	1289.33
459.099	1306.05
459.472	1326.62
459.845	1335.88
460.218	1322.1
460.591	1313.96
460.964	1327.07
461.337	1373.17
461.71	1392.38
462.083	1382.66
462.456	1358.48
462.829	1403.9
463.201	1427.63
463.574	1406.84
463.947	1404.58
464.32	1486.39
464.692	1445.03
465.065	1440.06
465.438	1485.94
465.81	1501.53
466.183	1513.28
466.555	1532.26
466.928	1557.8
467.3	1498.36
467.672	1568.42
468.045	1566.39
468.417	1596.89
468.789	1599.38
469.161	1606.38
469.534	1626.04
469.906	1639.83
470.278	1645.93
470.65	1658.81
471.022	1696.33
471.394	1693.16
471.766	1714.18
472.138	1744.23
472.51	1778.81
472.882	1779.04
473.253	1792.14
473.625	1819.03
473.997	1860.61
474.369	1836.66
474.74	1873.95
475.112	1875.76
475.484	1918.47
475.855	1959.14
476.227	1950.1
476.598	1984.91
476.97	2000.05
477.341	2049.31
477.713	2094.51
478.084	2087.73
478.455	2104
478.827	2114.85
479.198	2191.91
479.569	2163.21
479.94	2252.7
480.311	2239.36
480.682	2279.36
481.053	2344.44
481.424	2380.38
481.795	2342.86
482.166	2362.97
482.537	2414.05
482.908	2436.64
483.279	2485.46
483.65	2504.21
484.021	2550.54
484.391	2539.24
484.762	2581.95
485.133	2632.8
485.503	2634.61
485.874	2695.62
486.244	2716.19
486.615	2747.82
486.985	2761.38
487.356	2844.32
487.726	2820.59
488.097	2870.31
488.467	2901.94
488.837	2920.93
489.207	2971.09
489.578	3003.64
489.948	3051.77
490.318	3050.64
490.688	3051.77
491.058	3140.81
491.428	3140.13
491.798	3124.99
492.168	3204.76
492.538	3242.27
492.908	3213.8
493.278	3256.74
493.648	3300.13
494.017	3372.21
494.387	3326.57
494.757	3372.67
495.126	3430.07
495.496	3429.61
495.866	3437.97
496.235	3451.53
496.605	3483.4
496.974	3496.73
497.344	3510.29
497.713	3524.75
498.082	3562.04
498.452	3574.92
498.821	3607.69
499.19	3580.34
499.559	3668.48
499.928	3679.32
500.298	3702.15
500.667	3685.2
501.036	3707.12
501.405	3700.57
501.774	3705.99
502.143	3737.85
502.512	3785.76
502.88	3825.99
503.249	3808.13
503.618	3854.69
503.987	3820.11
504.356	3862.6
504.724	3877.74
505.093	3872.31
505.462	3881.8
505.83	3910.05
506.199	3941.24
506.567	3940.11
506.936	3946.21
507.304	4000.9
507.672	4031.41
508.041	3990.05
508.409	4056.04
508.777	4028.69
509.145	4079.09
509.514	4068.69
509.882	4092.42
510.25	4103.27
510.618	4101.69
510.986	4112.99
511.354	4101.69
511.722	4179.42
512.09	4198.18
512.458	4196.15
512.826	4204.06
513.193	4186.2
513.561	4158.18
513.929	4239.08
514.297	4290.61
514.664	4264.17
515.032	4305.75
515.4	4289.03
515.767	4336.93
516.135	4339.65
516.502	4277.73
516.869	4369.48
517.237	4337.39
517.604	4350.49
517.972	4359.08
518.339	4344.39
518.706	4414.67
519.073	4432.07
519.44	4391.4
519.808	4430.49
520.175	4431.17
520.542	4431.39
520.909	4493.54
521.276	4440.66
521.643	4516.36
522.009	4533.76
522.376	4534.89
522.743	4583.03
523.11	4625.06
523.477	4648.11
523.843	4620.77
524.21	4689.02
524.577	4655.12
524.943	4735.12
525.31	4743.7
525.676	4731.5
526.043	4778.96
526.409	4786.87
526.776	4795.68
527.142	4809.46
527.508	4887.88
527.874	4895.56
528.241	4916.81
528.607	4892.63
528.973	4921.55
529.339	4957.93
529.705	5005.39
530.071	5052.4
530.437	5066.63
530.803	5054.88
531.169	5122.45
531.535	5060.3
531.901	5084.71
532.267	5104.15
532.632	5199.06
532.998	5209.68
533.364	5191.15
533.73	5220.07
534.095	5245.38
534.461	5267.31
534.826	5300.98
535.192	5337.36
535.557	5329.68
535.923	5327.19
536.288	5289.45
536.653	5368.09
537.019	5352.27
537.384	5421.65
537.749	5500.52
538.114	5479.28
538.479	5440.41
538.845	5450.8
539.21	5517.92
539.575	5508.88
539.94	5527.86
540.305	5595.43
540.67	5600.63
541.034	5613.96
541.399	5698.48
541.764	5666.84
542.129	5676.11
542.494	5693.96
542.858	5697.8
543.223	5742.32
543.587	5782.77
543.952	5816.22
544.316	5829.32
544.681	5833.84
545.045	5880.17
545.41	5902.77
545.774	5988.42
546.138	5920.17
546.503	5990.9
546.867	6005.59
547.231	5988.64
547.595	6073.61
547.959	6092.59
548.324	6115.64
548.688	6062.99
549.052	6112.03
549.416	6128.07
549.779	6107.51
550.143	6153.16
550.507	6190.44
550.871	6229.09
551.235	6206.94
551.599	6276.54
551.962	6287.17
552.326	6343.89
552.689	6341.85
553.053	6374.17
553.417	6333.04
553.78	6373.94
554.143	6311.8
554.507	6396.54
554.87	6364.9
555.234	6480.83
555.597	6435.41
555.96	6467.73
556.323	6509.53
556.686	6511.57
557.05	6533.03
557.413	6535.52
557.776	6594.73
558.139	6600.83
558.502	6635.63
558.865	6692.58
559.228	6697.55
559.59	6653.94
559.953	6638.57
560.316	6722.41
560.679	6719.92
561.041	6800.37
561.404	6813.71
561.767	6841.27
562.129	6820.03
562.492	6855.06
562.854	6883.31
563.217	6927.6
563.579	6890.99
563.941	6913.36
564.304	6943.19
564.666	6989.29
565.028	7030.87
565.39	7048.5
565.753	7041.95
566.115	7113.36
566.477	7079.69
566.839	7140.25
567.201	7196.97
567.563	7207.59
567.925	7248.27
568.287	7235.84
568.648	7297.76
569.01	7341.15
569.372	7360.58
569.734	7307.48
570.095	7434.03
570.457	7457.53
570.819	7433.35
571.18	7510.64
571.542	7507.7
571.903	7550.18
572.265	7570.97
572.626	7619.79
572.987	7606.9
573.349	7674.25
573.71	7784.3
574.071	7795.6
574.432	7906.11
574.794	8011.64
575.155	7930.96
575.516	8009.61
575.877	8038.08
576.238	8097.29
576.599	8248.92
576.96	8244.4
577.32	8363.04
577.681	8399.43
578.042	8440.1
578.403	8505.19
578.763	8676.03
579.124	8722.13
579.485	8777.04
579.845	8939.07
580.206	9047.09
580.566	9123.25
580.927	9234.21
581.287	9335.45
581.648	9424.26
582.008	9612.05
582.368	9731.14
582.728	9900.18
583.089	10050.46
583.449	10207.97
583.809	10288.19
584.169	10539.71
584.529	10680.95
584.889	10909.64
585.249	11012.01
585.609	11207.71
585.969	11485.22
586.329	11623.75
586.688	11825.55
587.048	12061.48
587.408	12313
587.768	12466.89
588.127	12733.55
588.487	12871.85
588.846	13334.66
589.206	13486.52
589.565	13659.63
589.925	13951.6
590.284	14213.96
590.643	14477.68
591.003	14789.09
591.362	15029.08
591.721	15265.69
592.08	15568.5
592.44	15824.77
592.799	16123.74
593.158	16496.16
593.517	16685.76
593.876	16994.91
594.235	17252.53
594.593	17593.08
594.952	17912.62
595.311	18162.11
595.67	18522.32
596.029	19015.42
596.387	19241.17
596.746	19520.26
597.104	19709.64
597.463	20152.56
597.822	20409.73
598.18	20643.62
598.538	20950.28
598.897	21292.42
599.255	21413.77
599.613	21952.97
599.972	22191.61
600.33	22536.91
600.688	22708.65
601.046	23067.51
601.404	23420.27
601.762	23612.13
602.12	23938.45
602.478	24206.92
602.836	24606.91
603.194	24612.33
603.552	24989.95
603.91	25206.44
604.268	25560.56
604.625	25801.23
604.983	26001
605.341	26116.93
605.698	26616.57
606.056	26789.9
606.413	27134.98
606.771	27379.49
607.128	27558.02
607.485	27739.93
607.843	27863.77
608.2	28306.02
608.557	28651.32
608.914	28817.19
609.272	29119.33
609.629	29381.25
609.986	29604.52
610.343	29703.72
610.7	30145.07
611.057	30191.17
611.414	30441.33
611.771	30685.39
612.127	30932.39
612.484	31174.65
612.841	31330.12
613.198	31429.1
613.554	31549.33
613.911	31923.78
614.267	32023.66
614.624	32185.24
614.98	32320.15
615.337	32684.89
615.693	32714.72
616.05	32829.74
616.406	33249.85
616.762	33124.65
617.118	33384.98
617.475	33309.28
617.831	33768.48
618.187	33774.8
618.543	33931.64
618.899	34203.72
619.255	34367.78
619.611	34395.58
619.967	34665.18
620.323	34768
620.678	34688.45
621.034	34853.65
621.39	35038.95
621.746	35087.99
622.101	35548.09
622.457	35334.09
622.812	35441.2
623.168	35570.01
623.523	35668.77
623.879	35865.82
624.234	35725.94
624.589	35937.01
624.945	36079.15
625.3	36173.61
625.655	36170
626.01	36393.72
626.365	36433.27
626.72	36401.63
627.075	36331.12
627.43	36648.63
627.785	36523.21
628.14	36685.69
628.495	36849.98
628.85	36852.69
629.205	36567.72
629.559	36990.54
629.914	36871.45
630.269	36976.98
630.623	36915.74
630.978	36916.19
631.332	37172
631.687	37187.37
632.041	37122.06
632.396	37321.6
632.75	37115.28
633.104	37204.09
633.459	37087.49
633.813	37168.16
634.167	37178.33
634.521	37212.23
634.875	37263.3
635.229	37335.61
635.583	37145.11
635.937	37309.85
636.291	37233.92
636.645	37324.99
636.999	37238.67
637.352	37311.89
637.706	37131.33
638.06	37319.34
638.413	37190.53
638.767	37173.58
639.121	37343.3
639.474	37078.67
639.828	37127.71
640.181	37230.08
640.534	37345.56
640.888	37288.16
641.241	37110.76
641.594	37160.48
641.947	37292.9
642.301	37250.87
642.654	37317.99
643.007	37153.25
643.36	37203.19
643.713	37172.23
644.066	37322.28
644.419	37205.22
644.771	36831.67
645.124	36570.89
645.477	36422.64
645.83	36254.51
646.182	36124.8
646.535	36124.35
646.888	36174.29
647.24	35977.01
647.593	36234.63
647.945	36193.05
648.298	35961.64
648.65	35961.41
649.002	35841.64
649.355	36060.62
649.707	35995.08
650.059	36056.33
650.411	36548.74
650.763	36559.82
651.115	37084.32
651.467	36844.78
651.819	36843.65
652.171	36767.04
652.523	36790.09
652.875	36876.87
653.227	36668.51
653.578	36981.95
653.93	36680.94
654.282	36548.06
654.633	36577.22
654.985	36662.86
655.337	36559.82
655.688	36668.51
656.039	36739.7
656.391	36606.14
656.742	36674.84
657.094	36526.82
657.445	36743.99
657.796	36491.12
658.147	36550.78
658.498	36552.36
658.849	36687.04
659.2	36525.01
659.551	36477.56
659.902	36639.81
660.253	36488.86
660.604	36610.21
660.955	36248.86
661.306	36629.64
661.656	36452.47
662.007	36463.32
662.358	36387.39
662.708	36515.97
663.059	36485.69
663.409	36229.88
663.76	36640.27
664.11	36487.73
664.461	36500.61
664.811	36543.54
665.161	36405.7
665.511	36298.81
665.862	36479.82
666.212	36538.12
666.562	36458.8
666.912	36502.42
667.262	36416.77
667.612	36456.09
667.962	36578.8
668.312	36379.26
668.662	36468.52
669.011	36375.19
669.361	36303.1
669.711	36243.67
670.06	36363.21
670.41	36172.26
670.76	36200.73
671.109	36413.15
671.459	36382.19
671.808	36227.39
672.157	36352.82
672.507	36121.86
672.856	36171.8
673.205	36142.43
673.554	36293.16
673.904	36167.51
674.253	36337.9
674.602	36136.78
674.951	35736.11
675.3	35495.44
675.649	36082.99
675.998	35999.38
676.346	36167.74
676.695	36085.03
677.044	35850
677.393	36061.52
677.741	35979.27
678.09	35874.86
678.438	35749.44
678.787	35957.57
679.135	35945.37
679.484	35684.81
679.832	35800.29
680.181	35704.7
680.529	35692.04
680.877	35676.9
681.225	35533.4
681.573	35833.73
681.922	35571.59
682.27	35496.79
682.618	35424.7
682.966	35360.3
683.314	35471.93
683.661	35361.88
684.009	35198.27
684.357	35022.91
684.705	35139.06
685.053	35013.64
685.4	34985.62
685.748	35035.79
686.095	34942.46
686.443	34783.59
686.79	34800.77
687.138	34771.39
687.485	34782.69
687.832	34590.38
688.18	34732.07
688.527	34430.61
688.874	34556.7
689.221	34518.97
689.568	34343.38
689.915	34277.84
690.262	34281.01
690.609	34262.25
690.956	34089.37
691.303	34117.39
691.65	33925.53
691.997	33841.47
692.344	33783.84
692.69	33605.09
693.037	33660.23
693.383	33460.01
693.73	33610.97
694.077	33393.35
694.423	33307.92
694.769	33285.55
695.116	33164.2
695.462	33216.4
695.808	33056.18
696.155	33085.1
696.501	32890.53
696.847	32759.01
697.193	32709.52
697.539	32822.06
697.885	32545.23
698.231	32430.88
698.577	32365.12
698.923	32472.24
699.269	32232.25
699.614	32134.4
699.96	32074.51
700.306	32085.81
700.651	31929.88
700.997	31827.06
701.342	31897.79
701.688	31823.89
702.033	31609.21
702.379	31645.59
702.724	31595.88
703.069	31492.6
703.415	31236.79
703.76	31219.84
704.105	31156.57
704.45	31083.58
704.795	30978.95
705.14	31011.71
705.485	30855.56
705.83	30813.3
706.175	30846.52
706.52	30628.45
706.865	30586.87
707.209	30618.5
707.554	30426.64
707.899	30463.25
708.243	30396.14
708.588	30335.57
708.932	30154.11
709.277	30090.61
709.621	30142.81
709.966	29921.35
710.31	29972.19
710.654	29878.86
710.998	29847.9
711.342	29817.85
711.687	29778.3
712.031	29580.56
712.375	29454.47
712.719	29635.48
713.063	29447.46
713.407	29420.79
713.75	29384.19
714.094	29400
714.438	29128.15
714.782	29207.01
715.125	29205.21
715.469	29241.36
715.812	28942.84
716.156	28916.85
716.499	29008.83
716.843	28892.22
717.186	28789.4
717.53	29004.31
717.873	28804.09
718.216	28758.44
718.559	28579.69
718.902	28504.66
719.246	28529.97
719.589	28408.84
719.932	28345.34
720.275	28268.96
720.617	28241.62
720.96	28280.94
721.303	28301.95
721.646	28236.42
721.989	27987.16
722.331	28108.06
722.674	27964.34
723.016	28100.6
723.359	28061.73
723.701	27991
724.044	27793.72
724.386	27668.3
724.729	27751.01
725.071	27775.41
725.413	27692.25
725.755	27573.61
726.097	27571.8
726.439	27440.28
726.782	27389.21
727.124	27583.78
727.465	27295.65
727.807	27249.55
728.149	27258.37
728.491	27226.5
728.833	27257.91
729.175	27133.85
729.516	27051.82
729.858	27041.42
730.199	27167.07
730.541	27055.43
730.882	26938.6
731.224	27049.11
731.565	26780.19
731.906	26980.63
732.248	26843.46
732.589	26736.12
732.93	26699.28
733.271	26740.64
733.612	26747.87
733.953	26704.93
734.294	26615.67
734.635	26498.39
734.976	26534.32
735.317	26376.58
735.658	26495.45
735.999	26406.41
736.339	26434.21
736.68	26432.85
737.021	26290.93
737.361	26273.53
737.702	26319.86
738.042	26259.52
738.383	26216.81
738.723	26262.23
739.063	26093.2
739.404	26143.82
739.744	26048.91
740.084	25951.96
740.424	25973.2
740.764	25924.39
741.104	25996.03
741.444	25800.1
741.784	25731.85
742.124	25755.58
742.464	25790.16
742.804	25581.12
743.143	25623.38
743.483	25689.14
743.823	25477.4
744.162	25527.56
744.502	25518.52
744.841	25348.58
745.181	25426.1
745.52	25385.19
745.86	25409.6
746.199	25217.06
746.538	25270.62
746.877	25372.99
747.216	25293.22
747.556	25141.58
747.895	25130.74
748.234	25096.39
748.573	25015.49
748.911	25019.33
749.25	25045.54
749.589	24869.28
749.928	24965.09
750.267	24889.84
750.605	24747.47
750.944	24729.84
751.283	24568.49
751.621	24765.32
751.96	24719
752.298	24592.22
752.636	24562.62
752.975	24500.02
753.313	24321.95
753.651	24584.31
753.989	24412.11
754.327	24286.69
754.666	24199.69
755.004	24314.04
755.342	24262.29
755.679	24159.01
756.017	23881.28
756.355	24032.01
756.693	23956.53
757.031	23965.12
757.368	23822.07
757.706	23730.1
758.044	23726.48
758.381	23770.32
758.719	23574.85
759.056	23655.97
759.394	23463.66
759.731	23360.39
760.068	23385.25
