Data from hue_310_FLMS001491_83.txt Node
Date: Mon Feb 06 15:50:19 GMT 2017
User: dcchb
Spectrometer: FLMS00149
Trigger mode: 0
Integration Time (sec): 2.000000E-2
Scans to average: 10
Electric dark correction enabled: true
Nonlinearity correction enabled: false
Boxcar width: 0
XAxis mode: Wavelengths
Number of Pixels in Spectrum: 2048
>>>>>Begin Spectral Data<<<<<
341.393	-27.16
341.776	-27.16
342.16	-27.16
342.543	-56.31
342.927	-65.35
343.31	-80.27
343.693	-55.63
344.077	-53.15
344.46	-61.06
344.843	-59.25
345.226	-47.5
345.61	-37.56
345.993	-35.52
346.376	-6.82
346.759	6.96
347.142	13.74
347.525	67.98
347.908	53.74
348.291	66.17
348.674	103.23
349.057	124.93
349.44	122.21
349.823	150.69
350.206	145.72
350.588	182.33
350.971	220.97
351.354	238.6
351.737	237.01
352.119	258.93
352.502	260.06
352.884	277.92
353.267	273.62
353.65	290.12
354.032	302.55
354.414	310.46
354.797	312.49
355.179	294.19
355.562	314.3
355.944	330.34
356.326	319.95
356.709	338.71
357.091	348.2
357.473	355.65
357.855	344.13
358.238	337.35
358.62	344.58
359.002	364.02
359.384	339.84
359.766	339.84
360.148	331.93
360.53	333.73
360.912	347.52
361.294	351.59
361.676	312.27
362.057	347.07
362.439	328.08
362.821	334.86
363.203	317.24
363.584	317.69
363.966	316.33
364.348	335.32
364.729	340.97
365.111	296.22
365.493	310.91
365.874	317.01
366.256	289.44
366.637	317.46
367.019	326.73
367.4	323.34
367.781	304.58
368.163	314.53
368.544	314.75
368.925	319.05
369.306	320.63
369.688	315.43
370.069	311.81
370.45	307.97
370.831	321.08
371.212	331.02
371.593	310.23
371.974	317.01
372.355	307.97
372.736	316.11
373.117	328.54
373.498	318.59
373.879	325.6
374.26	311.59
374.641	306.16
375.021	313.62
375.402	312.72
375.783	326.95
376.163	325.82
376.544	334.64
376.925	329.21
377.305	322.44
377.686	349.33
378.066	324.47
378.447	314.75
378.827	322.89
379.208	337.12
379.588	341.19
379.968	332.83
380.349	333.73
380.729	331.93
381.109	328.76
381.489	347.52
381.87	336.67
382.25	340.97
382.63	345.71
383.01	345.26
383.39	338.48
383.77	357.91
384.15	363.11
384.53	365.37
384.91	352.94
385.29	356.78
385.67	360.63
386.049	361.98
386.429	348.42
386.809	365.37
387.189	353.39
387.568	351.81
387.948	338.48
388.328	364.02
388.707	368.31
389.087	358.82
389.466	367.63
389.846	385.94
390.225	359.72
390.605	381.64
390.984	376.22
391.363	358.59
391.743	355.65
392.122	368.54
392.501	382.32
392.881	394.07
393.26	375.31
393.639	393.39
394.018	395.43
394.397	385.26
394.776	390
395.155	382.77
395.534	385.26
395.913	385.03
396.292	395.88
396.671	384.58
397.05	402.66
397.429	411.02
397.808	403.79
398.186	415.09
398.565	392.04
398.944	401.53
399.323	390
399.701	424.81
400.08	412.6
400.458	390.23
400.837	410.79
401.215	419.16
401.594	428.19
401.972	430.68
402.351	424.13
402.729	420.51
403.107	427.07
403.486	427.74
403.864	434.97
404.242	441.3
404.62	451.7
404.999	460.06
405.377	451.7
405.755	455.54
406.133	440.17
406.511	448.31
406.889	480.62
407.267	457.57
407.645	466.39
408.023	474.52
408.401	470
408.779	503.45
409.156	480.62
409.534	519.27
409.912	511.81
410.29	507.74
410.667	494.63
411.045	514.07
411.422	546.16
411.8	518.14
412.178	535.76
412.555	558.14
412.933	538.47
413.31	585.25
413.687	590.45
414.065	558.14
414.442	590
414.819	587.96
415.197	600.62
415.574	620.51
415.951	622.54
416.328	613.27
416.705	628.19
417.082	637
417.46	637.23
417.837	651.92
418.214	673.84
418.591	664.12
418.967	676.55
419.344	681.3
419.721	703.89
420.098	700.28
420.475	710.67
420.852	728.07
421.228	734.63
421.605	738.92
421.982	736.66
422.358	750.22
422.735	761.52
423.111	744.8
423.488	767.17
423.864	775.98
424.241	803.1
424.617	824.12
424.994	811.91
425.37	830.44
425.746	838.13
426.123	830.22
426.499	851.46
426.875	850.56
427.251	836.09
427.627	878.58
428.003	874.28
428.379	899.37
428.756	895.08
429.132	913.38
429.507	927.62
429.883	912.93
430.259	932.59
430.635	938.24
431.011	948.86
431.387	979.14
431.763	994.28
432.138	1022.08
432.514	998.12
432.89	1006.71
433.265	1013.72
433.641	1048.97
434.016	1065.47
434.392	1094.62
434.767	1105.01
435.143	1072.47
435.518	1099.36
435.894	1098.91
436.269	1116.76
436.644	1132.81
437.02	1174.62
437.395	1151.57
437.77	1173.26
438.145	1211.23
438.52	1206.71
438.895	1227.04
439.271	1231.11
439.646	1221.85
440.021	1245.8
440.395	1247.61
440.77	1231.79
441.145	1234.73
441.52	1251.45
441.895	1278.57
442.27	1299.58
442.645	1303.65
443.019	1295.97
443.394	1269.98
443.769	1308.4
444.143	1308.4
444.518	1313.6
444.892	1304.56
445.267	1300.26
445.641	1348.85
446.016	1343.65
446.39	1337.1
446.764	1352.46
447.139	1355.18
447.513	1353.82
447.887	1361.28
448.262	1373.03
448.636	1368.96
449.01	1384.55
449.384	1418.23
449.758	1367.61
450.132	1404.67
450.506	1401.05
450.88	1413.71
451.254	1410.54
451.628	1404.21
452.002	1432.69
452.376	1459.81
452.75	1451.67
453.123	1442.18
453.497	1489.41
453.871	1480.82
454.244	1519.01
454.618	1530.76
454.992	1519.69
455.365	1513.14
455.739	1562.63
456.112	1587.26
456.486	1577.77
456.859	1588.16
457.232	1587.26
457.606	1606.47
457.979	1620.03
458.352	1614.83
458.725	1669.29
459.099	1664.32
459.472	1685.11
459.845	1665.22
460.218	1699.12
460.591	1689.63
460.964	1694.15
461.337	1755.62
461.71	1737.31
462.083	1754.49
462.456	1767.37
462.829	1793.36
463.201	1819.34
463.574	1788.16
463.947	1842.62
464.32	1861.6
464.692	1831.1
465.065	1862.96
465.438	1893.92
465.81	1926.23
466.183	1881.04
466.555	1944.99
466.928	1951.77
467.3	1941.38
467.672	1965.56
468.045	2012.79
468.417	2016.85
468.789	1997.87
469.161	2035.84
469.534	2061.6
469.906	2074.48
470.278	2072.22
470.65	2100.92
471.022	2139.34
471.394	2204.19
471.766	2166
472.138	2178.21
472.51	2226.79
472.882	2233.35
473.253	2240.58
473.625	2296.39
473.997	2311.31
474.369	2310.63
474.74	2318.31
475.112	2407.58
475.484	2414.36
475.855	2461.81
476.227	2440.8
476.598	2462.04
476.97	2502.94
477.341	2548.82
477.713	2597.63
478.084	2598.76
478.455	2639.89
478.827	2663.62
479.198	2711.3
479.569	2711.07
479.94	2800.11
480.311	2758.53
480.682	2883.72
481.053	2902.25
481.424	2924.85
481.795	2947.9
482.166	2959.43
482.537	3016.15
482.908	3051.63
483.279	3020.67
483.65	3071.52
484.021	3142.93
484.391	3165.07
484.762	3144.73
485.133	3149.48
485.503	3243.94
485.874	3288.68
486.244	3224.05
486.615	3334.56
486.985	3353.77
487.356	3408.91
487.726	3436.7
488.097	3488.45
488.467	3494.56
488.837	3529.58
489.207	3591.05
489.578	3642.57
489.948	3631.73
490.318	3678.96
490.688	3696.81
491.058	3735
491.428	3790.59
491.798	3814.55
492.168	3854.09
492.538	3835.34
492.908	3916.46
493.278	3945.62
493.648	3923.92
494.017	3999.4
494.387	4000.98
494.757	4081.66
495.126	4042.11
495.496	4042.56
495.866	4109
496.235	4165.5
496.605	4113.75
496.974	4167.53
497.344	4161.43
497.713	4179.28
498.082	4216.57
498.452	4283.23
498.821	4273.07
499.19	4297.7
499.559	4355.78
499.928	4366.4
500.298	4323.46
500.667	4369.79
501.036	4418.37
501.405	4469.9
501.774	4445.72
502.143	4449.11
502.512	4447.3
502.88	4508.09
503.249	4446.39
503.618	4518.03
503.987	4569.33
504.356	4536.11
504.724	4582.44
505.093	4592.83
505.462	4595.32
505.83	4610.68
506.199	4648.87
506.567	4682.77
506.936	4707.18
507.304	4714.41
507.672	4704.01
508.041	4750.57
508.409	4730
508.777	4771.58
509.145	4833.95
509.514	4830.34
509.882	4805.93
510.25	4870.56
510.618	4838.93
510.986	4864.24
511.354	4884.57
511.722	4943.1
512.09	5011.8
512.458	4930.45
512.826	5019.94
513.193	5030.56
513.561	5029.2
513.929	5014.97
514.297	5039.15
514.664	5129.31
515.032	5105.36
515.4	5098.35
515.767	5082.08
516.135	5075.76
516.502	5033.95
516.869	5180.84
517.237	5123.89
517.604	5143.55
517.972	5203.66
518.339	5223.55
518.706	5230.33
519.073	5269.2
519.44	5238.01
519.808	5285.69
520.175	5250.89
520.542	5306.94
520.909	5310.78
521.276	5285.24
521.643	5409.53
522.009	5429.19
522.376	5447.27
522.743	5461.06
523.11	5511.9
523.477	5523.65
523.843	5483.2
524.21	5517.1
524.577	5607.49
524.943	5574.5
525.31	5619.24
525.676	5669.41
526.043	5727.72
526.409	5745.8
526.776	5751.44
527.142	5764.55
527.508	5775.85
527.874	5802.74
528.241	5838.45
528.607	5865.11
528.973	5930.2
529.339	5946.69
529.705	5949.86
530.071	6000.93
530.437	6096.07
530.803	6092.68
531.169	6120.25
531.535	6072.79
531.901	6151.43
532.267	6141.27
532.632	6218.55
532.998	6221.94
533.364	6220.59
533.73	6303.75
534.095	6282.05
534.461	6294.71
534.826	6390.75
535.192	6343.29
535.557	6400.24
535.923	6362.73
536.288	6448.15
536.653	6500.58
537.019	6442.95
537.384	6469.84
537.749	6549.84
538.114	6541.25
538.479	6559.33
538.845	6643.62
539.21	6627.35
539.575	6674.13
539.94	6607.02
540.305	6708.93
540.67	6678.2
541.034	6713.23
541.399	6777.63
541.764	6803.85
542.129	6842.04
542.494	6848.82
542.858	6950.28
543.223	6910.06
543.587	6923.17
543.952	6962.71
544.316	7013.78
544.681	6995.71
545.045	7110.28
545.41	7109.6
545.774	7195.47
546.138	7123.84
546.503	7087.45
546.867	7136.49
547.231	7181.69
547.595	7243.83
547.959	7209.94
548.324	7216.94
548.688	7305.3
549.052	7345.53
549.416	7350.95
549.779	7305.75
550.143	7417.84
550.507	7452.87
550.871	7432.76
551.235	7412.19
551.599	7507.56
551.962	7547.78
552.326	7529.7
552.689	7601.57
553.053	7535.13
553.417	7594.11
553.78	7630.72
554.143	7675.46
554.507	7702.58
554.87	7742.58
555.234	7769.02
555.597	7744.61
555.96	7732.64
556.323	7806.98
556.686	7795.68
557.05	7844.05
557.413	7899.41
557.776	7867.55
558.139	7931.73
558.502	7968.56
558.865	7982.35
559.228	8067.54
559.59	8003.14
559.953	8077.03
560.316	8107.54
560.679	8114.77
561.041	8133.3
561.404	8164.71
561.767	8203.13
562.129	8119.07
562.492	8286.07
562.854	8224.37
563.217	8244.94
563.579	8261.21
563.941	8326.29
564.304	8386.86
564.666	8426.63
565.028	8449.9
565.39	8428.66
565.753	8480.86
566.115	8507.53
566.477	8540.52
566.839	8564.03
567.201	8593.63
567.563	8592.27
567.925	8631.14
568.287	8710.69
568.648	8742.55
569.01	8733.29
569.372	8809.67
569.734	8736
570.095	8839.05
570.457	8875.66
570.819	8937.8
571.18	8907.75
571.542	8955.43
571.903	9019.38
572.265	9069.78
572.626	9122.66
572.987	9192.94
573.349	9266.15
573.71	9280.39
574.071	9309.09
574.432	9414.4
574.794	9456.66
575.155	9468.18
575.516	9493.04
575.877	9600.16
576.238	9636.99
576.599	9700.95
576.96	9802.86
577.32	9919.02
577.681	10016.87
578.042	10082.18
578.403	10171.67
578.763	10270.87
579.124	10354.26
579.485	10498.66
579.845	10669.96
580.206	10736.4
580.566	10916.05
580.927	10966.67
581.287	11029.27
581.648	11220.68
582.008	11410.05
582.368	11502.71
582.728	11657.28
583.089	11758.52
583.449	11972.75
583.809	12226.08
584.169	12348.11
584.529	12478.05
584.889	12805.95
585.249	12977.92
585.609	13110.8
585.969	13347.63
586.329	13657.23
586.688	13805.02
587.048	14059.02
587.408	14287.94
587.768	14465.79
588.127	14786.01
588.487	15045.44
588.846	15271.87
589.206	15473.68
589.565	15820.33
589.925	16129.93
590.284	16296.93
590.643	16660.99
591.003	16994.09
591.362	17242.67
591.721	17461.65
592.08	17886.49
592.44	18112.25
592.799	18427.27
593.158	18612.8
593.517	18989.97
593.876	19336.85
594.235	19521.03
594.593	19974.35
594.952	20295.24
595.311	20486.2
595.67	20837.15
596.029	21249.12
596.387	21586.06
596.746	21949.21
597.104	22153.5
597.463	22492.47
597.822	22821.96
598.18	23005.45
598.538	23336.97
598.897	23771.76
599.255	23820.8
599.613	24407.9
599.972	24586.43
600.33	25011.96
600.688	25242.23
601.046	25510.93
601.404	26024.81
601.762	26297.57
602.12	26626.15
602.478	26810.78
602.836	27086.7
603.194	27302.29
603.552	27603.53
603.91	27680.13
604.268	28203.06
604.625	28437.18
604.983	28677.85
605.341	28853.44
605.698	29240.09
606.056	29636.92
606.413	29795.33
606.771	30091.82
607.128	30487.97
607.485	30558.7
607.843	30794.63
608.2	31103.77
608.557	31438
608.914	31553.03
609.272	31935.62
609.629	32242.95
609.986	32499.44
610.343	32535.37
610.7	32926.32
611.057	33117.5
611.414	33195.69
611.771	33497.16
612.127	33688.79
612.484	33930.36
612.841	34298.26
613.198	34345.04
613.554	34325.83
613.911	34740.97
614.267	34891.92
614.624	35071.13
614.98	35278.8
615.337	35495.75
615.693	35634.5
616.05	35707.04
616.406	36068.61
616.762	36178.67
617.118	36251.21
617.475	36394.25
617.831	36608.94
618.187	36777.97
618.543	36928.48
618.899	37320.11
619.255	37293.21
619.611	37302.71
619.967	37597.84
620.323	37822.69
620.678	37721.9
621.034	37796.7
621.39	37951.28
621.746	37969.13
622.101	38453.86
622.457	38245.51
622.812	38393.75
623.168	38613.41
623.523	38709.9
623.879	38876.68
624.234	38776.79
624.589	39076.67
624.945	39042.32
625.3	39158.7
625.655	39168.87
626.01	39330.45
626.365	39427.4
626.72	39443.89
627.075	39506.04
627.43	39680.5
627.785	39577.67
628.14	39719.59
628.495	39794.62
628.85	39840.49
629.205	39653.15
629.559	39986.93
629.914	39971.11
630.269	40022.18
630.623	39934.27
630.978	40080.94
631.332	40240.71
631.687	40145.79
632.041	40169.75
632.396	40216.3
632.75	40148.05
633.104	40229.63
633.459	40172.23
633.813	40173.82
634.167	40216.3
634.521	40264.21
634.875	40265.11
635.229	40319.58
635.583	40216.98
635.937	40181.5
636.291	40330.65
636.645	40201.39
636.999	40179.92
637.352	40436.86
637.706	40208.39
638.06	40349.18
638.413	40293.59
638.767	40192.12
639.121	40332
639.474	40193.48
639.828	40082.07
640.181	40229.18
640.534	40238.22
640.888	40167.49
641.241	39930.66
641.594	40121.16
641.947	40341.95
642.301	40197.32
642.654	40171.78
643.007	40147.6
643.36	40171.56
643.713	40165.46
644.066	40176.98
644.419	40017.89
644.771	39776.54
645.124	39418.81
645.477	39403.67
645.83	39184.92
646.182	39099.27
646.535	38961.42
646.888	39074.86
647.24	38840.07
647.593	39027.63
647.945	38991.02
648.298	38890.46
648.65	38791.03
649.002	38723.91
649.355	38870.12
649.707	38811.37
650.059	38892.72
650.411	39351.01
650.763	39434.63
651.115	39806.59
651.467	39637.56
651.819	39655.64
652.171	39586.49
652.523	39610.22
652.875	39561.86
653.227	39414.74
653.578	39763.21
653.93	39751.45
654.282	39519.37
654.633	39377.91
654.985	39463.33
655.337	39519.82
655.688	39490.44
656.039	39646.82
656.391	39185.37
656.742	39437.34
657.094	39416.1
657.445	39513.72
657.796	39303.33
658.147	39426.04
658.498	39306.27
658.849	39360.96
659.2	39286.83
659.551	39329.77
659.902	39365.02
660.253	39301.07
660.604	39401.86
660.955	39132.26
661.306	39332.26
661.656	39255.42
662.007	39324.12
662.358	39248.19
662.708	39280.73
663.059	39259.26
663.409	39015.2
663.76	39331.13
664.11	39383.1
664.461	39259.94
664.811	39202.54
665.161	39243.22
665.511	39154.63
665.862	39206.84
666.212	39354.63
666.562	39334.97
666.912	39210.45
667.262	39115.09
667.612	39270.56
667.962	39171.81
668.312	39124.35
668.662	39343.78
669.011	39089.33
669.361	39149.89
669.711	38971.59
670.06	38983.11
670.41	38863.34
670.76	38956.22
671.109	39091.81
671.459	39144.69
671.808	39049.1
672.157	39066.5
672.507	38850.01
672.856	38811.59
673.205	38812.27
673.554	38937.24
673.904	38924.13
674.253	39045.03
674.602	38894.53
674.951	38358.95
675.3	38165.73
675.649	38724.82
675.998	38751.03
676.346	38694.76
676.695	38927.3
677.044	38614.99
677.393	38701.31
677.741	38756.68
678.09	38723.23
678.438	38569.56
678.787	38593.75
679.135	38662.44
679.484	38483.47
679.832	38551.49
680.181	38343.13
680.529	38414.77
680.877	38333.41
681.225	38239.63
681.573	38420.87
681.922	38295.67
682.27	38252.06
682.618	38082.12
682.966	38074.44
683.314	38219.97
683.661	37996.7
684.009	37711.51
684.357	37864.5
684.705	37736.14
685.053	37782.92
685.4	37706.08
685.748	37601.68
686.095	37659.08
686.443	37445.75
686.79	37427.67
687.138	37473.32
687.485	37418.18
687.832	37364.85
688.18	37359.2
688.527	37103.61
688.874	37022.94
689.221	37085.08
689.568	36842.38
689.915	36868.14
690.262	36845.09
690.609	36710.86
690.956	36722.38
691.303	36669.05
691.65	36469.73
691.997	36396.29
692.344	36242.62
692.69	36217.54
693.037	36210.98
693.383	35916.75
693.73	36040.82
694.077	35885.34
694.423	36100.03
694.769	35685.57
695.116	35736.65
695.462	35618.68
695.808	35453.94
696.155	35575.75
696.501	35248.75
696.847	35279.93
697.193	34981.41
697.539	35378.46
697.885	35030.22
698.231	34925.37
698.577	34852.83
698.923	34885.82
699.269	34687.41
699.614	34563.57
699.96	34572.61
700.306	34456.23
700.651	34391.6
700.997	34358.15
701.342	34229.34
701.688	34221.88
702.033	34034.32
702.379	33960.87
702.724	33873.64
703.069	33990.25
703.415	33633.88
703.76	33602.01
704.105	33586.42
704.45	33486.76
704.795	33320.89
705.14	33336.26
705.485	33298.07
705.83	33134.68
706.175	33216.03
706.52	33139.88
706.865	32850.17
707.209	32924.97
707.554	32770.4
707.899	32890.39
708.243	32681.13
708.588	32603.39
708.932	32382.61
709.277	32344.87
709.621	32324.08
709.966	32212.22
710.31	32358.43
710.654	32035.27
710.998	32040.25
711.342	31999.79
711.687	31983.75
712.031	31958.89
712.375	31672.12
712.719	31852.68
713.063	31696.3
713.407	31752.57
713.75	31643.65
714.094	31540.6
714.438	31430.09
714.782	31493.14
715.125	31285.01
715.469	31354.84
715.812	31159.36
716.156	31158.91
716.499	31125.01
716.843	31070.1
717.186	30897.45
717.53	31075.98
717.873	31083.21
718.216	30896.55
718.559	30690.22
718.902	30690.22
719.246	30672.82
719.589	30616.33
719.932	30596.44
720.275	30456.33
720.617	30419.72
720.96	30587.85
721.303	30417.69
721.646	30272.16
721.989	30099.05
722.331	30302.66
722.674	30161.88
723.016	30131.59
723.359	30096.34
723.701	30190.58
724.044	29813.41
724.386	29695.45
724.729	29893.86
725.071	29774.09
725.413	29815.44
725.755	29724.6
726.097	29632.62
726.439	29502.91
726.782	29489.13
727.124	29526.86
727.465	29391.73
727.807	29367.55
728.149	29291.62
728.491	29353.08
728.833	29400.77
729.175	29224.5
729.516	29170.72
729.858	29139.08
730.199	29158.29
730.541	29051.62
730.882	29088.01
731.224	29059.53
731.565	28895.7
731.906	28916.94
732.248	28923.49
732.589	28768.24
732.93	28515.82
733.271	28799.65
733.612	28717.17
733.953	28613.89
734.294	28643.5
734.635	28495.71
734.976	28574.8
735.317	28467.68
735.658	28401.47
735.999	28394.69
736.339	28300.23
736.68	28334.58
737.021	28329.16
737.361	28219.55
737.702	28299.78
738.042	28241.47
738.383	28106.56
738.723	28171.42
739.063	27935.72
739.404	28175.49
739.744	28035.6
740.084	27891.43
740.424	27910.18
740.764	27822.73
741.104	27985.89
741.444	27756.74
741.784	27691.43
742.124	27768.49
742.464	27726.23
742.804	27607.14
743.143	27498.9
743.483	27579.8
743.823	27451.89
744.162	27378.45
744.502	27519.91
744.841	27262.97
745.181	27285.79
745.52	27279.92
745.86	27259.13
746.199	27274.95
746.538	27191.56
746.877	27244.89
747.216	27161.73
747.556	27098.68
747.895	27167.83
748.234	26945.92
748.573	26838.8
748.911	26878.8
749.25	26857.1
749.589	26719.03
749.928	26767.62
750.267	26788.41
750.605	26632.03
750.944	26567.62
751.283	26377.57
751.621	26576.43
751.96	26273.62
752.298	26393.16
752.636	26332.15
752.975	26223.67
753.313	26258.25
753.651	26252.6
753.989	26125.82
754.327	25949.56
754.666	25875.44
755.004	25907.98
755.342	26032.72
755.679	25904.36
756.017	25773.97
756.355	25810.35
756.693	25647.19
757.031	25695.78
757.368	25518.61
757.706	25426.86
758.044	25459.18
758.381	25531.04
758.719	25301.67
759.056	25395.22
