Data from hue_220_FLMS001491_00074.txt Node
Date: Tue Feb 07 16:39:55 GMT 2017
User: dcchb
Spectrometer: FLMS00149
Trigger mode: 0
Integration Time (sec): 2.000000E-2
Scans to average: 10
Electric dark correction enabled: true
Nonlinearity correction enabled: false
Boxcar width: 0
XAxis mode: Wavelengths
Number of Pixels in Spectrum: 2048
>>>>>Begin Spectral Data<<<<<
341.393	-18.09
341.776	-18.09
342.16	-18.09
342.543	-61.26
342.927	-54.48
343.31	-62.16
343.693	-70.29
344.077	-66.23
344.46	-66.68
344.843	-51.09
345.226	-41.82
345.61	-24.87
345.993	-29.62
346.376	-5.44
346.759	11.51
347.142	46.76
347.525	39.31
347.908	63.94
348.291	78.85
348.674	77.95
349.057	99.87
349.44	129.02
349.823	117.95
350.206	166.08
350.588	170.83
350.971	195.46
351.354	222.58
351.737	242.69
352.119	232.3
352.502	262.58
352.884	275.23
353.267	261.9
353.65	287.44
354.032	287.66
354.414	314.78
354.797	285.85
355.179	312.52
355.562	309.58
355.944	329.92
356.326	323.14
356.709	319.53
357.091	332.41
357.473	328.79
357.855	333.99
358.238	340.99
358.62	330.6
359.002	331.05
359.384	327.43
359.766	323.59
360.148	339.41
360.53	330.15
360.912	330.15
361.294	324.5
361.676	335.57
362.057	333.08
362.439	326.53
362.821	300.99
363.203	309.81
363.584	329.02
363.966	330.15
364.348	312.07
364.729	299.86
365.111	315.46
365.493	310.26
365.874	309.81
366.256	325.4
366.637	314.55
367.019	309.58
367.4	327.89
367.781	316.81
368.163	305.29
368.544	313.42
368.925	293.31
369.306	314.78
369.688	312.75
370.069	313.65
370.45	305.29
370.831	314.78
371.212	305.74
371.593	290.83
371.974	302.12
372.355	331.5
372.736	313.2
373.117	303.93
373.498	323.37
373.879	300.09
374.26	308.68
374.641	287.89
375.021	307.55
375.402	316.14
375.783	304.38
376.163	310.49
376.544	338.28
376.925	314.1
377.305	326.76
377.686	325.4
378.066	312.52
378.447	333.54
378.827	313.65
379.208	317.94
379.588	319.3
379.968	302.35
380.349	312.75
380.729	339.86
381.109	338.28
381.489	333.99
381.87	311.39
382.25	332.18
382.63	337.38
383.01	347.32
383.39	337.83
383.77	324.27
384.15	336.93
384.53	353.2
384.91	354.78
385.29	346.87
385.67	366.08
386.049	350.03
386.429	340.09
386.809	343.48
387.189	359.75
387.568	342.58
387.948	342.8
388.328	366.98
388.707	345.06
389.087	372.18
389.466	362.69
389.846	353.87
390.225	348.9
390.605	366.3
390.984	382.57
391.363	362.24
391.743	363.14
392.122	385.06
392.501	383.25
392.881	374.21
393.26	386.64
393.639	373.31
394.018	376.7
394.397	363.14
394.776	381.9
395.155	353.87
395.534	387.09
395.913	378.06
396.292	390.71
396.671	384.16
397.05	402.91
397.429	394.55
397.808	380.31
398.186	383.93
398.565	400.65
398.944	402.24
399.323	401.56
399.701	398.39
400.08	406.3
400.458	411.05
400.837	425.51
401.215	423.7
401.594	402.91
401.972	430.26
402.351	426.42
402.729	415.34
403.107	441.1
403.486	423.25
403.864	414.89
404.242	421.9
404.62	435
404.999	455.34
405.377	477.26
405.755	476.58
406.133	478.84
406.511	443.82
406.889	454.44
407.267	475.68
407.645	490.82
408.023	461.89
408.401	490.37
408.779	484.94
409.156	524.27
409.534	500.54
409.912	515.68
410.29	547.99
410.667	536.02
411.045	523.14
411.422	564.04
411.8	541.89
412.178	561.33
412.555	566.07
412.933	578.95
413.31	564.72
413.687	571.5
414.065	605.62
414.442	601.1
414.819	603.81
415.197	616.01
415.574	625.05
415.951	621.89
416.328	637.94
416.705	641.1
417.082	633.19
417.46	650.82
417.837	662.34
418.214	654.43
418.591	694.43
418.967	668.67
419.344	701.21
419.721	733.75
420.098	723.13
420.475	718.39
420.852	770.36
421.228	749.34
421.605	750.47
421.982	765.16
422.358	785.5
422.735	798.83
423.111	789.34
423.488	821.66
423.864	841.09
424.241	856.01
424.617	888.78
424.994	865.73
425.37	889.91
425.746	906.85
426.123	922.9
426.499	925.16
426.875	918.15
427.251	947.76
427.627	953.41
428.003	957.25
428.379	1003.12
428.756	972.16
429.132	991.15
429.507	1023.69
429.883	1032.28
430.259	1065.49
430.635	1051.26
431.011	1059.39
431.387	1099.39
431.763	1105.49
432.138	1122.44
432.514	1154.08
432.89	1144.59
433.265	1168.99
433.641	1184.59
434.016	1194.98
434.392	1235.89
434.767	1257.35
435.143	1253.74
435.518	1270.01
435.894	1315.43
436.269	1338.03
436.644	1357.92
437.02	1353.85
437.395	1401.98
437.77	1414.41
438.145	1428.65
438.52	1442.89
438.895	1474.75
439.271	1472.94
439.646	1519.95
440.021	1518.14
440.395	1538.7
440.77	1519.95
441.145	1578.93
441.52	1595.88
441.895	1618.7
442.27	1640.39
442.645	1660.96
443.019	1693.5
443.394	1686.72
443.769	1713.16
444.143	1703.67
444.518	1733.5
444.892	1735.76
445.267	1740.05
445.641	1794.51
446.016	1784.8
446.39	1790.9
446.764	1803.55
447.139	1843.78
447.513	1836.32
447.887	1856.43
448.262	1813.27
448.636	1839.26
449.01	1890.56
449.384	1908.41
449.758	1890.33
450.132	1946.38
450.506	1957
450.88	1935.75
451.254	1946.83
451.628	1978.01
452.002	2010.55
452.376	2020.5
452.75	2060.27
453.123	2077.67
453.497	2062.98
453.871	2096.65
454.244	2158.8
454.618	2146.14
454.992	2168.06
455.365	2199.48
455.739	2233.83
456.112	2256.2
456.486	2277.67
456.859	2287.61
457.232	2340.49
457.606	2351.79
457.979	2361.05
458.352	2357.21
458.725	2437.66
459.099	2432.24
459.472	2453.71
459.845	2477.89
460.218	2500.49
460.591	2507.94
460.964	2545
461.337	2551.11
461.71	2623.65
462.083	2624.32
462.456	2630.2
462.829	2661.61
463.201	2697.32
463.574	2733.02
463.947	2757.88
464.32	2790.87
464.692	2814.83
465.065	2830.65
465.438	2916.29
465.81	2910.19
466.183	2912.23
466.555	3005.56
466.928	3002.39
467.3	3008.95
467.672	3071.32
468.045	3144.31
468.417	3160.58
468.789	3144.31
469.161	3187.92
469.534	3250.07
469.906	3288.94
470.278	3314.93
470.65	3382.95
471.022	3406.9
471.394	3449.61
471.766	3502.04
472.138	3521.7
472.51	3549.72
472.882	3611.64
473.253	3639.21
473.625	3671.53
473.997	3804.63
474.369	3760.56
474.74	3841.92
475.112	3899.54
475.484	3942.93
475.855	3971.18
476.227	4000.78
476.598	4139.76
476.97	4125.3
477.341	4236.94
477.713	4254.34
478.084	4262.02
478.455	4396.25
478.827	4412.53
479.198	4533.65
479.569	4511.05
479.94	4610.71
480.311	4662.46
480.682	4802.35
481.053	4854.32
481.424	4888.9
481.795	4958.73
482.166	5023.13
482.537	5047.76
482.908	5173.64
483.279	5177.7
483.65	5247.08
484.021	5362.1
484.391	5404.14
484.762	5419.28
485.133	5484.14
485.503	5542.66
485.874	5628.99
486.244	5663.34
486.615	5753.28
486.985	5837.12
487.356	5893.62
487.726	5920.73
488.097	6061.52
488.467	6027.85
488.837	6159.6
489.207	6238.92
489.578	6315.3
489.948	6344.68
490.318	6443.88
490.688	6468.29
491.058	6528.85
491.428	6579.25
491.798	6640.72
492.168	6729.3
492.538	6788.51
492.908	6787.15
493.278	6847.72
493.648	6887.71
494.017	6991.44
494.387	7010.65
494.757	7032.57
495.126	7128.61
495.496	7084.32
495.866	7147.59
496.235	7271.43
496.605	7276.63
496.974	7305.33
497.344	7325.67
497.713	7319.12
498.082	7385.78
498.452	7452.67
498.821	7509.62
499.19	7477.98
499.559	7604.53
499.928	7588.71
500.298	7567.92
500.667	7640.01
501.036	7712.33
501.405	7771.98
501.774	7703.96
502.143	7717.3
502.512	7786.22
502.88	7792.1
503.249	7811.53
503.618	7818.99
503.987	7905.99
504.356	7911.19
504.724	7918.65
505.093	7928.36
505.462	7977.18
505.83	7950.96
506.199	8032.32
506.567	8101.47
506.936	8108.47
507.304	8170.62
507.672	8193.67
508.041	8175.14
508.409	8163.39
508.777	8279.77
509.145	8278.41
509.514	8291.07
509.882	8317.28
510.25	8303.95
510.618	8258.53
510.986	8307.11
511.354	8370.16
511.722	8326.77
512.09	8442.25
512.458	8428.01
512.826	8445.64
513.193	8475.47
513.561	8474.34
513.929	8515.24
514.297	8528.12
514.664	8533.09
515.032	8545.07
515.4	8591.85
515.767	8558.86
516.135	8616.93
516.502	8493.32
516.869	8669.36
517.237	8632.3
517.604	8515.69
517.972	8673.2
518.339	8663.49
518.706	8632.08
519.073	8620.55
519.44	8623.26
519.808	8683.15
520.175	8702.58
520.542	8656.03
520.909	8747.78
521.276	8658.97
521.643	8783.26
522.009	8726.99
522.376	8758.4
522.743	8758.17
523.11	8825.52
523.477	8853.54
523.843	8886.53
524.21	8906.42
524.577	8877.94
524.943	8900.77
525.31	8943.48
525.676	8939.64
526.043	8944.61
526.409	8925.85
526.776	8993.42
527.142	8965.85
527.508	8931.73
527.874	9090.82
528.241	9014.66
528.607	9001.56
528.973	9058.28
529.339	8972.63
529.705	9109.58
530.071	9039.3
530.437	9091.72
530.803	9038.17
531.169	9023.93
531.535	8987.55
531.901	9023.03
532.267	9040.65
532.632	9037.94
532.998	9016.02
533.364	8973.76
533.73	8983.93
534.095	9099.41
534.461	9010.82
534.826	9020.77
535.192	8985.51
535.557	9008.11
535.923	8983.03
536.288	8957.49
536.653	8957.72
537.019	8966.98
537.384	8905.51
537.749	8917.27
538.114	8891.96
538.479	8828
538.845	8915.91
539.21	8836.36
539.575	8840.21
539.94	8787.33
540.305	8856.7
540.67	8738.06
541.034	8742.13
541.399	8774.9
541.764	8722.24
542.129	8754.78
542.494	8717.5
542.858	8686.09
543.223	8742.35
543.587	8690.38
543.952	8691.96
544.316	8626.65
544.681	8601.12
545.045	8602.92
545.41	8634.34
545.774	8561.34
546.138	8545.3
546.503	8695.12
546.867	8535.35
547.231	8539.87
547.595	8543.04
547.959	8574.45
548.324	8523.6
548.688	8464.4
549.052	8439.99
549.416	8425.53
549.779	8386.21
550.143	8399.31
550.507	8441.8
550.871	8400.22
551.235	8358.41
551.599	8384.4
551.962	8309.37
552.326	8341.01
552.689	8342.14
553.053	8309.37
553.417	8242.93
553.78	8380.33
554.143	8305.53
554.507	8234.12
554.87	8275.25
555.234	8350.95
555.597	8235.02
555.96	8251.75
556.323	8303.95
556.686	8219.43
557.05	8221.92
557.413	8234.35
557.776	8240.22
558.139	8246.1
558.502	8162.48
558.865	8187.34
559.228	8244.51
559.59	8183.73
559.953	8182.82
560.316	8333.1
560.679	8190.28
561.041	8287.68
561.404	8277.28
561.767	8293.33
562.129	8251.29
562.492	8296.49
562.854	8239.09
563.217	8248.13
563.579	8270.05
563.941	8284.51
564.304	8258.75
564.666	8318.19
565.028	8306.21
565.39	8335.59
565.753	8264.18
566.115	8352.08
566.477	8326.09
566.839	8363.16
567.201	8397.73
567.563	8423.27
567.925	8464.85
568.287	8398.86
568.648	8473.66
569.01	8417.84
569.372	8440.67
569.734	8457.16
570.095	8512.98
570.457	8538.29
570.819	8517.28
571.18	8513.66
571.542	8576.71
571.903	8613.32
572.265	8613.77
572.626	8588.46
572.987	8625.3
573.349	8652.41
573.71	8688.8
574.071	8675.69
574.432	8634.34
574.794	8765.86
575.155	8700.77
575.516	8701.68
575.877	8765.86
576.238	8718.63
576.599	8830.71
576.96	8816.03
577.32	8847.89
577.681	8879.07
578.042	8856.48
578.403	8865.29
578.763	8918.62
579.124	8919.75
579.485	8887.44
579.845	8964.95
580.206	8942.35
580.566	8953.42
580.927	8938.28
581.287	9024.61
581.648	8999.98
582.008	9033.65
582.368	9051.05
582.728	9028.22
583.089	9067.09
583.449	9051.95
583.809	9105.28
584.169	9139.41
584.529	9098.28
584.889	9235.45
585.249	9147.77
585.609	9107.54
585.969	9233.87
586.329	9208.11
586.688	9325.16
587.048	9243.58
587.408	9196.58
587.768	9283.58
588.127	9284.26
588.487	9309.12
588.846	9322.68
589.206	9252.62
589.565	9337.59
589.925	9348.89
590.284	9368.55
590.643	9452.17
591.003	9322.23
591.362	9353.41
591.721	9369.46
592.08	9333.53
592.44	9491.04
592.799	9479.96
593.158	9402.9
593.517	9392.06
593.876	9458.49
594.235	9443.13
594.593	9481.54
594.952	9515.44
595.311	9457.59
595.67	9451.49
596.029	9587.53
596.387	9558.6
596.746	9540.3
597.104	9485.84
597.463	9496.23
597.822	9562.22
598.18	9528.1
598.538	9606.74
598.897	9501.66
599.255	9557.47
599.613	9696
599.972	9556.8
600.33	9684.48
600.688	9582.78
601.046	9651.94
601.404	9672.5
601.762	9674.99
602.12	9618.72
602.478	9661.65
602.836	9674.31
603.194	9610.58
603.552	9640.64
603.91	9562.45
604.268	9656.46
604.625	9661.88
604.983	9667.98
605.341	9649
605.698	9721.09
606.056	9688.54
606.413	9767.64
606.771	9699.17
607.128	9748.88
607.485	9695.32
607.843	9771.48
608.2	9773.29
608.557	9772.16
608.914	9756.34
609.272	9738.26
609.629	9842.44
609.986	9859.84
610.343	9812.61
610.7	9837.24
611.057	9809.9
611.414	9835.43
611.771	9828.65
612.127	9881.53
612.484	9926.5
612.841	9843.12
613.198	9881.99
613.554	9907.97
613.911	9919.95
614.267	9911.36
614.624	9940.29
614.98	9925.37
615.337	9918.37
615.693	9971.25
616.05	9908.88
616.406	10069.33
616.762	9934.87
617.118	9972.83
617.475	9953.85
617.831	9990.68
618.187	9983.68
618.543	9993.62
618.899	10058.25
619.255	10041.08
619.611	10040.85
619.967	10085.82
620.323	10092.15
620.678	10058.93
621.034	10011.93
621.39	10080.62
621.746	9966.73
622.101	10172.83
622.457	10008.99
622.812	10050.8
623.168	10092.15
623.523	10092.6
623.879	10129.66
624.234	10060.74
624.589	10061.87
624.945	10092.6
625.3	10115.65
625.655	10109.32
626.01	10060.74
626.365	10110.45
626.72	10084.01
627.075	10106.84
627.43	10067.29
627.785	10029.1
628.14	10004.69
628.495	10019.61
628.85	10048.76
629.205	9946.17
629.559	10069.78
629.914	9953.17
630.269	10062.32
630.623	9947.29
630.978	9994.53
631.332	9946.84
631.687	10001.3
632.041	9907.75
632.396	10008.31
632.75	9913.4
633.104	9949.78
633.459	9886.28
633.813	9896.45
634.167	9866.17
634.521	9877.24
634.875	9882.66
635.229	9906.39
635.583	9831.82
635.937	9854.64
636.291	9782.1
636.645	9823.68
636.999	9760.41
637.352	9790.46
637.706	9805.15
638.06	9833.4
638.413	9731.26
638.767	9740.52
639.121	9788.88
639.474	9772.16
639.828	9680.18
640.181	9698.26
640.534	9674.99
640.888	9661.2
641.241	9668.88
641.594	9646.06
641.947	9654.87
642.301	9553.63
642.654	9617.59
643.007	9649.45
643.36	9630.24
643.713	9604.71
644.066	9569.45
644.419	9535.1
644.771	9561.54
645.124	9479.74
645.477	9505.72
645.83	9359.97
646.182	9340.31
646.535	9350.7
646.888	9347.31
647.24	9286.3
647.593	9337.37
647.945	9321.1
648.298	9270.7
648.65	9270.25
649.002	9207.43
649.355	9313.64
649.707	9206.07
650.059	9294.2
650.411	9491.26
650.763	9476.8
651.115	9535.33
651.467	9540.3
651.819	9461.43
652.171	9414.65
652.523	9466.63
652.875	9466.18
653.227	9518.83
653.578	9543.24
653.93	9526.29
654.282	9456.46
654.633	9446.52
654.985	9457.59
655.337	9468.89
655.688	9515.22
656.039	9613.52
656.391	9513.63
656.742	9424.6
657.094	9507.53
657.445	9522.45
657.796	9507.08
658.147	9475.44
658.498	9464.6
658.849	9490.58
659.2	9513.63
659.551	9463.69
659.902	9514.31
660.253	9520.19
660.604	9544.37
660.955	9457.59
661.306	9557.47
661.656	9496.23
662.007	9525.16
662.358	9554.08
662.708	9481.77
663.059	9491.04
663.409	9457.36
663.76	9464.6
664.11	9537.81
664.461	9532.16
664.811	9524.93
665.161	9505.5
665.511	9482.45
665.862	9526.06
666.212	9589.34
666.562	9530.81
666.912	9559.73
667.262	9560.41
667.612	9499.17
667.962	9617.13
668.312	9575.1
668.662	9532.16
669.011	9615.78
669.361	9524.03
669.711	9487.42
670.06	9543.01
670.41	9509.79
670.76	9495.56
671.109	9467.76
671.459	9499.4
671.808	9494.2
672.157	9514.09
672.507	9453.07
672.856	9489.23
673.205	9460.08
673.554	9462.11
673.904	9453.97
674.253	9521.54
674.602	9430.92
674.951	9346.18
675.3	9310.02
675.649	9455.1
675.998	9439.06
676.346	9392.28
676.695	9432.96
677.044	9376.91
677.393	9409
677.741	9430.7
678.09	9364.94
678.438	9340.31
678.787	9296.69
679.135	9326.29
679.484	9302.34
679.832	9279.52
680.181	9173.3
680.529	9295.56
680.877	9188.22
681.225	9244.49
681.573	9256.69
681.922	9269.8
682.27	9131.95
682.618	9170.59
682.966	9150.48
683.314	9220.76
683.661	9105.51
684.009	9141.44
684.357	9029.8
684.705	9040.43
685.053	9053.31
685.4	9045.62
685.748	8979.41
686.095	9008.11
686.443	8928.34
686.79	8910.26
687.138	8947.55
687.485	8891.05
687.832	8898.06
688.18	8884.27
688.527	8785.74
688.874	8799.08
689.221	8802.47
689.568	8787.78
689.915	8726.54
690.262	8736.25
690.609	8724.28
690.956	8682.92
691.303	8686.31
691.65	8597.27
691.997	8621.45
692.344	8558.4
692.69	8535.35
693.037	8590.95
693.383	8437.73
693.73	8463.49
694.077	8442.48
694.423	8364.06
694.769	8348.69
695.116	8270.73
695.462	8305.3
695.808	8296.26
696.155	8305.76
696.501	8249.26
696.847	8208.13
697.193	8140.56
697.539	8172.2
697.885	8183.5
698.231	8076.38
698.577	8101.24
698.923	8070.96
699.269	8023.73
699.614	8002.04
699.96	7977.63
700.306	7976.27
700.651	7856.73
700.997	7802.72
701.342	7795.49
701.688	7798.42
702.033	7754.36
702.379	7735.38
702.724	7731.31
703.069	7740.8
703.415	7598.88
703.76	7667.35
704.105	7632.78
704.45	7618.77
704.795	7575.61
705.14	7488.38
705.485	7527.25
705.83	7463.29
706.175	7463.74
706.52	7448.83
706.865	7425.1
707.209	7363.18
707.554	7368.61
707.899	7356.63
708.243	7356.85
708.588	7332.67
708.932	7244.54
709.277	7261.72
709.621	7287.03
709.966	7201.15
710.31	7200.02
710.654	7141.94
710.998	7204.77
711.342	7187.82
711.687	7139.23
712.031	7083.64
712.375	7123.87
712.719	7075.73
713.063	7067.6
713.407	7099.69
713.75	7021.95
714.094	7018.78
714.438	7050.42
714.782	6984.89
715.125	7020.14
715.469	7021.95
715.812	7010.42
716.156	6904.89
716.499	6965.68
716.843	6937.88
717.186	6905.12
717.53	6918.67
717.873	6920.26
718.216	6901.05
718.559	6899.24
718.902	6873.03
719.246	6847.72
719.589	6824.67
719.932	6829.86
720.275	6861.5
720.617	6826.7
720.96	6793.25
721.303	6784.89
721.646	6845.91
721.989	6743.76
722.331	6793.03
722.674	6765.91
723.016	6794.38
723.359	6749.86
723.701	6796.64
724.044	6724.1
724.386	6657.21
724.729	6757.1
725.071	6745.57
725.413	6766.81
725.755	6734.72
726.097	6719.81
726.439	6642.3
726.782	6686.82
727.124	6737.89
727.465	6718.23
727.807	6658.57
728.149	6739.92
728.491	6699.92
728.833	6711.45
729.175	6626.03
729.516	6606.59
729.858	6677.32
730.199	6699.47
730.541	6658.79
730.882	6662.18
731.224	6734.72
731.565	6580.38
731.906	6680.49
732.248	6650.88
732.589	6649.53
732.93	6589.87
733.271	6636.87
733.612	6657.44
733.953	6632.81
734.294	6604.11
734.635	6581.51
734.976	6672.8
735.317	6634.61
735.658	6676.65
735.999	6653.6
736.339	6641.17
736.68	6662.86
737.021	6624.22
737.361	6654.05
737.702	6693.37
738.042	6718.23
738.383	6682.97
738.723	6680.94
739.063	6705.12
739.404	6661.73
739.744	6731.33
740.084	6724.33
740.424	6735.4
740.764	6775.85
741.104	6813.14
741.444	6700.37
741.784	6793.25
742.124	6804.78
742.464	6788.28
742.804	6799.58
743.143	6816.76
743.483	6830.77
743.823	6867.38
744.162	6897.66
744.502	6892.46
744.841	6932.01
745.181	6982.18
745.52	6976.07
745.86	7037.54
746.199	7111.89
746.538	7130.19
746.877	7133.36
747.216	7197.31
747.556	7182.85
747.895	7247.7
748.234	7259.68
748.573	7321.15
748.911	7431.43
749.25	7458.09
749.589	7500.58
749.928	7553.46
750.267	7660.35
750.605	7675.94
750.944	7776.5
751.283	7755.71
751.621	7955.03
751.96	7954.8
752.298	8108.25
752.636	8183.73
752.975	8245.19
753.313	8311.86
753.651	8432.31
753.989	8524.51
754.327	8657.39
754.666	8698.51
755.004	8862.35
755.342	8939.41
755.679	9104.83
756.017	9183.47
756.355	9354.99
756.693	9447.87
757.031	9646.74
757.368	9725.83
757.706	9817.81
758.044	9948.2
758.381	10203.79
758.719	10362.2
759.056	10459.15
759.394	10704.56
759.731	10756.77
760.068	10888.29
760.405	11077.43
760.743	11232.91
761.08	11413.47
761.417	11543.19
761.754	11731.43
762.091	11972.55
762.428	12083.51
762.765	12208.93
763.102	12389.72
763.438	12549.03
763.775	12736.6
764.112	12893.66
764.449	13159.87
764.785	13257.26
765.122	13281.67
765.458	13558.05
765.795	13712.85
766.131	13846.18
766.467	14044.14
766.804	14123
767.14	14248.65
767.476	14560.73
767.812	14585.82
768.148	14788.98
