Data from hue_150_FLMS001491_00047.txt Node
Date: Tue Feb 07 16:54:06 GMT 2017
User: dcchb
Spectrometer: FLMS00149
Trigger mode: 0
Integration Time (sec): 2.000000E-2
Scans to average: 10
Electric dark correction enabled: true
Nonlinearity correction enabled: false
Boxcar width: 0
XAxis mode: Wavelengths
Number of Pixels in Spectrum: 2048
>>>>>Begin Spectral Data<<<<<
341.393	-18.33
341.776	-18.33
342.16	-18.33
342.543	-36.64
342.927	-66.92
343.31	-69.86
343.693	-54.04
344.077	-80.03
344.46	-50.2
344.843	-61.27
345.226	-44.32
345.61	-44.09
345.993	-12.46
346.376	15.79
346.759	-3.64
347.142	8.56
347.525	33.42
347.908	57.37
348.291	90.82
348.674	93.08
349.057	120.87
349.44	133.53
349.823	133.53
350.206	152.28
350.588	195.67
350.971	213.3
351.354	218.05
351.737	246.29
352.119	248.1
352.502	253.75
352.884	300.08
353.267	285.39
353.65	298.04
354.032	298.72
354.414	296.69
354.797	285.39
355.179	311.83
355.562	302.79
355.944	309.34
356.326	317.48
356.709	323.81
357.091	329.23
357.473	337.59
357.855	346.63
358.238	338.04
358.62	343.47
359.002	333.97
359.384	319.96
359.766	346.18
360.148	331.49
360.53	333.75
360.912	348.66
361.294	332.84
361.676	314.09
362.057	339.62
362.439	334.2
362.821	326.97
363.203	312.51
363.584	340.08
363.966	321.32
364.348	325.61
364.729	332.62
365.111	319.06
365.493	326.52
365.874	311.83
366.256	304.14
366.637	321.77
367.019	312.05
367.4	295.33
367.781	305.27
368.163	317.48
368.544	330.81
368.925	302.79
369.306	315.9
369.688	306.18
370.069	322.68
370.45	318.38
370.831	307.53
371.212	293.75
371.593	306.18
371.974	307.99
372.355	310.47
372.736	316.57
373.117	313.64
373.498	315.67
373.879	311.6
374.26	315.67
374.641	303.47
375.021	304.14
375.402	320.42
375.783	305.05
376.163	327.19
376.544	331.49
376.925	324.48
377.305	349.34
377.686	316.8
378.066	311.38
378.447	329.68
378.827	353.41
379.208	332.84
379.588	317.48
379.968	328.32
380.349	310.7
380.729	332.84
381.109	340.53
381.489	321.32
381.87	342.11
382.25	326.97
382.63	343.47
383.01	351.37
383.39	351.15
383.77	334.43
384.15	336.23
384.53	364.48
384.91	334.88
385.29	349.12
385.67	331.04
386.049	347.53
386.429	337.82
386.809	343.92
387.189	369
387.568	355.22
387.948	365.39
388.328	355.22
388.707	353.63
389.087	352.73
389.466	351.37
389.846	351.15
390.225	371.49
390.605	356.8
390.984	375.78
391.363	367.42
391.743	363.8
392.122	383.92
392.501	350.7
392.881	376.91
393.26	400.19
393.639	373.75
394.018	365.39
394.397	372.62
394.776	370.81
395.155	391.83
395.534	380.98
395.913	362.9
396.292	373.75
396.671	391.37
397.05	404.93
397.429	370.36
397.808	374.65
398.186	376.46
398.565	380.53
398.944	396.57
399.323	413.52
399.701	395.67
400.08	400.41
400.458	409.23
400.837	411.94
401.215	394.76
401.594	401.09
401.972	413.75
402.351	387.31
402.729	422.79
403.107	400.41
403.486	413.97
403.864	396.35
404.242	413.97
404.62	430.92
404.999	417.36
405.377	411.94
405.755	435.21
406.133	417.81
406.511	435.44
406.889	448.77
407.267	449.68
407.645	441.77
408.023	427.53
408.401	446.97
408.779	436.57
409.156	442.67
409.534	452.39
409.912	458.04
410.29	459.85
410.667	453.29
411.045	468.43
411.422	464.59
411.8	486.96
412.178	477.7
412.555	481.09
412.933	486.74
413.31	479.06
413.687	484.48
414.065	485.38
414.442	483.8
414.819	489.68
415.197	493.74
415.574	489.45
415.951	499.17
416.328	510.01
416.705	517.25
417.082	488.09
417.46	510.24
417.837	512.27
418.214	514.31
418.591	504.59
418.967	500.07
419.344	529
419.721	532.39
420.098	528.77
420.475	540.97
420.852	535.1
421.228	561.76
421.605	532.61
421.982	544.59
422.358	557.47
422.735	561.76
423.111	565.38
423.488	561.31
423.864	601.09
424.241	567.41
424.617	592.72
424.994	575.32
425.37	590.24
425.746	571.71
426.123	601.31
426.499	583.23
426.875	600.63
427.251	618.03
427.627	614.64
428.003	628.2
428.379	641.76
428.756	617.81
429.132	645.6
429.507	651.48
429.883	643.12
430.259	624.81
430.635	653.51
431.011	659.84
431.387	665.49
431.763	681.99
432.138	675.89
432.514	693.74
432.89	703.68
433.265	709.33
433.641	719.05
434.016	704.13
434.392	719.95
434.767	722.21
435.143	712.5
435.518	749.56
435.894	751.14
436.269	751.82
436.644	736.68
437.02	769.9
437.395	776.9
437.77	761.53
438.145	773.96
438.52	780.29
438.895	792.72
439.271	786.62
439.646	798.37
440.021	795.21
440.395	828.42
440.77	807.18
441.145	821.87
441.52	848.99
441.895	830.91
442.27	832.72
442.645	837.01
443.019	845.37
443.394	860.51
443.769	850.57
444.143	854.41
444.518	860.74
444.892	889.89
445.267	885.37
445.641	892.6
446.016	889.21
446.39	923.56
446.764	935.99
447.139	891.02
447.513	933.51
447.887	920.4
448.262	945.48
448.636	950.46
449.01	960.4
449.384	950.68
449.758	948.65
450.132	950
450.506	1001.3
450.88	978.03
451.254	985.03
451.628	979.38
452.002	1009.44
452.376	991.36
452.75	1035.42
453.123	1019.83
453.497	1019.61
453.871	1044.46
454.244	1067.51
454.618	1079.72
454.992	1088.53
455.365	1102.09
455.739	1080.4
456.112	1114.52
456.486	1124.01
456.859	1142.99
457.232	1152.94
457.606	1165.14
457.979	1153.61
458.352	1206.49
458.725	1208.75
459.099	1232.71
459.472	1234.29
459.845	1251.01
460.218	1284.91
460.591	1262.99
460.964	1272.93
461.337	1323.1
461.71	1330.11
462.083	1388.18
462.456	1352.7
462.829	1374.17
463.201	1403.32
463.574	1400.16
463.947	1410.1
464.32	1448.97
464.692	1480.16
465.065	1504.56
465.438	1521.51
465.81	1512.02
466.183	1556.54
466.555	1601.74
466.928	1596.31
467.3	1614.62
467.672	1641.96
468.045	1675.41
468.417	1656.43
468.789	1727.38
469.161	1733.71
469.534	1759.93
469.906	1817.78
470.278	1851.45
470.65	1858.91
471.022	1940.71
471.394	1964.67
471.766	1998.34
472.138	1994.95
472.51	2073.82
472.882	2102.29
473.253	2129.41
473.625	2176.64
473.997	2217.31
474.369	2264.09
474.74	2290.08
475.112	2349.74
475.484	2406.24
475.855	2468.83
476.227	2486.91
476.598	2597.42
476.97	2634.25
477.341	2704.76
477.713	2806.45
478.084	2809.16
478.455	2912.44
478.827	2949.27
479.198	3057.29
479.569	3094.13
479.94	3211.19
480.311	3255.71
480.682	3391.07
481.053	3473.55
481.424	3553.32
481.795	3674.9
482.166	3743.6
482.537	3794.45
482.908	3938.63
483.279	4000.09
483.65	4132.29
484.021	4234.44
484.391	4313.53
484.762	4363.02
485.133	4524.37
485.503	4601.66
485.874	4811.14
486.244	4822.67
486.615	5005.94
486.985	5089.78
487.356	5312.6
487.726	5317.57
488.097	5484.12
488.467	5632.14
488.837	5773.61
489.207	5847.05
489.578	5967.27
489.948	6120.71
490.318	6295.4
490.688	6378.56
491.058	6521.83
491.428	6702.17
491.798	6728.83
492.168	6956.62
492.538	7032.1
492.908	7202.95
493.278	7294.24
493.648	7390.51
494.017	7590.73
494.387	7740.11
494.757	7799.99
495.126	7966.77
495.496	8042.92
495.866	8166.08
496.235	8281.79
496.605	8411.73
496.974	8561.78
497.344	8605.17
497.713	8717.03
498.082	8763.36
498.452	8974.88
498.821	9055.33
499.19	9107.53
499.559	9243.8
499.928	9280.41
500.298	9453.06
500.667	9509.1
501.036	9607.63
501.405	9737.34
501.774	9665.03
502.143	9871.58
502.512	10001.06
502.88	10054.62
503.249	10130.1
503.618	10212.36
503.987	10234.96
504.356	10385.91
504.724	10436.08
505.093	10469.3
505.462	10554.72
505.83	10706.13
506.199	10752.91
506.567	10852.79
506.936	10905.9
507.304	11088.95
507.672	11064.31
508.041	11149.28
508.409	11228.6
508.777	11360.35
509.145	11374.36
509.514	11313.35
509.882	11458.88
510.25	11414.59
510.618	11573
510.986	11563.74
511.354	11706.56
511.722	11807.12
512.09	11844.41
512.458	11857.97
512.826	11950.62
513.193	12018.19
513.561	11968.92
513.929	12104.06
514.297	12109.03
514.664	12214.79
515.032	12173.44
515.4	12300.67
515.767	12295.47
516.135	12345.41
516.502	12280.55
516.869	12479.42
517.237	12478.51
517.604	12439.87
517.972	12502.47
518.339	12549.47
518.706	12619.3
519.073	12538.63
519.44	12725.29
519.808	12737.94
520.175	12692.29
520.542	12909.69
520.909	12899.97
521.276	12879.63
521.643	12898.62
522.009	12892.74
522.376	12944.04
522.743	13033.53
523.11	13068.55
523.477	13222
523.843	13162.11
524.21	13240.3
524.577	13272.39
524.943	13383.35
525.31	13308.1
525.676	13331.15
526.043	13380.18
526.409	13414.99
526.776	13603.91
527.142	13565.49
527.508	13468.32
527.874	13594.64
528.241	13473.74
528.607	13514.42
528.973	13682.32
529.339	13510.12
529.705	13610.46
530.071	13708.76
530.437	13727.07
530.803	13727.52
531.169	13748.99
531.535	13668.09
531.901	13607.75
532.267	13676.22
532.632	13721.64
532.998	13718.93
533.364	13665.83
533.73	13604.36
534.095	13732.72
534.461	13653.85
534.826	13618.14
535.192	13657.69
535.557	13707.41
535.923	13600.07
536.288	13711.48
536.653	13621.99
537.019	13532.95
537.384	13643.45
537.749	13590.12
538.114	13536.79
538.479	13444.36
538.845	13462.44
539.21	13392.84
539.575	13368.66
539.94	13379.28
540.305	13367.08
540.67	13276.01
541.034	13324.14
541.399	13325.05
541.764	13259.74
542.129	13304.93
542.494	13177.03
542.858	13234.43
543.223	13198.04
543.587	13260.19
543.952	13246.86
544.316	13197.59
544.681	13097.71
545.045	13067.2
545.41	13075.79
545.774	12989.01
546.138	13027.43
546.503	13015.67
546.867	12903.59
547.231	12989.46
547.595	12990.36
547.959	12901.1
548.324	12850.48
548.688	12805.28
549.052	12743.37
549.416	12751.5
549.779	12703.59
550.143	12695.23
550.507	12704.72
550.871	12702.24
551.235	12640.54
551.599	12653.88
551.962	12598.96
552.326	12639.41
552.689	12639.19
553.053	12575.01
553.417	12502.24
553.78	12577.27
554.143	12506.08
554.507	12502.47
554.87	12462.24
555.234	12506.08
555.597	12463.6
555.96	12418.18
556.323	12520.77
556.686	12407.33
557.05	12449.59
557.413	12426.99
557.776	12464.05
558.139	12407.33
558.502	12416.37
558.865	12407.1
559.228	12474.9
559.59	12406.43
559.953	12407.33
560.316	12446.65
560.679	12429.02
561.041	12437.38
561.404	12499.53
561.767	12549.92
562.129	12464.28
562.492	12598.06
562.854	12452.98
563.217	12508.34
563.579	12524.16
563.941	12471.06
564.304	12484.16
564.666	12587.66
565.028	12477.38
565.39	12617.49
565.753	12597.15
566.115	12560.55
566.477	12553.31
566.839	12544.95
567.201	12637.83
567.563	12611.84
567.925	12664.95
568.287	12656.36
568.648	12635.8
569.01	12626.53
569.372	12739.75
569.734	12612.52
570.095	12701.56
570.457	12682.35
570.819	12774.78
571.18	12794.66
571.542	12807.32
571.903	12802.12
572.265	12841.67
572.626	12770.26
572.987	12809.8
573.349	12754.66
573.71	12832.4
574.071	12845.96
574.432	12930.48
574.794	12896.81
575.155	12892.06
575.516	12858.84
575.877	12858.84
576.238	12910.59
576.599	12906.53
576.96	12953.98
577.32	12949.24
577.681	12997.6
578.042	12864.04
578.403	12892.51
578.763	12959.86
579.124	12953.53
579.485	12982.68
579.845	13000.31
580.206	12983.81
580.566	12888.9
580.927	12991.04
581.287	12997.6
581.648	12960.08
582.008	12942.68
582.368	12984.72
582.728	12951.95
583.089	12990.59
583.449	12905.85
583.809	12915.11
584.169	12973.87
584.529	12850.71
584.889	12996.24
585.249	12920.31
585.609	12849.35
585.969	12882.12
586.329	12858.84
586.688	12887.32
587.048	12969.35
587.408	12815.91
587.768	12844.38
588.127	12808.45
588.487	12811.84
588.846	12923.47
589.206	12750.82
589.565	12825.85
589.925	12970.7
590.284	12801.44
590.643	12785.85
591.003	12785.85
591.362	12938.39
591.721	12807.32
592.08	12850.48
592.44	12871.72
592.799	12849.35
593.158	12785.62
593.517	12788.56
593.876	12857.49
594.235	12667.44
594.593	12718.96
594.952	12760.99
595.311	12703.14
595.67	12704.95
596.029	12784.95
596.387	12752.86
596.746	12726.19
597.104	12704.27
597.463	12689.13
597.822	12779.3
598.18	12742.46
598.538	12689.36
598.897	12740.65
599.255	12572.97
599.613	12852.52
599.972	12741.56
600.33	12716.47
600.688	12623.14
601.046	12748.11
601.404	12820.65
601.762	12727.09
602.12	12785.62
602.478	12804.83
602.836	12851.61
603.194	12756.02
603.552	12770.03
603.91	12622.69
604.268	12714.89
604.625	12695.01
604.983	12718.28
605.341	12679.19
605.698	12779.3
606.056	12730.48
606.413	12766.19
606.771	12739.52
607.128	12741.56
607.485	12711.73
607.843	12621.79
608.2	12798.28
608.557	12842.57
608.914	12771.16
609.272	12865.17
609.629	12777.26
609.986	12854.55
610.343	12803.93
610.7	12828.11
611.057	12895.9
611.414	12878.05
611.771	12859.75
612.127	12948.11
612.484	12963.47
612.841	12974.55
613.198	12886.19
613.554	12961.44
613.911	12937.71
614.267	12907.65
614.624	12925.51
614.98	12974.09
615.337	12961.89
615.693	13036.92
616.05	12923.47
616.406	13083.02
616.762	13047.31
617.118	12995.56
617.475	12970.93
617.831	13068.1
618.187	13073.07
618.543	13067.2
618.899	13149.46
619.255	13125.28
619.611	13097.25
619.967	13111.04
620.323	13235.56
620.678	13105.39
621.034	13113.07
621.39	13146.74
621.746	13077.59
622.101	13185.16
622.457	13133.19
622.812	13215.9
623.168	13118.5
623.523	13153.52
623.879	13163.24
624.234	13057.48
624.589	13122.11
624.945	13159.4
625.3	13203.47
625.655	13139.74
626.01	13233.52
626.365	13115.79
626.72	13064.26
627.075	13051.83
627.43	13032.85
627.785	13072.85
628.14	13079.18
628.495	13115.79
628.85	13037.82
629.205	12987.2
629.559	13033.75
629.914	12979.52
630.269	13106.75
630.623	13063.36
630.978	12938.39
631.332	12989.69
631.687	12985.84
632.041	12967.09
632.396	12985.39
632.75	12986.75
633.104	12989.23
633.459	12956.24
633.813	12876.24
634.167	12858.62
634.521	12954.43
634.875	12920.54
635.229	12920.76
635.583	12886.19
635.937	12807.32
636.291	12749.92
636.645	12797.38
636.999	12694.78
637.352	12810.93
637.706	12718.51
638.06	12777.94
638.413	12701.56
638.767	12693.65
639.121	12728
639.474	12645.51
639.828	12663.59
640.181	12622.92
640.534	12723.93
640.888	12572.52
641.241	12595.35
641.594	12593.54
641.947	12610.49
642.301	12636.25
642.654	12683.25
643.007	12570.49
643.36	12505.18
643.713	12561
644.066	12631.73
644.419	12512.19
644.771	12451.85
645.124	12270.61
645.477	12279.87
645.83	12302.7
646.182	12200.1
646.535	12124.17
646.888	12151.97
647.24	12067.23
647.593	12110.84
647.945	12076.49
648.298	12082.37
648.65	11997.4
649.002	12064.51
649.355	12140.22
649.707	12069.94
650.059	12223.38
650.411	12264.06
650.763	12278.52
651.115	12441
651.467	12396.48
651.819	12443.94
652.171	12363.04
652.523	12397.39
652.875	12386.31
653.227	12387.22
653.578	12449.59
653.93	12428.8
654.282	12382.02
654.633	12334.11
654.985	12345.18
655.337	12356.26
655.688	12412.98
656.039	12358.06
656.391	12267.9
656.742	12336.82
657.094	12312.19
657.445	12381.57
657.796	12354.45
658.147	12324.85
658.498	12226.09
658.849	12337.73
659.2	12367.33
659.551	12255.69
659.902	12376.6
660.253	12329.37
660.604	12348.12
660.955	12332.3
661.306	12382.02
661.656	12308.57
662.007	12332.3
662.358	12423.15
662.708	12454.56
663.059	12415.69
663.409	12326.88
663.76	12466.08
664.11	12364.84
664.461	12354.9
664.811	12392.41
665.161	12431.74
665.511	12386.76
665.862	12386.76
666.212	12429.25
666.562	12388.12
666.912	12345.64
667.262	12345.41
667.612	12379.53
667.962	12389.93
668.312	12376.14
668.662	12462.24
669.011	12389.25
669.361	12387.89
669.711	12400.78
670.06	12383.6
670.41	12347.44
670.76	12245.53
671.109	12421.11
671.459	12338.63
671.808	12235.58
672.157	12290.5
672.507	12297.28
672.856	12213.66
673.205	12212.08
673.554	12273.1
673.904	12257.73
674.253	12351.96
674.602	12188.35
674.951	12085.08
675.3	11969.15
675.649	12243.49
675.998	12222.7
676.346	12250.27
676.695	12250.95
677.044	12149.48
677.393	12180.22
677.741	12163.27
678.09	12110.39
678.438	12128.92
678.787	12115.59
679.135	12149.26
679.484	12030.16
679.832	12000.33
680.181	12038.53
680.529	12043.04
680.877	12019.09
681.225	11947.23
681.573	11991.07
681.922	11948.58
682.27	11882.6
682.618	11887.79
682.966	11812.32
683.314	11794.69
683.661	11798.53
684.009	11815.48
684.357	11742.04
684.705	11713.79
685.053	11709.27
685.4	11705.2
685.748	11636.73
686.095	11587.46
686.443	11558.09
686.79	11604.41
687.138	11638.99
687.485	11630.63
687.832	11580.91
688.18	11544.98
688.527	11503.4
688.874	11447.58
689.221	11388.37
689.568	11415.94
689.915	11377.53
690.262	11349.28
690.609	11300.92
690.956	11251.65
691.303	11268.83
691.65	11204.87
691.997	11265.21
692.344	11085.78
692.69	11134.37
693.037	11149.06
693.383	10994.48
693.73	11051.43
694.077	10990.42
694.423	11005.78
694.769	10933.24
695.116	10904.54
695.462	10877.2
695.808	10795.39
696.155	10835.85
696.501	10743.42
696.847	10726.47
697.193	10595.85
697.539	10596.98
697.885	10595.4
698.231	10477.44
698.577	10528.51
698.923	10549.98
699.269	10376.65
699.614	10398.57
699.96	10342.52
700.306	10356.08
700.651	10300.49
700.997	10206.48
701.342	10204.9
701.688	10164
702.033	10178.46
702.379	10118.58
702.724	10048.75
703.069	10135.75
703.415	10013.95
703.76	9976.43
704.105	9920.39
704.45	10011.46
704.795	9930.33
705.14	9791.58
705.485	9779.83
705.83	9796.1
706.175	9805.36
706.52	9798.58
706.865	9723.78
707.209	9729.43
707.554	9680.4
707.899	9744.35
708.243	9642.88
708.588	9579.61
708.932	9571.7
709.277	9534.86
709.621	9629.32
709.966	9507.29
710.31	9571.47
710.654	9436.56
710.998	9459.16
711.342	9406.96
711.687	9391.36
712.031	9407.63
712.375	9333.29
712.719	9280.41
713.063	9295.09
713.407	9336.45
713.75	9245.38
714.094	9286.96
714.438	9207.64
714.782	9245.6
715.125	9193.4
715.469	9196.11
715.812	9103.46
716.156	9049.45
716.499	9094.65
716.843	9086.06
717.186	9061.65
717.53	9076.34
717.873	9141.65
718.216	9148.66
718.559	8962.9
718.902	8958.61
719.246	9015.55
719.589	8935.56
719.932	8940.53
720.275	8926.29
720.617	8927.42
720.96	8935.1
721.303	8905.05
721.646	8947.76
721.989	8779.63
722.331	8855.78
722.674	8825.73
723.016	8841.77
723.359	8792.06
723.701	8875.22
724.044	8776.69
724.386	8698.05
724.729	8788.22
725.071	8821.43
725.413	8798.61
725.755	8790.7
726.097	8712.74
726.439	8713.64
726.782	8695.79
727.124	8791.6
727.465	8691.49
727.807	8710.7
728.149	8680.2
728.491	8650.37
728.833	8753.87
729.175	8702.79
729.516	8682.91
729.858	8721.78
730.199	8656.69
730.541	8639.29
730.882	8688.33
731.224	8652.85
731.565	8612.4
731.906	8658.05
732.248	8635.22
732.589	8658.5
732.93	8694.43
733.271	8537.15
733.612	8646.98
733.953	8651.27
734.294	8601.55
734.635	8599.07
734.976	8639.52
735.317	8633.19
735.658	8645.62
735.999	8649.91
736.339	8607.66
736.68	8640.42
737.021	8670.25
737.361	8613.76
737.702	8713.19
738.042	8580.09
738.383	8666.18
738.723	8714.32
739.063	8604.04
739.404	8688.78
739.744	8641.78
740.084	8625.96
740.424	8710.7
740.764	8739.4
741.104	8695.34
741.444	8775.33
741.784	8716.58
742.124	8759.74
742.464	8766.07
742.804	8848.78
743.143	8771.94
743.483	8807.2
743.823	8755.45
744.162	8793.41
744.502	8917.03
744.841	8922.67
745.181	8995.67
745.52	8911.38
745.86	8941.88
746.199	8995.89
746.538	9079.73
746.877	9070.69
747.216	9166.28
747.556	9203.35
747.895	9208.32
748.234	9176.45
748.573	9237.24
748.911	9317.47
749.25	9399.95
749.589	9394.08
749.928	9474.98
750.267	9535.54
750.605	9602.21
750.944	9677.68
751.283	9747.96
751.621	9791.35
751.96	9869.77
752.298	9986.38
752.636	10064.34
752.975	10161.51
753.313	10192.25
753.651	10280.38
753.989	10361.28
754.327	10427.49
754.666	10474.95
755.004	10661.39
755.342	10767.6
755.679	10917.2
756.017	10983.41
756.355	11176.18
756.693	11199.68
757.031	11434.93
757.368	11531.42
757.706	11761.24
758.044	11735.71
758.381	11935.03
758.719	12040.56
