Data from hue_40_FLMS001491_42.txt Node
Date: Mon Feb 06 15:07:57 GMT 2017
User: dcchb
Spectrometer: FLMS00149
Trigger mode: 0
Integration Time (sec): 2.000000E-2
Scans to average: 10
Electric dark correction enabled: true
Nonlinearity correction enabled: false
Boxcar width: 0
XAxis mode: Wavelengths
Number of Pixels in Spectrum: 2048
>>>>>Begin Spectral Data<<<<<
341.393	-7.56
341.776	-7.56
342.16	-7.56
342.543	-61.11
342.927	-75.13
343.31	-59.08
343.693	-81
344.077	-58.4
344.46	-70.83
344.843	-67.22
345.226	-55.69
345.61	-13.21
345.993	-4.62
346.376	15.04
346.759	13.91
347.142	18.43
347.525	36.74
347.908	46.68
348.291	66.34
348.674	93.91
349.057	118.99
349.44	151.08
349.823	163.51
350.206	151.08
350.588	184.53
350.971	219.1
351.354	234.7
351.737	233.79
352.119	238.31
352.502	287.58
352.884	290.29
353.267	278.31
353.65	284.41
354.032	311.76
354.414	298.65
354.797	321.7
355.179	316.95
355.562	347.24
355.944	343.62
356.326	329.38
356.709	349.5
357.091	337.97
357.473	341.81
357.855	348.37
358.238	348.14
358.62	340.91
359.002	324.64
359.384	349.5
359.766	337.75
360.148	364.86
360.53	334.81
360.912	340.46
361.294	355.82
361.676	356.5
362.057	330.97
362.439	346.11
362.821	347.24
363.203	306.33
363.584	327.12
363.966	329.84
364.348	337.52
364.729	332.55
365.111	313.79
365.493	345.2
365.874	353.34
366.256	303.17
366.637	311.31
367.019	304.3
367.4	304.07
367.781	323.73
368.163	335.49
368.544	325.99
368.925	350.17
369.306	327.35
369.688	305.2
370.069	327.35
370.45	332.77
370.831	316.28
371.212	330.74
371.593	332.55
371.974	339.55
372.355	313.11
372.736	330.97
373.117	346.78
373.498	329.38
373.879	345.88
374.26	319.21
374.641	312.66
375.021	322.83
375.402	333
375.783	329.16
376.163	336.16
376.544	332.32
376.925	339.33
377.305	333
377.686	320.12
378.066	333.23
378.447	342.49
378.827	330.51
379.208	354.69
379.588	346.11
379.968	322.6
380.349	325.77
380.729	342.72
381.109	339.78
381.489	335.94
381.87	365.77
382.25	345.88
382.63	355.37
383.01	360.8
383.39	344.52
383.77	336.62
384.15	357.41
384.53	350.63
384.91	327.58
385.29	357.41
385.67	357.18
386.049	363.51
386.429	347.01
386.809	345.43
387.189	354.47
387.568	347.01
387.948	359.89
388.328	355.15
388.707	360.34
389.087	352.43
389.466	372.09
389.846	360.57
390.225	372.55
390.605	361.47
390.984	344.52
391.363	376.16
391.743	385.2
392.122	366.9
392.501	395.37
392.881	363.73
393.26	362.6
393.639	384.3
394.018	381.81
394.397	389.95
394.776	403.28
395.155	366.67
395.534	363.51
395.913	417.29
396.292	371.64
396.671	390.85
397.05	386.78
397.429	387.24
397.808	388.59
398.186	403.96
398.565	402.15
398.944	411.19
399.323	397.63
399.701	396.5
400.08	422.94
400.458	413
400.837	404.41
401.215	389.04
401.594	409.38
401.972	414.81
402.351	422.71
402.729	411.19
403.107	432.21
403.486	407.57
403.864	398.53
404.242	390.17
404.62	417.74
404.999	424.3
405.377	420.23
405.755	408.03
406.133	432.66
406.511	415.48
406.889	414.58
407.267	450.28
407.645	439.44
408.023	444.64
408.401	438.08
408.779	446.22
409.156	435.6
409.534	463.84
409.912	427.69
410.29	457.52
410.667	442.38
411.045	444.86
411.422	469.49
411.8	452.77
412.178	464.3
412.555	471.53
412.933	470.4
413.31	459.32
413.687	473.11
414.065	492.54
414.442	482.6
414.819	477.18
415.197	523.73
415.574	501.81
415.951	490.06
416.328	503.84
416.705	488.7
417.082	509.94
417.46	488.25
417.837	494.13
418.214	509.94
418.591	492.54
418.967	506.55
419.344	518.08
419.721	511.07
420.098	512.66
420.475	522.15
420.852	525.54
421.228	553.78
421.605	526.67
421.982	507.46
422.358	554.24
422.735	550.85
423.111	544.75
423.488	555.59
423.864	529.15
424.241	557.63
424.617	536.16
424.994	580
425.37	564.18
425.746	569.83
426.123	555.14
426.499	567.8
426.875	552.65
427.251	577.06
427.627	583.16
428.003	579.09
428.379	596.5
428.756	609.83
429.132	587.23
429.507	618.87
429.883	612.54
430.259	620.22
430.635	608.92
431.011	614.57
431.387	614.12
431.763	638.3
432.138	616.61
432.514	643.95
432.89	650.05
433.265	653.44
433.641	663.39
434.016	672.88
434.392	663.16
434.767	674.46
435.143	673.56
435.518	695.93
435.894	678.53
436.269	695.93
436.644	708.81
437.02	708.36
437.395	683.95
437.77	691.86
438.145	716.94
438.52	712.88
438.895	727.79
439.271	717.17
439.646	743.38
440.021	714.68
440.395	756.49
440.77	754.46
441.145	744.06
441.52	746.55
441.895	761.24
442.27	762.82
442.645	775.93
443.019	767.79
443.394	775.02
443.769	753.78
444.143	768.02
444.518	790.84
444.892	778.19
445.267	786.55
445.641	787.23
446.016	801.24
446.39	822.7
446.764	820.44
447.139	822.03
447.513	809.82
447.887	808.92
448.262	812.76
448.636	830.39
449.01	834.23
449.384	824.96
449.758	851.18
450.132	840.33
450.506	879.43
450.88	867.45
451.254	870.39
451.628	881.46
452.002	885.53
452.376	878.52
452.75	881.91
453.123	898.63
453.497	889.6
453.871	913.1
454.244	930.72
454.618	912.19
454.992	908.35
455.365	950.16
455.739	949.03
456.112	966.66
456.486	980.67
456.859	988.8
457.232	1002.59
457.606	1005.75
457.979	1008.91
458.352	1028.57
458.725	1065.64
459.099	1036.48
459.472	1059.76
459.845	1057.95
460.218	1069.93
460.591	1098.86
460.964	1111.96
461.337	1114.67
461.71	1128.01
462.083	1130.94
462.456	1155.35
462.829	1161.23
463.201	1160.1
463.574	1187.89
463.947	1175.01
464.32	1208.23
464.692	1246.42
465.065	1264.73
465.438	1225.18
465.81	1276.7
466.183	1306.53
466.555	1306.53
466.928	1307.89
467.3	1316.25
467.672	1333.43
468.045	1360.54
468.417	1379.07
468.789	1380.66
469.161	1409.58
469.534	1435.12
469.906	1485.51
470.278	1495.68
470.65	1506.98
471.022	1538.84
471.394	1551.05
471.766	1575.68
472.138	1600.31
472.51	1665.39
472.882	1691.61
473.253	1725.96
473.625	1725.05
473.997	1794.88
474.369	1792.85
474.74	1844.15
475.112	1862.23
475.484	1917.59
475.855	1935.67
476.227	1998.49
476.598	2049.79
476.97	2073.97
477.341	2098.83
477.713	2200.3
478.084	2222.89
478.455	2351.48
478.827	2341.76
479.198	2402.32
479.569	2423.34
479.94	2531.13
480.311	2563.68
480.682	2662.66
481.053	2765.48
481.424	2810.45
481.795	2862.42
482.166	2942.2
482.537	2986.72
482.908	3081.4
483.279	3205.47
483.65	3265.58
484.021	3307.38
484.391	3414.95
484.762	3489.53
485.133	3572.46
485.503	3646.13
485.874	3761.84
486.244	3861.49
486.615	3906.01
486.985	4085.44
487.356	4151.43
487.726	4282.5
488.097	4373.35
488.467	4453.8
488.837	4583.74
489.207	4623.51
489.578	4719.55
489.948	4897.63
490.318	4993.89
490.688	5038.19
491.058	5119.31
491.428	5278.41
491.798	5378.97
492.168	5564.73
492.538	5614.67
492.908	5737.15
493.278	5846.08
493.648	5919.29
494.017	6052.62
494.387	6211.26
494.757	6275.67
495.126	6402.67
495.496	6480.63
495.866	6570.8
496.235	6730.35
496.605	6772.83
496.974	6857.57
497.344	6977.8
497.713	7088.3
498.082	7192.48
498.452	7286.04
498.821	7390.67
499.19	7481.74
499.559	7589.76
499.928	7676.76
500.298	7757.89
500.667	7921.73
501.036	7844.67
501.405	8020.03
501.774	8048.28
502.143	8206.01
502.512	8271.55
502.88	8363.52
503.249	8409.17
503.618	8541.82
503.987	8621.82
504.356	8693.23
504.724	8745.43
505.093	8844.87
505.462	8872.44
505.83	8949.5
506.199	9084.18
506.567	9199.43
506.936	9286.21
507.304	9357.17
507.672	9451.63
508.041	9543.83
508.409	9546.09
508.777	9695.47
509.145	9790.83
509.514	9791.06
509.882	9885.52
510.25	9963.48
510.618	10046.19
510.986	10124.83
511.354	10236.92
511.722	10347.88
512.09	10360.31
512.458	10380.65
512.826	10522.11
513.193	10580.41
513.561	10580.87
513.929	10657.7
514.297	10843.46
514.664	10943.79
515.032	10938.14
515.4	11018.14
515.767	11117.12
516.135	11169.1
516.502	11149.66
516.869	11407.06
517.237	11358.25
517.604	11371.58
517.972	11468.53
518.339	11482.31
518.706	11597.34
519.073	11697.67
519.44	11809.99
519.808	11926.37
520.175	11948.29
520.542	12073.93
520.909	12109.87
521.276	12136.76
521.643	12282.29
522.009	12328.84
522.376	12477.99
522.743	12468.95
523.11	12575.39
523.477	12703.3
523.843	12786.01
524.21	12878.88
524.577	12943.97
524.943	13036.85
525.31	13022.84
525.676	13206.11
526.043	13271.19
526.409	13315.26
526.776	13435.48
527.142	13514.8
527.508	13600.67
527.874	13705.53
528.241	13755.92
528.607	13797.73
528.973	13935.58
529.339	13982.13
529.705	14088.8
530.071	14307.32
530.437	14224.39
530.803	14324.27
531.169	14360.2
531.535	14432.52
531.901	14388.68
532.267	14510.71
532.632	14624.15
532.998	14665.05
533.364	14849.68
533.73	14811.94
534.095	14894.42
534.461	15015.33
534.826	15073.86
535.192	15183.46
535.557	15241.53
535.923	15338.71
536.288	15316.11
536.653	15368.31
537.019	15393.62
537.384	15401.08
537.749	15551.36
538.114	15599.49
538.479	15680.17
538.845	15734.4
539.21	15692.82
539.575	15813.72
539.94	15890.56
540.305	15905.7
540.67	15965.36
541.034	16091.68
541.399	16181.4
541.764	16092.13
542.129	16203.32
542.494	16321.73
542.858	16328.51
543.223	16350.66
543.587	16532.35
543.952	16478.79
544.316	16594.72
544.681	16523.31
545.045	16715.39
545.41	16823.64
545.774	16874.26
546.138	16784.54
546.503	16886.69
546.867	16930.3
547.231	17064.31
547.595	17086.01
547.959	17118.1
548.324	17192.9
548.688	17227.02
549.052	17442.38
549.416	17388.14
549.779	17438.54
550.143	17457.3
550.507	17623.84
550.871	17653.9
551.235	17728.02
551.599	17754.69
551.962	17846.21
552.326	17894.35
552.689	17907.9
553.053	17890.96
553.417	18025.19
553.78	18193.32
554.143	18041.23
554.507	18236.26
554.87	18283.94
555.234	18426.76
555.597	18384.28
555.96	18408.46
556.323	18517.83
556.686	18575.91
557.05	18748.79
557.413	18738.62
557.776	18778.84
558.139	18932.51
558.502	18894.77
558.865	19045.73
559.228	19065.84
559.59	19147.42
559.953	19300.18
560.316	19418.83
560.679	19438.26
561.041	19537.69
561.404	19592.61
561.767	19659.5
562.129	19597.58
562.492	19878.47
562.854	19722.32
563.217	19873.95
563.579	19945.14
563.941	20040.5
564.304	20134.96
564.666	20232.36
565.028	20296.09
565.39	20285.47
565.753	20521.62
566.115	20526.82
566.477	20582.86
566.839	20639.81
567.201	20699.7
567.563	20735.85
567.925	20959.58
568.287	20879.58
568.648	21051.1
569.01	21168.61
569.372	21272.56
569.734	21278.89
570.095	21438.43
570.457	21584.42
570.819	21584.64
571.18	21505.32
571.542	21764.75
571.903	21836.39
572.265	21873.68
572.626	21918.42
572.987	22055.82
573.349	22108.47
573.71	22169.04
574.071	22373.55
574.432	22400.89
574.794	22586.43
575.155	22541.68
575.516	22615.35
575.877	22788
576.238	22886.31
576.599	23015.34
576.96	23009.01
577.32	23119.29
577.681	23386.18
578.042	23440.87
578.403	23527.19
578.763	23702.78
579.124	23754.98
579.485	23987.74
579.845	24122.88
580.206	24221.86
580.566	24290.56
580.927	24433.16
581.287	24718.35
581.648	24712.92
582.008	24897.55
582.368	25014.61
582.728	25162.63
583.089	25256.86
583.449	25578.44
583.809	25611.66
584.169	25720.35
584.529	25984.98
584.889	26264.75
585.249	26300.68
585.609	26396.5
585.969	26643.27
586.329	26766.2
586.688	26969.14
587.048	27159.19
587.408	27319.18
587.768	27622.23
588.127	27650.93
588.487	27810.47
588.846	28193.51
589.206	28192.61
589.565	28423.56
589.925	28746.72
590.284	28791.01
590.643	28941.74
591.003	29347.6
591.362	29524.55
591.721	29674.6
592.08	29863.52
592.44	30102.16
592.799	30365.88
593.158	30421.93
593.517	30831.63
593.876	30898.07
594.235	30965.64
594.593	31166.31
594.952	31380.77
595.311	31475.23
595.67	31683.81
596.029	32040.41
596.387	32350.91
596.746	32335.1
597.104	32414.42
597.463	32615.54
597.822	32882.88
598.18	33019.37
598.538	33093.72
598.897	33378.91
599.255	33408.97
599.613	33967.37
599.972	33923.08
600.33	34069.74
600.688	34093.92
601.046	34390.86
601.404	34679.44
601.762	34656.62
602.12	34951.98
602.478	35154.23
602.836	35241.69
603.194	35282.14
603.552	35537.72
603.91	35534.79
604.268	35725.06
604.625	35790.37
604.983	36126.41
605.341	36071.72
605.698	36411.37
606.056	36427.87
606.413	36499.05
606.771	36737.92
607.128	36873.28
607.485	36728.2
607.843	36900.4
608.2	37178.81
608.557	37515.52
608.914	37418.8
609.272	37702.19
609.629	37739.25
609.986	38127.26
610.343	38007.49
610.7	38255.17
611.057	38336.52
611.414	38369.06
611.771	38569.73
612.127	38718.21
612.484	38758.43
612.841	38925.66
613.198	38900.35
613.554	38873.68
613.911	39353.22
614.267	39258.98
614.624	39197.06
614.98	39326.32
615.337	39670.95
615.693	39658.97
616.05	39633.89
616.406	39932.18
616.762	39753.21
617.118	39943.48
617.475	40097.6
617.831	40100.09
618.187	40247.88
618.543	40299.86
618.899	40451.94
619.255	40531.94
619.611	40525.62
619.967	40805.61
620.323	40725.16
620.678	40573.3
621.034	40752.95
621.39	40749.79
621.746	40737.59
622.101	41284.24
622.457	41123.34
622.812	41106.62
623.168	41303.22
623.523	41233.39
623.879	41375.08
624.234	41250.57
624.589	41348.87
624.945	41438.13
625.3	41524.91
625.655	41412.6
626.01	41613.27
626.365	41538.7
626.72	41514.74
627.075	41601.07
627.43	41564.46
627.785	41454.63
628.14	41729.43
628.495	41818.46
628.85	41719.93
629.205	41606.94
629.559	42021.4
629.914	41654.4
630.269	41754.74
630.623	41816.2
630.978	41593.61
631.332	41822.53
631.687	41984.56
632.041	41694.62
632.396	41813.49
632.75	41695.98
633.104	41828.18
633.459	41547.51
633.813	41554.97
634.167	41653.5
634.521	41515.42
634.875	41590.45
635.229	41589.99
635.583	41442.2
635.937	41531.69
636.291	41407.85
636.645	41507.28
636.999	41403.33
637.352	41553.84
637.706	41299.83
638.06	41545.7
638.413	41416.44
638.767	41354.75
639.121	41420.05
639.474	41265.71
639.828	41222.77
640.181	41363.11
640.534	41335.31
640.888	41201.98
641.241	41055.54
641.594	41191.36
641.947	41352.49
642.301	41069.33
642.654	41242.21
643.007	41129.67
643.36	41121.76
643.713	41042.66
644.066	41305.26
644.419	40909.79
644.771	40761.09
645.124	40340.76
645.477	40423.92
645.83	40134.67
646.182	39950.26
646.535	39884.05
646.888	39997.72
647.24	39653.55
647.593	39832.75
647.945	39933.99
648.298	39834.11
648.65	39727.9
649.002	39566.32
649.355	39771.06
649.707	39736.94
650.059	39696.48
650.411	40184.16
650.763	40287.88
651.115	40551.38
651.467	40496.92
651.819	40480.19
652.171	40351.16
652.523	40388.67
652.875	40348.44
653.227	40135.12
653.578	40493.53
653.93	40271.16
654.282	40152.97
654.633	40075.91
654.985	40058.51
655.337	40168.34
655.688	40225.51
656.039	40369.91
656.391	39889.25
656.742	40024.16
657.094	40114.1
657.445	40179.86
657.796	39974.22
658.147	39958.4
658.498	39976.48
658.849	40129.92
659.2	40004.5
659.551	39979.87
659.902	40104.38
660.253	39930.6
660.604	40077.04
660.955	39955.69
661.306	39988.23
661.656	39908.68
662.007	40044.05
662.358	39981.9
662.708	39863.26
663.059	40078.17
663.409	39614.9
663.76	40101.22
664.11	39898.97
664.461	39967.21
664.811	39955.23
665.161	39866.65
665.511	39735.35
665.862	39846.99
666.212	39888.8
666.562	39919.3
666.912	39844.96
667.262	39804.96
667.612	39868.68
667.962	39724.51
668.312	39727.9
668.662	39949.36
669.011	39747.56
669.361	39808.12
669.711	39625.53
670.06	39639.31
670.41	39563.15
670.76	39605.64
671.109	39568.35
671.459	39715.47
671.808	39500.33
672.157	39605.64
672.507	39345.99
672.856	39386.44
673.205	39470.28
673.554	39628.24
673.904	39365.42
674.253	39503.72
674.602	39493.1
674.951	38902.38
675.3	38711.43
675.649	39416.27
675.998	39241.81
676.346	39332.65
676.695	39430.5
677.044	39140.57
677.393	39270.28
677.741	39313.67
678.09	39283.61
678.438	39116.39
678.787	39197.74
679.135	39190.51
679.484	38846.56
679.832	39173.11
680.181	38840.46
680.529	39022.38
680.877	38782.16
681.225	38752.33
681.573	39083.62
681.922	38861.93
682.27	38679.79
682.618	38655.61
682.966	38525.67
683.314	38605.67
683.661	38508.95
684.009	38347.82
684.357	38277.31
684.705	38220.59
685.053	38316.41
685.4	38188.28
685.748	38064.89
686.095	38075.74
686.443	37857.89
686.79	37885.68
687.138	37875.29
687.485	37990.77
687.832	37807.72
688.18	37906.93
688.527	37622.64
688.874	37654.73
689.221	37556.43
689.568	37472.81
689.915	37329.09
690.262	37417.45
690.609	37120.06
690.956	37106.95
691.303	37160.05
691.65	36876.22
691.997	36965.26
692.344	36626.96
692.69	36705.83
693.037	36787.41
693.383	36373.18
693.73	36547.64
694.077	36301.09
694.423	36300.42
694.769	36204.6
695.116	36130.7
695.462	35941.1
695.808	36050.7
696.155	35996.69
696.501	35685.74
696.847	35902.23
697.193	35448.01
697.539	35714.67
697.885	35448.91
698.231	35236.94
698.577	35254.57
698.923	35164.17
699.269	35127.11
699.614	34927.8
699.96	34897.06
700.306	34773.9
700.651	34733.9
700.997	34511.99
701.342	34488.71
701.688	34493.68
702.033	34437.19
702.379	34274.48
702.724	34305.67
703.069	34392.44
703.415	33939.8
703.76	33940.25
704.105	33996.07
704.45	33874.26
704.795	33658
705.14	33582.52
705.485	33496.65
705.83	33318.12
706.175	33439.7
706.52	33341.62
706.865	33114.74
707.209	33176.66
707.554	33138.69
707.899	33071.12
708.243	33046.49
708.588	32853.05
708.932	32688.08
709.277	32768.31
709.621	32754.29
709.966	32477.01
710.31	32565.15
710.654	32493.28
710.998	32449.67
711.342	32376.9
711.687	32252.39
712.031	32111.83
712.375	32087.64
712.719	32181.43
713.063	31874.77
713.407	32126.29
713.75	31926.07
714.094	31919.29
714.438	31798.61
714.782	31846.52
715.125	31575.79
715.469	31734.66
715.812	31535.12
716.156	31469.13
716.499	31455.8
716.843	31453.54
717.186	31273.66
717.53	31423.48
717.873	31359.08
718.216	31213.54
718.559	31134.45
718.902	30915.7
719.246	30956.6
719.589	30946.88
719.932	30832.76
720.275	30745.08
720.617	30768.36
720.96	30520.23
721.303	30583.28
721.646	30609.72
721.989	30497.4
722.331	30494.69
722.674	30373.11
723.016	30496.73
723.359	30336.96
723.701	30397.52
724.044	30074.82
724.386	29984.65
724.729	30176.28
725.071	30013.12
725.413	30113.23
725.755	30004.76
726.097	29864.43
726.439	29777.88
726.782	29780.81
727.124	29928.38
727.465	29683.19
727.807	29867.36
728.149	29534.27
728.491	29572.46
728.833	29565.45
729.175	29569.07
729.516	29305.35
729.858	29472.35
730.199	29434.61
730.541	29375.4
730.882	29316.87
731.224	29379.69
731.565	29227.16
731.906	29146.71
732.248	29229.87
732.589	29044.56
732.93	28968.18
733.271	28968.63
733.612	28858.58
733.953	29011.79
734.294	28837.56
734.635	28725.93
734.976	28826.71
735.317	28736.32
735.658	28691.35
735.999	28672.37
736.339	28515.08
736.68	28539.94
737.021	28519.6
737.361	28426.5
737.702	28608.41
738.042	28407.97
738.383	28363.22
738.723	28408.19
739.063	28294.52
739.404	28307.41
739.744	28167.3
740.084	28173.85
740.424	28214.98
740.764	28163
741.104	28097.24
741.444	27981.54
741.784	27950.58
742.124	27903.8
742.464	27908.32
742.804	27942.44
743.143	27724.82
743.483	27893.4
743.823	27670.59
744.162	27589.91
744.502	27647.76
744.841	27611.6
745.181	27633.52
745.52	27492.74
745.86	27596.24
746.199	27478.27
746.538	27421.78
746.877	27427.43
747.216	27430.82
747.556	27322.35
747.895	27244.38
748.234	27063.6
748.573	27092.52
748.911	27090.71
749.25	27075.57
749.589	26949.48
749.928	26939.98
750.267	26872.19
750.605	26869.93
750.944	26757.39
751.283	26725.98
751.621	26768.91
751.96	26633.33
752.298	26614.34
752.636	26511.75
752.975	26481.24
753.313	26354.69
753.651	26488.7
753.989	26235.37
754.327	26311.98
754.666	26152.21
755.004	26234.47
755.342	26156.73
755.679	26174.58
756.017	25996.05
756.355	25962.38
756.693	25966.22
757.031	25936.85
