Data from hue_290_FLMS001491_00056.txt Node
Date: Tue Feb 07 15:52:56 GMT 2017
User: dcchb
Spectrometer: FLMS00149
Trigger mode: 0
Integration Time (sec): 2.000000E-2
Scans to average: 10
Electric dark correction enabled: true
Nonlinearity correction enabled: false
Boxcar width: 0
XAxis mode: Wavelengths
Number of Pixels in Spectrum: 2048
>>>>>Begin Spectral Data<<<<<
341.393	-1.81
341.776	-1.81
342.16	-1.81
342.543	-61.47
342.927	-30.96
343.31	-65.53
343.693	-67.34
344.077	-76.83
344.46	-63.05
344.843	-31.19
345.226	-44.07
345.61	-45.65
345.993	-12.2
346.376	-6.78
346.759	6.78
347.142	15.59
347.525	67.34
347.908	55.59
348.291	73.67
348.674	87.68
349.057	105.99
349.44	146.21
349.823	126.32
350.206	153.22
350.588	197.73
350.971	214.23
351.354	209.03
351.737	229.37
352.119	242.71
352.502	238.86
352.884	278.64
353.267	267.11
353.65	274.57
354.032	304.85
354.414	320.9
354.797	320.67
355.179	329.03
355.562	306.66
355.944	315.47
356.326	338.52
356.709	322.93
357.091	323.16
357.473	330.61
357.855	352.31
358.238	345.98
358.62	309.82
359.002	348.47
359.384	342.36
359.766	346.88
360.148	330.39
360.53	354.34
360.912	324.96
361.294	324.06
361.676	343.49
362.057	329.03
362.439	334.91
362.821	310.05
363.203	320.9
363.584	315.25
363.966	303.49
364.348	328.8
364.729	319.09
365.111	320.9
365.493	329.03
365.874	318.86
366.256	315.47
366.637	311.18
367.019	315.02
367.4	309.82
367.781	294.68
368.163	321.8
368.544	311.86
368.925	302.14
369.306	300.33
369.688	298.3
370.069	308.69
370.45	310.95
370.831	309.6
371.212	298.3
371.593	288.81
371.974	288.58
372.355	318.86
372.736	320.67
373.117	298.07
373.498	331.06
373.879	312.08
374.26	317.05
374.641	315.02
375.021	303.49
375.402	332.87
375.783	289.94
376.163	316.15
376.544	313.21
376.925	325.19
377.305	308.92
377.686	330.16
378.066	357.96
378.447	330.61
378.827	308.01
379.208	308.24
379.588	333.55
379.968	322.25
380.349	323.38
380.729	341.01
381.109	310.27
381.489	337.17
381.87	328.13
382.25	331.74
382.63	323.16
383.01	328.35
383.39	334.91
383.77	327.22
384.15	357.28
384.53	367
384.91	364.96
385.29	335.36
385.67	343.04
386.049	338.3
386.429	356.37
386.809	365.64
387.189	356.6
387.568	350.27
387.948	357.28
388.328	355.02
388.707	354.57
389.087	353.66
389.466	357.28
389.846	365.41
390.225	374.91
390.605	346.88
390.984	363.83
391.363	365.41
391.743	361.12
392.122	368.35
392.501	368.8
392.881	404.96
393.26	382.14
393.639	396.6
394.018	385.07
394.397	400.89
394.776	381.23
395.155	405.41
395.534	426.43
395.913	377.62
396.292	379.88
396.671	392.53
397.05	408.35
397.429	377.39
397.808	383.72
398.186	390.95
398.565	411.29
398.944	382.81
399.323	397.96
399.701	410.38
400.08	420.55
400.458	414.9
400.837	425.53
401.215	429.82
401.594	406.09
401.972	443.6
402.351	438.86
402.729	419.2
403.107	432.98
403.486	442.93
403.864	425.98
404.242	413.1
404.62	458.97
404.999	444.28
405.377	447.9
405.755	469.82
406.133	477.95
406.511	459.87
406.889	467.78
407.267	449.25
407.645	486.09
408.023	503.04
408.401	482.02
408.779	494.68
409.156	491.51
409.534	501.91
409.912	479.31
410.29	496.71
410.667	518.4
411.045	548.69
411.422	527.22
411.8	533.32
412.178	544.62
412.555	544.62
412.933	545.3
413.31	575.13
413.687	564.96
414.065	566.31
414.442	602.7
414.819	580.1
415.197	593.66
415.574	603.6
415.951	616.48
416.328	638.18
416.705	631.17
417.082	635.92
417.46	651.51
417.837	649.02
418.214	657.16
418.591	673.2
418.967	669.59
419.344	688.57
419.721	701.22
420.098	694.67
420.475	701.45
420.852	736.03
421.228	729.7
421.605	739.64
421.982	692.41
422.358	730.15
422.735	748.45
423.111	745.97
423.488	793.43
423.864	768.34
424.241	827.32
424.617	834.1
424.994	830.71
425.37	802.24
425.746	816.02
426.123	805.63
426.499	825.29
426.875	843.37
427.251	865.74
427.627	895.12
428.003	877.27
428.379	873.88
428.756	888.34
429.132	906.19
429.507	927.66
429.883	935.79
430.259	945.74
430.635	942.8
431.011	976.92
431.387	964.27
431.763	1008.79
432.138	1014.21
432.514	1011.5
432.89	1060.31
433.265	1050.82
433.641	1063.7
434.016	1038.62
434.392	1066.86
434.767	1095.56
435.143	1090.37
435.518	1082.01
435.894	1139.63
436.269	1152.06
436.644	1136.69
437.02	1163.81
437.395	1153.87
437.77	1194.09
438.145	1205.39
438.52	1202
438.895	1197.03
439.271	1204.49
439.646	1247.42
440.021	1252.85
440.395	1269.8
440.77	1240.87
441.145	1275.9
441.52	1272.28
441.895	1302.34
442.27	1330.13
442.645	1320.87
443.019	1326.74
443.394	1326.74
443.769	1341.66
444.143	1342.56
444.518	1371.94
444.892	1347.31
445.267	1336.69
445.641	1383.92
446.016	1386.63
446.39	1379.4
446.764	1409.45
447.139	1397.7
447.513	1374.88
447.887	1378.72
448.262	1384.6
448.636	1423.01
449.01	1435.22
449.384	1436.8
449.758	1456.46
450.132	1476.57
450.506	1458.94
450.88	1445.61
451.254	1472.05
451.628	1515.21
452.002	1467.98
452.376	1491.49
452.75	1523.12
453.123	1512.05
453.497	1552.05
453.871	1545.5
454.244	1567.42
454.618	1562.67
454.992	1582.11
455.365	1598.38
455.739	1595.44
456.112	1630.24
456.486	1603.57
456.859	1650.8
457.232	1656.45
457.606	1649.45
457.979	1669.11
458.352	1715.44
458.725	1699.39
459.099	1746.39
459.472	1741.42
459.845	1761.99
460.218	1761.99
460.591	1781.2
460.964	1760.18
461.337	1822.55
461.71	1817.81
462.083	1862.32
462.456	1841.08
462.829	1822.1
463.201	1908.65
463.574	1876.33
463.947	1908.42
464.32	1970.8
464.692	1954.52
465.065	1974.86
465.438	1956.56
465.81	2001.98
466.183	2030
466.555	2048.99
466.928	2036.33
467.3	2028.87
467.672	2067.97
468.045	2097.8
468.417	2109.1
468.789	2126.5
469.161	2139.6
469.534	2135.99
469.906	2177.57
470.278	2183.9
470.65	2195.65
471.022	2226.16
471.394	2286.72
471.766	2344.35
472.138	2300.96
472.51	2376.21
472.882	2366.04
473.253	2381.41
473.625	2421.41
473.997	2446.04
474.369	2451.46
474.74	2454.85
475.112	2490.78
475.484	2538.46
475.855	2595.64
476.227	2613.26
476.598	2656.43
476.97	2627.95
477.341	2699.82
477.713	2737.78
478.084	2737.1
478.455	2765.58
478.827	2802.64
479.198	2856.2
479.569	2863.88
479.94	2955.85
480.311	2940.26
480.682	2963.54
481.053	3011.45
481.424	3053.48
481.795	3102.74
482.166	3078.79
482.537	3130.77
482.908	3201.72
483.279	3184.1
483.65	3239.91
484.021	3304.09
484.391	3334.15
484.762	3326.47
485.133	3363.75
485.503	3390.87
485.874	3427.25
486.244	3455.95
486.615	3517.87
486.985	3556.29
487.356	3596.97
487.726	3614.59
488.097	3702.5
488.467	3685.78
488.837	3761.93
489.207	3722.84
489.578	3792.67
489.948	3821.82
490.318	3862.95
490.688	3892.33
491.058	3898.65
491.428	3935.26
491.798	3977.52
492.168	4057.07
492.538	4013.45
492.908	4079.67
493.278	4134.13
493.648	4111.3
494.017	4143.62
494.387	4177.97
494.757	4218.65
495.126	4275.37
495.496	4243.96
495.866	4285.09
496.235	4329.15
496.605	4372.09
496.974	4384.52
497.344	4381.35
497.713	4372.09
498.082	4396.04
498.452	4466.32
498.821	4487.34
499.19	4499.77
499.559	4485.76
499.928	4545.19
500.298	4541.58
500.667	4573.89
501.036	4567.56
501.405	4610.73
501.774	4577.28
502.143	4668.58
502.512	4634
502.88	4702.93
503.249	4684.4
503.618	4695.92
503.987	4713.55
504.356	4769.14
504.724	4776.15
505.093	4723.49
505.462	4727.79
505.83	4798.52
506.199	4826.77
506.567	4917.84
506.936	4800.78
507.304	4915.35
507.672	4934.11
508.041	4870.83
508.409	4937.5
508.777	4980.21
509.145	4965.07
509.514	4973.43
509.882	5045.97
510.25	4973.2
510.618	5042.35
510.986	5000.55
511.354	5100.43
511.722	5101.33
512.09	5137.27
512.458	5094.78
512.826	5157.15
513.193	5193.99
513.561	5196.47
513.929	5168.9
514.297	5253.42
514.664	5293.19
515.032	5271.27
515.4	5266.75
515.767	5288
516.135	5264.04
516.502	5218.85
516.869	5325.06
517.237	5329.8
517.604	5324.83
517.972	5405.73
518.339	5367.99
518.706	5382.68
519.073	5403.02
519.44	5370.93
519.808	5476.69
520.175	5455.45
520.542	5462.68
520.909	5534.54
521.276	5487.99
521.643	5574.09
522.009	5525.28
522.376	5614.09
522.743	5598.5
523.11	5642.56
523.477	5684.6
523.843	5708.55
524.21	5682.56
524.577	5784.71
524.943	5745.84
525.31	5798.94
525.676	5801.66
526.043	5830.58
526.409	5890.69
526.776	5918.49
527.142	5895.44
527.508	5906.06
527.874	5985.38
528.241	5990.8
528.607	6016.56
528.973	6065.83
529.339	6018.82
529.705	6106.73
530.071	6146.96
530.437	6150.35
530.803	6135.88
531.169	6180.4
531.535	6202.77
531.901	6165.04
532.267	6244.58
532.632	6246.39
532.998	6262.66
533.364	6289.33
533.73	6331.81
534.095	6350.34
534.461	6325.71
534.826	6363.9
535.192	6376.1
535.557	6392.6
535.923	6399.83
536.288	6435.09
536.653	6495.42
537.019	6478.93
537.384	6513.73
537.749	6513.5
538.114	6525.7
538.479	6545.36
538.845	6615.19
539.21	6614.97
539.575	6581.52
539.94	6644.12
540.305	6671.91
540.67	6662.2
541.034	6651.12
541.399	6731.57
541.764	6706.26
542.129	6709.43
542.494	6756.66
542.858	6826.49
543.223	6759.14
543.587	6813.83
543.952	6819.93
544.316	6782.42
544.681	6844.79
545.045	6898.8
545.41	6855.86
545.774	6886.15
546.138	6918.01
546.503	6972.92
546.867	6975.64
547.231	7002.53
547.595	6925.47
547.959	7033.94
548.324	7004.56
548.688	7033.71
549.052	7086.59
549.416	7113.03
549.779	7144.44
550.143	7102.19
550.507	7122.75
550.871	7193.94
551.235	7156.87
551.599	7228.51
551.962	7162.07
552.326	7168.4
552.689	7264.22
553.053	7166.14
553.417	7231.22
553.78	7294.95
554.143	7218.57
554.507	7316.42
554.87	7236.42
555.234	7377.43
555.597	7361.16
555.96	7392.35
556.323	7375.4
556.686	7409.75
557.05	7416.98
557.413	7438.9
557.776	7425.79
558.139	7519.12
558.502	7496.53
558.865	7480.71
559.228	7588.5
559.59	7566.81
559.953	7633.92
560.316	7644.32
560.679	7593.92
561.041	7698.78
561.404	7742.17
561.767	7741.72
562.129	7718.67
562.492	7792.11
562.854	7803.41
563.217	7731.55
563.579	7776.52
563.941	7842.05
564.304	7788.95
564.666	7830.53
565.028	7976.06
565.39	7896.06
565.753	7966.57
566.115	8019.68
566.477	7946.68
566.839	8104.42
567.201	8140.12
567.563	8071.43
567.925	8247.92
568.287	8143.29
568.648	8166.56
569.01	8141.48
569.372	8252.21
569.734	8278.2
570.095	8322.04
570.457	8371.08
570.819	8386.45
571.18	8330.85
571.542	8390.97
571.903	8465.54
572.265	8470.74
572.626	8535.59
572.987	8602.49
573.349	8550.28
573.71	8600
574.071	8629.6
574.432	8657.85
574.794	8808.36
575.155	8774.68
575.516	8794.8
575.877	8812.2
576.238	8877.05
576.599	8954.57
576.96	8979.88
577.32	9059.2
577.681	9117.05
578.042	9138.06
578.403	9191.17
578.763	9265.52
579.124	9315.69
579.485	9440.2
579.845	9470.49
580.206	9506.87
580.566	9559.97
580.927	9622.35
581.287	9765.62
581.648	9741.44
582.008	9907.54
582.368	9929.23
582.728	10066.18
583.089	10096.91
583.449	10228.43
583.809	10333.97
584.169	10385.94
584.529	10514.75
584.889	10636.56
585.249	10658.7
585.609	10800.85
585.969	10975.08
586.329	11011.69
586.688	11174.17
587.048	11272.92
587.408	11395.41
587.768	11441.73
588.127	11649.86
588.487	11757.88
588.846	11931.44
589.206	11998.1
589.565	12059.57
589.925	12294.37
590.284	12396.51
590.643	12446.9
591.003	12668.14
591.362	12853.45
591.721	12908.81
592.08	13063.84
592.44	13315.13
592.799	13449.82
593.158	13523.03
593.517	13656.14
593.876	13812.97
594.235	13883.93
594.593	14090.02
594.952	14184.94
595.311	14224.26
595.67	14469.68
596.029	14718.26
596.387	14779.72
596.746	14854.07
597.104	14951.7
597.463	15082.32
597.822	15265.59
598.18	15358.01
598.538	15408.86
598.897	15699.47
599.255	15722.07
599.613	15957.55
599.972	16112.8
600.33	16190.99
600.688	16235.96
601.046	16487.25
601.404	16658.32
601.762	16675.49
602.12	16919.1
602.478	17007.46
602.836	17087.01
603.194	17058.53
603.552	17226.21
603.91	17264.18
604.268	17394.34
604.625	17437.96
604.983	17548.24
605.341	17672.08
605.698	17815.35
606.056	17912.75
606.413	17959.53
606.771	18057.38
607.128	18131.27
607.485	18127.88
607.843	18188.22
608.2	18388.44
608.557	18523.81
608.914	18608.1
609.272	18619.62
609.629	18679.06
609.986	18806.51
610.343	18912.27
610.7	19005.38
611.057	19074.98
611.414	19099.61
611.771	19208.53
612.127	19307.97
612.484	19379.6
612.841	19539.6
613.198	19385.03
613.554	19462.09
613.911	19663.44
614.267	19736.43
614.624	19806.71
614.98	19853.72
615.337	19965.8
615.693	19937.78
616.05	20050.09
616.406	20126.02
616.762	20147.72
617.118	20097.78
617.475	20180.94
617.831	20333.93
618.187	20401.95
618.543	20324.44
618.899	20533.25
619.255	20486.92
619.611	20439.46
619.967	20598.1
620.323	20699.34
620.678	20649.17
621.034	20632
621.39	20706.57
621.746	20723.07
622.101	20923.52
622.457	20798.32
622.812	20921.48
623.168	21042.38
623.523	20973.91
623.879	21006.23
624.234	20969.62
624.589	21050.97
624.945	21064.08
625.3	21148.14
625.655	21137.07
626.01	21194.47
626.365	21213.23
626.72	21153.34
627.075	21196.73
627.43	21320.34
627.785	21148.14
628.14	21194.02
628.495	21328.7
628.85	21290.29
629.205	21212.55
629.559	21360.57
629.914	21275.82
630.269	21297.07
630.623	21230.18
630.978	21100.91
631.332	21266.56
631.687	21270.18
632.041	21188.6
632.396	21344.3
632.75	21130.74
633.104	21252.77
633.459	21183.4
633.813	21125.09
634.167	21158.31
634.521	21124.42
634.875	21221.59
635.229	21198.54
635.583	21121.93
635.937	21099.11
636.291	21093
636.645	21061.82
636.999	21020.92
637.352	21033.35
637.706	20984.76
638.06	21097.75
638.413	20998.09
638.767	20951.77
639.121	21008.94
639.474	20945.21
639.828	20915.16
640.181	20942.73
640.534	20924.42
640.888	20968.94
641.241	20846.91
641.594	20849.4
641.947	20925.1
642.301	20885.1
642.654	20944.31
643.007	20884.42
643.36	20784.31
643.713	20851.88
644.066	20866.12
644.419	20871.32
644.771	20679.68
645.124	20512.91
645.477	20557.43
645.83	20389.52
646.182	20267.94
646.535	20278.79
646.888	20369.86
647.24	20256.64
647.593	20295.51
647.945	20332.35
648.298	20166.25
648.65	20219.13
649.002	20106.14
649.355	20298.22
649.707	20188.85
650.059	20363.08
650.411	20564.88
650.763	20668.38
651.115	20763.3
651.467	20768.04
651.819	20724.2
652.171	20747.7
652.523	20696.4
652.875	20731.43
653.227	20505
653.578	20865.44
653.93	20756.06
654.282	20730.08
654.633	20626.58
654.985	20617.31
655.337	20727.59
655.688	20840.58
656.039	20741.6
656.391	20655.28
656.742	20674.48
657.094	20733.92
657.445	20776.85
657.796	20678.55
658.147	20761.94
658.498	20758.32
658.849	20756.74
659.2	20774.82
659.551	20725.1
659.902	20861.15
660.253	20763.52
660.604	20681.94
660.955	20772.34
661.306	20741.15
661.656	20815.5
662.007	20646.24
662.358	20818.21
662.708	20778.21
663.059	20692.11
663.409	20699.79
663.76	20804.88
664.11	20849.17
664.461	20809.17
664.811	20856.85
665.161	20793.58
665.511	20822.5
665.862	20819.34
666.212	20836.06
666.562	20926.46
666.912	20842.62
667.262	20763.07
667.612	20827.02
667.962	20783.63
668.312	20789.74
668.662	20927.59
669.011	20837.64
669.361	20734.14
669.711	20697.76
670.06	20711.55
670.41	20658.67
670.76	20776.18
671.109	20776.4
671.459	20708.61
671.808	20781.15
672.157	20733.01
672.507	20573.47
672.856	20567.14
673.205	20745.9
673.554	20729.85
673.904	20589.74
674.253	20774.14
674.602	20610.76
674.951	20406.92
675.3	20243.54
675.649	20572.34
675.998	20561.27
676.346	20546.58
676.695	20623.41
677.044	20419.8
677.393	20541.61
677.741	20570.31
678.09	20443.76
678.438	20456.19
678.787	20462.51
679.135	20441.72
679.484	20264.78
679.832	20350.2
680.181	20222.75
680.529	20305.68
680.877	20269.52
681.225	20252.12
681.573	20323.53
681.922	20286.25
682.27	20065.69
682.618	20109.98
682.966	20069.98
683.314	20164.44
683.661	20010.1
684.009	19970.32
684.357	19926.71
684.705	19881.06
685.053	19844.9
685.4	19820.27
685.748	19809.65
686.095	19755.86
686.443	19675.19
686.79	19619.6
687.138	19654.4
687.485	19625.02
687.832	19484.01
688.18	19692.36
688.527	19452.37
688.874	19396.1
689.221	19366.5
689.568	19260.51
689.915	19248.99
690.262	19181.19
690.609	19187.07
690.956	19031.59
691.303	19063.91
691.65	18990.46
691.997	19082.89
692.344	18826.4
692.69	18824.59
693.037	18796.12
693.383	18699.17
693.73	18790.92
694.077	18630.92
694.423	18618.95
694.769	18594.99
695.116	18542.79
695.462	18510.25
695.808	18389.12
696.155	18418.05
696.501	18291.27
696.847	18191.16
697.193	18076.13
697.539	18196.36
697.885	17974.67
698.231	17973.99
698.577	17948
698.923	17962.69
699.269	17842.69
699.614	17732.64
699.96	17644.51
700.306	17732.87
700.651	17600.67
700.997	17489.03
701.342	17456.04
701.688	17505.3
702.033	17509.82
702.379	17359.32
702.724	17271.41
703.069	17266.21
703.415	17087.23
703.76	17079.32
704.105	17091.3
704.45	17150.74
704.795	16985.09
705.14	16856.96
705.485	16864.19
705.83	16850.63
706.175	16760.92
706.52	16741.93
706.865	16730.18
707.209	16708.49
707.554	16583.52
707.899	16646.79
708.243	16475.95
708.588	16486.35
708.932	16407.93
709.277	16313.24
709.621	16463.75
709.966	16227.82
710.31	16311.66
710.654	16125.23
710.998	16223.75
711.342	16174.49
711.687	16059.24
712.031	16125
712.375	16012.46
712.719	15978.11
713.063	15918.68
713.407	15971.78
713.75	15972.69
714.094	15841.17
714.438	15761.62
714.782	15808.85
715.125	15748.06
715.469	15790.55
715.812	15608.4
716.156	15595.97
716.499	15534.73
716.843	15570.66
717.186	15482.98
717.53	15619.7
717.873	15572.25
718.216	15542.19
718.559	15422.87
718.902	15314.17
719.246	15429.65
719.589	15383.78
719.932	15311.01
720.275	15351.23
720.617	15337.68
720.96	15291.35
721.303	15270.56
721.646	15329.54
721.989	15142.65
722.331	15315.98
722.674	15087.51
723.016	15269.2
723.359	15123.9
723.701	15201.63
724.044	15107.4
724.386	15064.24
724.729	15067.63
725.071	15045.93
725.413	15092.71
725.755	14990.34
726.097	15000.06
726.439	14923.9
726.782	14905.82
727.124	14987.85
727.465	15006.61
727.807	15001.87
728.149	14906.27
728.491	14828.76
728.833	14980.17
729.175	14852.49
729.516	14746.28
729.858	14845.49
730.199	14878.03
730.541	14829.89
730.882	14819.5
731.224	14917.8
731.565	14701.99
731.906	14805.94
732.248	14765.49
732.589	14707.86
732.93	14743.57
733.271	14735.43
733.612	14768.65
733.953	14699.05
734.294	14739.5
734.635	14722.78
734.976	14707.41
735.317	14659.28
735.658	14628.99
735.999	14669.67
736.339	14705.6
736.68	14763.45
737.021	14742.89
737.361	14606.62
737.702	14704.92
738.042	14678.03
738.383	14677.81
738.723	14736.79
739.063	14642.78
739.404	14745.37
739.744	14714.64
740.084	14658.6
740.424	14706.05
740.764	14714.87
741.104	14821.08
741.444	14724.36
741.784	14710.12
742.124	14779.5
742.464	14783.11
742.804	14785.37
743.143	14776.33
743.483	14825.15
743.823	14791.25
744.162	14848.2
744.502	14833.51
744.841	14867.86
745.181	14864.02
745.52	14855.88
745.86	14965.71
746.199	14977.01
746.538	15044.58
746.877	15163.67
747.216	15228.98
747.556	15136.78
747.895	15258.36
748.234	15191.24
748.573	15221.97
748.911	15348.07
749.25	15381.52
749.589	15457.22
749.928	15504.68
750.267	15580.83
750.605	15574.28
750.944	15594.17
751.283	15727.5
751.621	15927.72
751.96	15786.93
752.298	15901.28
752.636	16106.7
752.975	16043.65
753.313	16104.66
753.651	16266.69
753.989	16272.79
754.327	16466.01
754.666	16448.61
755.004	16538.77
755.342	16743.74
755.679	16741.03
756.017	16837.75
756.355	16974.69
756.693	17016.5
757.031	17192.09
757.368	17161.81
757.706	17337.4
758.044	17368.13
758.381	17594.57
758.719	17632.76
759.056	17718.4
759.394	17812.19
759.731	17822.13
760.068	17929.92
