Data from hue_34_FLMS001491_00078.txt Node
Date: Tue Feb 07 17:26:07 GMT 2017
User: dcchb
Spectrometer: FLMS00149
Trigger mode: 0
Integration Time (sec): 2.000000E-2
Scans to average: 10
Electric dark correction enabled: true
Nonlinearity correction enabled: false
Boxcar width: 0
XAxis mode: Wavelengths
Number of Pixels in Spectrum: 2048
>>>>>Begin Spectral Data<<<<<
341.393	-11.93
341.776	-11.93
342.16	-11.93
342.543	-71.14
342.927	-66.85
343.31	-87.41
343.693	-76.79
344.077	-78.15
344.46	-77.7
344.843	-51.48
345.226	-42.89
345.61	-29.11
345.993	-23.91
346.376	-9
346.759	1.62
347.142	26.93
347.525	47.5
347.908	64.22
348.291	86.82
348.674	113.94
349.057	135.41
349.44	128.4
349.823	142.19
350.206	172.02
350.588	181.73
350.971	197.55
351.354	223.77
351.737	234.39
352.119	269.19
352.502	247.27
352.884	280.94
353.267	287.04
353.65	294.27
354.032	292.24
354.414	310.09
354.797	314.16
355.179	353.93
355.562	319.36
355.944	319.13
356.326	312.58
356.709	326.59
357.091	345.8
357.473	351.9
357.855	333.59
358.238	359.58
358.62	329.07
359.002	325.46
359.384	332.91
359.766	346.93
360.148	332.91
360.53	330.66
360.912	343.99
361.294	329.53
361.676	338.79
362.057	327.72
362.439	352.12
362.821	331.79
363.203	319.58
363.584	325.23
363.966	345.57
364.348	333.14
364.729	338.34
365.111	306.47
365.493	334.95
365.874	324.55
366.256	301.73
366.637	321.16
367.019	309.86
367.4	315.97
367.781	320.03
368.163	321.62
368.544	320.26
368.925	303.76
369.306	331.56
369.688	299.47
370.069	309.64
370.45	308.28
370.831	315.97
371.212	323.88
371.593	306.47
371.974	308.51
372.355	309.86
372.736	312.8
373.117	305.12
373.498	317.1
373.879	312.35
374.26	328.85
374.641	333.82
375.021	332.91
375.402	319.36
375.783	336.53
376.163	314.84
376.544	347.6
376.925	314.38
377.305	313.25
377.686	329.07
378.066	305.12
378.447	330.43
378.827	338.34
379.208	326.59
379.588	341.05
379.968	324.1
380.349	339.69
380.729	323.2
381.109	342.18
381.489	356.42
381.87	350.32
382.25	350.32
382.63	348.28
383.01	336.76
383.39	351.9
383.77	369.3
384.15	343.54
384.53	350.32
384.91	360.03
385.29	371.56
385.67	358.68
386.049	353.93
386.429	349.19
386.809	357.1
387.189	342.86
387.568	360.03
387.948	372.69
388.328	393.48
388.707	348.51
389.087	370.43
389.466	369.75
389.846	362.52
390.225	358.9
390.605	346.7
390.984	365.68
391.363	408.62
391.743	372.24
392.122	374.5
392.501	349.41
392.881	379.92
393.26	388.51
393.639	361.61
394.018	378.56
394.397	366.36
394.776	399.35
395.155	388.96
395.534	380.37
395.913	393.25
396.292	386.7
396.671	388.73
397.05	379.92
397.429	380.15
397.808	394.83
398.186	386.02
398.565	369.98
398.944	400.48
399.323	389.64
399.701	431.67
400.08	412.46
400.458	393.93
400.837	398.68
401.215	423.99
401.594	394.61
401.972	395.06
402.351	409.07
402.729	400.03
403.107	420.6
403.486	389.18
403.864	407.26
404.242	424.21
404.62	421.73
404.999	432.8
405.377	416.53
405.755	434.16
406.133	431.9
406.511	449.52
406.889	422.86
407.267	445
407.645	420.82
408.023	448.17
408.401	436.87
408.779	436.42
409.156	439.8
409.534	429.18
409.912	448.62
410.29	454.27
410.667	431.67
411.045	462.86
411.422	455.4
411.8	480.93
412.178	455.62
412.555	475.06
412.933	479.13
413.31	501.05
413.687	491.33
414.065	492.46
414.442	486.81
414.819	489.52
415.197	498.56
415.574	489.52
415.951	505.57
416.328	503.98
416.705	505.34
417.082	509.63
417.46	496.53
417.837	526.13
418.214	513.48
418.591	512.57
418.967	519.58
419.344	529.97
419.721	539.01
420.098	540.59
420.475	521.61
420.852	549.86
421.228	517.99
421.605	530.42
421.982	534.72
422.358	561.16
422.735	559.8
423.111	553.25
423.488	539.46
423.864	558.67
424.241	570.2
424.617	550.54
424.994	563.64
425.37	571.33
425.746	564.32
426.123	581.72
426.499	579.69
426.875	573.81
427.251	585.11
427.627	592.34
428.003	605
428.379	615.39
428.756	620.37
429.132	610.65
429.507	627.37
429.883	614.94
430.259	631.21
430.635	607.71
431.011	632.79
431.387	639.57
431.763	653.13
432.138	670.08
432.514	638.44
432.89	654.71
433.265	688.39
433.641	663.3
434.016	662.4
434.392	694.71
434.767	709.4
435.143	690.65
435.518	699.91
435.894	720.93
436.269	708.72
436.644	737.2
437.02	734.49
437.395	709.85
437.77	737.88
438.145	743.98
438.52	742.85
438.895	722.96
439.271	771.32
439.646	765.9
440.021	764.99
440.395	771.32
440.77	738.78
441.145	778.1
441.52	808.83
441.895	784.2
442.27	794.15
442.645	801.38
443.019	816.29
443.394	832.34
443.769	818.78
444.143	804.32
444.518	828.95
444.892	807.48
445.267	813.58
445.641	819.23
446.016	835.95
446.39	852.45
446.764	847.48
447.139	839.34
447.513	868.95
447.887	850.19
448.262	881.83
448.636	864.2
449.01	869.17
449.384	884.99
449.758	890.41
450.132	895.61
450.506	887.48
450.88	914.14
451.254	887.25
451.628	924.09
452.002	916.4
452.376	943.52
452.75	928.61
453.123	931.54
453.497	950.75
453.871	970.19
454.244	1010.19
454.618	988.94
454.992	1006.34
455.365	1006.8
455.739	1011.32
456.112	1017.87
456.486	1033.69
456.859	1017.64
457.232	1051.31
457.606	1030.52
457.979	1054.48
458.352	1089.05
458.725	1067.81
459.099	1100.35
459.472	1096.74
459.845	1128.15
460.218	1141.71
460.591	1160.92
460.964	1140.35
461.337	1174.93
461.71	1186.9
462.083	1214.02
462.456	1216.28
462.829	1227.81
463.201	1234.81
463.574	1214.7
463.947	1273
464.32	1264.87
464.692	1304.19
465.065	1328.82
465.438	1303.51
465.81	1330.18
466.183	1372.44
466.555	1372.44
466.928	1368.37
467.3	1387.8
467.672	1438.2
468.045	1456.95
468.417	1469.61
468.789	1460.34
469.161	1476.16
469.534	1545.09
469.906	1536.5
470.278	1575.59
470.65	1622.37
471.022	1631.86
471.394	1651.52
471.766	1646.33
472.138	1712.99
472.51	1732.2
472.882	1762.71
473.253	1779.2
473.625	1821.69
473.997	1852.88
474.369	1925.19
474.74	1921.12
475.112	1977.17
475.484	2021.68
475.855	2056.26
476.227	2078.63
476.598	2164.05
476.97	2166.77
477.341	2267.33
477.713	2282.92
478.084	2334.67
478.455	2382.8
478.827	2419.41
479.198	2491.73
479.569	2529.24
479.94	2553.65
480.311	2673.64
480.682	2733.3
481.053	2803.36
481.424	2876.12
481.795	2928.78
482.166	3003.13
482.537	3055.78
482.908	3187.76
483.279	3232.95
483.65	3293.74
484.021	3368.09
484.391	3435.66
484.762	3533.51
485.133	3603.34
485.503	3683.34
485.874	3748.19
486.244	3883.1
486.615	3942.76
486.985	4032.48
487.356	4155.64
487.726	4217.33
488.097	4351.57
488.467	4361.28
488.837	4519.02
489.207	4623.42
489.578	4707.72
489.948	4785.23
490.318	4838.79
490.688	4992.23
491.058	5030.87
491.428	5160.36
491.798	5208.27
492.168	5371.65
492.538	5488.94
492.908	5515.6
493.278	5635.37
493.648	5634.7
494.017	5816.84
494.387	5902.26
494.757	5979.09
495.126	6035.59
495.496	6168.02
495.866	6216.15
496.235	6318.07
496.605	6379.99
496.974	6485.07
497.344	6568.23
497.713	6641.9
498.082	6751.5
498.452	6836.25
498.821	6865.62
499.19	6899.97
499.559	6998.95
499.928	7104.94
500.298	7211.6
500.667	7306.52
501.036	7323.69
501.405	7446.4
501.774	7534.53
502.143	7578.37
502.512	7586.06
502.88	7664.47
503.249	7753.06
503.618	7771.59
503.987	7817.46
504.356	7939.27
504.724	7957.8
505.093	8028.76
505.462	8110.34
505.83	8139.72
506.199	8253.61
506.567	8328.41
506.936	8396.21
507.304	8429.43
507.672	8473.49
508.041	8567.27
508.409	8682.98
508.777	8770.21
509.145	8787.16
509.514	8877.32
509.882	8867.83
510.25	8938.79
510.618	9005
510.986	9020.6
511.354	9160.25
511.722	9158.45
512.09	9231.66
512.458	9249.97
512.826	9402.28
513.193	9340.59
513.561	9452.68
513.929	9572.45
514.297	9559.34
514.664	9642.5
515.032	9671.43
515.4	9845.66
515.767	9821.25
516.135	9853.57
516.502	9870.97
516.869	10000.91
517.237	10022.15
517.604	10042.26
517.972	10137.18
518.339	10161.81
518.706	10168.59
519.073	10266.89
519.44	10292.2
519.808	10446.1
520.175	10444.97
520.542	10540.1
520.909	10667.56
521.276	10590.5
521.643	10690.61
522.009	10762.02
522.376	10836.37
522.743	10857.61
523.11	10966.53
523.477	11053.09
523.843	11141.22
524.21	11211.05
524.577	11252.18
524.943	11267.32
525.31	11330.82
525.676	11480.42
526.043	11514.99
526.409	11623.69
526.776	11704.82
527.142	11742.11
527.508	11778.04
527.874	11863.69
528.241	11907.98
528.607	11947.52
528.973	12091.93
529.339	12084.24
529.705	12215.77
530.071	12286.72
530.437	12334.18
530.803	12395.87
531.169	12445.59
531.535	12498.92
531.901	12552.71
532.267	12602.65
532.632	12674.74
532.998	12718.8
533.364	12835.41
533.73	12817.78
534.095	12926.71
534.461	12919.48
534.826	13073.37
535.192	13131.22
535.557	13164.22
535.923	13068.85
536.288	13199.24
536.653	13265.68
537.019	13327.6
537.384	13335.28
537.749	13469.29
538.114	13469.07
538.479	13459.58
538.845	13632
539.21	13596.75
539.575	13679.91
539.94	13766.91
540.305	13840.36
540.67	13780.02
541.034	13897.76
541.399	13953.12
541.764	13958.32
542.129	14092.78
542.494	14092.33
542.858	14181.59
543.223	14178.88
543.587	14272.89
543.952	14241.48
544.316	14346.11
544.681	14331.64
545.045	14411.64
545.41	14509.04
545.774	14583.84
546.138	14563.28
546.503	14678.53
546.867	14698.86
547.231	14807.11
547.595	14880.78
547.959	14988.8
548.324	14937.5
548.688	14919.2
549.052	15067.89
549.416	15090.04
549.779	15060.66
550.143	15137.05
550.507	15221.79
550.871	15240.77
551.235	15271.73
551.599	15443.03
551.962	15443.93
552.326	15401.67
552.689	15586.07
553.053	15503.59
553.417	15550.14
553.78	15852.73
554.143	15736.8
554.507	15778.16
554.87	15859.29
555.234	16005.72
555.597	15876.46
555.96	15924.82
556.323	15998.04
556.686	16019.06
557.05	16158.71
557.413	16222.21
557.776	16291.59
558.139	16348.99
558.502	16433.28
558.865	16450.46
559.228	16555.09
559.59	16606.84
559.953	16548.99
560.316	16734.29
560.679	16776.32
561.041	16753.05
561.404	16959.82
561.767	17040.95
562.129	16971.8
562.492	17200.27
562.854	17142.87
563.217	17128.18
563.579	17207.05
563.941	17384.9
564.304	17517.77
564.666	17508.51
565.028	17523.88
565.39	17621.73
565.753	17614.49
566.115	17783.08
566.477	17828.27
566.839	17810.42
567.201	17970.64
567.563	17921.83
567.925	18114.82
568.287	18033.69
568.648	18210.19
569.01	18256.06
569.372	18351.65
569.734	18351.88
570.095	18560.01
570.457	18492.66
570.819	18624.86
571.18	18646.78
571.542	18755.26
571.903	18818.3
572.265	18979.88
572.626	19040.45
572.987	19111.18
573.349	19145.75
573.71	19307.78
574.071	19317.73
574.432	19398.4
574.794	19605.18
575.155	19597.27
575.516	19580.09
575.877	19795.91
576.238	19860.99
576.599	20052.85
576.96	20075.67
577.32	20147.54
577.681	20401.09
578.042	20450.8
578.403	20572.16
578.763	20712.72
579.124	20924.24
579.485	21061.64
579.845	21213.95
580.206	21400.61
580.566	21466.6
580.927	21594.95
581.287	21802.86
581.648	21929.64
582.008	22265.22
582.368	22239.91
582.728	22498.89
583.089	22508.6
583.449	22742.95
583.809	22992.88
584.169	23328.47
584.529	23411.4
584.889	23836.7
585.249	23888.68
585.609	23985.17
585.969	24449.57
586.329	24504.48
586.688	24715.1
587.048	24972.72
587.408	25177.23
587.768	25363.9
588.127	25638.69
588.487	25737.22
588.846	26257.88
589.206	26308.96
589.565	26518.89
589.925	26917.75
590.284	27062.38
590.643	27432.77
591.003	27733.78
591.362	27956.82
591.721	28175.12
592.08	28388
592.44	28758.61
592.799	28960.64
593.158	29230.23
593.517	29473.84
593.876	29759.71
594.235	29894.17
594.593	30172.81
594.952	30498.9
595.311	30639.01
595.67	30948.61
596.029	31361.25
596.387	31471.76
596.746	31860
597.104	31938.19
597.463	32155.36
597.822	32525.29
598.18	32743.14
598.538	32946.07
598.897	33300.64
599.255	33293.18
599.613	33856.55
599.972	33915.31
600.33	34215.64
600.688	34292.02
601.046	34553.94
601.404	35066.92
601.762	34942.4
602.12	35406.57
602.478	35695.15
602.836	35790.97
603.194	35852.21
603.552	36171.97
603.91	36119.77
604.268	36418.29
604.625	36515.92
604.983	36968.34
605.341	36929.01
605.698	37232.51
606.056	37565.61
606.413	37627.3
606.771	37887.18
607.128	38121.98
607.485	38081.07
607.843	38150.9
608.2	38624.56
608.557	38847.16
608.914	38780.04
609.272	39175.28
609.629	39251.89
609.986	39432.9
610.343	39451.66
610.7	39819.79
611.057	39915.83
611.414	39992.21
611.771	40214.35
612.127	40429.49
612.484	40476.27
612.841	40751.74
613.198	40699.09
613.554	40832.19
613.911	41226.75
614.267	41313.31
614.624	41361.44
614.98	41565.5
615.337	41737.7
615.693	41732.96
616.05	41851.15
616.406	42085.26
616.762	42143.12
617.118	42157.8
617.475	42152.83
617.831	42370.68
618.187	42631.92
618.543	42568.19
618.899	42809.54
619.255	42962.98
619.611	42879.82
619.967	43138.57
620.323	43403.65
620.678	43154.61
621.034	43125.91
621.39	43257.89
621.746	43320.03
622.101	43837.08
622.457	43513.47
622.812	43714.83
623.168	43802.73
623.523	43873.24
623.879	44075.27
624.234	43923.86
624.589	44014.03
624.945	44115.27
625.3	44250.86
625.655	44218.77
626.01	44323.85
626.365	44280.91
626.72	44292.21
627.075	44359.78
627.43	44387.35
627.785	44334.24
628.14	44539.44
628.495	44618.53
628.85	44586.89
629.205	44421.7
629.559	44770.39
629.914	44541.92
630.269	44604.29
630.623	44503.05
630.978	44374.47
631.332	44602.26
631.687	44717.74
632.041	44675.03
632.396	44707.34
632.75	44689.26
633.104	44733.1
633.459	44593.67
633.813	44680.22
634.167	44627.8
634.521	44684.74
634.875	44713.22
635.229	44716.38
635.583	44451.3
635.937	44558.19
636.291	44543.28
636.645	44563.84
636.999	44600.23
637.352	44625.76
637.706	44488.59
638.06	44577.85
638.413	44359.33
638.767	44513.9
639.121	44504.86
639.474	44345.09
639.828	44307.58
640.181	44437.97
640.534	44483.39
640.888	44315.94
641.241	44226.45
641.594	44112.78
641.947	44407.01
642.301	44319.1
642.654	44378.54
643.007	44298.99
643.36	44229.16
643.713	44119.56
644.066	44330.63
644.419	44132.22
644.771	43864.2
645.124	43440.03
645.477	43422.86
645.83	43222.18
646.182	43088.4
646.535	43016.76
646.888	43145.8
647.24	42898.58
647.593	43237.55
647.945	43094.95
648.298	42894.28
648.65	42776.09
649.002	42647.96
649.355	42815.64
649.707	42875.98
650.059	42919.59
650.411	43433.93
650.763	43533.81
651.115	43940.58
651.467	43815.39
651.819	43726.35
652.171	43753.24
652.523	43620.59
652.875	43660.59
653.227	43409.3
653.578	43719.8
653.93	43669.4
654.282	43469.41
654.633	43419.01
654.985	43465.57
655.337	43451.33
655.688	43450.88
656.039	43592.34
656.391	43323.65
656.742	43345.8
657.094	43498.56
657.445	43649.97
657.796	43522.06
658.147	43295.18
658.498	43387.15
658.849	43459.69
659.2	43426.7
659.551	43273.48
659.902	43448.17
660.253	43358.9
660.604	43407.94
660.955	43278.45
661.306	43388.96
661.656	43217.21
662.007	43393.25
662.358	43320.71
662.708	43327.26
663.059	43291.56
663.409	42998.46
663.76	43296.31
664.11	43288.17
664.461	43262.41
664.811	43148.96
665.161	43254.5
665.511	43108.51
665.862	43121.62
666.212	43288.62
666.562	43329.07
666.912	43065.12
667.262	43079.81
667.612	43030.1
667.962	43106.25
668.312	43023.77
668.662	43227.15
669.011	43045.92
669.361	43008.63
669.711	43134.73
670.06	42913.26
670.41	42908.07
670.76	42978.8
671.109	43219.24
671.459	43049.08
671.808	42926.6
672.157	42985.13
672.507	42796.21
672.856	42764.34
673.205	42939.7
673.554	43016.99
673.904	42878.69
674.253	42939.48
674.602	42833.27
674.951	42393.96
675.3	42089.11
675.649	42681.86
675.998	42713.5
676.346	42779.93
676.695	42821.74
677.044	42635.53
677.393	42596.21
677.741	42739.94
678.09	42582.65
678.438	42591.46
678.787	42640.73
679.135	42544.46
679.484	42262.21
679.832	42486.16
680.181	42242.77
680.529	42470.79
680.877	42188.54
681.225	42272.15
681.573	42522.31
681.922	42089.11
682.27	42081.87
682.618	42183.11
682.966	41926.85
683.314	41989.45
683.661	41913.97
684.009	41793.07
684.357	41633.52
684.705	41775.89
685.053	41627.2
685.4	41549.23
685.748	41435.79
686.095	41451.83
686.443	41317.6
686.79	41469.46
687.138	41408.9
687.485	41437.14
687.832	41287.77
688.18	41146.31
688.527	40959.64
688.874	40996.48
689.221	40956.71
689.568	40855.47
689.915	40717.16
690.262	40777.05
690.609	40742.47
690.956	40435.82
691.303	40374.35
691.65	40235.82
691.997	40212.09
692.344	40058.42
692.69	40052.32
693.037	40079.21
693.383	39718.55
693.73	39839.9
694.077	39803.97
694.423	39667.93
694.769	39667.25
695.116	39486.24
695.462	39360.36
695.808	39279.01
696.155	39292.79
696.501	39052.35
696.847	39080.82
697.193	38777.55
697.539	38916.08
697.885	38732.81
698.231	38666.6
698.577	38601.74
698.923	38599.71
699.269	38405.81
699.614	38190.68
699.96	38146.84
700.306	38173.05
700.651	38050.12
700.997	38009.89
701.342	37753.17
701.688	37801.99
702.033	37622.1
702.379	37635.21
702.724	37475.67
703.069	37559.05
703.415	37196.35
703.76	37279.97
704.105	37220.53
704.45	37128.33
704.795	36933.76
705.14	36875.68
705.485	36858.28
705.83	36642.02
706.175	36584.17
706.52	36440.44
706.865	36389.14
707.209	36511.85
707.554	36308.69
707.899	36305.98
708.243	36130.17
708.588	36036.61
708.932	35804.75
709.277	35906.89
709.621	35951.19
709.966	35661.93
710.31	35586.9
710.654	35580.35
710.998	35496.96
711.342	35437.3
711.687	35359.56
712.031	35184.43
712.375	35161.15
712.719	35193.24
713.063	35134.26
713.407	35319.57
713.75	35017.43
714.094	34913.25
714.438	34754.61
714.782	34967.26
715.125	34712.58
715.469	34784.66
715.812	34583.31
716.156	34442.07
716.499	34489.08
716.843	34507.61
717.186	34297.9
717.53	34395.97
717.873	34360.27
718.216	34338.8
718.559	34113.5
718.902	33885.25
719.246	33871.47
719.589	33801.87
719.932	33741.98
720.275	33873.5
720.617	33675.09
720.96	33658.14
721.303	33723.9
721.646	33660.17
721.989	33451.82
722.331	33520.97
722.674	33316.68
723.016	33441.2
723.359	33270.81
723.701	33461.08
724.044	33203.69
724.386	32989.68
724.729	33252.5
725.071	33047.31
725.413	33014.32
725.755	33037.14
726.097	32875.11
726.439	32706.98
726.782	32706.98
727.124	32840.53
727.465	32796.47
727.807	32686.41
728.149	32629.47
728.491	32527.32
728.833	32511.28
729.175	32513.09
729.516	32342.47
729.858	32382.47
730.199	32300.21
730.541	32308.57
730.882	32210.95
731.224	32281.45
731.565	32069.93
731.906	32026.77
732.248	32149.93
732.589	31971.18
732.93	31933.89
733.271	31824.06
733.612	31885.76
733.953	32003.27
734.294	31802.82
734.635	31817.74
734.976	31772.77
735.317	31618.42
735.658	31526.45
735.999	31549.27
736.339	31499.55
736.68	31573.68
737.021	31511.53
737.361	31144.08
737.702	31457.29
738.042	31348.82
738.383	31277.19
738.723	31197.64
739.063	31129.17
739.404	31256.85
739.744	31103.86
740.084	30921.04
740.424	31070.19
740.764	30912.68
741.104	31050.98
741.444	30864.09
741.784	30709.29
742.124	30917.87
742.464	30686.24
742.804	30672.68
743.143	30708.16
743.483	30685.56
743.823	30481.05
744.162	30422.07
744.502	30526.92
744.841	30384.55
745.181	30474.95
745.52	30405.57
745.86	30343.43
746.199	30358.34
746.538	30272.24
746.877	30424.55
747.216	30312.69
747.556	30131.91
747.895	30169.19
748.234	29976.2
748.573	29974.17
748.911	29909.76
749.25	29896.66
749.589	29742.76
749.928	29832.25
750.267	29835.19
750.605	29763.33
750.944	29569.66
751.283	29464.13
751.621	29566.72
751.96	29367.86
752.298	29463.9
752.636	29386.84
752.975	29253.28
753.313	29011.26
753.651	29308.2
753.989	29173.51
754.327	28925.61
754.666	28873.41
755.004	28961.31
755.342	28983.69
755.679	28980.3
756.017	28754.99
756.355	28769.91
756.693	28698.04
757.031	28691.72
757.368	28600.65
