Data from hue_34_FLMS001491_00012.txt Node
Date: Tue Feb 07 17:25:15 GMT 2017
User: dcchb
Spectrometer: FLMS00149
Trigger mode: 0
Integration Time (sec): 2.000000E-2
Scans to average: 10
Electric dark correction enabled: true
Nonlinearity correction enabled: false
Boxcar width: 0
XAxis mode: Wavelengths
Number of Pixels in Spectrum: 2048
>>>>>Begin Spectral Data<<<<<
341.393	-14.56
341.776	-14.56
342.16	-14.56
342.543	-57.72
342.927	-71.74
343.31	-70.61
343.693	-81.23
344.077	-48.23
344.46	-58.85
344.843	-44.17
345.226	-59.98
345.61	-39.87
345.993	-11.4
346.376	16.17
346.759	4.87
347.142	50.75
347.525	42.61
347.908	40.58
348.291	86.23
348.674	74.93
349.057	98.2
349.44	114.93
349.823	152.67
350.206	177.3
350.588	196.28
350.971	203.29
351.354	228.14
351.737	267.24
352.119	257.3
352.502	263.17
352.884	276.73
353.267	282.15
353.65	289.39
354.032	298.42
354.414	308.14
354.797	324.41
355.179	314.7
355.562	343.85
355.944	352.89
356.326	333.68
356.709	346.11
357.091	346.56
357.473	368.25
357.855	343.85
358.238	348.14
358.62	335.03
359.002	373.45
359.384	329.16
359.766	317.63
360.148	349.04
360.53	350.17
360.912	347.91
361.294	345.43
361.676	320.12
362.057	340.46
362.439	343.17
362.821	346.56
363.203	345.2
363.584	325.99
363.966	311.08
364.348	335.49
364.729	342.27
365.111	312.89
365.493	321.47
365.874	307.69
366.256	292.1
366.637	316.73
367.019	328.48
367.4	310.85
367.781	326.9
368.163	320.8
368.544	314.7
368.925	320.8
369.306	348.14
369.688	329.16
370.069	315.83
370.45	324.41
370.831	318.31
371.212	312.66
371.593	304.53
371.974	316.05
372.355	324.41
372.736	314.02
373.117	316.05
373.498	317.86
373.879	325.99
374.26	323.06
374.641	309.72
375.021	333
375.402	327.8
375.783	315.37
376.163	333
376.544	321.93
376.925	353.79
377.305	338.42
377.686	328.48
378.066	333.23
378.447	340.46
378.827	345.65
379.208	344.07
379.588	334.13
379.968	355.82
380.349	343.17
380.729	330.06
381.109	341.36
381.489	352.21
381.87	340.68
382.25	349.27
382.63	341.14
383.01	341.81
383.39	364.19
383.77	361.47
384.15	343.85
384.53	360.8
384.91	359.89
385.29	359.89
385.67	335.94
386.049	380
386.429	364.19
386.809	363.73
387.189	379.33
387.568	374.81
387.948	361.7
388.328	370.51
388.707	374.35
389.087	368.48
389.466	365.32
389.846	371.64
390.225	351.53
390.605	360.57
390.984	365.09
391.363	381.81
391.743	374.81
392.122	372.09
392.501	375.48
392.881	377.74
393.26	382.72
393.639	368.25
394.018	372.55
394.397	382.72
394.776	394.47
395.155	389.04
395.534	380
395.913	398.53
396.292	400.34
396.671	371.42
397.05	392.89
397.429	397.4
397.808	387.24
398.186	393.34
398.565	387.69
398.944	387.69
399.323	380.46
399.701	396.5
400.08	412.55
400.458	386.78
400.837	425.43
401.215	422.49
401.594	427.91
401.972	411.42
402.351	436.95
402.729	427.23
403.107	407.8
403.486	424.3
403.864	411.87
404.242	410.96
404.62	398.31
404.999	422.71
405.377	431.53
405.755	436.5
406.133	426.33
406.511	429.04
406.889	445.09
407.267	426.33
407.645	429.27
408.023	449.15
408.401	444.41
408.779	441.7
409.156	442.15
409.534	450.74
409.912	454.8
410.29	463.39
410.667	454.8
411.045	463.62
411.422	479.21
411.8	464.3
412.178	467.01
412.555	476.95
412.933	459.1
413.31	487.35
413.687	468.59
414.065	476.72
414.442	479.66
414.819	476.72
415.197	501.81
415.574	504.07
415.951	489.38
416.328	519.89
416.705	509.04
417.082	509.72
417.46	521.47
417.837	523.96
418.214	519.44
418.591	529.38
418.967	512.2
419.344	537.74
419.721	523.96
420.098	525.76
420.475	524.18
420.852	538.87
421.228	525.99
421.605	551.98
421.982	545.88
422.358	529.83
422.735	565.54
423.111	542.49
423.488	540.9
423.864	553.78
424.241	558.76
424.617	558.3
424.994	551.98
425.37	552.43
425.746	572.99
426.123	567.8
426.499	592.43
426.875	565.76
427.251	610.28
427.627	596.95
428.003	597.63
428.379	578.19
428.756	617.51
429.132	589.04
429.507	615.93
429.883	626.78
430.259	635.82
430.635	644.4
431.011	630.17
431.387	635.82
431.763	629.94
432.138	637.85
432.514	641.47
432.89	638.98
433.265	661.35
433.641	657.28
434.016	681.01
434.392	692.09
434.767	682.37
435.143	702.93
435.518	706.55
435.894	696.61
436.269	699.54
436.644	677.62
437.02	703.16
437.395	711.97
437.77	730.73
438.145	731.18
438.52	737.06
438.895	719.66
439.271	767.34
439.646	777.51
440.021	758.07
440.395	745.42
440.77	770.05
441.145	745.87
441.52	743.16
441.895	772.08
442.27	777.51
442.645	758.07
443.019	784.51
443.394	780.45
443.769	794.68
444.143	790.84
444.518	823.38
444.892	805.08
445.267	803.95
445.641	800.78
446.016	825.64
446.39	823.16
446.764	822.03
447.139	840.56
447.513	861.12
447.887	816.15
448.262	852.53
448.636	832.87
449.01	859.54
449.384	869.26
449.758	854.79
450.132	863.16
450.506	876.49
450.88	906.32
451.254	883.04
451.628	874
452.002	879.65
452.376	908.13
452.75	904.96
453.123	902.25
453.497	911.29
453.871	918.52
454.244	964.4
454.618	942.7
454.992	976.37
455.365	967.79
455.739	977.28
456.112	974.56
456.486	1025.41
456.859	1011.4
457.232	1050.49
457.606	1022.02
457.979	1023.6
458.352	1046.88
458.725	1054.56
459.099	1057.27
459.472	1082.58
459.845	1084.17
460.218	1104.28
460.591	1084.17
460.964	1110.83
461.337	1157.61
461.71	1157.16
462.083	1140.89
462.456	1135.24
462.829	1154.22
463.201	1214.11
463.574	1211.17
463.947	1219.76
464.32	1268.34
464.692	1243.71
465.065	1262.69
465.438	1258.85
465.81	1288
466.183	1309.02
466.555	1320.32
466.928	1330.26
467.3	1345.85
467.672	1360.09
468.045	1402.35
468.417	1403.93
468.789	1395.57
469.161	1465.85
469.534	1472.63
469.906	1477.38
470.278	1480.54
470.65	1535.23
471.022	1533.42
471.394	1595.11
471.766	1594.21
472.138	1634.43
472.51	1631.72
472.882	1680.99
473.253	1710.36
473.625	1730.25
473.997	1789.91
474.369	1801.44
474.74	1859.51
475.112	1899.06
475.484	1918.49
475.855	1945.39
476.227	1987.65
476.598	2035.55
476.97	2039.17
477.341	2130.01
477.713	2173.18
478.084	2211.14
478.455	2269.22
478.827	2301.31
479.198	2367.07
479.569	2426.96
479.94	2455.43
480.311	2543.11
480.682	2607.97
481.053	2669.44
481.424	2678.02
481.795	2781.52
482.166	2854.74
482.537	2888.86
482.908	2997.56
483.279	3046.6
483.65	3111.46
484.021	3203.66
484.391	3228.97
484.762	3319.36
485.133	3383.77
485.503	3461.28
485.874	3557.77
486.244	3619.69
486.615	3738.79
486.985	3781.5
487.356	3882.51
487.726	3992.79
488.097	4086.35
488.467	4081.6
488.837	4228.94
489.207	4330.63
489.578	4444.08
489.948	4476.39
490.318	4602.49
490.688	4635.71
491.058	4762.49
491.428	4845.42
491.798	4928.59
492.168	5068.02
492.538	5131.52
492.908	5254.23
493.278	5294.23
493.648	5352.75
494.017	5431.17
494.387	5560.21
494.757	5631.62
495.126	5756.36
495.496	5802.23
495.866	5830.03
496.235	5936.02
496.605	6023.25
496.974	6090.59
497.344	6132.17
497.713	6229.12
498.082	6284.03
498.452	6412.39
498.821	6472.27
499.19	6530.12
499.559	6611.7
499.928	6638.14
500.298	6694.19
500.667	6833.85
501.036	6844.92
501.405	6951.58
501.774	7019.38
502.143	7102.09
502.512	7107.51
502.88	7199.03
503.249	7242.2
503.618	7339.37
503.987	7368.52
504.356	7447.39
504.724	7480.61
505.093	7540.95
505.462	7593.15
505.83	7713.6
506.199	7776.19
506.567	7808.74
506.936	7844.44
507.304	7930.54
507.672	7985.45
508.041	8052.34
508.409	8088.95
508.777	8214.83
509.145	8223.87
509.514	8269.97
509.882	8342.28
510.25	8332.11
510.618	8488.49
510.986	8486.01
511.354	8531.88
511.722	8591.99
512.09	8695.94
512.458	8704.08
512.826	8734.59
513.193	8810.97
513.561	8778.88
513.929	8887.8
514.297	9024.75
514.664	9056.16
515.032	9044.64
515.4	9169.83
515.767	9146.55
516.135	9305.19
516.502	9247.57
516.869	9339.32
517.237	9350.16
517.604	9374.12
517.972	9487.34
518.339	9525.53
518.706	9543.6
519.073	9544.73
519.44	9630.61
519.808	9732.75
520.175	9668.8
520.542	9820.89
520.909	9841.9
521.276	9885.29
521.643	9994.67
522.009	9999.41
522.376	10108.79
522.743	10178.62
523.11	10159.86
523.477	10295
523.843	10332.96
524.21	10445.28
524.577	10487.99
524.943	10568.21
525.31	10607.98
525.676	10697.7
526.043	10692.05
526.409	10881.2
526.776	10891.59
527.142	10943.12
527.508	10986.73
527.874	11100.17
528.241	11142.66
528.607	11139.27
528.973	11241.64
529.339	11282.54
529.705	11319.38
530.071	11409.32
530.437	11457.23
530.803	11445.25
531.169	11606.15
531.535	11575.87
531.901	11642.53
532.267	11695.86
532.632	11821.74
532.998	11861.28
533.364	11855.63
533.73	11913.94
534.095	11946.48
534.461	12080.94
534.826	12028.74
535.192	12133.37
535.557	12193.48
535.923	12266.25
536.288	12310.54
536.653	12299.69
537.019	12353.7
537.384	12389.18
537.749	12513.92
538.114	12513.24
538.479	12558.21
538.845	12681.6
539.21	12637.76
539.575	12697.87
539.94	12670.75
540.305	12861.03
540.67	12729.28
541.034	12817.42
541.399	12957.75
541.764	12949.84
542.129	13026.9
542.494	13077.52
542.858	13122.49
543.223	13164.3
543.587	13209.27
543.952	13206.33
544.316	13293.34
544.681	13265.32
545.045	13432.77
545.41	13432.09
545.774	13517.06
546.138	13604.29
546.503	13597.96
546.867	13597.96
547.231	13762.25
547.595	13795.92
547.959	13888.58
548.324	13784.17
548.688	13854.45
549.052	13894.23
549.416	14035.46
549.779	14012.41
550.143	13963.38
550.507	14119.08
550.871	14172.41
551.235	14212.63
551.599	14303.71
551.962	14354.33
552.326	14373.76
552.689	14377.6
553.053	14404.72
553.417	14507.32
553.78	14648.78
554.143	14545.06
554.507	14613.08
554.87	14730.14
555.234	14848.32
555.597	14825.95
555.96	14879.28
556.323	14851.49
556.686	14931.49
557.05	15069.79
557.413	15043.8
557.776	15036.34
558.139	15193.85
558.502	15096.23
558.865	15158.6
559.228	15361.31
559.59	15331.93
559.953	15365.37
560.316	15595.88
560.679	15585.93
561.041	15606.27
561.404	15576.89
561.767	15778.24
562.129	15758.58
562.492	15892.59
562.854	15803.55
563.217	15895.3
563.579	15936.88
563.941	15960.39
564.304	16060.27
564.666	16157.67
565.028	16308.62
565.39	16239.93
565.753	16426.81
566.115	16385.91
566.477	16469.3
566.839	16502.97
567.201	16592.91
567.563	16615.51
567.925	16803.53
568.287	16778.89
568.648	16730.08
569.01	16883.3
569.372	17009.85
569.734	16987.03
570.095	17164.42
570.457	17199.45
570.819	17220.01
571.18	17270.41
571.542	17359.67
571.903	17398.09
572.265	17512.44
572.626	17564.64
572.987	17682.15
573.349	17702.94
573.71	17759.43
574.071	17918.3
574.432	17914.91
574.794	18111.52
575.155	18208.46
575.516	18196.94
575.877	18317.39
576.238	18430.15
576.599	18583.37
576.96	18615.46
577.32	18750.37
577.681	18845.51
578.042	19030.14
578.403	19128.89
578.763	19192.62
579.124	19424.02
579.485	19497.69
579.845	19697.69
580.206	19767.97
580.566	19819.49
580.927	20045.48
581.287	20287.73
581.648	20415.86
582.008	20673.26
582.368	20771.11
582.728	20921.16
583.089	21065.34
583.449	21271.88
583.809	21425.78
584.169	21623.74
584.529	21879.78
584.889	22058.98
585.249	22173.33
585.609	22388.24
585.969	22660.1
586.329	22808.79
586.688	23140.31
587.048	23235.45
587.408	23543.46
587.768	23720.86
588.127	23955.66
588.487	24119.27
588.846	24561.06
589.206	24535.53
589.565	24816.88
589.925	25199.46
590.284	25366.47
590.643	25524.88
591.003	25951.31
591.362	26220.91
591.721	26344.52
592.08	26626.55
592.44	26932.75
592.799	27215.68
593.158	27302.46
593.517	27615.67
593.876	27697.48
594.235	28063.12
594.593	28334.3
594.952	28619.94
595.311	28602.99
595.67	29073.03
596.029	29415.62
596.387	29571.33
596.746	29826.69
597.104	30052.22
597.463	30240.46
597.822	30465.99
598.18	30724.52
598.538	31044.51
598.897	31287.67
599.255	31241.57
599.613	31979.17
599.972	31987.53
600.33	32237.47
600.688	32296
601.046	32621.42
601.404	32870.68
601.762	33008.07
602.12	33440.15
602.478	33635.4
602.836	33760.14
603.194	33825.45
603.552	34043.3
603.91	34038.78
604.268	34478.99
604.625	34543.17
604.983	34826.56
605.341	34812.55
605.698	34986.55
606.056	35391.51
606.413	35428.8
606.771	35830.6
607.128	35879.86
607.485	35795.8
607.843	36223.13
608.2	36490.69
608.557	36578.15
608.914	36595.1
609.272	36924.81
609.629	36974.75
609.986	37307.39
610.343	37300.84
610.7	37843.65
611.057	37653.6
611.414	37847.95
611.771	37959.13
612.127	38268.05
612.484	38350.31
612.841	38554.59
613.198	38429.85
613.554	38595.72
613.911	38846.56
614.267	38913.23
614.624	39108.48
614.98	39263.5
615.337	39554.79
615.693	39509.82
616.05	39488.58
616.406	39812.41
616.762	39830.94
617.118	39915.69
617.475	39945.07
617.831	40170.82
618.187	40318.16
618.543	40280.42
618.899	40650.81
619.255	40690.36
619.611	40659.17
619.967	40810.58
620.323	40970.12
620.678	40914.08
621.034	41054.87
621.39	41027.3
621.746	41105.49
622.101	41400.85
622.457	41111.14
622.812	41466.38
623.168	41567.62
623.523	41430.45
623.879	41569.66
624.234	41566.04
624.589	41623.67
624.945	41711.12
625.3	41877.67
625.655	41893.71
626.01	41865.02
626.365	41967.84
626.72	42113.37
627.075	42025.91
627.43	42053.71
627.785	42052.13
628.14	42148.62
628.495	42140.49
628.85	42205.35
629.205	42054.39
629.559	42330.99
629.914	42204.89
630.269	42247.38
630.623	42083.31
630.978	42159.47
631.332	42325.12
631.687	42335.96
632.041	42298.9
632.396	42432.23
632.75	42056.87
633.104	42468.84
633.459	42097.33
633.813	42218.9
634.167	42335.06
634.521	42159.92
634.875	42276.53
635.229	42247.6
635.583	42179.58
635.937	42086.48
636.291	42141.39
636.645	42190.66
636.999	42150.66
637.352	42247.38
637.706	42113.37
638.06	42121.51
638.413	42187.94
638.767	42031.79
639.121	42119.25
639.474	41918.12
639.828	41799.93
640.181	42115.18
640.534	42028.17
640.888	41894.17
641.241	41821.4
641.594	42060.26
641.947	41944.33
642.301	41869.99
642.654	41854.17
643.007	41855.52
643.36	41873.15
643.713	41778.69
644.066	42135.06
644.419	41750.22
644.771	41470.22
645.124	41131.47
645.477	41029.56
645.83	40902.78
646.182	40634.76
646.535	40679.96
646.888	40715.89
647.24	40517.48
647.593	40731.26
647.945	40602
648.298	40460.31
648.65	40521.32
649.002	40253.08
649.355	40606.07
649.707	40414.43
650.059	40578.27
650.411	41107.29
650.763	41193.39
651.115	41547.06
651.467	41363.11
651.819	41296.44
652.171	41226.61
652.523	41322.66
652.875	41328.08
653.227	41062.78
653.578	41338.02
653.93	41200.85
654.282	41010.8
654.633	41142.32
654.985	41053.28
655.337	41135.54
655.688	41104.58
656.039	41260.29
656.391	40993.63
656.742	41174.64
657.094	41042.44
657.445	41192.04
657.796	40992.72
658.147	40962.67
658.498	40912.72
658.849	41023.91
659.2	40898.49
659.551	41024.59
659.902	41105.49
660.253	41019.84
660.604	40996.56
660.955	40735.1
661.306	40931.48
661.656	40743.24
662.007	40848.32
662.358	40776.91
662.708	40830.47
663.059	40901.2
663.409	40639.74
663.76	40881.76
664.11	40869.11
664.461	40915.21
664.811	40964.02
665.161	40856
665.511	40688.55
665.862	40951.14
666.212	40926.06
666.562	40948.65
666.912	40804.48
667.262	40784.37
667.612	40742.33
667.962	40874.76
668.312	40670.7
668.662	40934.87
669.011	40828.66
669.361	40764.03
669.711	40681.32
670.06	40697.81
670.41	40711.37
670.76	40646.74
671.109	40773.07
671.459	40660.53
671.808	40592.96
672.157	40735.55
672.507	40398.16
672.856	40401.32
673.205	40514.54
673.554	40650.58
673.904	40304.15
674.253	40777.13
674.602	40437.71
674.951	40068
675.3	39809.02
675.649	40504.6
675.998	40419.63
676.346	40416.69
676.695	40583.47
677.044	40119.07
677.393	40296.47
677.741	40566.07
678.09	40258.28
678.438	40060.77
678.787	40166.08
679.135	40147.09
679.484	40011.28
679.832	40154.55
680.181	39856.48
680.529	40028
680.877	39865.29
681.225	39753.88
681.573	40153.2
681.922	39805.63
682.27	39643.83
682.618	39710.95
682.966	39688.12
683.314	39678.63
683.661	39691.29
684.009	39485.42
684.357	39366.55
684.705	39290.39
685.053	39353.67
685.4	39285.65
685.748	38960.91
686.095	39226.89
686.443	38993
686.79	38875.04
687.138	38960.23
687.485	39033.9
687.832	38948.26
688.18	38870.97
688.527	38656.74
688.874	38685.21
689.221	38631.88
689.568	38570.86
689.915	38422.85
690.262	38336.97
690.609	38282.51
690.956	38034.38
691.303	38146.24
691.65	37933.37
691.997	37996.64
692.344	37744.67
692.69	37791
693.037	37751.45
693.383	37529.99
693.73	37715.97
694.077	37376.09
694.423	37353.72
694.769	37255.19
695.116	37203.89
695.462	37112.82
695.808	36985.6
696.155	37067.85
696.501	36781.98
696.847	36711.48
697.193	36442.11
697.539	36732.04
697.885	36574.31
698.231	36189.46
698.577	36483.01
698.923	36255.9
699.269	36147.65
699.614	36023.81
699.96	35863.82
700.306	35967.99
700.651	35797.83
700.997	35543.15
701.342	35582.47
701.688	35588.57
702.033	35318.07
702.379	35275.81
702.724	35220.44
703.069	35256.6
703.415	35031.75
703.76	34931.64
704.105	35092.09
704.45	34943.62
704.795	34790.4
705.14	34620.01
705.485	34561.25
705.83	34439.45
706.175	34599.44
706.52	34304.08
706.865	34309.96
707.209	34173.69
707.554	34160.36
707.899	34154.48
708.243	34028.61
708.588	33891.89
708.932	33706.36
709.277	33773.7
709.621	33721.27
709.966	33418.68
710.31	33684.89
710.654	33353.83
710.998	33421.62
711.342	33347.05
711.687	33251.68
712.031	33178.01
712.375	33095.53
712.719	33161.97
713.063	33092.59
713.407	33158.8
713.75	32787.29
714.094	32863.9
714.438	32735.76
714.782	32701.19
715.125	32627.07
715.469	32560.17
715.812	32448.54
716.156	32402.89
716.499	32265.72
716.843	32385.72
717.186	32187.53
717.53	32413.96
717.873	32354.76
718.216	32214.42
718.559	31964.26
718.902	32013.52
719.246	31980.76
719.589	31811.72
719.932	31818.27
720.275	31700.76
720.617	31710.93
720.96	31631.84
721.303	31649.92
721.646	31661.22
721.989	31411.28
722.331	31714.77
722.674	31484.5
723.016	31430.94
723.359	31385.97
723.701	31420.77
724.044	31166.09
724.386	31070.5
724.729	31239.31
725.071	31162.7
725.413	31062.59
725.755	31078.41
726.097	31017.16
726.439	30782.59
726.782	30764.06
727.124	30940.1
727.465	30821.92
727.807	30710.51
728.149	30630.73
728.491	30530.62
728.833	30653.11
729.175	30542.6
729.516	30581.02
729.858	30359.33
730.199	30473.45
730.541	30387.35
730.882	30188.49
731.224	30407.01
731.565	30063.52
731.906	30175.6
732.248	30160.01
732.589	29982.84
732.93	29870.75
733.271	29848.38
733.612	29955.05
733.953	29902.84
734.294	29708.5
734.635	29748.72
734.976	29847.93
735.317	29644.32
735.658	29682.28
735.999	29642.51
736.339	29578.11
736.68	29537.88
737.021	29570.2
737.361	29379.69
737.702	29520.71
738.042	29380.82
738.383	29409.52
738.723	29416.3
739.063	29376.76
739.404	29398
739.744	29292.24
740.084	29034.62
740.424	29106.48
740.764	29051.79
741.104	29257.89
741.444	29009.08
741.784	28994.84
742.124	28935.64
742.464	28927.5
742.804	28871.68
743.143	28820.61
743.483	28823.1
743.823	28715.53
744.162	28698.81
744.502	28734.29
744.841	28549.88
745.181	28659.26
745.52	28497.91
745.86	28473.95
746.199	28580.17
746.538	28414.3
746.877	28545.14
747.216	28485.48
747.556	28340.17
747.895	28361.87
748.234	28101.08
748.573	28245.71
748.911	28208.88
749.25	28149.9
749.589	28021.09
749.928	28038.03
750.267	28034.42
750.605	27932.73
750.944	27861.99
751.283	27840.53
751.621	27966.62
751.96	27610.47
752.298	27787.19
752.636	27607.31
752.975	27566.86
753.313	27408.67
753.651	27626.52
753.989	27419.52
754.327	27346.07
754.666	27096.59
755.004	27198.51
755.342	27351.05
755.679	27189.24
756.017	27142.01
756.355	27139.07
756.693	26981.11
757.031	27128.91
757.368	26899.76
757.706	26813.66
