Data from hue_330_FLMS001491_34.txt Node
Date: Mon Feb 06 15:45:18 GMT 2017
User: dcchb
Spectrometer: FLMS00149
Trigger mode: 0
Integration Time (sec): 2.000000E-2
Scans to average: 10
Electric dark correction enabled: true
Nonlinearity correction enabled: false
Boxcar width: 0
XAxis mode: Wavelengths
Number of Pixels in Spectrum: 2048
>>>>>Begin Spectral Data<<<<<
341.393	-4.18
341.776	-4.18
342.16	-4.18
342.543	-52.99
342.927	-78.3
343.31	-63.39
343.693	-89.6
344.077	-61.81
344.46	-48.7
344.843	-50.06
345.226	-45.99
345.61	-36.5
345.993	10.28
346.376	-3.73
346.759	2.37
347.142	37.85
347.525	40.34
347.908	49.83
348.291	53.9
348.674	92.99
349.057	112.2
349.44	100.9
349.823	119.21
350.206	161.69
350.588	198.75
350.971	207.11
351.354	214.34
351.737	238.07
352.119	238.75
352.502	259.77
352.884	271.97
353.267	291.4
353.65	273.1
354.032	288.02
354.414	311.74
354.797	305.87
355.179	299.77
355.562	318.3
355.944	331.18
356.326	342.25
356.709	320.78
357.091	340.67
357.473	315.58
357.855	322.82
358.238	347.67
358.62	343.83
359.002	342.48
359.384	326.21
359.766	333.44
360.148	331.86
360.53	341.8
360.912	337.51
361.294	324.17
361.676	329.37
362.057	309.03
362.439	349.26
362.821	322.82
363.203	326.21
363.584	317.84
363.966	317.17
364.348	350.39
364.729	321.01
365.111	316.71
365.493	302.93
365.874	331.4
366.256	307.68
366.637	302.7
367.019	309.03
367.4	328.92
367.781	286.89
368.163	321.01
368.544	309.94
368.925	296.83
369.306	321.91
369.688	304.29
370.069	305.42
370.45	306.55
370.831	327.56
371.212	299.09
371.593	300.67
371.974	299.99
372.355	318.52
372.736	326.21
373.117	316.94
373.498	296.15
373.879	328.24
374.26	321.91
374.641	311.52
375.021	318.52
375.402	299.99
375.783	308.81
376.163	318.75
376.544	342.93
376.925	311.52
377.305	321.01
377.686	296.15
378.066	347.9
378.447	329.6
378.827	325.08
379.208	328.92
379.588	337.73
379.968	312.42
380.349	318.75
380.729	330.05
381.109	303.16
381.489	337.51
381.87	332.08
382.25	318.52
382.63	334.57
383.01	337.28
383.39	327.56
383.77	354.23
384.15	352.19
384.53	340.67
384.91	356.71
385.29	345.87
385.67	309.26
386.049	343.83
386.429	337.51
386.809	352.19
387.189	354
387.568	355.36
387.948	340.89
388.328	350.84
388.707	342.93
389.087	349.03
389.466	349.71
389.846	350.16
390.225	357.39
390.605	364.4
390.984	336.6
391.363	358.3
391.743	355.81
392.122	353.78
392.501	375.7
392.881	349.93
393.26	372.31
393.639	339.09
394.018	361.91
394.397	385.41
394.776	368.24
395.155	369.82
395.534	369.59
395.913	366.88
396.292	368.46
396.671	371.63
397.05	376.37
397.429	387
397.808	382.25
398.186	385.19
398.565	369.14
398.944	386.77
399.323	381.57
399.701	391.06
400.08	402.36
400.458	389.71
400.837	377.73
401.215	395.13
401.594	409.14
401.972	391.06
402.351	382.7
402.729	388.8
403.107	407.56
403.486	393.1
403.864	402.81
404.242	422.7
404.62	410.05
404.999	412.53
405.377	382.93
405.755	410.05
406.133	421.12
406.511	436.94
406.889	424.28
407.267	421.34
407.645	422.7
408.023	441.01
408.401	436.94
408.779	421.8
409.156	441.46
409.534	449.82
409.912	451.17
410.29	470.38
410.667	466.32
411.045	463.38
411.422	462.25
411.8	471.51
412.178	468.8
412.555	476.26
412.933	485.75
413.31	502.02
413.687	490.95
414.065	518.97
414.442	502.7
414.819	493.89
415.197	507.9
415.574	543.15
415.951	522.81
416.328	534.34
416.705	526.88
417.082	540.66
417.46	541.12
417.837	551.28
418.214	556.03
418.591	572.3
418.967	565.3
419.344	574.56
419.721	594.45
420.098	566.65
420.475	580.44
420.852	622.02
421.228	601.91
421.605	598.29
421.982	629.02
422.358	621.79
422.735	643.94
423.111	635.35
423.488	622.24
423.864	633.09
424.241	642.81
424.617	657.5
424.994	659.98
425.37	670.15
425.746	696.14
426.123	683.48
426.499	675.35
426.875	685.74
427.251	665.41
427.627	718.29
428.003	704.73
428.379	699.76
428.756	722.35
429.132	709.7
429.507	745.4
429.883	744.27
430.259	740.21
430.635	736.36
431.011	758.96
431.387	777.04
431.763	765.74
432.138	772.52
432.514	789.02
432.89	779.3
433.265	821.11
433.641	820.2
434.016	837.83
434.392	864.27
434.767	857.72
435.143	850.26
435.518	848.9
435.894	883.71
436.269	860.66
436.644	876.02
437.02	876.02
437.395	884.61
437.77	901.78
438.145	920.99
438.52	920.09
438.895	920.31
439.271	927.32
439.646	968.45
440.021	943.82
440.395	928.45
440.77	935.46
441.145	960.54
441.52	963.03
441.895	968.68
442.27	971.61
442.645	954.44
443.019	975.45
443.394	971.16
443.769	1013.87
444.143	990.14
444.518	1006.19
444.892	998.96
445.267	1014.32
445.641	1022.91
446.016	1012.52
446.39	1010.93
446.764	1035.79
447.139	1036.92
447.513	1018.84
447.887	1047.32
448.262	1028.33
448.636	1048.45
449.01	1037.37
449.384	1068.11
449.758	1082.34
450.132	1067.43
450.506	1059.29
450.88	1092.97
451.254	1064.94
451.628	1065.85
452.002	1108.11
452.376	1088.67
452.75	1103.59
453.123	1130.03
453.497	1119.86
453.871	1128.67
454.244	1124.15
454.618	1127.54
454.992	1159.63
455.365	1155.34
455.739	1164.6
456.112	1160.53
456.486	1179.29
456.859	1209.35
457.232	1215.9
457.606	1216.8
457.979	1219.06
458.352	1209.35
458.725	1236.46
459.099	1235.11
459.472	1261.32
459.845	1261.77
460.218	1290.25
460.591	1275.79
460.964	1280.76
461.337	1286.63
461.71	1327.54
462.083	1324.15
462.456	1343.81
462.829	1347.42
463.201	1354.43
463.574	1365.95
463.947	1331.6
464.32	1385.39
464.692	1436.01
465.065	1400.75
465.438	1407.31
465.81	1424.71
466.183	1457.02
466.555	1462.45
466.928	1494.54
467.3	1467.87
467.672	1492.5
468.045	1518.27
468.417	1511.03
468.789	1518.72
469.161	1533.63
469.534	1550.35
469.906	1558.26
470.278	1584.25
470.65	1590.35
471.022	1613.63
471.394	1655.21
471.766	1642.1
472.138	1689.11
472.51	1693.4
472.882	1712.16
473.253	1746.06
473.625	1757.58
473.997	1759.16
474.369	1760.29
474.74	1774.53
475.112	1791.03
475.484	1833.29
475.855	1855.21
476.227	1869.67
476.598	1927.07
476.97	1942.21
477.341	1921.87
477.713	1975.2
478.084	1987.63
478.455	2055.2
478.827	2037.35
479.198	2096.56
479.569	2088.19
479.94	2097.01
480.311	2155.54
480.682	2210.45
481.053	2225.59
481.424	2228.3
481.795	2254.97
482.166	2264.91
482.537	2334.74
482.908	2309.88
483.279	2356.89
483.65	2355.53
484.021	2425.13
484.391	2422.65
484.762	2476.21
485.133	2497
485.503	2510.56
485.874	2540.39
486.244	2612.25
486.615	2632.36
486.985	2638.46
487.356	2656.31
487.726	2673.04
488.097	2714.62
488.467	2768.18
488.837	2763.2
489.207	2793.94
489.578	2838
489.948	2840.04
490.318	2869.19
490.688	2931.34
491.058	2959.81
491.428	2975.18
491.798	3008.4
492.168	3064.89
492.538	3069.18
492.908	3103.76
493.278	3078
493.648	3111.22
494.017	3118.68
494.387	3177.43
494.757	3176.75
495.126	3164.78
495.496	3243.64
495.866	3232.12
496.235	3254.04
496.605	3292
496.974	3282.96
497.344	3336.75
497.713	3328.16
498.082	3360.93
498.452	3389.18
498.821	3405.9
499.19	3386.24
499.559	3456.07
499.928	3480.02
500.298	3441.6
500.667	3484.77
501.036	3462.62
501.405	3487.48
501.774	3504.65
502.143	3561.15
502.512	3537.2
502.88	3509.17
503.249	3585.1
503.618	3570.41
503.987	3617.87
504.356	3613.35
504.724	3599.11
505.093	3611.54
505.462	3632.11
505.83	3645.21
506.199	3664.88
506.567	3719.79
506.936	3701.26
507.304	3699.9
507.672	3759.56
508.041	3689.51
508.409	3710.98
508.777	3786.91
509.145	3806.79
509.514	3793.69
509.882	3795.27
510.25	3783.52
510.618	3846.34
510.986	3841.82
511.354	3829.62
511.722	3884.08
512.09	3910.29
512.458	3861.93
512.826	3911.2
513.193	3927.69
513.561	3921.14
513.929	3946.68
514.297	3943.51
514.664	3984.19
515.032	3993.23
515.4	3965.88
515.767	4013.11
516.135	4063.28
516.502	4003.4
516.869	4041.81
517.237	4044.98
517.604	4041.59
517.972	4058.54
518.339	4086.56
518.706	4108.25
519.073	4088.59
519.44	4113.45
519.808	4135.82
520.175	4115.49
520.542	4188.25
520.909	4173.56
521.276	4164.3
521.643	4210.62
522.009	4196.84
522.376	4209.27
522.743	4231.19
523.11	4217.4
523.477	4265.09
523.843	4283.39
524.21	4311.41
524.577	4320
524.943	4343.28
525.31	4374.46
525.676	4386.21
526.043	4417.17
526.409	4388.25
526.776	4462.59
527.142	4451.3
527.508	4506.44
527.874	4571.74
528.241	4520.45
528.607	4559.77
528.973	4604.06
529.339	4571.29
529.705	4591.86
530.071	4620.33
530.437	4656.04
530.803	4666.43
531.169	4679.09
531.535	4664.62
531.901	4722.93
532.267	4738.97
532.632	4722.93
532.998	4760.89
533.364	4774.45
533.73	4804.73
534.095	4830.04
534.461	4884.28
534.826	4879.98
535.192	4872.98
535.557	4929.93
535.923	4932.19
536.288	4917.05
536.653	4980.32
537.019	4929.02
537.384	4974.22
537.749	5004.28
538.114	5040.88
538.479	5028.91
538.845	5050.83
539.21	5068.45
539.575	5079.3
539.94	5138.96
540.305	5138.28
540.67	5146.19
541.034	5160.66
541.399	5205.63
541.764	5236.59
542.129	5236.59
542.494	5220.31
542.858	5238.17
543.223	5330.59
543.587	5387.09
543.952	5375.11
544.316	5364.72
544.681	5384.6
545.045	5422.34
545.41	5419.41
545.774	5464.83
546.138	5453.3
546.503	5484.71
546.867	5419.63
547.231	5531.72
547.595	5558.61
547.959	5559.29
548.324	5540.53
548.688	5566.97
549.052	5637.48
549.416	5577.82
549.779	5655.56
550.143	5679.96
550.507	5710.92
550.871	5747.98
551.235	5717.93
551.599	5749.57
551.962	5731.94
552.326	5778.27
552.689	5804.03
553.053	5747.53
553.417	5784.37
553.78	5860.52
554.143	5879.05
554.507	5860.07
554.87	5879.73
555.234	5896.23
555.597	5917.02
555.96	5933.52
556.323	5911.6
556.686	5966.28
557.05	6037.92
557.413	6036.34
557.776	6022.1
558.139	6084.02
558.502	6054.42
558.865	6132.16
559.228	6126.05
559.59	6098.26
559.953	6153.85
560.316	6204.47
560.679	6165.15
561.041	6215.32
561.404	6216.22
561.767	6297.35
562.129	6249.89
562.492	6309.78
562.854	6229.33
563.217	6316.78
563.579	6353.39
563.941	6326.73
564.304	6359.27
564.666	6401.75
565.028	6384.58
565.39	6446.95
565.753	6418.25
566.115	6502.09
566.477	6482.2
566.839	6475.65
567.201	6519.26
567.563	6535.99
567.925	6582.99
568.287	6583.67
568.648	6645.36
569.01	6667.96
569.372	6645.81
569.734	6679.94
570.095	6740.5
570.457	6785.92
570.819	6770.33
571.18	6833.83
571.542	6848.97
571.903	6868.86
572.265	6953.15
572.626	6932.81
572.987	7037.67
573.349	7022.75
573.71	7078.57
574.071	7114.05
574.432	7148.4
574.794	7266.81
575.155	7273.59
575.516	7330.09
575.877	7352.91
576.238	7407.6
576.599	7509.07
576.96	7528.5
577.32	7620.93
577.681	7705
578.042	7779.57
578.403	7862.96
578.763	7890.98
579.124	8038.09
579.485	8156.51
579.845	8281.93
580.206	8347.46
580.566	8451.19
580.927	8506.33
581.287	8709.04
581.648	8742.26
582.008	8960.33
582.368	9047.11
582.728	9157.61
583.089	9330.94
583.449	9469.69
583.809	9691.38
584.169	9764.15
584.529	9951.49
584.889	10165.04
585.249	10261.99
585.609	10478.71
585.969	10739.04
586.329	10875.53
586.688	11119.59
587.048	11276.2
587.408	11534.95
587.768	11708.28
588.127	11938.1
588.487	12115.95
588.846	12489.5
589.206	12656.96
589.565	12902.82
589.925	13134
590.284	13463.26
590.643	13716.36
591.003	13919.75
591.362	14321.09
591.721	14585.49
592.08	14776
592.44	15084.46
592.799	15280.62
593.158	15573.71
593.517	15829.53
593.876	16190.87
594.235	16401.26
594.593	16812.33
594.952	17091.87
595.311	17304.97
595.67	17550.61
596.029	17989.92
596.387	18181.56
596.746	18596.01
597.104	18831.03
597.463	19035.09
597.822	19375.87
598.18	19568.41
598.538	19892.02
598.897	20283.65
599.255	20373.36
599.613	20997.98
599.972	21071.88
600.33	21457.18
600.688	21572.43
601.046	21966.54
601.404	22336.93
601.762	22491.27
602.12	22901.66
602.478	23126.06
602.836	23415.77
603.194	23573.5
603.552	23814.4
603.91	23958.35
604.268	24443.54
604.625	24552.69
604.983	24877.2
605.341	24939.34
605.698	25311.31
606.056	25572.1
606.413	25923.5
606.771	26185.87
607.128	26393.54
607.485	26448.23
607.843	26900.65
608.2	27032.17
608.557	27454.31
608.914	27433.29
609.272	27873.5
609.629	27907.63
609.986	28387.16
610.343	28324.34
610.7	28779.7
611.057	28881.84
611.414	29146.92
611.771	29184.2
612.127	29626
612.484	29575.15
612.841	30090.62
613.198	29981.25
613.554	30136.95
613.911	30447
614.267	30712.75
614.624	30747.78
614.98	30980.32
615.337	31333.53
615.693	31294.43
616.05	31401.32
616.406	31766.96
616.762	31864.36
617.118	31867.07
617.475	32127.18
617.831	32428.41
618.187	32495.76
618.543	32623.21
618.899	32877.21
619.255	32975.07
619.611	33012.58
619.967	33224.78
620.323	33318.78
620.678	33187.71
621.034	33323.53
621.39	33417.09
621.746	33565.56
622.101	34037.86
622.457	33880.58
622.812	34011.87
623.168	34258.42
623.523	34388.59
623.879	34430.62
624.234	34205.32
624.589	34452.09
624.945	34564.85
625.3	34640.11
625.655	34835.81
626.01	34902.7
626.365	34809.37
626.72	34862.93
627.075	34958.06
627.43	34978.85
627.785	34985.86
628.14	35123.03
628.495	35302.91
628.85	35182.69
629.205	35387.88
629.559	35452.74
629.914	35494.09
630.269	35530.7
630.623	35411.84
630.978	35461.33
631.332	35567.99
631.687	35688.89
632.041	35698.38
632.396	35756.69
632.75	35555.34
633.104	35723.92
633.459	35617.26
633.813	35591.27
634.167	35639.18
634.521	35714.88
634.875	35847.08
635.229	35669.23
635.583	35511.95
635.937	35840.98
636.291	35711.72
636.645	35722.34
636.999	35735.22
637.352	35918.94
637.706	35696.35
638.06	35672.4
638.413	35654.99
638.767	35661.77
639.121	35807.76
639.474	35658.38
639.828	35692.96
640.181	35730.92
640.534	35875.1
640.888	35636.92
641.241	35551.95
641.594	35725.5
641.947	35800.08
642.301	35610.48
642.654	35738.83
643.007	35681.66
643.36	35739.74
643.713	35600.76
644.066	35735.22
644.419	35593.08
644.771	35373.65
645.124	35123.03
645.477	35015.46
645.83	34778.41
646.182	34703.83
646.535	34757.39
646.888	34872.64
647.24	34549.04
647.593	34664.96
647.945	34667.22
648.298	34488.47
648.65	34481.92
649.002	34570.5
649.355	34654.12
649.707	34485.08
650.059	34654.34
650.411	34987.44
650.763	35153.09
651.115	35591.49
651.467	35362.57
651.819	35428.56
652.171	35343.14
652.523	35338.17
652.875	35272.63
653.227	35063.15
653.578	35417.94
653.93	35226.53
654.282	35068.12
654.633	35055.69
654.985	35166.42
655.337	35125.29
655.688	35253.65
656.039	35267.89
656.391	34990.83
656.742	35100.66
657.094	34932.3
657.445	35181.56
657.796	35031.73
658.147	35027.21
658.498	35102.92
658.849	35195.35
659.2	35028.8
659.551	34972.07
659.902	35103.14
660.253	34985.86
660.604	35075.8
660.955	34967.1
661.306	35049.36
661.656	35050.94
662.007	35055.91
662.358	34991.06
662.708	34885.52
663.059	34979.76
663.409	34829.48
663.76	34981.11
664.11	34983.83
664.461	34989.7
664.811	34956.26
665.161	34970.94
665.511	34852.3
665.862	34939.31
666.212	34831.29
666.562	35095.69
666.912	34874.45
667.262	34798.07
667.612	34838.97
667.962	34954.67
668.312	34961.68
668.662	35013.43
669.011	34951.28
669.361	34915.81
669.711	34831.06
670.06	34766.2
670.41	34718.3
670.76	34713.55
671.109	34935.92
671.459	34733.44
671.808	34688.47
672.157	34902.47
672.507	34632.87
672.856	34591.07
673.205	34621.12
673.554	34733.44
673.904	34580.45
674.253	34968.01
674.602	34758.3
674.951	34177.97
675.3	34121.7
675.649	34643.5
675.998	34506.78
676.346	34639.65
676.695	34617.28
677.044	34454.12
677.393	34502.93
677.741	34507.91
678.09	34455.25
678.438	34394.24
678.787	34450.51
679.135	34490.28
679.484	34150.4
679.832	34406.89
680.181	34248.03
680.529	34328.93
680.877	34130.52
681.225	34139.55
681.573	34362.83
681.922	34058.2
682.27	33968.94
682.618	34036.51
682.966	33944.31
683.314	33921.93
683.661	33775.72
684.009	33741.6
684.357	33765.1
684.705	33676.74
685.053	33675.39
685.4	33678.32
685.748	33523.98
686.095	33421.83
686.443	33542.73
686.79	33288.05
687.138	33345.45
687.485	33506.8
687.832	33249.41
688.18	33352.91
688.527	33151.56
688.874	33234.49
689.221	33006.25
689.568	32999.47
689.915	33028.17
690.262	32937.1
690.609	32914.95
690.956	32747.73
691.303	32698.91
691.65	32688.29
691.997	32585.02
692.344	32346.83
692.69	32256.21
693.037	32338.7
693.383	32041.76
693.73	32155.65
694.077	32059.83
694.423	31957.69
694.769	31854.19
695.116	31938.03
695.462	31867.98
695.808	31815.1
696.155	31717.7
696.501	31562.67
696.847	31493.07
697.193	31340.08
697.539	31487.42
697.885	31193.87
698.231	31207.88
698.577	31072.06
698.923	31154.55
699.269	30963.14
699.614	30762.24
699.96	30648.35
700.306	30756.82
700.651	30641.57
700.997	30626.65
701.342	30539.2
701.688	30407
702.033	30509.59
702.379	30371.29
702.724	30341.24
703.069	30245.42
703.415	29937.18
703.76	30005.88
704.105	30092.66
704.45	29888.37
704.795	29665.55
705.14	29666.9
705.485	29555.04
705.83	29597.75
706.175	29656.73
706.52	29522.95
706.865	29313.01
707.209	29349.17
707.554	29208.38
707.899	29190.53
708.243	28992.35
708.588	29010.88
708.932	28889.07
709.277	28846.36
709.621	28880.26
709.966	28773.82
710.31	28913.48
710.654	28649.08
710.998	28692.01
711.342	28572.92
711.687	28417.44
712.031	28390.33
712.375	28264.23
712.719	28367.73
713.063	28315.53
713.407	28376.77
713.75	28235.98
714.094	28035.99
714.438	27952.37
714.782	28149.2
715.125	27932.03
715.469	27886.84
715.812	27851.36
716.156	27629.22
716.499	27659.05
716.843	27689.78
717.186	27489.56
717.53	27646.84
717.873	27619.95
718.216	27546.73
718.559	27474.64
718.902	27260.64
719.246	27317.59
719.589	27072.62
719.932	27051.61
720.275	26994.66
720.617	27106.07
720.96	27080.53
721.303	27049.12
721.646	27009.8
721.989	26911.95
722.331	27040.31
722.674	26867.66
723.016	26933.19
723.359	26899.74
723.701	26831.5
724.044	26649.81
724.386	26561.9
724.729	26624.95
725.071	26604.61
725.413	26536.59
725.755	26485.07
726.097	26383.6
726.439	26246.2
726.782	26414.33
727.124	26503.6
727.465	26279.42
727.807	26302.02
728.149	26194.68
728.491	26144.06
728.833	26185.41
729.175	26065.87
729.516	25965.53
729.858	25859.55
730.199	25965.31
730.541	25975.93
730.882	25868.36
731.224	25989.94
731.565	25748.14
731.906	25788.59
732.248	25709.27
732.589	25638.31
732.93	25625.2
733.271	25647.12
733.612	25586.78
733.953	25569.38
734.294	25544.98
734.635	25549.95
734.976	25544.53
735.317	25422.5
735.658	25382.27
735.999	25375.04
736.339	25250.07
736.68	25316.06
737.021	25256.4
737.361	25171.43
737.702	25338.43
738.042	25137.53
738.383	25141.82
738.723	25117.87
739.063	24966.24
739.404	25108.83
739.744	24976.18
740.084	24902.51
740.424	24926.24
740.764	24819.12
741.104	24928.72
741.444	24717.88
741.784	24749.74
742.124	24713.36
742.464	24612.8
742.804	24532.35
743.143	24624.1
743.483	24649.41
743.823	24342.3
744.162	24445.8
744.502	24509.53
744.841	24338.91
745.181	24498.68
745.52	24340.72
745.86	24434.95
746.199	24234.96
746.538	24235.86
746.877	24339.36
747.216	24374.84
747.556	24207.84
747.895	24229.98
748.234	24075.19
748.573	24130.55
748.911	24046.49
749.25	24024.11
749.589	23857.34
749.928	23989.76
750.267	23858.92
750.605	23869.54
750.944	23748.64
751.283	23696.89
751.621	23797.23
751.96	23657.12
752.298	23546.84
752.636	23655.99
752.975	23499.83
753.313	23372.83
753.651	23430.68
753.989	23257.81
754.327	23338.03
754.666	23274.3
755.004	23121.76
755.342	23166.96
755.679	23130.8
756.017	22983.01
756.355	23148.43
756.693	23046.29
757.031	23018.94
757.368	22836.8
757.706	22826.41
758.044	22720.87
758.381	22792.51
758.719	22577.82
759.056	22713.64
759.394	22584.6
759.731	22412.63
760.068	22478.39
760.405	22363.82
760.743	22269.36
