Data from hue_210_FLMS001491_00057.txt Node
Date: Tue Feb 07 16:41:24 GMT 2017
User: dcchb
Spectrometer: FLMS00149
Trigger mode: 0
Integration Time (sec): 2.000000E-2
Scans to average: 10
Electric dark correction enabled: true
Nonlinearity correction enabled: false
Boxcar width: 0
XAxis mode: Wavelengths
Number of Pixels in Spectrum: 2048
>>>>>Begin Spectral Data<<<<<
341.393	-28.97
341.776	-28.97
342.16	-28.97
342.543	-55.86
342.927	-66.26
343.31	-60.38
343.693	-74.16
344.077	-53.6
344.46	-52.92
344.843	-44.11
345.226	-44.33
345.61	-9.76
345.993	-38.69
346.376	-29.65
346.759	-0.72
347.142	16.91
347.525	39.05
347.908	49.9
348.291	71.37
348.674	108.88
349.057	122.21
349.44	127.41
349.823	144.81
350.206	165.15
350.588	191.82
350.971	204.25
351.354	208.54
351.737	226.84
352.119	225.49
352.502	243.79
352.884	270.23
353.267	282.89
353.65	283.79
354.032	288.76
354.414	298.93
354.797	309.55
355.179	303.45
355.562	312.04
355.944	328.31
356.326	326.5
356.709	330.34
357.091	310.46
357.473	326.95
357.855	335.54
358.238	332.15
358.62	322.44
359.002	333.51
359.384	340.74
359.766	336.9
360.148	342.55
360.53	333.28
360.912	323.34
361.294	330.12
361.676	312.49
362.057	343
362.439	354.07
362.821	310.91
363.203	320.18
363.584	314.98
363.966	317.46
364.348	294.64
364.729	298.48
365.111	326.28
365.493	331.25
365.874	328.76
366.256	311.81
366.637	314.3
367.019	324.24
367.4	324.02
367.781	321.08
368.163	322.44
368.544	293.06
368.925	298.25
369.306	320.63
369.688	323.56
370.069	293.51
370.45	293.28
370.831	296.67
371.212	311.36
371.593	322.21
371.974	308.2
372.355	301.87
372.736	312.27
373.117	311.81
373.498	326.28
373.879	304.81
374.26	317.01
374.641	312.04
375.021	293.74
375.402	326.5
375.783	327.41
376.163	315.66
376.544	339.16
376.925	324.02
377.305	333.06
377.686	308.88
378.066	318.14
378.447	301.42
378.827	334.86
379.208	310.91
379.588	313.62
379.968	323.34
380.349	315.88
380.729	332.83
381.109	338.25
381.489	321.53
381.87	338.71
382.25	337.12
382.63	319.05
383.01	322.66
383.39	334.41
383.77	335.54
384.15	330.12
384.53	351.59
384.91	331.93
385.29	358.37
385.67	347.52
386.049	332.83
386.429	325.6
386.809	350.46
387.189	357.91
387.568	326.05
387.948	357.69
388.328	328.54
388.707	345.94
389.087	350.68
389.466	338.71
389.846	361.08
390.225	348.65
390.605	357.91
390.984	362.43
391.363	351.13
391.743	348.65
392.122	352.04
392.501	387.74
392.881	374.41
393.26	356.33
393.639	383.22
394.018	373.96
394.397	389.33
394.776	386.84
395.155	394.98
395.534	371.02
395.913	370.8
396.292	363.11
396.671	388.42
397.05	401.98
397.429	383.68
397.808	381.87
398.186	394.98
398.565	378.7
398.944	390.46
399.323	398.37
399.701	415.77
400.08	399.5
400.458	401.98
400.837	422.77
401.215	408.31
401.594	400.4
401.972	402.88
402.351	424.58
402.729	415.09
403.107	426.39
403.486	411.7
403.864	414.41
404.242	428.42
404.62	435.2
404.999	441.53
405.377	432.26
405.755	446.5
406.133	441.98
406.511	465.48
406.889	449.44
407.267	484.24
407.645	463.67
408.023	483.33
408.401	469.32
408.779	480.62
409.156	454.63
409.534	501.19
409.912	488.53
410.29	486.95
410.667	520.85
411.045	505.71
411.422	502.77
411.8	527.4
412.178	537.8
412.555	558.59
412.933	540.73
413.31	589.09
413.687	580.73
414.065	576.89
414.442	572.37
414.819	612.82
415.197	597
415.574	594.74
415.951	637.91
416.328	620.28
416.705	624.8
417.082	643.1
417.46	648.08
417.837	654.4
418.214	668.41
418.591	677.91
418.967	710.9
419.344	688.08
419.721	707.06
420.098	733.5
420.475	729.66
420.852	739.83
421.228	736.21
421.605	785.93
421.982	771.24
422.358	764.01
422.735	798.35
423.111	813.27
423.488	818.47
423.864	828.41
424.241	862.31
424.617	856.88
424.994	870.44
425.37	880.39
425.746	882.65
426.123	903.44
426.499	925.81
426.875	944.34
427.251	959.71
427.627	944.11
428.003	946.37
428.379	989.99
428.756	1004
429.132	1017.33
429.507	1015.3
429.883	1019.14
430.259	1068.4
430.635	1051.23
431.011	1076.54
431.387	1087.61
431.763	1096.43
432.138	1118.57
432.514	1147.05
432.89	1151.34
433.265	1171.68
433.641	1200.15
434.016	1184.79
434.392	1263.88
434.767	1265.91
435.143	1266.37
435.518	1327.38
435.894	1333.71
436.269	1324.22
436.644	1354.72
437.02	1371.22
437.395	1397.66
437.77	1388.62
438.145	1459.35
438.52	1456.42
438.895	1489.64
439.271	1484.44
439.646	1534.83
440.021	1570.31
440.395	1580.26
440.77	1557.88
441.145	1626.58
441.52	1626.58
441.895	1665.9
442.27	1699.12
442.645	1663.87
443.019	1713.36
443.394	1727.37
443.769	1758.56
444.143	1736.18
444.518	1798.55
444.892	1773.02
445.267	1798.1
445.641	1819.57
446.016	1830.19
446.39	1831.1
446.764	1842.85
447.139	1850.76
447.513	1910.87
447.887	1928.49
448.262	1936.18
448.636	1923.3
449.01	1966.23
449.384	1941.6
449.758	1978.66
450.132	2000.13
450.506	2006.23
450.88	2036.97
451.254	2013.24
451.628	2058.66
452.002	2072.67
452.376	2097.53
452.75	2093.91
453.123	2148.83
453.497	2152.44
453.871	2184.31
454.244	2261.14
454.618	2227.02
454.992	2247.58
455.365	2253.46
455.739	2323.06
456.112	2323.51
456.486	2325.09
456.859	2371.87
457.232	2398.99
457.606	2383.85
457.979	2453.68
458.352	2477.86
458.725	2508.14
459.099	2518.08
459.472	2546.56
459.845	2561.02
460.218	2611.19
460.591	2625.88
460.964	2665.42
461.337	2674.24
461.71	2736.61
462.083	2740.45
462.456	2776.83
462.829	2770.28
463.201	2782.48
463.574	2841.24
463.947	2866.77
464.32	2907.68
464.692	2984.74
465.065	2927.11
465.438	2981.35
465.81	3065.87
466.183	3097.05
466.555	3156.94
466.928	3167.11
467.3	3198.97
467.672	3185.18
468.045	3304.05
468.417	3305.86
468.789	3295.69
469.161	3336.59
469.534	3410.49
469.906	3449.13
470.278	3492.97
470.65	3566.19
471.022	3597.6
471.394	3612.29
471.766	3641.44
472.138	3661.33
472.51	3764.15
472.882	3792.4
473.253	3851.61
473.625	3892.96
473.997	3961.89
474.369	3949.01
474.74	4049.57
475.112	4083.69
475.484	4173.86
475.855	4208.21
476.227	4247.3
476.598	4379.96
476.97	4349.67
477.341	4492.27
477.713	4548.09
478.084	4572.04
478.455	4675.31
478.827	4675.09
479.198	4832.37
479.569	4780.62
479.94	4901.52
480.311	4993.5
480.682	5085.25
481.053	5191.01
481.424	5250.67
481.795	5259.71
482.166	5357.33
482.537	5393.71
482.908	5510.77
483.279	5525.24
483.65	5626.93
484.021	5693.59
484.391	5748.28
484.762	5783.53
485.133	5826.02
485.503	5916.86
485.874	6042.51
486.244	6083.64
486.615	6189.85
486.985	6210.19
487.356	6339.45
487.726	6362.05
488.097	6455.61
488.467	6461.71
488.837	6572.21
489.207	6637.98
489.578	6737.63
489.948	6798.2
490.318	6843.39
490.688	6871.19
491.058	6959.77
491.428	7004.07
491.798	7138.53
492.168	7227.34
492.538	7261.24
492.908	7308.24
493.278	7330.61
493.648	7338.75
494.017	7434.56
494.387	7503.26
494.757	7544.84
495.126	7628.46
495.496	7660.1
495.866	7697.16
496.235	7784.84
496.605	7810.83
496.974	7814.67
497.344	7869.58
497.713	7925.17
498.082	7996.36
498.452	7990.71
498.821	8018.73
499.19	8046.3
499.559	8166.52
499.928	8184.6
500.298	8194.77
500.667	8216.01
501.036	8212.17
501.405	8293.07
501.774	8297.14
502.143	8322.9
502.512	8375.1
502.88	8373.3
503.249	8367.87
503.618	8417.59
503.987	8441.09
504.356	8436.57
504.724	8510.92
505.093	8531.48
505.462	8534.87
505.83	8627.3
506.199	8561.31
506.567	8665.72
506.936	8621.43
507.304	8645.15
507.672	8666.17
508.041	8741.65
508.409	8810.57
508.777	8817.8
509.145	8788.65
509.514	8839.95
509.882	8846.73
510.25	8887.63
510.618	8862.1
510.986	8872.94
511.354	8887.86
511.722	8895.77
512.09	8987.97
512.458	8910.23
512.826	8986.84
513.193	9015.09
513.561	9010.79
513.929	9013.96
514.297	9082.88
514.664	9065.48
515.032	9045.37
515.4	9082.66
515.767	9115.42
516.135	9127.18
516.502	9026.84
516.869	9174.86
517.237	9146.16
517.604	9115.42
517.972	9138.02
518.339	9120.85
518.706	9149.77
519.073	9096.89
519.44	9219.15
519.808	9232.71
520.175	9177.12
520.542	9264.35
520.909	9224.12
521.276	9219.83
521.643	9179.83
522.009	9297.57
522.376	9262.76
522.743	9229.32
523.11	9315.87
523.477	9340.28
523.843	9295.53
524.21	9375.76
524.577	9339.83
524.943	9303.22
525.31	9309.32
525.676	9377.11
526.043	9448.75
526.409	9381.18
526.776	9438.13
527.142	9431.8
527.508	9433.83
527.874	9375.98
528.241	9420.27
528.607	9363.55
528.973	9421.4
529.339	9409.43
529.705	9464.79
530.071	9405.36
530.437	9399.26
530.803	9398.13
531.169	9409.88
531.535	9304.57
531.901	9305.93
532.267	9237.68
532.632	9256.44
532.998	9312.93
533.364	9276.78
533.73	9208.3
534.095	9227.96
534.461	9248.75
534.826	9289.43
535.192	9234.07
535.557	9215.53
535.923	9172.15
536.288	9139.15
536.653	9177.57
537.019	9035.65
537.384	9044.47
537.749	9082.88
538.114	8956.11
538.479	8928.54
538.845	8975.54
539.21	8865.49
539.575	8907.29
539.94	8888.09
540.305	8883.57
540.67	8787.52
541.034	8796.56
541.399	8801.08
541.764	8736
542.129	8727.64
542.494	8672.05
542.858	8644.25
543.223	8606.29
543.587	8578.72
543.952	8553.41
544.316	8553.63
544.681	8464.59
545.045	8544.14
545.41	8491.03
545.774	8406.06
546.138	8427.98
546.503	8347.76
546.867	8284.49
547.231	8317.93
547.595	8324.94
547.959	8269.12
548.324	8206.97
548.688	8156.35
549.052	8141.66
549.416	8082.46
549.779	8039.75
550.143	8007.88
550.507	8064.38
550.871	7973.76
551.235	8017.37
551.599	7933.31
551.962	7910.03
552.326	7889.92
552.689	7896.25
553.053	7845.63
553.417	7790.94
553.78	7810.83
554.143	7743.71
554.507	7719.75
554.87	7713.88
555.234	7780.54
555.597	7678.85
555.96	7626.65
556.323	7638.17
556.686	7605.41
557.05	7613.09
557.413	7602.47
557.776	7619.42
558.139	7562.92
558.502	7556.14
558.865	7623.03
559.228	7582.36
559.59	7498.29
559.953	7448.12
560.316	7495.58
560.679	7526.31
561.041	7518.4
561.404	7467.56
561.767	7507.78
562.129	7398.18
562.492	7432.53
562.854	7433.89
563.217	7383.27
563.579	7413.1
563.941	7363.15
564.304	7417.39
564.666	7441.57
565.028	7393.44
565.39	7394.79
565.753	7440.89
566.115	7444.51
566.477	7436.15
566.839	7384.4
567.201	7512.75
567.563	7501
567.925	7446.32
568.287	7443.15
568.648	7388.92
569.01	7445.19
569.372	7514.56
569.734	7445.86
570.095	7488.8
570.457	7447.45
570.819	7443.83
571.18	7466.65
571.542	7491.51
571.903	7487.22
572.265	7517.05
572.626	7473.89
572.987	7496.48
573.349	7532.19
573.71	7467.78
574.071	7499.2
574.432	7541.45
574.794	7575.58
575.155	7548.91
575.516	7535.13
575.877	7549.36
576.238	7515.47
576.599	7556.14
576.96	7548.69
577.32	7555.24
577.681	7578.74
578.042	7582.13
578.403	7583.04
578.763	7608.35
579.124	7586.88
579.485	7665.29
579.845	7665.07
580.206	7620.55
580.566	7605.41
580.927	7621
581.287	7680.21
581.648	7652.19
582.008	7656.93
582.368	7655.8
582.728	7687.89
583.089	7711.62
583.449	7650.15
583.809	7722.47
584.169	7733.31
584.529	7678.85
584.889	7707.78
585.249	7722.92
585.609	7705.74
585.969	7702.58
586.329	7730.83
586.688	7746.65
587.048	7746.19
587.408	7741
587.768	7736.25
588.127	7744.84
588.487	7772.86
588.846	7786.87
589.206	7755.01
589.565	7749.81
589.925	7805.85
590.284	7769.47
590.643	7817.38
591.003	7818.74
591.362	7882.24
591.721	7750.26
592.08	7823.71
592.44	7789.58
592.799	7824.38
593.158	7811.5
593.517	7817.61
593.876	7812.63
594.235	7890.82
594.593	7806.31
594.952	7859.64
595.311	7833.88
595.67	7859.86
596.029	7820.54
596.387	7819.41
596.746	7872.97
597.104	7802.69
597.463	7865.29
597.822	7822.8
598.18	7810.6
598.538	7781.45
598.897	7858.73
599.255	7790.49
599.613	7955.91
599.972	7863.48
600.33	7782.13
600.688	7882.01
601.046	7888.34
601.404	7829.58
601.762	7813.76
602.12	7900.77
602.478	7881.11
602.836	7905.96
603.194	7815.12
603.552	7896.25
603.91	7796.81
604.268	7856.7
604.625	7849.02
604.983	7898.06
605.341	7842.01
605.698	7910.48
606.056	7861.9
606.413	7875.91
606.771	7934.66
607.128	7932.86
607.485	7884.27
607.843	7883.59
608.2	7942.35
608.557	7926.98
608.914	7932.63
609.272	7959.3
609.629	7928.11
609.986	7918.85
610.343	7904.61
610.7	7978.73
611.057	7943.7
611.414	7937.38
611.771	7974.44
612.127	8026.64
612.484	7950.94
612.841	7965.17
613.198	7951.39
613.554	7964.27
613.911	8054.66
614.267	8056.92
614.624	8040.88
614.98	8004.04
615.337	8062.12
615.693	8037.94
616.05	8051.5
616.406	8052.63
616.762	8090.14
617.118	8055.34
617.475	8021.89
617.831	8064.83
618.187	8053.76
618.543	8054.21
618.899	8116.58
619.255	8035.9
619.611	8092.85
619.967	8107.77
620.323	8124.72
620.678	8129.91
621.034	8085.62
621.39	8085.17
621.746	8116.58
622.101	8146.18
622.457	8093.76
622.812	8119.29
623.168	8109.57
623.523	8100.08
623.879	8106.64
624.234	8129.24
624.589	8143.92
624.945	8147.09
625.3	8134.21
625.655	8109.8
626.01	8094.21
626.365	8127.2
626.72	8060.76
627.075	8095.11
627.43	8112.74
627.785	8048.56
628.14	8071.61
628.495	8079.52
628.85	8059.63
629.205	8015.57
629.559	8059.41
629.914	8056.92
630.269	8141.89
630.623	8001.78
630.978	8013.08
631.332	8013.08
631.687	8018.96
632.041	8003.81
632.396	7979.18
632.75	8066.64
633.104	8024.38
633.459	8009.24
633.813	7962.91
634.167	7957.26
634.521	7938.73
634.875	7963.82
635.229	7946.19
635.583	7910.03
635.937	7863.03
636.291	7858.28
636.645	7928.34
636.999	7899.18
637.352	7918.39
637.706	7820.09
638.06	7889.92
638.413	7926.53
638.767	7817.38
639.121	7835.46
639.474	7812.41
639.828	7838.4
640.181	7873.87
640.534	7834.78
640.888	7783.26
641.241	7748
641.594	7738.51
641.947	7785.06
642.301	7797.94
642.654	7811.05
643.007	7790.04
643.36	7778.28
643.713	7758.62
644.066	7787.32
644.419	7732.64
644.771	7674.56
645.124	7571.51
645.477	7588.46
645.83	7484.96
646.182	7491.06
646.535	7501
646.888	7486.31
647.24	7515.24
647.593	7527.9
647.945	7508.23
648.298	7512.53
648.65	7439.99
649.002	7433.89
649.355	7487.9
649.707	7472.98
650.059	7512.53
650.411	7587.55
650.763	7642.92
651.115	7671.62
651.467	7675.46
651.819	7728.34
652.171	7647.89
652.523	7633.88
652.875	7623.71
653.227	7552.08
653.578	7681.11
653.93	7671.39
654.282	7623.26
654.633	7594.56
654.985	7617.84
655.337	7679.3
655.688	7624.16
656.039	7693.54
656.391	7624.16
656.742	7681.56
657.094	7689.7
657.445	7664.61
657.796	7686.76
658.147	7662.13
658.498	7716.59
658.849	7724.73
659.2	7677.95
659.551	7638.4
659.902	7759.75
660.253	7684.05
660.604	7753.43
660.955	7708.46
661.306	7701.45
661.656	7720.43
662.007	7684.28
662.358	7712.75
662.708	7763.37
663.059	7738.29
663.409	7670.72
663.76	7706.42
664.11	7730.6
664.461	7765.4
664.811	7827.55
665.161	7693.31
665.511	7724.05
665.862	7724.27
666.212	7788
666.562	7766.76
666.912	7749.13
667.262	7783.48
667.612	7770.6
667.962	7744.84
668.312	7779.64
668.662	7786.87
669.011	7772.41
669.361	7745.52
669.711	7742.13
670.06	7693.09
670.41	7742.35
670.76	7681.56
671.109	7730.6
671.459	7772.63
671.808	7640.21
672.157	7746.65
672.507	7757.72
672.856	7675.24
673.205	7672.52
673.554	7741.67
673.904	7686.08
674.253	7701
674.602	7682.24
674.951	7613.54
675.3	7569.02
675.649	7674.78
675.998	7634.56
676.346	7639.76
676.695	7624.84
677.044	7605.18
677.393	7646.08
677.741	7653.99
678.09	7585.97
678.438	7596.82
678.787	7582.81
679.135	7638.85
679.484	7502.13
679.832	7606.09
680.181	7529.93
680.529	7550.95
680.877	7515.92
681.225	7529.25
681.573	7509.14
681.922	7482.47
682.27	7482.7
682.618	7361.12
682.966	7389.82
683.314	7400.44
683.661	7403.15
684.009	7373.32
684.357	7329.93
684.705	7356.37
685.053	7364.96
685.4	7310.5
685.748	7291.07
686.095	7332.42
686.443	7249.94
686.79	7277.73
687.138	7270.27
687.485	7285.19
687.832	7264.17
688.18	7182.82
688.527	7222.82
688.874	7117.06
689.221	7093.1
689.568	7086.1
689.915	7109.15
690.262	7120.67
690.609	7080.22
690.956	6992.54
691.303	7061.69
691.65	6938.08
691.997	7021.92
692.344	6928.14
692.69	6968.36
693.037	6903.96
693.383	6850.85
693.73	6867.35
694.077	6841.59
694.423	6813.79
694.769	6797.52
695.116	6762.49
695.462	6776.5
695.808	6696.28
696.155	6781.47
696.501	6691.76
696.847	6628.94
697.193	6565.21
697.539	6593.23
697.885	6556.4
698.231	6567.24
698.577	6516.62
698.923	6533.12
699.269	6448.15
699.614	6458.77
699.96	6386.23
700.306	6414.48
700.651	6340.81
700.997	6371.54
701.342	6295.39
701.688	6294.71
702.033	6239.57
702.379	6248.38
702.724	6223.3
703.069	6289.51
703.415	6220.13
703.76	6182.17
704.105	6135.39
704.45	6140.14
704.795	6083.87
705.14	6077.31
705.485	6078.89
705.83	6071.66
706.175	6025.11
706.52	6006.13
706.865	6002.51
707.209	6022.17
707.554	5968.39
707.899	5950.99
708.243	5913.7
708.588	5926.13
708.932	5861.05
709.277	5866.24
709.621	5868.05
709.966	5818.79
710.31	5824.21
710.654	5845.68
710.998	5760.26
711.342	5748.73
711.687	5762.29
712.031	5714.38
712.375	5709.19
712.719	5711.45
713.063	5727.72
713.407	5716.19
713.75	5663.99
714.094	5700.82
714.438	5682.29
714.782	5628.74
715.125	5621.96
715.469	5728.85
715.812	5673.25
716.156	5632.35
716.499	5606.82
716.843	5670.09
717.186	5591.22
717.53	5582.64
717.873	5593.71
718.216	5584.9
718.559	5570.88
718.902	5468.06
719.246	5508.06
719.589	5520.26
719.932	5506.71
720.275	5550.09
720.617	5518.46
720.96	5420.38
721.303	5497.44
721.646	5523.43
721.989	5470.77
722.331	5473.49
722.674	5557.33
723.016	5542.64
723.359	5493.6
723.701	5497.44
724.044	5437.78
724.386	5432.36
724.729	5437.78
725.071	5440.27
725.413	5411.11
725.755	5450.89
726.097	5414.73
726.439	5427.84
726.782	5385.8
727.124	5465.35
727.465	5411.79
727.807	5449.08
728.149	5369.99
728.491	5404.34
728.833	5364.79
729.175	5453.6
729.516	5422.19
729.858	5385.8
730.199	5438.23
730.541	5460.83
730.882	5443.88
731.224	5416.31
731.565	5351.46
731.906	5395.07
732.248	5405.24
732.589	5381.96
732.93	5413.83
733.271	5389.42
733.612	5348.97
733.953	5454.96
734.294	5407.05
734.635	5394.39
734.976	5432.13
735.317	5436.88
735.658	5384.9
735.999	5365.69
736.339	5392.81
736.68	5440.49
737.021	5463.32
737.361	5417.67
737.702	5436.42
738.042	5467.84
738.383	5459.7
738.723	5497.21
739.063	5493.82
739.404	5505.12
739.744	5522.98
740.084	5468.74
740.424	5516.65
740.764	5503.32
741.104	5572.47
741.444	5526.37
741.784	5586.03
742.124	5574.5
742.464	5589.42
742.804	5599.58
743.143	5633.48
743.483	5595.06
743.823	5655.4
744.162	5670.09
744.502	5679.13
744.841	5731.11
745.181	5788.05
745.52	5827.83
745.86	5874.38
746.199	5888.62
746.538	5904.89
746.877	5943.3
747.216	6016.3
747.556	6029.63
747.895	6054.04
748.234	6104.66
748.573	6123.19
748.911	6166.12
749.25	6277.98
749.589	6265.1
749.928	6367.7
750.267	6384.65
750.605	6534.93
750.944	6567.92
751.283	6566.11
751.621	6710.52
751.96	6775.15
752.298	6865.31
752.636	6957.29
752.975	7067.12
753.313	7145.31
753.651	7243.61
753.989	7317.28
754.327	7388.24
754.666	7508.01
755.004	7675.91
755.342	7776.25
755.679	7898.06
756.017	7964.27
756.355	8172.62
756.693	8284.49
757.031	8423.92
757.368	8519.73
757.706	8611.48
758.044	8828.88
758.381	9034.52
758.719	9129.66
759.056	9294.18
759.394	9489.43
759.731	9554.28
760.068	9636.54
760.405	9808.29
760.743	10005.12
761.08	10257.77
761.417	10326.47
761.754	10504.54
762.091	10606.46
762.428	10789.28
762.765	11020.23
763.102	11204.41
763.438	11281.69
763.775	11471.07
764.112	11663.61
764.449	11881
764.785	12026.08
765.122	12096.36
765.458	12308.56
765.795	12448.22
766.131	12571.83
766.467	12693.41
766.804	12893.18
767.14	12955.1
767.476	13113.74
767.812	13313.96
768.148	13427.4
768.485	13562.54
768.821	13693.61
