Data from hue_22_FLMS001491_00083.txt Node
Date: Tue Feb 07 17:10:46 GMT 2017
User: dcchb
Spectrometer: FLMS00149
Trigger mode: 0
Integration Time (sec): 2.000000E-2
Scans to average: 10
Electric dark correction enabled: true
Nonlinearity correction enabled: false
Boxcar width: 0
XAxis mode: Wavelengths
Number of Pixels in Spectrum: 2048
>>>>>Begin Spectral Data<<<<<
341.393	-23.22
341.776	-23.22
342.16	-23.22
342.543	-63.44
342.927	-68.19
343.31	-86.49
343.693	-59.15
344.077	-51.69
344.46	-68.87
344.843	-60.51
345.226	-55.08
345.61	-20.51
345.993	-26.16
346.376	-14.63
346.759	23.56
347.142	25.59
347.525	33.95
347.908	53.39
348.291	81.18
348.674	90
349.057	135.42
349.44	144.46
349.823	147.62
350.206	162.76
350.588	193.95
350.971	205.25
351.354	237.11
351.737	268.07
352.119	247.96
352.502	273.27
352.884	280.73
353.267	274.4
353.65	307.62
354.032	315.53
354.414	320.5
354.797	289.54
355.179	336.09
355.562	342.87
355.944	338.8
356.326	333.61
356.709	325.47
357.091	346.26
357.473	352.36
357.855	342.19
358.238	341.97
358.62	351.01
359.002	355.53
359.384	346.04
359.766	342.42
360.148	350.78
360.53	344.23
360.912	349.88
361.294	341.29
361.676	337.9
362.057	353.04
362.439	327.28
362.821	344.91
363.203	341.74
363.584	337.45
363.966	334.74
364.348	354.4
364.729	353.72
365.111	352.36
365.493	335.19
365.874	339.26
366.256	327.73
366.637	312.14
367.019	310.56
367.4	310.33
367.781	327.73
368.163	315.53
368.544	318.47
368.925	315.08
369.306	348.75
369.688	330.44
370.069	311.91
370.45	327.73
370.831	313.27
371.212	311.23
371.593	312.36
371.974	313.04
372.355	326.6
372.736	333.16
373.117	307.85
373.498	333.16
373.879	341.52
374.26	311.46
374.641	337
375.021	320.05
375.402	331.57
375.783	330.67
376.163	345.58
376.544	348.07
376.925	322.31
377.305	320.95
377.686	313.95
378.066	354.62
378.447	337.67
378.827	328.86
379.208	352.14
379.588	354.17
379.968	327.28
380.349	336.09
380.729	328.64
381.109	339.93
381.489	361.85
381.87	356.43
382.25	340.16
382.63	329.54
383.01	358.69
383.39	383.1
383.77	351.46
384.15	346.26
384.53	343.78
384.91	358.24
385.29	350.1
385.67	361.85
386.049	362.76
386.429	369.09
386.809	361.63
387.189	354.4
387.568	365.02
387.948	379.48
388.328	382.65
388.707	369.09
389.087	374.96
389.466	382.42
389.846	367.96
390.225	365.02
390.605	361.85
390.984	371.8
391.363	393.27
391.743	370.67
392.122	383.55
392.501	398.46
392.881	392.36
393.26	385.13
393.639	384.45
394.018	378.35
394.397	411.35
394.776	388.29
395.155	392.14
395.534	383.55
395.913	396.88
396.292	416.09
396.671	411.57
397.05	398.69
397.429	407.73
397.808	412.93
398.186	395.75
398.565	411.8
398.944	423.32
399.323	391.68
399.701	412.48
400.08	440.95
400.458	420.38
400.837	419.25
401.215	413.15
401.594	425.13
401.972	438.92
402.351	440.27
402.729	411.8
403.107	435.98
403.486	420.61
403.864	431.01
404.242	427.16
404.62	456.99
404.999	440.72
405.377	435.75
405.755	451.34
406.133	440.27
406.511	438.24
406.889	432.14
407.267	467.39
407.645	454.73
408.023	475.3
408.401	432.14
408.779	478.91
409.156	444.34
409.534	448.63
409.912	486.15
410.29	491.57
410.667	481.85
411.045	476.65
411.422	493.38
411.8	475.75
412.178	507.84
412.555	491.57
412.933	474.39
413.31	493.83
413.687	509.87
414.065	496.09
414.442	480.5
414.819	512.36
415.197	531.79
415.574	528.4
415.951	516.43
416.328	520.49
416.705	521.17
417.082	527.27
417.46	547.16
417.837	540.83
418.214	534.73
418.591	531.79
418.967	539.48
419.344	543.32
419.721	557.78
420.098	563.88
420.475	568.18
420.852	580.83
421.228	572.7
421.605	579.48
421.982	543.09
422.358	589.87
422.735	584.22
423.111	599.59
423.488	572.24
423.864	594.84
424.241	612.02
424.617	609.31
424.994	627.84
425.37	615.18
425.746	607.95
426.123	610.89
426.499	607.27
426.875	630.1
427.251	623.77
427.627	633.26
428.003	635.75
428.379	647.27
428.756	664.45
429.132	666.71
429.507	649.3
429.883	663.99
430.259	671
430.635	677.1
431.011	641.62
431.387	672.58
431.763	687.95
432.138	698.12
432.514	702.18
432.89	718.23
433.265	712.35
433.641	706.48
434.016	717.33
434.392	718.46
434.767	737.89
435.143	740.38
435.518	754.16
435.894	762.75
436.269	766.82
436.644	792.35
437.02	760.26
437.395	798.91
437.77	801.17
438.145	787.38
438.52	804.33
438.895	819.7
439.271	799.81
439.646	834.16
440.021	842.97
440.395	831.67
440.77	831
441.145	847.49
441.52	842.75
441.895	838.23
442.27	833.48
442.645	832.8
443.019	854.05
443.394	849.3
443.769	877.32
444.143	861.5
444.518	901.95
444.892	878.9
445.267	910.54
445.641	889.98
446.016	896.08
446.39	905.34
446.764	924.33
447.139	934.27
447.513	929.07
447.887	927.49
448.262	943.53
448.636	928.17
449.01	963.2
449.384	927.49
449.758	940.82
450.132	953.25
450.506	980.37
450.88	992.12
451.254	982.63
451.628	1005.68
452.002	1000.03
452.376	987.38
452.75	1019.46
453.123	991.44
453.497	1030.31
453.871	1053.36
454.244	1055.85
454.618	1055.17
454.992	1071.21
455.365	1067.37
455.739	1066.47
456.112	1068.05
456.486	1083.19
456.859	1104.66
457.232	1132.23
457.606	1156.41
457.979	1154.83
458.352	1157.09
458.725	1183.3
459.099	1191.66
459.472	1204.54
459.845	1206.35
460.218	1236.41
460.591	1239.57
460.964	1269.4
461.337	1261.49
461.71	1264.66
462.083	1291.32
462.456	1292.45
462.829	1292.23
463.201	1347.14
463.574	1321.38
463.947	1364.99
464.32	1401.6
464.692	1361.83
465.065	1384.2
465.438	1425.1
465.81	1438.21
466.183	1442.73
466.555	1515.5
466.928	1477.76
467.3	1471.43
467.672	1503.75
468.045	1570.18
468.417	1538.1
468.789	1542.84
469.161	1595.27
469.534	1588.49
469.906	1619.67
470.278	1671.65
470.65	1654.02
471.022	1682.72
471.394	1761.14
471.766	1739.67
472.138	1779.9
472.51	1776.96
472.882	1831.65
473.253	1880.46
473.625	1890.18
473.997	1956.16
474.369	1944.19
474.74	1971.98
475.112	1994.35
475.484	2067.12
475.855	2067.8
476.227	2109.15
476.598	2164.29
476.97	2185.54
477.341	2203.61
477.713	2256.95
478.084	2307.79
478.455	2312.31
478.827	2372.88
479.198	2450.84
479.569	2430.28
479.94	2515.92
480.311	2548.24
480.682	2574.9
481.053	2675.47
481.424	2694.45
481.795	2742.81
482.166	2759.08
482.537	2802.69
482.908	2848.34
483.279	2928.57
483.65	2975.35
484.021	3056.7
484.391	3083.37
484.762	3100.54
485.133	3148.22
485.503	3194.1
485.874	3291.72
486.244	3321.78
486.615	3395
486.985	3439.74
487.356	3435.22
487.726	3592.28
488.097	3585.27
488.467	3633.18
488.837	3704.37
489.207	3751.37
489.578	3808.54
489.948	3868.66
490.318	3921.76
490.688	3931.03
491.058	4009.22
491.428	4089.89
491.798	4101.64
492.168	4193.84
492.538	4240.17
492.908	4337.57
493.278	4378.92
493.648	4360.17
494.017	4413.05
494.387	4472.26
494.757	4519.49
495.126	4596.32
495.496	4590.22
495.866	4613.95
496.235	4691.91
496.605	4727.62
496.974	4773.72
497.344	4834.51
497.713	4812.59
498.082	4902.75
498.452	4944.56
498.821	4923.77
499.19	4980.26
499.559	4981.62
499.928	5088.06
500.298	5078.12
500.667	5119.24
501.036	5154.27
501.405	5220.94
501.774	5250.77
502.143	5258.22
502.512	5301.84
502.88	5370.08
503.249	5372.8
503.618	5392.91
503.987	5413.25
504.356	5493.02
504.724	5440.82
505.093	5530.53
505.462	5526.46
505.83	5575.5
506.199	5629.06
506.567	5659.79
506.936	5641.04
507.304	5804.42
507.672	5792.45
508.041	5794.48
508.409	5795.38
508.777	5930.52
509.145	5898.88
509.514	5927.58
509.882	5948.37
510.25	5966.91
510.618	5981.82
510.986	6010.75
511.354	6091.42
511.722	6123.06
512.09	6191.31
512.458	6173.45
512.826	6230.85
513.193	6250.06
513.561	6262.04
513.929	6296.39
514.297	6385.43
514.664	6356.05
515.032	6376.39
515.4	6403.96
515.767	6485.99
516.135	6480.56
516.502	6464.07
516.869	6553.33
517.237	6559.88
517.604	6544.74
517.972	6596.72
518.339	6631.97
518.706	6670.62
519.073	6640.79
519.44	6712.87
519.808	6761.69
520.175	6770.73
520.542	6869.71
520.909	6836.26
521.276	6852.31
521.643	6968.91
522.009	6936.37
522.376	7000.78
522.743	7062.02
523.11	7103.15
523.477	7143.37
523.843	7186.53
524.21	7195.57
524.577	7335.91
524.943	7288.45
525.31	7375.91
525.676	7347.89
526.043	7430.82
526.409	7442.8
526.776	7547.65
527.142	7541.33
527.508	7548.78
527.874	7641.66
528.241	7656.58
528.607	7716.46
528.973	7800.98
529.339	7742.45
529.705	7883.92
530.071	7899.28
530.437	7911.03
530.803	7996.68
531.169	8009.34
531.535	8000.07
531.901	8052.5
532.267	8123.91
532.632	8192.38
532.998	8242.78
533.364	8207.3
533.73	8280.29
534.095	8321.65
534.461	8377.69
534.826	8381.76
535.192	8390.57
535.557	8496.78
535.923	8522.32
536.288	8535.43
536.653	8610.9
537.019	8559.15
537.384	8620.85
537.749	8678.47
538.114	8731.8
538.479	8658.36
538.845	8729.09
539.21	8769.77
539.575	8866.72
539.94	8857.45
540.305	8926.15
540.67	8885.02
541.034	8950.33
541.399	8957.79
541.764	9014.73
542.129	9013.38
542.494	9070.1
542.858	9107.84
543.223	9081.63
543.587	9177.89
543.952	9165.01
544.316	9276.42
544.681	9318.91
545.045	9329.3
545.41	9367.49
545.774	9402.07
546.138	9447.49
546.503	9423.54
546.867	9515.74
547.231	9588.96
547.595	9517.09
547.959	9611.56
548.324	9582.18
548.688	9600.48
549.052	9667.37
549.416	9685.23
549.779	9714.6
550.143	9791.66
550.507	9816.07
550.871	9898.55
551.235	9829.4
551.599	9961.15
551.962	9956.63
552.326	9967.7
552.689	10052.67
553.053	10022.62
553.417	10050.19
553.78	10162.5
554.143	10155.95
554.507	10180.13
554.87	10158.66
555.234	10313.46
555.597	10332.44
555.96	10305.77
556.323	10373.12
556.686	10390.52
557.05	10447.92
557.413	10457.18
557.776	10476.39
558.139	10542.15
558.502	10599.33
558.865	10560.68
559.228	10644.07
559.59	10604.98
559.953	10698.76
560.316	10761.81
560.679	10796.38
561.041	10865.76
561.404	10959.99
561.767	11045.19
562.129	10942.14
562.492	11073.44
562.854	11066.21
563.217	11015.13
563.579	11058.3
563.941	11105.08
564.304	11237.73
564.666	11216.26
565.028	11228.46
565.39	11296.03
565.753	11384.62
566.115	11376.25
566.477	11430.94
566.839	11490.15
567.201	11533.09
567.563	11557.04
567.925	11629.81
568.287	11661.9
568.648	11690.82
569.01	11824.15
569.372	11823.7
569.734	11757.26
570.095	11904.38
570.457	11904.83
570.819	12018.05
571.18	12004.94
571.542	12022.57
571.903	12101.43
572.265	12121.55
572.626	12184.82
572.987	12298.49
573.349	12369.45
573.71	12378.71
574.071	12425.49
574.432	12522.89
574.794	12611.02
575.155	12615.32
575.516	12717.01
575.877	12778.48
576.238	12799.27
576.599	12961.52
576.96	13006.27
577.32	13061.41
577.681	13149.99
578.042	13259.14
578.403	13267.28
578.763	13427.5
579.124	13522.19
579.485	13649.64
579.845	13740.03
580.206	13834.72
580.566	14025.9
580.927	14030.87
581.287	14272.45
581.648	14361.26
582.008	14518.54
582.368	14588.37
582.728	14829.95
583.089	14893.68
583.449	15029.04
583.809	15241.46
584.169	15338.41
584.529	15568.46
584.889	15882.12
585.249	15950.37
585.609	16116.69
585.969	16285.96
586.329	16544.03
586.688	16725.49
587.048	16927.07
587.408	17148.98
587.768	17427.17
588.127	17569.99
588.487	17760.27
588.846	18142.18
589.206	18346.92
589.565	18611.09
589.925	18860.58
590.284	19085.66
590.643	19452.65
591.003	19710.72
591.362	19997.72
591.721	20325.62
592.08	20588.44
592.44	20875.67
592.799	21325.82
593.158	21504.58
593.517	21703.89
593.876	22149.3
594.235	22288.06
594.593	22692.34
594.952	23117.41
595.311	23248.03
595.67	23675.59
596.029	24006.43
596.387	24403.26
596.746	24828.33
597.104	24944.49
597.463	25281.88
597.822	25638.03
598.18	25901.07
598.538	26092.48
598.897	26631.67
599.255	26635.29
599.613	27458.54
599.972	27563.63
600.33	27915.03
600.688	28091.07
601.046	28510.95
601.404	28832.52
601.762	29162.23
602.12	29530.35
602.478	29758.82
602.836	30124.01
603.194	30267.74
603.552	30702.75
603.91	30793.82
604.268	31277.88
604.625	31354.03
604.983	31899.56
605.341	32004.64
605.698	32471.29
606.056	32748.8
606.413	32968.91
606.771	33189.92
607.128	33663.58
607.485	33704.71
607.843	33992.38
608.2	34332.04
608.557	34760.5
608.914	34777
609.272	35339.69
609.629	35503.3
609.986	35784.2
610.343	35812.22
610.7	36280.23
611.057	36522.26
611.414	36649.71
611.771	36849.26
612.127	37171.51
612.484	37404.27
612.841	37597.03
613.198	37814.2
613.554	37911.83
613.911	38162.67
614.267	38355.88
614.624	38638.14
614.98	38814.4
615.337	39099.14
615.693	39220.04
616.05	39338.68
616.406	39785.68
616.762	39729.63
617.118	39926.01
617.475	40133.92
617.831	40284.42
618.187	40437.19
618.543	40554.92
618.899	40891.18
619.255	40904.74
619.611	41140.22
619.967	41265.19
620.323	41560.32
620.678	41516.93
621.034	41625.18
621.39	41689.36
621.746	41846.41
622.101	42206.18
622.457	42117.82
622.812	42215.9
623.168	42464.25
623.523	42503.12
623.879	42720.29
624.234	42456.79
624.589	42656.79
624.945	43000.73
625.3	43086.61
625.655	43041.41
626.01	43202.54
626.365	43153.95
626.72	43112.82
627.075	43172.93
627.43	43366.6
627.785	43267.85
628.14	43515.07
628.495	43588.74
628.85	43645.24
629.205	43561.62
629.559	43961.39
629.914	43727.95
630.269	43791.9
630.623	43959.8
630.978	43768.4
631.332	44043.42
631.687	44185.56
632.041	44072.8
632.396	44120.03
632.75	43908.73
633.104	44133.81
633.459	43992.12
633.813	43970.2
634.167	44142.62
634.521	44133.59
634.875	44225.56
635.229	44094.49
635.583	44014.72
635.937	44043.19
636.291	43990.54
636.645	44082.06
636.999	43953.25
637.352	44172.68
637.706	43929.75
638.06	44146.47
638.413	44099.46
638.767	43969.75
639.121	44158.67
639.474	43843.2
639.828	43916.42
640.181	44044.32
640.534	44133.81
640.888	44065.34
641.241	43835.74
641.594	43909.41
641.947	43928.62
642.301	43887.72
642.654	44047.71
643.007	44004.55
643.36	43947.38
643.713	43833.25
644.066	44071.67
644.419	43802.75
644.771	43674.39
645.124	43199.37
645.477	43234.63
645.83	42968.64
646.182	42785.37
646.535	42704.7
646.888	42887.52
647.24	42629.44
647.593	42789.89
647.945	42739.27
648.298	42584.7
648.65	42600.74
649.002	42491.37
649.355	42690.23
649.707	42651.36
650.059	42729.33
650.411	43376.09
650.763	43215.64
651.115	43802.75
651.467	43631.68
651.819	43603.2
652.171	43428.52
652.523	43335.19
652.875	43488.18
653.227	43288.86
653.578	43751.9
653.93	43398.24
654.282	43269.65
654.633	43131.8
654.985	43247.73
655.337	43303.55
655.688	43313.27
656.039	43485.92
656.391	43106.95
656.742	43366.37
657.094	43224.46
657.445	43431.68
657.796	43236.66
658.147	43257.9
658.498	43254.74
658.849	43096.78
659.2	43058.59
659.551	43217.23
659.902	43257.22
660.253	43115.76
660.604	43225.81
660.955	42985.14
661.306	43082.77
661.656	43029.43
662.007	43132.26
662.358	43272.59
662.708	43310.1
663.059	43102.65
663.409	42786.05
663.76	43298.81
664.11	43094.52
664.461	43181.07
664.811	43198.69
665.161	43159.83
665.511	42989.66
665.862	43000.06
666.212	43112.82
666.562	43153.05
666.912	42891.13
667.262	43014.52
667.612	43076.44
667.962	43130
668.312	42950.34
668.662	43165.02
669.011	43027.63
669.361	43018.81
669.711	42874.18
670.06	42972.03
670.41	42794.86
670.76	42862.88
671.109	42982.2
671.459	42862.21
671.808	42800.29
672.157	42964.8
672.507	42727.75
672.856	42540.63
673.205	42839.38
673.554	42797.8
673.904	42626.28
674.253	43022.43
674.602	42765.49
674.951	42168.21
675.3	42021.32
675.649	42603.91
675.998	42551.25
676.346	42523.68
676.695	42557.81
677.044	42371.15
677.393	42542.89
677.741	42567.07
678.09	42495.44
678.438	42428.77
678.787	42431.71
679.135	42392.16
679.484	42209.79
679.832	42348.1
680.181	42206.63
680.529	42479.62
680.877	42176.8
681.225	42132.28
681.573	42244.6
681.922	42026.97
682.27	41887.54
682.618	41840.09
682.966	41889.58
683.314	42014.54
683.661	41735.23
684.009	41482.58
684.357	41602.58
684.705	41573.43
685.053	41618.62
685.4	41539.53
685.748	41367.1
686.095	41428.35
686.443	41221.35
686.79	41094.8
687.138	41201.91
687.485	41188.13
687.832	41036.94
688.18	41030.84
688.527	40977.96
688.874	41083.5
689.221	40794.92
689.568	40705.2
689.915	40709.72
690.262	40870.39
690.609	40514.25
690.956	40294.14
691.303	40185.21
691.65	40177.31
691.997	40246
692.344	39962.85
692.69	39867.48
693.037	39941.83
693.383	39409.87
693.73	39752.68
694.077	39660.93
694.423	39605.12
694.769	39353.6
695.116	39300.49
695.462	39311.57
695.808	39243.09
696.155	39141.17
696.501	38932.37
696.847	38874.97
697.193	38731.02
697.539	38868.64
697.885	38473.62
698.231	38480.17
698.577	38497.35
698.923	38465.03
699.269	38141.2
699.614	38077.93
699.96	38031.15
700.306	37880.87
700.651	37796.12
700.997	37693.3
701.342	37657.37
701.688	37584.83
702.033	37470.71
702.379	37516.36
702.724	37358.85
703.069	37475
703.415	36955.69
703.76	37071.4
704.105	37143.49
704.45	36976.94
704.795	36852.65
705.14	36788.69
705.485	36656.27
705.83	36458.31
706.175	36558.87
706.52	36399.55
706.865	36348.48
707.209	36276.62
707.554	36189.84
707.899	36288.37
708.243	35927.93
708.588	35955.04
708.932	35693.36
709.277	35681.6
709.621	35719.12
709.966	35535.39
710.31	35533.13
710.654	35179.92
710.998	35313.7
711.342	35288.17
711.687	35129.3
712.031	34974.96
712.375	34946.03
712.719	35208.62
713.063	35038.01
713.407	35016.31
713.75	34834.17
714.094	34765.24
714.438	34740.84
714.782	34796.66
715.125	34589.88
715.469	34655.87
715.812	34476.21
716.156	34428.3
716.499	34387.17
716.843	34302.88
717.186	34038.94
717.53	34346.95
717.873	34210.46
718.216	34094.08
718.559	33964.59
718.902	33737.93
719.246	33939.5
719.589	33829
719.932	33520.53
720.275	33664.03
720.617	33605.73
720.96	33535.67
721.303	33564.15
721.646	33462
721.989	33179.98
722.331	33327.99
722.674	33338.39
723.016	33268.79
723.359	33166.19
723.701	33281.67
724.044	32906.54
724.386	32950.83
724.729	32967.55
725.071	32941.56
725.413	33048
725.755	32899.08
726.097	32775.24
726.439	32622.7
726.782	32676.26
727.124	32788.8
727.465	32478.75
727.807	32467.68
728.149	32414.12
728.491	32323.95
728.833	32503.16
729.175	32359.43
729.516	32213.9
729.858	32190.17
730.199	32265.2
730.541	32068.59
730.882	32068.37
731.224	32079.89
731.565	31818.65
731.906	31972.32
732.248	31904.75
732.589	31793.34
732.93	31641.71
733.271	31656.4
733.612	31695.95
733.953	31779.56
734.294	31568.04
734.635	31352
734.976	31569.17
735.317	31444.43
735.658	31495.27
735.999	31474.71
736.339	31362.62
736.68	31447.37
737.021	31449.85
737.361	31223.87
737.702	31333.24
738.042	31163.76
738.383	31094.61
738.723	31233.59
739.063	31071.78
739.404	31214.38
739.744	30969.86
740.084	30825.46
740.424	30961.28
740.764	30759.25
741.104	30865.01
741.444	30738.68
741.784	30589.76
742.124	30651
742.464	30664.33
742.804	30544.56
743.143	30556.54
743.483	30532.59
743.823	30330.11
744.162	30422.76
744.502	30413.27
744.841	30230.22
745.181	30466.37
745.52	30204.46
745.86	30237.91
746.199	30213.73
746.538	30065.48
746.877	30216.21
747.216	30197
747.556	30239.26
747.895	30084.69
748.234	29993.84
748.573	30092.6
748.911	29899.61
749.25	29846.05
749.589	29861.64
749.928	29791.59
750.267	29829.78
750.605	29774.64
750.944	29613.52
751.283	29378.49
751.621	29552.27
751.96	29468.21
752.298	29434.31
752.636	29397.48
752.975	29260.76
753.313	29102.57
753.651	29176.69
753.989	29037.26
754.327	29156.8
754.666	28852.18
755.004	28933.31
755.342	28896.92
755.679	28877.72
756.017	28701.9
756.355	28896.7
756.693	28708
757.031	28732.86
757.368	28523.15
757.706	28519.53
758.044	28370.61
758.381	28374.45
758.719	28231.4
759.056	28364.96
759.394	28224.63
