Data from hue_40_FLMS001491_23.txt Node
Date: Mon Feb 06 15:07:39 GMT 2017
User: dcchb
Spectrometer: FLMS00149
Trigger mode: 0
Integration Time (sec): 2.000000E-2
Scans to average: 10
Electric dark correction enabled: true
Nonlinearity correction enabled: false
Boxcar width: 0
XAxis mode: Wavelengths
Number of Pixels in Spectrum: 2048
>>>>>Begin Spectral Data<<<<<
341.393	-27.09
341.776	-27.09
342.16	-27.09
342.543	-63.47
342.927	-53.3
343.31	-80.2
343.693	-83.13
344.077	-42
344.46	-61.67
344.843	-51.72
345.226	-43.81
345.61	-38.16
345.993	-11.95
346.376	0.71
346.759	4.55
347.142	30.99
347.525	53.81
347.908	60.14
348.291	68.05
348.674	77.09
349.057	117.31
349.44	137.65
349.823	138.78
350.206	169.97
350.588	192.11
350.971	207.71
351.354	215.39
351.737	245.9
352.119	266.46
352.502	259.91
352.884	272.11
353.267	266.46
353.65	305.1
354.032	297.87
354.414	316.86
354.797	303.52
355.179	322.05
355.562	323.18
355.944	344.2
356.326	331.32
356.709	341.71
357.091	341.94
357.473	345.1
357.855	334.48
358.238	335.16
358.62	333.8
359.002	346.01
359.384	347.82
359.766	320.7
360.148	355.73
360.53	358.44
360.912	340.13
361.294	344.88
361.676	336.29
362.057	348.95
362.439	353.01
362.821	324.77
363.203	319.34
363.584	315.27
363.966	345.78
364.348	344.43
364.729	365.44
365.111	324.54
365.493	343.07
365.874	351.43
366.256	335.39
366.637	328.61
367.019	332.22
367.4	328.38
367.781	325.9
368.163	324.09
368.544	310.75
368.925	323.41
369.306	319.57
369.688	301.49
370.069	322.28
370.45	319.34
370.831	324.09
371.212	317.99
371.593	330.19
371.974	316.18
372.355	313.47
372.736	327.48
373.117	333.58
373.498	346.23
373.879	316.86
374.26	323.64
374.641	315.95
375.021	327.25
375.402	318.89
375.783	333.8
376.163	327.7
376.544	328.16
376.925	328.61
377.305	333.35
377.686	334.48
378.066	327.03
378.447	341.94
378.827	326.12
379.208	353.01
379.588	341.04
379.968	330.42
380.349	357.31
380.729	335.84
381.109	323.64
381.489	362.28
381.87	364.54
382.25	349.17
382.63	327.7
383.01	349.85
383.39	326.35
383.77	332
384.15	360.92
384.53	384.65
384.91	347.36
385.29	341.04
385.67	357.31
386.049	345.78
386.429	363.18
386.809	372
387.189	368.15
387.568	362.28
387.948	361.15
388.328	373.13
388.707	363.63
389.087	351.43
389.466	354.37
389.846	342.17
390.225	407.93
390.605	372.22
390.984	369.96
391.363	364.09
391.743	356.86
392.122	376.29
392.501	380.36
392.881	397.76
393.26	381.94
393.639	388.27
394.018	392.56
394.397	369.51
394.776	360.24
395.155	381.26
395.534	421.03
395.913	385.55
396.292	393.69
396.671	382.39
397.05	405.44
397.429	414.25
397.808	391.2
398.186	383.97
398.565	390.07
398.944	415.61
399.323	402.96
399.701	415.38
400.08	400.02
400.458	386.91
400.837	396.4
401.215	384.88
401.594	404.76
401.972	398.44
402.351	407.48
402.729	436.85
403.107	428.04
403.486	424.42
403.864	415.84
404.242	403.18
404.62	409.73
404.999	411.09
405.377	416.74
405.755	426.91
406.133	418.32
406.511	432.33
406.889	440.92
407.267	445.67
407.645	450.19
408.023	455.61
408.401	452.22
408.779	453.58
409.156	461.49
409.534	442.73
409.912	455.38
410.29	447.25
410.667	466.91
411.045	479.11
411.422	472.11
411.8	497.42
412.178	479.79
412.555	471.88
412.933	470.3
413.31	488.38
413.687	493.57
414.065	498.09
414.442	485.44
414.819	502.84
415.197	511.65
415.574	516.85
415.951	515.49
416.328	504.65
416.705	517.75
417.082	506.46
417.46	514.37
417.837	536.51
418.214	526.12
418.591	520.01
418.967	510.98
419.344	536.74
419.721	564.99
420.098	545.32
420.475	525.44
420.852	547.58
421.228	546.45
421.605	541.03
421.982	543.74
422.358	553.01
422.735	556.17
423.111	556.17
423.488	579.45
423.864	579.67
424.241	585.78
424.617	547.13
424.994	579.9
425.37	586.23
425.746	580.58
426.123	588.26
426.499	594.59
426.875	602.27
427.251	577.41
427.627	612.22
428.003	611.76
428.379	643.18
428.756	610.18
429.132	615.38
429.507	622.16
429.883	629.39
430.259	661.93
430.635	652.89
431.011	647.47
431.387	655.6
431.763	666
432.138	663.06
432.514	672.33
432.89	695.38
433.265	680.01
433.641	665.77
434.016	681.14
434.392	711.65
434.767	724.3
435.143	705.09
435.518	711.87
435.894	721.37
436.269	738.09
436.644	739.22
437.02	727.01
437.395	743.06
437.77	759.1
438.145	769.05
438.52	767.92
438.895	764.75
439.271	771.99
439.646	773.34
440.021	760.69
440.395	799.33
440.77	780.12
441.145	792.32
441.52	798.88
441.895	809.72
442.27	801.14
442.645	810.85
443.019	831.87
443.394	823.51
443.769	830.06
444.143	835.94
444.518	823.06
444.892	838.2
445.267	851.31
445.641	865.09
446.016	850.63
446.39	871.42
446.764	867.35
447.139	883.85
447.513	874.36
447.887	871.42
448.262	903.51
448.636	874.81
449.01	896.73
449.384	894.02
449.758	906.67
450.132	937.63
450.506	924.07
450.88	942.6
451.254	925.65
451.628	912.77
452.002	955.71
452.376	960
452.75	954.58
453.123	944.64
453.497	965.88
453.871	969.49
454.244	977.86
454.618	1013.11
454.992	1004.3
455.365	1017.63
455.739	1026.67
456.112	1052.2
456.486	1049.27
456.859	1082.03
457.232	1080.68
457.606	1093.33
457.979	1073.67
458.352	1094.46
458.725	1110.73
459.099	1128.81
459.472	1118.42
459.845	1167
460.218	1155.25
460.591	1174.23
460.964	1206.1
461.337	1193.9
461.71	1231.63
462.083	1232.09
462.456	1238.19
462.829	1233.67
463.201	1301.24
463.574	1285.87
463.947	1290.84
464.32	1323.38
464.692	1304.85
465.065	1318.19
465.438	1357.28
465.81	1352.99
466.183	1408.13
466.555	1444.28
466.928	1439.76
467.3	1429.14
467.672	1481.12
468.045	1492.64
468.417	1488.58
468.789	1527.45
469.161	1547.78
469.534	1572.64
469.906	1610.38
470.278	1613.32
470.65	1655.58
471.022	1687.44
471.394	1724.73
471.766	1712.75
472.138	1791.85
472.51	1802.47
472.882	1873.88
473.253	1875.01
473.625	1890.15
473.997	1966.3
474.369	1984.16
474.74	2006.98
475.112	2046.08
475.484	2100.54
475.855	2147.09
476.227	2156.36
476.598	2267.77
476.97	2245.17
477.341	2320.42
477.713	2371.49
478.084	2437.25
478.455	2502.11
478.827	2546.63
479.198	2639.73
479.569	2629.79
479.94	2778.94
480.311	2803.57
480.682	2884.92
481.053	2980.51
481.424	3035.88
481.795	3085.6
482.166	3205.59
482.537	3269.32
482.908	3361.97
483.279	3416.66
483.65	3516.09
484.021	3621.63
484.391	3684
484.762	3746.37
485.133	3886.03
485.503	3941.17
485.874	4029.98
486.244	4112.91
486.615	4237.2
486.985	4322.85
487.356	4474.03
487.726	4514.94
488.097	4672.45
488.467	4702.96
488.837	4895.04
489.207	4926
489.578	5058.88
489.948	5211.64
490.318	5293.45
490.688	5362.83
491.058	5503.39
491.428	5608.47
491.798	5707.45
492.168	5871.74
492.538	5933.21
492.908	6095.01
493.278	6187.44
493.648	6260.2
494.017	6373.42
494.387	6481.67
494.757	6598.72
495.126	6733.86
495.496	6808.89
495.866	6869.23
496.235	6998.49
496.605	7126.85
496.974	7250.91
497.344	7353.06
497.713	7403.9
498.082	7552.6
498.452	7722.31
498.821	7702.2
499.19	7783.55
499.559	7918.92
499.928	8050.21
500.298	8084.79
500.667	8219.7
501.036	8318.23
501.405	8426.25
501.774	8469.18
502.143	8567.03
502.512	8672.34
502.88	8761.38
503.249	8812.68
503.618	8967.02
503.987	8991.2
504.356	9023.75
504.724	9214.93
505.093	9245.21
505.462	9260.12
505.83	9397.75
506.199	9488.37
506.567	9630.96
506.936	9608.36
507.304	9800.9
507.672	9899.88
508.041	9930.61
508.409	10072.76
508.777	10100.33
509.145	10190.04
509.514	10203.83
509.882	10312.53
510.25	10411.73
510.618	10444.27
510.986	10491.28
511.354	10617.83
511.722	10705.28
512.09	10778.28
512.458	10860.31
512.826	10914.77
513.193	11014.43
513.561	11073.64
513.929	11180.53
514.297	11277.47
514.664	11345.49
515.032	11413.97
515.4	11540.74
515.767	11512.95
516.135	11667.97
516.502	11708.87
516.869	11838.14
517.237	11859.6
517.604	11831.58
517.972	11924.01
518.339	12055.53
518.706	12116.32
519.073	12107.05
519.44	12202.65
519.808	12372.81
520.175	12359.48
520.542	12455.52
520.909	12589.3
521.276	12541.85
521.643	12775.29
522.009	12782.97
522.376	12925.34
522.743	12913.36
523.11	13071.1
523.477	13199
523.843	13205.33
524.21	13368.26
524.577	13399.45
524.943	13537.07
525.31	13570.74
525.676	13698.43
526.043	13845.99
526.409	13862.04
526.776	14148.81
527.142	14076.04
527.508	14104.74
527.874	14153.1
528.241	14347
528.607	14377.73
528.973	14448.01
529.339	14518.29
529.705	14560.78
530.071	14779.98
530.437	14802.12
530.803	14865.4
531.169	14974.78
531.535	14947.21
531.901	15099.29
532.267	15081.89
532.632	15239.18
532.998	15330.7
533.364	15358.27
533.73	15428.1
534.095	15574.99
534.461	15586.29
534.826	15764.36
535.192	15801.19
535.557	15799.39
535.923	15838.48
536.288	15894.07
536.653	16000.51
537.019	15917.12
537.384	16105.82
537.749	16157.34
538.114	16216.33
538.479	16266.27
538.845	16360.28
539.21	16336.77
539.575	16500.84
539.94	16443.21
540.305	16679.36
540.67	16506.26
541.034	16645.92
541.399	16748.74
541.764	16783.32
542.129	16926.81
542.494	16925.91
542.858	16892.24
543.223	17018.11
543.587	17127.49
543.952	17092.46
544.316	17273.92
544.681	17241.16
545.045	17320.25
545.41	17440.7
545.774	17418.33
546.138	17544.43
546.503	17632.56
546.867	17545.78
547.231	17802.27
547.595	17870.29
547.959	17889.5
548.324	17837.75
548.688	17876.62
549.052	18007.92
549.416	18062.15
549.779	18167.23
550.143	18131.3
550.507	18317.74
550.871	18277.51
551.235	18227.8
551.599	18400.45
551.962	18517.06
552.326	18538.75
552.689	18609.93
553.053	18620.56
553.417	18647.22
553.78	18891.73
554.143	18880.89
554.507	18906.42
554.87	18973.54
555.234	19172.63
555.597	19083.37
555.96	19165.85
556.323	19217.38
556.686	19322.46
557.05	19439.52
557.413	19456.92
557.776	19520.87
558.139	19690.81
558.502	19702.79
558.865	19747.31
559.228	19863.69
559.59	19895.1
559.953	19954.31
560.316	20128.31
560.679	20038.6
561.041	20235.43
561.404	20284.69
561.767	20410.57
562.129	20315.88
562.492	20543.44
562.854	20549.09
563.217	20574.18
563.579	20692.14
563.941	20799.71
564.304	20808.52
564.666	20976.2
565.028	21028.4
565.39	21126.7
565.753	21207.15
566.115	21231.11
566.477	21233.37
566.839	21442.18
567.201	21545
567.563	21636.75
567.925	21742.28
568.287	21815.27
568.648	21957.64
569.01	22050.52
569.372	22065.89
569.734	21977.76
570.095	22203.74
570.457	22348.14
570.819	22398.31
571.18	22368.48
571.542	22536.38
571.903	22544.29
572.265	22780.22
572.626	22944.74
572.987	22818.41
573.349	22935.47
573.71	23029.48
574.071	23138.18
574.432	23166.42
574.794	23508.11
575.155	23379.53
575.516	23464.5
575.877	23631.95
576.238	23732.29
576.599	23904.03
576.96	23981.32
577.32	23995.56
577.681	24146.51
578.042	24330.69
578.403	24415.43
578.763	24512.15
579.124	24664.46
579.485	24924.34
579.845	25078.69
580.206	25075.98
580.566	25185.58
580.927	25347.84
581.287	25515.52
581.648	25572.46
582.008	25906.47
582.368	25863.75
582.728	26196.4
583.089	26201.83
583.449	26365.21
583.809	26586
584.169	26836.61
584.529	26942.37
584.889	27252.65
585.249	27234.79
585.609	27299.88
585.969	27627.32
586.329	27740.32
586.688	27988.9
587.048	28119.74
587.408	28209.46
587.768	28378.72
588.127	28638.6
588.487	28746.39
588.846	29049.89
589.206	29097.79
589.565	29316.77
589.925	29506.15
590.284	29740.49
590.643	30003.99
591.003	30150.87
591.362	30387.7
591.721	30554.71
592.08	30772.33
592.44	31043.73
592.799	31094.8
593.158	31384.51
593.517	31457.28
593.876	31722.13
594.235	31775.69
594.593	32031.5
594.952	32220.88
595.311	32321.44
595.67	32578.83
596.029	32970.46
596.387	33106.5
596.746	33177.01
597.104	33228.53
597.463	33433.27
597.822	33805.02
598.18	33820.16
598.538	33872.81
598.897	34323.87
599.255	34159.13
599.613	34722.05
599.972	34617.88
600.33	34904.2
600.688	34904.42
601.046	35212.89
601.404	35477.06
601.762	35506.89
602.12	35793.66
602.478	35870.5
602.836	36016.93
603.194	36016.03
603.552	36247.66
603.91	36312.52
604.268	36725.84
604.625	36509.58
604.983	36818.5
605.341	36754.32
605.698	37152.27
606.056	37299.84
606.413	37345.71
606.771	37352.72
607.128	37641.98
607.485	37636.55
607.843	37785.93
608.2	38014.62
608.557	38234.73
608.914	38183.66
609.272	38278.57
609.629	38521.05
609.986	38784.55
610.343	38609.41
610.7	38886.46
611.057	39010.08
611.414	38984.54
611.771	39173.24
612.127	39303.63
612.484	39508.82
612.841	39601.47
613.198	39643.28
613.554	39659.1
613.911	39817.29
614.267	39880.79
614.624	40042.59
614.98	40176.15
615.337	40375.24
615.693	40329.14
616.05	40529.36
616.406	40656.81
616.762	40639.41
617.118	40615.91
617.475	40736.81
617.831	40943.81
618.187	40986.52
618.543	41129.12
618.899	41387.87
619.255	41324.14
619.611	41265.16
619.967	41473.06
620.323	41592.61
620.678	41429.22
621.034	41505.6
621.39	41551.25
621.746	41541.76
622.101	42055.19
622.457	41745.6
622.812	41750.79
623.168	41993.5
623.523	41949.21
623.879	42160.05
624.234	41856.55
624.589	42081.86
624.945	42071.46
625.3	42294.51
625.655	42165.47
626.01	42274.17
626.365	42159.82
626.72	42191.69
627.075	42193.27
627.43	42311.68
627.785	42291.12
628.14	42323.89
628.495	42397.11
628.85	42362.3
629.205	42256.77
629.559	42534.96
629.914	42340.16
630.269	42441.4
630.623	42357.11
630.978	42291.12
631.332	42445.69
631.687	42663.54
632.041	42466.71
632.396	42643.65
632.75	42327.5
633.104	42370.89
633.459	42257
633.813	42338.12
634.167	42384.9
634.521	42302.64
634.875	42277.79
635.229	42297.67
635.583	42215.87
635.937	42248.41
636.291	42142.65
636.645	42262.65
636.999	42073.72
637.352	42231.23
637.706	42048.19
638.06	42206.15
638.413	42146.94
638.767	42024.01
639.121	42098.58
639.474	41958.7
639.828	42003.22
640.181	41919.83
640.534	42146.49
640.888	41888.19
641.241	41808.87
641.594	41812.49
641.947	41954.63
642.301	41820.85
642.654	41893.39
643.007	41922.54
643.36	41885.93
643.713	41733.62
644.066	41920.28
644.419	41542.21
644.771	41368.66
645.124	41056.58
645.477	41021.1
645.83	40666.08
646.182	40644.16
646.535	40554.67
646.888	40619.98
647.24	40402.36
647.593	40537.72
647.945	40549.24
648.298	40382.92
648.65	40288.01
649.002	40396.93
649.355	40513.31
649.707	40279.2
650.059	40435.35
650.411	40918.27
650.763	41024.94
651.115	41443.46
651.467	41219.51
651.819	41217.93
652.171	41085.73
652.523	41104.71
652.875	41183.13
653.227	40982.91
653.578	41253.86
653.93	41167.53
654.282	40921.44
654.633	40904.72
654.985	40969.35
655.337	40957.37
655.688	40978.61
656.039	40963.92
656.391	40746.75
656.742	40832.4
657.094	40740.43
657.445	41040.98
657.796	40849.12
658.147	40702.23
658.498	40707.21
658.849	40800.99
659.2	40730.93
659.551	40638.96
659.902	40888.22
660.253	40721.22
660.604	40909.69
660.955	40578.62
661.306	40730.71
661.656	40641.9
662.007	40588.34
662.358	40594.89
662.708	40585.85
663.059	40558.28
663.409	40343.6
663.76	40691.84
664.11	40600.99
664.461	40785.17
664.811	40599.41
665.161	40607.77
665.511	40498.4
665.862	40622.01
666.212	40681.22
666.562	40758.5
666.912	40575.46
667.262	40615.46
667.612	40598.28
667.962	40556.02
668.312	40485.74
668.662	40707.21
669.011	40612.75
669.361	40627.89
669.711	40543.82
670.06	40438.96
670.41	40363.26
670.76	40396.93
671.109	40377.72
671.459	40498.17
671.808	40339.08
672.157	40473.99
672.507	40125.3
672.856	40150.84
673.205	40279.42
673.554	40277.39
673.904	40213.43
674.253	40335.01
674.602	40281.91
674.951	39647.57
675.3	39479.89
675.649	40060.9
675.998	40016.15
676.346	40014.8
676.695	40241.46
677.044	39878.53
677.393	40021.8
677.741	40114
678.09	40030.84
678.438	39994.46
678.787	39892.99
679.135	39852.77
679.484	39536.16
679.832	39782.49
680.181	39622.94
680.529	39825.2
680.877	39679.21
681.225	39483.96
681.573	39691.41
681.922	39454.36
682.27	39334.14
682.618	39501.81
682.966	39302.5
683.314	39473.34
683.661	39335.27
684.009	39075.84
684.357	38999.45
684.705	39008.04
685.053	39135.95
685.4	39076.51
685.748	38822.96
686.095	38874.71
686.443	38706.36
686.79	38631.78
687.138	38611.89
687.485	38599.47
687.832	38497.77
688.18	38597.66
688.527	38274.05
688.874	38377.55
689.221	38174.84
689.568	38205.35
689.915	38020.95
690.262	38020.95
690.609	37987.73
690.956	37905.47
691.303	37782.76
691.65	37708.19
691.997	37669.77
692.344	37463.45
692.69	37355.88
693.037	37391.36
693.383	37094.87
693.73	37184.59
694.077	37028.21
694.423	37001.99
694.769	36872.05
695.116	36794.32
695.462	36632.51
695.808	36522.23
696.155	36675.67
696.501	36454.66
696.847	36497.83
697.193	36117.95
697.539	36239.53
697.885	36035.46
698.231	36105.52
698.577	35947.78
698.923	35871.63
699.269	35792.76
699.614	35601.58
699.96	35589.83
700.306	35461.47
700.651	35374.92
700.997	35326.78
701.342	35241.59
701.688	35191.19
702.033	35101.7
702.379	35030.75
702.724	34962.05
703.069	35029.84
703.415	34524.77
703.76	34576.97
704.105	34683.64
704.45	34444.32
704.795	34354.83
705.14	34245.46
705.485	34176.76
705.83	34088.85
706.175	34171.11
706.52	34039.59
706.865	33973.37
707.209	33824.22
707.554	33828.52
707.899	33880.27
708.243	33717.79
708.588	33543.55
708.932	33461.97
709.277	33410.9
709.621	33369.55
709.966	33127.97
710.31	33246.61
710.654	32866.96
710.998	32986.05
711.342	33089.78
711.687	33036.45
712.031	32826.28
712.375	32696.34
712.719	32696.8
713.063	32572.73
713.407	32853.63
713.75	32713.07
714.094	32530.02
714.438	32323.92
714.782	32485.73
715.125	32206.64
715.469	32358.05
715.812	32075.8
716.156	32002.58
716.499	32029.24
716.843	31991.5
717.186	31765.97
717.53	31953.54
717.873	31935.23
718.216	31916.93
718.559	31714.9
718.902	31442.82
719.246	31571.63
719.589	31524.4
719.932	31337.74
720.275	31356.72
720.617	31345.19
720.96	31319.43
721.303	31262.03
721.646	31373.89
721.989	31105.2
722.331	31181.13
722.674	31046.22
723.016	31009.61
723.359	31026.56
723.701	31022.72
724.044	30826.11
724.386	30569.39
724.729	30772.78
725.071	30680.58
725.413	30671.09
725.755	30630.18
726.097	30504.54
726.439	30399.45
726.782	30441.71
727.124	30436.52
727.465	30380.02
727.807	30210.08
728.149	30159.46
728.491	30154.94
728.833	30138.67
729.175	30009.86
729.516	29881.28
729.858	30065.68
730.199	29906.13
730.541	29909.98
730.882	29660.27
731.224	29929.18
731.565	29771.45
731.906	29720.15
732.248	29886.7
732.589	29497.56
732.93	29516.54
733.271	29526.71
733.612	29577.33
733.953	29396.32
734.294	29410.33
734.635	29438.58
734.976	29421.18
735.317	29239.26
735.658	29151.8
735.999	29217.79
736.339	29201.52
736.68	29340.27
737.021	29184.12
737.361	28891.25
737.702	29185.48
738.042	29072.48
738.383	28869.33
738.723	28924.92
739.063	28840.17
739.404	28897.12
739.744	28643.34
740.084	28666.39
740.424	28804.47
740.764	28566.28
741.104	28762.89
741.444	28503.23
741.784	28452.84
742.124	28503.69
742.464	28455.78
742.804	28300.53
743.143	28219.63
743.483	28331.49
743.823	28197.03
744.162	28155.67
744.502	28200.19
744.841	28109.8
745.181	28163.58
745.52	28203.13
745.86	28083.58
746.199	28022.57
746.538	27938.73
746.877	27997.71
747.216	27908.9
747.556	27736.93
747.895	27877.26
748.234	27744.16
748.573	27753.2
748.911	27708.45
749.25	27629.13
749.589	27505.52
749.928	27638.62
750.267	27660.32
750.605	27528.57
750.944	27480.89
751.283	27361.57
751.621	27468.46
751.96	27301.23
752.298	27218.75
752.636	27280.89
752.975	27098.75
753.313	27074.57
753.651	27122.48
753.989	27029.83
754.327	26900.11
754.666	26827.57
755.004	26844.75
755.342	26767.91
755.679	26813.11
756.017	26542.61
756.355	26720.91
756.693	26514.36
757.031	26597.3
