Data from hue_130_FLMS001491_00007.txt Node
Date: Tue Feb 07 16:57:05 GMT 2017
User: dcchb
Spectrometer: FLMS00149
Trigger mode: 0
Integration Time (sec): 2.000000E-2
Scans to average: 10
Electric dark correction enabled: true
Nonlinearity correction enabled: false
Boxcar width: 0
XAxis mode: Wavelengths
Number of Pixels in Spectrum: 2048
>>>>>Begin Spectral Data<<<<<
341.393	-12.74
341.776	-12.74
342.16	-12.74
342.543	-55.45
342.927	-69.01
343.31	-67.43
343.693	-84.15
344.077	-66.52
344.46	-51.61
344.843	-57.71
345.226	-58.16
345.61	-39.86
345.993	-27.43
346.376	21.84
346.759	16.41
347.142	28.16
347.525	52.57
347.908	73.59
348.291	74.26
348.674	87.82
349.057	98.22
349.44	139.8
349.823	147.71
350.206	149.29
350.588	204.88
350.971	214.15
351.354	212.57
351.737	239.23
352.119	241.26
352.502	263.41
352.884	267.25
353.267	293.69
353.65	313.13
354.032	310.19
354.414	307.48
354.797	321.04
355.179	336.63
355.562	350.41
355.944	326.91
356.326	328.95
356.709	322.84
357.091	330.53
357.473	350.64
357.855	360.36
358.238	354.71
358.62	342.73
359.002	352.22
359.384	346.8
359.766	359.91
360.148	332.79
360.53	333.69
360.912	338.44
361.294	341.38
361.676	334.14
362.057	329.62
362.439	343.64
362.821	347.02
363.203	346.57
363.584	331.66
363.966	346.35
364.348	326.46
364.729	335.5
365.111	330.08
365.493	327.82
365.874	311.09
366.256	304.31
366.637	321.26
367.019	321.26
367.4	298.89
367.781	323.52
368.163	326.46
368.544	317.42
368.925	310.19
369.306	306.8
369.688	311.09
370.069	314.71
370.45	324.43
370.831	323.75
371.212	317.65
371.593	316.29
371.974	330.75
372.355	320.81
372.736	342.96
373.117	335.73
373.498	342.28
373.879	315.16
374.26	317.87
374.641	325.1
375.021	339.34
375.402	320.36
375.783	322.84
376.163	346.35
376.544	339.79
376.925	325.56
377.305	332.11
377.686	344.76
378.066	356.74
378.447	333.24
378.827	331.43
379.208	347.25
379.588	315.39
379.968	355.84
380.349	347.93
380.729	355.84
381.109	348.61
381.489	352.67
381.87	342.05
382.25	342.51
382.63	361.94
383.01	352.67
383.39	351.09
383.77	355.16
384.15	337.31
384.53	366.46
384.91	364.43
385.29	363.97
385.67	356.06
386.049	363.52
386.429	364.43
386.809	387.7
387.189	372.33
387.568	363.52
387.948	372.33
388.328	377.08
388.707	380.92
389.087	373.24
389.466	393.8
389.846	364.2
390.225	377.31
390.605	383.63
390.984	366.01
391.363	366.91
391.743	381.15
392.122	383.86
392.501	388.38
392.881	383.41
393.26	383.63
393.639	391.54
394.018	392
394.397	419.11
394.776	384.31
395.155	391.09
395.534	371.88
395.913	402.84
396.292	396.51
396.671	395.39
397.05	393.58
397.429	396.97
397.808	410.53
398.186	387.93
398.565	395.16
398.944	416.63
399.323	415.05
399.701	419.57
400.08	410.3
400.458	413.92
400.837	450.98
401.215	411.88
401.594	403.52
401.972	420.02
402.351	432.22
402.729	428.83
403.107	437.64
403.486	424.99
403.864	413.46
404.242	437.64
404.62	446.68
404.999	441.71
405.377	437.42
405.755	454.37
406.133	452.78
406.511	442.39
406.889	446.68
407.267	458.21
407.645	479.22
408.023	454.82
408.401	474.25
408.779	457.76
409.156	483.97
409.534	473.12
409.912	481.03
410.29	471.77
410.667	475.61
411.045	502.73
411.422	467.02
411.8	494.14
412.178	514.48
412.555	500.47
412.933	507.25
413.31	493.01
413.687	488.49
414.065	523.52
414.442	513.8
414.819	518.55
415.197	490.07
415.574	517.19
415.951	538.66
416.328	509.51
416.705	502.05
417.082	532.78
417.46	530.52
417.837	538.66
418.214	563.06
418.591	540.69
418.967	549.96
419.344	571.43
419.721	546.34
420.098	558.32
420.475	558.77
420.852	570.52
421.228	583.63
421.605	580.69
421.982	565.32
422.358	584.53
422.735	591.31
423.111	577.53
423.488	597.19
423.864	592.89
424.241	605.1
424.617	628.83
424.994	614.14
425.37	602.16
425.746	620.46
426.123	633.8
426.499	617.53
426.875	652.55
427.251	624.76
427.627	648.94
428.003	642.61
428.379	638.99
428.756	646.9
429.132	677.41
429.507	663.63
429.883	686.45
430.259	692.78
430.635	663.17
431.011	678.77
431.387	698.88
431.763	720.57
432.138	722.61
432.514	703.4
432.89	734.13
433.265	726.9
433.641	733
434.016	725.32
434.392	760.57
434.767	746.34
435.143	750.86
435.518	757.18
435.894	781.36
436.269	788.37
436.644	778.65
437.02	796.28
437.395	809.61
437.77	817.52
438.145	807.58
438.52	833.57
438.895	842.15
439.271	839.44
439.646	843.28
440.021	842.6
440.395	863.4
440.77	836.73
441.145	857.52
441.52	873.56
441.895	876.73
442.27	879.44
442.645	890.29
443.019	900.23
443.394	893
443.769	900.68
444.143	891.64
444.518	910.85
444.892	915.15
445.267	928.03
445.641	916.28
446.016	925.77
446.39	927.12
446.764	957.4
447.139	962.15
447.513	946.33
447.887	963.51
448.262	949.27
448.636	957.86
449.01	997.4
449.384	968.25
449.758	982.49
450.132	989.27
450.506	1005.09
450.88	1021.13
451.254	1021.58
451.628	1053.67
452.002	1030.17
452.376	1055.48
452.75	1037.18
453.123	1078.98
453.497	1088.25
453.871	1064.52
454.244	1110.85
454.618	1130.96
454.992	1126.89
455.365	1126.21
455.739	1157.85
456.112	1142.48
456.486	1167.34
456.859	1172.77
457.232	1178.87
457.606	1218.64
457.979	1212.54
458.352	1254.35
458.725	1267.68
459.099	1238.3
459.472	1265.87
459.845	1306.1
460.218	1318.07
460.591	1318.98
460.964	1305.19
461.337	1353.33
461.71	1376.6
462.083	1388.35
462.456	1417.28
462.829	1409.14
463.201	1420.22
463.574	1432.42
463.947	1458.86
464.32	1495.47
464.692	1522.36
465.065	1519.65
465.438	1573.66
465.81	1598.07
466.183	1587.44
466.555	1629.93
466.928	1672.19
467.3	1669.7
467.672	1688.91
468.045	1738.85
468.417	1725.97
468.789	1741.34
469.161	1790.83
469.534	1835.57
469.906	1861.11
470.278	1893.88
470.65	1905.85
471.022	1979.3
471.394	1980.43
471.766	2029.69
472.138	2052.97
472.51	2115.11
472.882	2141.1
473.253	2177.03
473.625	2212.06
473.997	2278.73
474.369	2311.04
474.74	2335.67
475.112	2454.77
475.484	2470.58
475.855	2563.46
476.227	2573.86
476.598	2666.51
476.97	2705.15
477.341	2812.27
477.713	2850.46
478.084	2867.86
478.455	3025.15
478.827	3024.47
479.198	3174.52
479.569	3197.12
479.94	3365.93
480.311	3355.08
480.682	3517.79
481.053	3619.71
481.424	3696.54
481.795	3766.6
482.166	3905.8
482.537	3973.14
482.908	4093.82
483.279	4228.5
483.65	4306.02
484.021	4408.61
484.391	4506.46
484.762	4603.18
485.133	4741.94
485.503	4793.46
485.874	4971.31
486.244	5103.28
486.615	5223.96
486.985	5357.74
487.356	5504.86
487.726	5616.49
488.097	5777.39
488.467	5831.63
488.837	6062.13
489.207	6159.3
489.578	6337.83
489.948	6483.81
490.318	6603.36
490.688	6705.05
491.058	6823.92
491.428	7039.96
491.798	7168.09
492.168	7352.04
492.538	7412.38
492.908	7602.88
493.278	7761.07
493.648	7870.22
494.017	8057.56
494.387	8161.51
494.757	8296.65
495.126	8476.3
495.496	8536.64
495.866	8677.65
496.235	8815.5
496.605	8940.02
496.974	9074.25
497.344	9297.52
497.713	9303.4
498.082	9437.18
498.452	9605.54
498.821	9726.67
499.19	9822.48
499.559	9946.55
499.928	10011.4
500.298	10114.9
500.667	10333.88
501.036	10311.73
501.405	10450.04
501.774	10504.27
502.143	10723.93
502.512	10736.58
502.88	10872.4
503.249	10923.02
503.618	11062.45
503.987	11102.67
504.356	11261.54
504.724	11264.25
505.093	11413.4
505.462	11498.37
505.83	11606.62
506.199	11712.38
506.567	11887.06
506.936	11845.48
507.304	12024.46
507.672	12130.67
508.041	12129.54
508.409	12244.34
508.777	12323.88
509.145	12408.63
509.514	12453.83
509.882	12514.16
510.25	12579.7
510.618	12609.08
510.986	12690.66
511.354	12781.05
511.722	12859.92
512.09	12933.81
512.458	13007.71
512.826	13143.98
513.193	13139
513.561	13207.93
513.929	13252.45
514.297	13355.04
514.664	13386.46
515.032	13418.32
515.4	13525.89
515.767	13600.24
516.135	13630.74
516.502	13446.34
516.869	13752.77
517.237	13703.96
517.604	13699.89
517.972	13799.1
518.339	13845.88
518.706	13910.96
519.073	13887.46
519.44	13905.99
519.808	14015.14
520.175	13981.69
520.542	14159.54
520.909	14171.29
521.276	14206.32
521.643	14235.25
522.009	14258.3
522.376	14382.59
522.743	14377.16
523.11	14477.05
523.477	14532.19
523.843	14582.81
524.21	14661.9
524.577	14773.54
524.943	14628.23
525.31	14714.78
525.676	14862.58
526.043	14853.76
526.409	14939.41
526.776	14949.8
527.142	14908.9
527.508	15000.42
527.874	14993.42
528.241	15001.1
528.607	14971.95
528.973	15027.32
529.339	15051.04
529.705	15088.33
530.071	15159.29
530.437	15202
530.803	15189.35
531.169	15155
531.535	15187.54
531.901	15131.49
532.267	15129.69
532.632	15168.1
532.998	15173.3
533.364	15126.07
533.73	15161.78
534.095	15192.51
534.461	15084.49
534.826	15195.22
535.192	15177.6
535.557	15206.52
535.923	15111.83
536.288	15179.86
536.653	15185.73
537.019	15055.56
537.384	15117.71
537.749	15063.93
538.114	14947.54
538.479	14980.54
538.845	14921.1
539.21	14897.15
539.575	14893.31
539.94	14929.92
540.305	14837.27
540.67	14821.45
541.034	14797.27
541.399	14810.6
541.764	14709.81
542.129	14756.14
542.494	14650.15
542.858	14695.8
543.223	14577.39
543.587	14630.27
543.952	14545.07
544.316	14558.4
544.681	14380.33
545.045	14508.46
545.41	14516.14
545.774	14451.06
546.138	14390.27
546.503	14280.22
546.867	14369.93
547.231	14392.31
547.595	14360.89
547.959	14291.52
548.324	14198.86
548.688	14173.78
549.052	14136.49
549.416	14155.7
549.779	14098.3
550.143	14156.15
550.507	14115.48
550.871	14098.3
551.235	14006.33
551.599	14022.82
551.962	13913.67
552.326	13921.13
552.689	14046.78
553.053	13892.21
553.417	13856.27
553.78	13963.39
554.143	13874.8
554.507	13909.83
554.87	13854.47
555.234	13890.17
555.597	13755.49
555.96	13808.82
556.323	13790.97
556.686	13795.48
557.05	13748.93
557.413	13715.26
557.776	13717.75
558.139	13760.91
558.502	13822.6
558.865	13775.6
559.228	13835.94
559.59	13804.07
559.953	13784.41
560.316	13869.83
560.679	13846.56
561.041	13822.38
561.404	13876.16
561.767	13910.51
562.129	13744.64
562.492	13879.32
562.854	13880.91
563.217	13838.42
563.579	13832.77
563.941	13887.23
564.304	13811.98
564.666	13896.95
565.028	13876.16
565.39	13865.77
565.753	13911.64
566.115	13993.67
566.477	13973.79
566.839	14003.39
567.201	14042.26
567.563	14042.26
567.925	14018.98
568.287	14040
568.648	14068.47
569.01	14114.12
569.372	14213.55
569.734	14169.49
570.095	14173.33
570.457	14216.72
570.819	14206.55
571.18	14155.93
571.542	14218.07
571.903	14225.76
572.265	14245.42
572.626	14263.27
572.987	14288.35
573.349	14322.93
573.71	14300.1
574.071	14366.77
574.432	14343.72
574.794	14367.67
575.155	14372.42
575.516	14364.74
575.877	14385.07
576.238	14369.48
576.599	14384.85
576.96	14338.07
577.32	14358.18
577.681	14356.15
578.042	14422.81
578.403	14437.73
578.763	14404.73
579.124	14420.33
579.485	14500.1
579.845	14473.66
580.206	14453.09
580.566	14439.08
580.927	14437.5
581.287	14531.96
581.648	14412.64
582.008	14462.81
582.368	14469.82
582.728	14413.1
583.089	14498.07
583.449	14382.36
583.809	14404.51
584.169	14436.15
584.529	14348.46
584.889	14483.83
585.249	14354.57
585.609	14334.45
585.969	14402.7
586.329	14318.86
586.688	14381.46
587.048	14320.89
587.408	14207.68
587.768	14256.72
588.127	14305.53
588.487	14267.34
588.846	14358.18
589.206	14216.04
589.565	14239.54
589.925	14290.84
590.284	14257.17
590.643	14252.87
591.003	14294
591.362	14266.66
591.721	14146.21
592.08	14255.13
592.44	14287.68
592.799	14276.15
593.158	14231.41
593.517	14242.93
593.876	14292.87
594.235	14229.37
594.593	14190.5
594.952	14214.46
595.311	14183.27
595.67	14153.89
596.029	14199.09
596.387	14202.25
596.746	14257.17
597.104	14069.83
597.463	14082.71
597.822	14091.97
598.18	14088.36
598.538	14133.78
598.897	14165.64
599.255	14062.14
599.613	14245.19
599.972	14138.98
600.33	14248.13
600.688	14094.91
601.046	14144.63
601.404	14203.16
601.762	14179.66
602.12	14206.1
602.478	14206.32
602.836	14318.18
603.194	14146.21
603.552	14048.59
603.91	14111.86
604.268	14201.8
604.625	14123.84
604.983	14196.38
605.341	14005.87
605.698	14108.47
606.056	14175.59
606.413	14186.43
606.771	14210.84
607.128	14194.57
607.485	14182.59
607.843	14141.24
608.2	14195.7
608.557	14219.2
608.914	14216.49
609.272	14268.01
609.629	14242.25
609.986	14267.34
610.343	14251.97
610.7	14418.07
611.057	14362.93
611.414	14350.05
611.771	14339.43
612.127	14439.08
612.484	14393.21
612.841	14327.9
613.198	14416.71
613.554	14300.78
613.911	14397.5
614.267	14423.04
614.624	14336.71
614.98	14453.09
615.337	14454.68
615.693	14414.68
616.05	14452.87
616.406	14482.02
616.762	14483.15
617.118	14460.78
617.475	14486.99
617.831	14557.27
618.187	14564.5
618.543	14508.69
618.899	14660.77
619.255	14612.19
619.611	14553.43
619.967	14627.78
620.323	14594.79
620.678	14573.09
621.034	14595.69
621.39	14521.12
621.746	14510.04
622.101	14662.81
622.457	14520.66
622.812	14561.57
623.168	14595.01
623.523	14644.05
623.879	14687.89
624.234	14543.71
624.589	14618.74
624.945	14616.48
625.3	14585.07
625.655	14548.01
626.01	14659.87
626.365	14652.41
626.72	14644.28
627.075	14676.59
627.43	14551.17
627.785	14559.31
628.14	14617.84
628.495	14701.45
628.85	14571.96
629.205	14438.18
629.559	14550.49
629.914	14543.26
630.269	14569.25
630.623	14497.39
630.978	14410.16
631.332	14452.64
631.687	14622.81
632.041	14527.89
632.396	14484.28
632.75	14404.28
633.104	14479.53
633.459	14415.81
633.813	14430.95
634.167	14427.33
634.521	14384.85
634.875	14389.37
635.229	14396.15
635.583	14357.28
635.937	14357.28
636.291	14285.64
636.645	14232.54
636.999	14192.08
637.352	14239.77
637.706	14184.85
638.06	14238.86
638.413	14147.79
638.767	14166.77
639.121	14174.68
639.474	14088.58
639.828	14150.96
640.181	14197.28
640.534	14105.31
640.888	14070.73
641.241	13963.84
641.594	14035.03
641.947	14128.36
642.301	13997.74
642.654	14038.64
643.007	14058.53
643.36	14012.43
643.713	14018.76
644.066	14068.7
644.419	13917.97
644.771	13821.92
645.124	13764.53
645.477	13788.48
645.83	13578.32
646.182	13619.9
646.535	13494.48
646.888	13570.86
647.24	13520.24
647.593	13620.57
647.945	13569.95
648.298	13440.69
648.65	13454.48
649.002	13413.35
649.355	13550.75
649.707	13459.45
650.059	13569.95
650.411	13732.21
650.763	13698.99
651.115	13781.25
651.467	13784.64
651.819	13791.64
652.171	13792.32
652.523	13681.82
652.875	13793.22
653.227	13751.87
653.578	13904.86
653.93	13781.47
654.282	13821.02
654.633	13697.63
654.985	13825.09
655.337	13863.28
655.688	13786.45
656.039	13841.13
656.391	13652.44
656.742	13769.04
657.094	13754.58
657.445	13843.85
657.796	13801.13
658.147	13801.59
658.498	13786.45
658.849	13829.16
659.2	13823.96
659.551	13775.15
659.902	13839.55
660.253	13801.59
660.604	13807.46
660.955	13758.2
661.306	13910.96
661.656	13800.46
662.007	13795.48
662.358	13813.34
662.708	13827.35
663.059	13789.84
663.409	13726.56
663.76	13909.61
664.11	13891.98
664.461	13817.86
664.811	13837.74
665.161	13897.85
665.511	13785.54
665.862	13837.97
666.212	13850.62
666.562	13897.63
666.912	13785.32
667.262	13864.18
667.612	13793.68
667.962	13815.15
668.312	13799.33
668.662	13909.83
669.011	13837.07
669.361	13871.19
669.711	13876.61
670.06	13728.14
670.41	13852.21
670.76	13742.83
671.109	13862.38
671.459	13826.22
671.808	13774.24
672.157	13803.17
672.507	13703.74
672.856	13737.63
673.205	13702.61
673.554	13731.53
673.904	13713.45
674.253	13733.11
674.602	13627.13
674.951	13462.39
675.3	13478.66
675.649	13632.78
675.998	13680.91
676.346	13575.83
676.695	13664.19
677.044	13560.91
677.393	13604.08
677.741	13631.42
678.09	13560.01
678.438	13525.21
678.787	13529.73
679.135	13512.33
679.484	13485.66
679.832	13559.56
680.181	13428.94
680.529	13443.86
680.877	13358.66
681.225	13367.25
681.573	13426
681.922	13345.55
682.27	13300.13
682.618	13247.93
682.966	13275.27
683.314	13300.81
683.661	13201.83
684.009	13083.64
684.357	13153.02
684.705	13115.05
685.053	13125.45
685.4	13090.64
685.748	13006.35
686.095	13013.36
686.443	12998.67
686.79	12907.15
687.138	12996.18
687.485	13061.94
687.832	12936.07
688.18	12899.01
688.527	12906.24
688.874	12813.14
689.221	12838
689.568	12758.22
689.915	12746.25
690.262	12738.79
690.609	12689.3
690.956	12645.01
691.303	12573.37
691.65	12527.27
691.997	12432.36
692.344	12404.33
692.69	12366.6
693.037	12388.52
693.383	12245.02
693.73	12306.26
694.077	12220.61
694.423	12230.55
694.769	12185.58
695.116	12068.07
695.462	12063.1
695.808	12030.11
696.155	12053.84
696.501	11902.2
696.847	12002.54
697.193	11855.42
697.539	11909.43
697.885	11780.4
698.231	11758.25
698.577	11774.29
698.923	11752.6
699.269	11677.35
699.614	11563
699.96	11591.25
700.306	11579.72
700.651	11560.52
700.997	11519.16
701.342	11524.13
701.688	11467.18
702.033	11388.32
702.379	11311.93
702.724	11258.38
703.069	11337.02
703.415	11170.02
703.76	11192.84
704.105	11127.98
704.45	11108.55
704.795	11003.69
705.14	10970.7
705.485	10937.93
705.83	10925.5
706.175	10972.96
706.52	10896.8
706.865	10896.13
707.209	10847.54
707.554	10756.47
707.899	10840.08
708.243	10700.2
708.588	10720.99
708.932	10664.27
709.277	10687.09
709.621	10620.65
709.966	10625.62
710.31	10578.85
710.654	10525.29
710.998	10545.4
711.342	10464.5
711.687	10452.97
712.031	10493.42
712.375	10476.93
712.719	10403.94
713.063	10397.38
713.407	10438.74
713.75	10432.41
714.094	10297.27
714.438	10309.47
714.782	10253.66
715.125	10236.48
715.469	10285.97
715.812	10182.92
716.156	10082.81
716.499	10166.65
716.843	10160.78
717.186	10137.28
717.53	10160.1
717.873	10184.05
718.216	10124.62
718.559	10104.51
718.902	10045.07
719.246	10065.87
719.589	9967.34
719.932	10005.98
720.275	10018.63
720.617	9988.35
720.96	9921.46
721.303	9937.06
721.646	9919.65
721.989	9924.4
722.331	9965.3
722.674	9867.68
723.016	9869.71
723.359	9911.97
723.701	9838.98
724.044	9875.14
724.386	9772.54
724.729	9874.46
725.071	9804.86
725.413	9852.31
725.755	9735.93
726.097	9751.3
726.439	9733.44
726.782	9696.16
727.124	9808.02
727.465	9775.93
727.807	9713.56
728.149	9714.46
728.491	9672.2
728.833	9719.43
729.175	9633.33
729.516	9656.16
729.858	9648.02
730.199	9721.92
730.541	9711.07
730.882	9669.04
731.224	9643.5
731.565	9664.07
731.906	9709.04
732.248	9722.15
732.589	9622.71
732.93	9613.22
733.271	9654.8
733.612	9580.23
733.953	9718.76
734.294	9649.15
734.635	9627.23
734.976	9690.28
735.317	9568.93
735.658	9602.6
735.999	9639.89
736.339	9622.94
736.68	9658.42
737.021	9633.56
737.361	9618.87
737.702	9593.11
738.042	9597.85
738.383	9621.36
738.723	9742.48
739.063	9666.78
739.404	9685.99
739.744	9726.89
740.084	9695.93
740.424	9749.49
740.764	9678.98
741.104	9773.9
741.444	9711.75
741.784	9749.26
742.124	9765.76
742.464	9712.88
742.804	9815.7
743.143	9798.53
743.483	9884.85
743.823	9869.94
744.162	9930.95
744.502	9960.11
744.841	9929.37
745.181	10001.01
745.52	9999.88
745.86	10051.63
746.199	10036.26
746.538	10125.75
746.877	10153.55
747.216	10260.44
747.556	10198.52
747.895	10244.62
748.234	10254.79
748.573	10339.53
748.911	10449.81
749.25	10500.88
749.589	10524.16
749.928	10635.57
750.267	10718.5
750.605	10794.21
750.944	10847.54
751.283	10812.96
751.621	10986.97
751.96	11056.35
752.298	11123.24
752.636	11316.91
752.975	11281.2
753.313	11410.69
753.651	11523.45
753.989	11635.32
754.327	11738.82
754.666	11830.79
755.004	11973.16
755.342	12147.84
755.679	12316.43
756.017	12349.65
756.355	12531.34
756.693	12649.53
757.031	12799.13
757.368	12853.59
