Data from hue_26_FLMS001491_00088.txt Node
Date: Tue Feb 07 17:14:42 GMT 2017
User: dcchb
Spectrometer: FLMS00149
Trigger mode: 0
Integration Time (sec): 2.000000E-2
Scans to average: 10
Electric dark correction enabled: true
Nonlinearity correction enabled: false
Boxcar width: 0
XAxis mode: Wavelengths
Number of Pixels in Spectrum: 2048
>>>>>Begin Spectral Data<<<<<
341.393	3.45
341.776	3.45
342.16	3.45
342.543	-71.81
342.927	-64.35
343.31	-61.86
343.693	-71.58
344.077	-69.09
344.46	-66.61
344.843	-46.04
345.226	-34.74
345.61	-39.49
345.993	-29.32
346.376	-7.85
346.759	16.78
347.142	19.27
347.525	47.74
347.908	53.61
348.291	97
348.674	85.48
349.057	106.72
349.44	135.19
349.823	153.95
350.206	167.51
350.588	212.71
350.971	207.06
351.354	227.4
351.737	250.67
352.119	223.78
352.502	254.51
352.884	287.51
353.267	278.92
353.65	297.68
354.032	291.8
354.414	298.58
354.797	315.08
355.179	339.03
355.562	329.54
355.944	329.31
356.326	316.88
356.709	322.99
357.091	347.62
357.473	344.91
357.855	331.8
358.238	339.93
358.62	347.62
359.002	352.14
359.384	325.92
359.766	339.93
360.148	338.8
360.53	356.88
360.912	323.89
361.294	346.26
361.676	332.48
362.057	320.05
362.439	339.93
362.821	330.9
363.203	319.6
363.584	329.54
363.966	323.66
364.348	334.06
364.729	299.03
365.111	329.54
365.493	322.76
365.874	319.82
366.256	302.87
366.637	324.79
367.019	327.05
367.4	309.88
367.781	286.38
368.163	312.14
368.544	318.69
368.925	306.49
369.306	335.41
369.688	309.2
370.069	327.96
370.45	324.57
370.831	303.55
371.212	320.05
371.593	314.4
371.974	320.73
372.355	338.35
372.736	324.79
373.117	307.39
373.498	321.18
373.879	299.48
374.26	323.89
374.641	314.85
375.021	302.87
375.402	321.63
375.783	312.82
376.163	351.91
376.544	317.11
376.925	328.64
377.305	325.47
377.686	342.19
378.066	301.74
378.447	327.28
378.827	348.3
379.208	322.31
379.588	315.53
379.968	341.74
380.349	341.52
380.729	338.13
381.109	326.15
381.489	335.41
381.87	314.4
382.25	328.86
382.63	329.09
383.01	354.17
383.39	336.77
383.77	340.61
384.15	355.75
384.53	357.56
384.91	359.6
385.29	356.43
385.67	352.14
386.049	363.44
386.429	350.78
386.809	369.54
387.189	354.4
387.568	340.39
387.948	376.77
388.328	358.92
388.707	355.75
389.087	344.68
389.466	351.23
389.846	362.98
390.225	355.75
390.605	348.3
390.984	355.98
391.363	365.47
391.743	360.27
392.122	380.16
392.501	359.82
392.881	382.19
393.26	369.99
393.639	379.26
394.018	376.32
394.397	386.49
394.776	382.87
395.155	356.21
395.534	360.5
395.913	376.77
396.292	393.49
396.671	362.76
397.05	380.84
397.429	375.41
397.808	390.33
398.186	400.72
398.565	395.98
398.944	391.01
399.323	391.01
399.701	414.96
400.08	394.62
400.458	385.58
400.837	379.71
401.215	395.98
401.594	409.09
401.972	391.68
402.351	390.78
402.729	401.4
403.107	400.72
403.486	400.05
403.864	386.94
404.242	403.21
404.62	409.99
404.999	410.22
405.377	407.5
405.755	414.28
406.133	417.45
406.511	405.7
406.889	416.32
407.267	418.58
407.645	420.84
408.023	422.87
408.401	436.43
408.779	418.8
409.156	420.16
409.534	426.94
409.912	448.63
410.29	451.57
410.667	453.38
411.045	461.29
411.422	471.23
411.8	464.23
412.178	464
412.555	466.48
412.933	477.11
413.31	467.84
413.687	487.73
414.065	467.39
414.442	478.01
414.819	472.59
415.197	465.13
415.574	456.99
415.951	462.87
416.328	490.89
416.705	493.15
417.082	488.63
417.46	478.91
417.837	482.98
418.214	511
418.591	495.41
418.967	492.7
419.344	509.65
419.721	525.69
420.098	510.1
420.475	520.49
420.852	511.23
421.228	498.57
421.605	529.31
421.982	519.14
422.358	519.36
422.735	534.73
423.111	532.47
423.488	510.55
423.864	516.65
424.241	551
424.617	558.01
424.994	546.26
425.37	556.65
425.746	539.25
426.123	548.29
426.499	550.1
426.875	560.49
427.251	567.73
427.627	576.54
428.003	563.88
428.379	576.31
428.756	584.67
429.132	585.13
429.507	609.76
429.883	562.75
430.259	604.33
430.635	611.79
431.011	591.45
431.387	618.8
431.763	608.85
432.138	601.85
432.514	589.19
432.89	643.88
433.265	631.9
433.641	633.26
434.016	646.82
434.392	658.12
434.767	639.59
435.143	646.59
435.518	671.45
435.894	675.74
436.269	678
436.644	675.52
437.02	691.34
437.395	682.75
437.77	712.13
438.145	696.54
438.52	682.52
438.895	688.4
439.271	706.03
439.646	733.82
440.021	691.56
440.395	709.42
440.77	732.24
441.145	715.97
441.52	734.5
441.895	725.01
442.27	739.92
442.645	749.19
443.019	731.56
443.394	760.26
443.769	754.39
444.143	760.94
444.518	752.13
444.892	753.26
445.267	786.02
445.641	775.18
446.016	783.99
446.39	775.18
446.764	800.94
447.139	798.68
447.513	778.57
447.887	792.35
448.262	805.69
448.636	793.71
449.01	814.05
449.384	807.94
449.758	821.73
450.132	831.9
450.506	812.46
450.88	857.44
451.254	839.81
451.628	854.05
452.002	832.58
452.376	858.11
452.75	870.32
453.123	878.68
453.497	866.93
453.871	874.38
454.244	895.63
454.618	895.17
454.992	910.54
455.365	900.82
455.739	933.37
456.112	931.33
456.486	946.92
456.859	936.08
457.232	933.59
457.606	954.38
457.979	975.17
458.352	966.36
458.725	1001.39
459.099	995.06
459.472	991.22
459.845	1011.33
460.218	1042.97
460.591	1055.85
460.964	1037.54
461.337	1053.81
461.71	1065.34
462.083	1051.55
462.456	1075.28
462.829	1078.45
463.201	1090.88
463.574	1099.69
463.947	1128.61
464.32	1146.92
464.692	1149.63
465.065	1154.15
465.438	1190.76
465.81	1190.99
466.183	1205
466.555	1216.3
466.928	1217.43
467.3	1240.02
467.672	1232.34
468.045	1281.6
468.417	1230.98
468.789	1277.99
469.161	1263.53
469.534	1339
469.906	1340.36
470.278	1361.15
470.65	1376.74
471.022	1399.12
471.394	1422.62
471.766	1402.28
472.138	1454.26
472.51	1435.72
472.882	1489.28
473.253	1529.96
473.625	1531.54
473.997	1560.69
474.369	1609.51
474.74	1590.98
475.112	1635.27
475.484	1643.86
475.855	1684.08
476.227	1723.63
476.598	1746.23
476.97	1765.66
477.341	1818.09
477.713	1866.9
478.084	1870.97
478.455	1929.27
478.827	1908.71
479.198	2007.91
479.569	1974.02
479.94	2066.89
480.311	2100.57
480.682	2139.89
481.053	2208.36
481.424	2237.74
481.795	2290.39
482.166	2284.52
482.537	2349.6
482.908	2379.2
483.279	2422.37
483.65	2473.44
484.021	2526.32
484.391	2588.01
484.762	2574.45
485.133	2657.16
485.503	2661.91
485.874	2725.18
486.244	2758.63
486.615	2852.18
486.985	2867.33
487.356	2896.93
487.726	2938.96
488.097	2987.77
488.467	3064.61
488.837	3093.99
489.207	3176.7
489.578	3237.94
489.948	3280.2
490.318	3315.22
490.688	3356.8
491.058	3401.55
491.428	3460.08
491.798	3505.28
492.168	3584.14
492.538	3596.35
492.908	3687.19
493.278	3731.94
493.648	3712.5
494.017	3799.73
494.387	3848.09
494.757	3907.07
495.126	3919.05
495.496	3934.64
495.866	3955.43
496.235	4034.75
496.605	4077.46
496.974	4123.11
497.344	4148.42
497.713	4181.64
498.082	4265.93
498.452	4249.89
498.821	4299.83
499.19	4324.01
499.559	4359.72
499.928	4407.17
500.298	4412.37
500.667	4488.53
501.036	4439.71
501.405	4555.19
501.774	4512.25
502.143	4571.91
502.512	4626.6
502.88	4677.45
503.249	4681.29
503.618	4702.76
503.987	4708.41
504.356	4789.31
504.724	4806.03
505.093	4820.95
505.462	4851
505.83	4882.64
506.199	4906.82
506.567	4957.21
506.936	4951.34
507.304	4983.43
507.672	5076.31
508.041	5041.73
508.409	5125.8
508.777	5119.7
509.145	5138.68
509.514	5128.74
509.882	5197.21
510.25	5167.38
510.618	5213.7
510.986	5220.71
511.354	5312.23
511.722	5334.61
512.09	5406.92
512.458	5333.93
512.826	5331.89
513.193	5425.68
513.561	5462.96
513.929	5479.69
514.297	5522.85
514.664	5535.5
515.032	5526.01
515.4	5555.62
515.767	5610.3
516.135	5632.68
516.502	5641.26
516.869	5635.84
517.237	5682.17
517.604	5627.93
517.972	5733.69
518.339	5789.73
518.706	5720.36
519.073	5744.31
519.44	5771.2
519.808	5851.65
520.175	5906.57
520.542	5941.82
520.909	5997.41
521.276	5910.41
521.643	5968.71
522.009	6068.82
522.376	6034.47
522.743	6053.23
523.11	6136.39
523.477	6191.98
523.843	6208.25
524.21	6277.63
524.577	6324.86
524.943	6322.15
525.31	6351.53
525.676	6421.58
526.043	6413
526.409	6436.72
526.776	6459.55
527.142	6520.56
527.508	6518.98
527.874	6593.78
528.241	6598.98
528.607	6632.65
528.973	6661.58
529.339	6712.2
529.705	6699.09
530.071	6817.28
530.437	6747.45
530.803	6914.9
531.169	6911.97
531.535	6904.28
531.901	6899.08
532.267	6946.31
532.632	6952.87
532.998	7038.74
533.364	7029.48
533.73	7064.96
534.095	7110.6
534.461	7132.98
534.826	7202.35
535.192	7181.11
535.557	7243.03
535.923	7247.1
536.288	7260.43
536.653	7317.38
537.019	7292.75
537.384	7346.3
537.749	7337.04
538.114	7382.91
538.479	7388.11
538.845	7532.06
539.21	7437.15
539.575	7515.57
539.94	7510.59
540.305	7614.09
540.67	7586.75
541.034	7625.84
541.399	7704.94
541.764	7720.31
542.129	7764.6
542.494	7760.53
542.858	7745.16
543.223	7813.41
543.587	7863.35
543.952	7858.61
544.316	7953.29
544.681	7897.25
545.045	7956.23
545.41	8026.29
545.774	8009.79
546.138	8035.1
546.503	8078.04
546.867	8186.51
547.231	8151.48
547.595	8207.98
547.959	8189.22
548.324	8212.27
548.688	8210.46
549.052	8329.55
549.416	8347.18
549.779	8320.29
550.143	8359.38
550.507	8418.59
550.871	8395.54
551.235	8433.06
551.599	8508.31
551.962	8514.86
552.326	8545.37
552.689	8599.83
553.053	8561.87
553.417	8584.69
553.78	8692.94
554.143	8613.16
554.507	8719.83
554.87	8719.15
555.234	8799.37
555.597	8751.46
555.96	8801.41
556.323	8768.64
556.686	8831.46
557.05	8947.62
557.413	8935.41
557.776	9012.47
558.139	9022.42
558.502	9098.35
558.865	9060.16
559.228	9153.49
559.59	9202.07
559.953	9129.53
560.316	9281.17
560.679	9249.98
561.041	9290.43
561.404	9342.86
561.767	9296.31
562.129	9315.52
562.492	9358.68
562.854	9431.9
563.217	9373.14
563.579	9432.35
563.941	9477.1
564.304	9568.84
564.666	9587.38
565.028	9571.33
565.39	9611.78
565.753	9741.27
566.115	9732.68
566.477	9785.11
566.839	9721.38
567.201	9832.34
567.563	9843.87
567.925	9932
568.287	9954.6
568.648	9975.61
569.01	10056.52
569.372	10057.65
569.734	10053.58
570.095	10177.42
570.457	10128.83
570.819	10183.07
571.18	10275.94
571.542	10353.46
571.903	10387.35
572.265	10441.14
572.626	10464.19
572.987	10502.83
573.349	10507.12
573.71	10578.76
574.071	10594.35
574.432	10731.07
574.794	10850.17
575.155	10807.46
575.516	10865.53
575.877	11005.19
576.238	11079.99
576.599	11136.03
576.96	11176.71
577.32	11266.43
577.681	11308.23
578.042	11480.88
578.403	11544.16
578.763	11704.61
579.124	11670.48
579.485	11807.88
579.845	12008.55
580.206	12030.02
580.566	12169.45
580.927	12273.18
581.287	12467.75
581.648	12516.79
582.008	12755.43
582.368	12830.45
582.728	12984.57
583.089	13184.34
583.449	13248.97
583.809	13499.59
584.169	13687.15
584.529	13785.46
584.889	14083.75
585.249	14043.08
585.609	14374.59
585.969	14616.4
586.329	14777.07
586.688	14911.98
587.048	15182.03
587.408	15337.05
587.768	15600.55
588.127	15819.75
588.487	16100.2
588.846	16529.34
589.206	16534.76
589.565	16885.04
589.925	17132.94
590.284	17338.36
590.643	17696.99
591.003	17988.51
591.362	18283.64
591.721	18405
592.08	18852.44
592.44	19119.33
592.799	19367.23
593.158	19578.3
593.517	19884.28
593.876	20171.28
594.235	20479.74
594.593	20797.93
594.952	21136.68
595.311	21374.18
595.67	21748.64
596.029	22096.88
596.387	22434.72
596.746	22734.15
597.104	22951.09
597.463	23272.21
597.822	23662.71
598.18	23811.63
598.538	24075.36
598.897	24645.96
599.255	24654.78
599.613	25224.25
599.972	25361.65
600.33	25686.84
600.688	25921.41
601.046	26271.68
601.404	26765.91
601.762	26848.39
602.12	27321.82
602.478	27566.34
602.836	27842.71
603.194	27990.51
603.552	28297.17
603.91	28471.62
604.268	28880.2
604.625	29117.48
604.983	29397.93
605.341	29514.53
605.698	29967.18
606.056	30280.62
606.413	30423.44
606.771	30821.84
607.128	30999.02
607.485	31056.64
607.843	31272.45
608.2	31855.04
608.557	32026.33
608.914	32111.75
609.272	32424.51
609.629	32736.6
609.986	33014.78
610.343	33129.81
610.7	33437.14
611.057	33531.38
611.414	33725.05
611.771	33951.71
612.127	34201.19
612.484	34527.74
612.841	34660.39
613.198	34770.22
613.554	34892.47
613.911	35235.06
614.267	35440.25
614.624	35515.73
614.98	35855.84
615.337	35949.62
615.693	36245.21
616.05	36263.28
616.406	36620.11
616.762	36595.48
617.118	36674.12
617.475	36751.18
617.831	37088.57
618.187	37140.77
618.543	37505.74
618.899	37685.62
619.255	37698.27
619.611	37753.19
619.967	38096
620.323	38263.68
620.678	38125.83
621.034	38237.02
621.39	38257.36
621.746	38485.82
622.101	38936.89
622.457	38714.29
622.812	38846.94
623.168	39039.26
623.523	39208.29
623.879	39219.82
624.234	39156.54
624.589	39367.38
624.945	39469.98
625.3	39572.58
625.655	39739.8
626.01	39810.99
626.365	39866.58
626.72	39935.05
627.075	39867.03
627.43	40027.03
627.785	39848.27
628.14	39990.19
628.495	40110.64
628.85	40169.62
629.205	40114.03
629.559	40308.15
629.914	40215.95
630.269	40486
630.623	40231.54
630.978	40374.14
631.332	40439.9
631.687	40691.64
632.041	40497.52
632.396	40569.61
632.75	40583.85
633.104	40616.39
633.459	40584.98
633.813	40595.6
634.167	40565.32
634.521	40559.67
634.875	40638.76
635.229	40599.89
635.583	40496.84
635.937	40595.6
636.291	40559.22
636.645	40470.63
636.999	40528.03
637.352	40638.31
637.706	40417.98
638.06	40678.99
638.413	40583.4
638.767	40401.48
639.121	40440.8
639.474	40422.27
639.828	40382.5
640.181	40532.1
640.534	40568.03
640.888	40469.73
641.241	40404.19
641.594	40379.79
641.947	40536.62
642.301	40595.37
642.654	40488.03
643.007	40517.86
643.36	40445.77
643.713	40483.96
644.066	40528.48
644.419	40255.04
644.771	40020.25
645.124	39647.6
645.477	39846.69
645.83	39369.64
646.182	39260.49
646.535	39253.71
646.888	39327.16
647.24	39103.66
647.593	39478.57
647.945	39320.83
648.298	39168.74
648.65	39140.04
649.002	38987.28
649.355	39128.07
649.707	39285.13
650.059	39282.87
650.411	39827.26
650.763	39920.36
651.115	40140.7
651.467	40245.1
651.819	40097.08
652.171	40084.65
652.523	39849.63
652.875	39921.49
653.227	39877.43
653.578	40029.29
653.93	40064.09
654.282	39744.77
654.633	39766.92
654.985	39885.34
655.337	39876.97
655.688	39898.89
656.039	40055.27
656.391	39783.64
656.742	39785.45
657.094	39764.66
657.445	39931.44
657.796	39935.96
658.147	39691.89
658.498	39798.33
658.849	39955.39
659.2	39736.41
659.551	39714.49
659.902	39815.73
660.253	39752.01
660.604	39677.21
660.955	39642.4
661.306	39770.31
661.656	39634.72
662.007	39777.54
662.358	39731.44
662.708	39802.4
663.059	39801.04
663.409	39459.13
663.76	39817.99
664.11	39654.16
664.461	39724.44
664.811	39790.42
665.161	39816.18
665.511	39531.45
665.862	39565.34
666.212	39881.49
666.562	39674.72
666.912	39657.77
667.262	39694.83
667.612	39549.98
667.962	39775.73
668.312	39505.01
668.662	39737.77
669.011	39597.21
669.361	39547.27
669.711	39541.84
670.06	39579.81
670.41	39446.93
670.76	39455.97
671.109	39583.65
671.459	39395.63
671.808	39432.47
672.157	39430.21
672.507	39300.94
672.856	39436.76
673.205	39406.25
673.554	39521.05
673.904	39394.27
674.253	39537.32
674.602	39452.13
674.951	38754.52
675.3	38691.69
675.649	39392.69
675.998	39166.26
676.346	39210.78
676.695	39332.13
677.044	39078.8
677.393	39227.05
677.741	39195.41
678.09	38915.42
678.438	38946.6
678.787	39069.31
679.135	39044.45
679.484	38881.07
679.832	39022.31
680.181	38804.46
680.529	38942.76
680.877	38732.37
681.225	38641.07
681.573	38952.48
681.922	38646.95
682.27	38651.24
682.618	38514.3
682.966	38481.98
683.314	38648.98
683.661	38523.56
684.009	38380.52
684.357	38273.17
684.705	38179.84
685.053	38268.2
685.4	38074.08
685.748	38048.77
686.095	38069.56
686.443	37952.28
686.79	37922.68
687.138	38056.23
687.485	37872.28
687.832	37696.01
688.18	37722.45
688.527	37538.96
688.874	37633.87
689.221	37403.82
689.568	37383.25
689.915	37430.94
690.262	37422.35
690.609	37296.93
690.956	37124.28
691.303	36887.67
691.65	36982.59
691.997	36923.83
692.344	36680.67
692.69	36761.58
693.037	36694.68
693.383	36483.39
693.73	36630.05
694.077	36384.64
694.423	36222.61
694.769	36183.06
695.116	36122.27
695.462	36029.39
695.808	35989.62
696.155	36068.26
696.501	35684.09
696.847	35644.09
697.193	35622.62
697.539	35630.08
697.885	35329.52
698.231	35239.58
698.577	35297.66
698.923	35162.3
699.269	34959.14
699.614	34911.23
699.96	34875.75
700.306	34889.31
700.651	34739.26
700.997	34710.56
701.342	34679.6
701.688	34474.86
702.033	34538.58
702.379	34464.46
702.724	34359.83
703.069	34297.46
703.415	34030.57
703.76	34039.39
704.105	34053.62
704.45	34072.83
704.795	33755.78
705.14	33596.46
705.485	33692.05
705.83	33536.35
706.175	33645.73
706.52	33349.46
706.865	33444.6
707.209	33281.67
707.554	33176.36
707.899	33293.64
708.243	33122.35
708.588	32954.67
708.932	32715.81
709.277	32763.26
709.621	32844.84
709.966	32565.75
710.31	32605.75
710.654	32360.34
710.998	32465.87
711.342	32530.05
711.687	32399.2
712.031	32295.7
712.375	32001.02
712.719	32103.62
713.063	32182.26
713.407	32189.94
713.75	31931.65
714.094	31948.82
714.438	31788.37
714.782	31837.86
715.125	31631.54
715.469	31765.77
715.812	31552.22
716.156	31471.32
716.499	31413.92
716.843	31426.57
717.186	31280.36
717.53	31507.7
717.873	31326.24
718.216	31346.8
718.559	31210.31
718.902	31036.08
719.246	31093.7
719.589	30976.42
719.932	30765.35
720.275	30854.16
720.617	30795.86
720.96	30745.69
721.303	30678.12
721.646	30665.46
721.989	30654.17
722.331	30633.83
722.674	30600.61
723.016	30522.87
723.359	30607.39
723.701	30475.64
724.044	30298.92
724.386	30103.9
724.729	30280.39
725.071	30150.22
725.413	30159.49
725.755	30126.95
726.097	30046.05
726.439	29969.66
726.782	29946.16
727.124	29990.23
727.465	29854.86
727.807	29811.02
728.149	29773.28
728.491	29762.44
728.833	29652.16
729.175	29681.99
729.516	29549.56
729.858	29516.79
730.199	29605.15
730.541	29452.39
730.882	29481.77
731.224	29702.78
731.565	29308.21
731.906	29312.05
732.248	29417.36
732.589	29176.46
732.93	29180.98
733.271	29213.75
733.612	29231.38
733.953	29146.18
734.294	29140.31
734.635	28904.16
734.976	29082.91
735.317	28877.26
735.658	28940.09
735.999	28926.3
736.339	28735.57
736.68	28814.44
737.021	28878.17
737.361	28647.89
737.702	28849.24
738.042	28604.73
738.383	28595.91
738.723	28530.15
739.063	28426.2
739.404	28493.32
739.744	28499.65
740.084	28374.9
740.424	28415.35
740.764	28314.79
741.104	28454
741.444	28201.57
741.784	28210.84
742.124	28220.56
742.464	28253.55
742.804	28097.62
743.143	28153.44
743.483	28040.45
743.823	28006.55
744.162	27942.6
744.502	27973.11
744.841	27880.68
745.181	27986.44
745.52	27856.73
745.86	27888.36
746.199	27782.15
746.538	27750.51
746.877	27786.22
747.216	27661.7
747.556	27746.67
747.895	27672.55
748.234	27531.31
748.573	27511.42
748.911	27470.75
749.25	27440.01
749.589	27367.47
749.928	27277.31
750.267	27373.35
750.605	27402.73
750.944	27202.05
751.283	27230.53
751.621	27212.9
751.96	26957.31
752.298	26921.83
752.636	26914.83
752.975	26968.39
753.313	26830.76
753.651	26961.38
753.989	26736.3
754.327	26805.91
754.666	26566.59
755.004	26687.72
755.342	26770.88
755.679	26626.25
756.017	26439.59
756.355	26505.12
756.693	26350.32
757.031	26391.23
757.368	26195.3
757.706	26233.49
758.044	26184
758.381	26077.11
758.719	26034.4
759.056	26165.02
759.394	25954.18
759.731	25735.65
760.068	25886.83
760.405	25737.23
