Data from hue_40_FLMS001491_57.txt Node
Date: Mon Feb 06 15:08:06 GMT 2017
User: dcchb
Spectrometer: FLMS00149
Trigger mode: 0
Integration Time (sec): 2.000000E-2
Scans to average: 10
Electric dark correction enabled: true
Nonlinearity correction enabled: false
Boxcar width: 0
XAxis mode: Wavelengths
Number of Pixels in Spectrum: 2048
>>>>>Begin Spectral Data<<<<<
341.393	-14.58
341.776	-14.58
342.16	-14.58
342.543	-48.7
342.927	-83.27
343.31	-60.68
343.693	-65.2
344.077	-80.56
344.46	-52.77
344.843	-50.06
345.226	-23.84
345.61	-38.76
345.993	-7.12
346.376	-18.64
346.759	-0.79
347.142	30.62
347.525	37.85
347.908	52.32
348.291	73.78
348.674	90.96
349.057	112.88
349.44	139.32
349.823	161.69
350.206	147.23
350.588	185.87
350.971	215.02
351.354	238.75
351.737	223.16
352.119	251.18
352.502	267.68
352.884	270.16
353.267	277.39
353.65	287.34
354.032	301.12
354.414	307
354.797	316.71
355.179	320.56
355.562	317.17
355.944	322.82
356.326	338.86
356.709	315.36
357.091	329.82
357.473	346.77
357.855	335.02
358.238	340.67
358.62	337.73
359.002	336.38
359.384	367.56
359.766	332.08
360.148	332.53
360.53	349.48
360.912	320.56
361.294	363.04
361.676	336.83
362.057	314.46
362.439	319.88
362.821	316.26
363.203	328.24
363.584	330.05
363.966	322.14
364.348	307.22
364.729	332.08
365.111	311.52
365.493	330.27
365.874	291.86
366.256	308.58
366.637	325.08
367.019	334.57
367.4	325.08
367.781	318.52
368.163	329.82
368.544	322.59
368.925	330.95
369.306	332.53
369.688	302.25
370.069	298.86
370.45	319.43
370.831	336.15
371.212	314.91
371.593	326.66
371.974	315.36
372.355	320.56
372.736	322.14
373.117	341.12
373.498	338.41
373.879	330.05
374.26	332.31
374.641	326.21
375.021	303.61
375.402	319.88
375.783	304.06
376.163	336.15
376.544	340.22
376.925	324.4
377.305	348.35
377.686	341.35
378.066	335.47
378.447	339.54
378.827	340.89
379.208	352.19
379.588	349.71
379.968	344.96
380.349	338.64
380.729	332.53
381.109	356.71
381.489	344.51
381.87	355.58
382.25	339.77
382.63	332.99
383.01	338.64
383.39	337.51
383.77	339.77
384.15	354.45
384.53	341.8
384.91	358.97
385.29	348.58
385.67	352.65
386.049	350.61
386.429	360.56
386.809	336.6
387.189	353.55
387.568	359.43
387.948	355.58
388.328	352.19
388.707	353.55
389.087	354.45
389.466	372.98
389.846	362.59
390.225	366.21
390.605	377.73
390.984	377.28
391.363	365.08
391.743	385.19
392.122	375.7
392.501	359.88
392.881	391.74
393.26	372.31
393.639	350.84
394.018	375.24
394.397	371.4
394.776	371.4
395.155	375.92
395.534	373.21
395.913	394.45
396.292	377.05
396.671	398.75
397.05	384.28
397.429	408.46
397.808	381.12
398.186	406.43
398.565	405.98
398.944	408.01
399.323	403.49
399.701	410.72
400.08	409.82
400.458	406.66
400.837	401.23
401.215	389.48
401.594	412.98
401.972	416.83
402.351	417.5
402.729	419.99
403.107	424.73
403.486	382.25
403.864	417.73
404.242	419.09
404.62	423.38
404.999	414.79
405.377	424.73
405.755	419.76
406.133	445.3
406.511	433.1
406.889	436.03
407.267	450.95
407.645	440.55
408.023	449.14
408.401	442.14
408.779	446.2
409.156	434.45
409.534	444.4
409.912	453.89
410.29	454.11
410.667	446.2
411.045	469.93
411.422	467.22
411.8	484.62
412.178	462.47
412.555	474.45
412.933	476.94
413.31	477.61
413.687	500.21
414.065	481.46
414.442	485.3
414.819	483.49
415.197	489.14
415.574	486.65
415.951	508.8
416.328	492.3
416.705	482.13
417.082	514.68
417.46	509.25
417.837	537.95
418.214	525.3
418.591	516.03
418.967	523.94
419.344	516.94
419.721	530.72
420.098	525.3
420.475	536.37
420.852	551.06
421.228	559.19
421.605	538.18
421.982	555.13
422.358	545.18
422.735	552.41
423.111	577.27
423.488	568.23
423.864	572.3
424.241	583.15
424.617	593.09
424.994	593.54
425.37	582.24
425.746	584.73
426.123	591.51
426.499	579.76
426.875	607.55
427.251	597.61
427.627	607.78
428.003	591.96
428.379	620.66
428.756	622.02
429.132	629.25
429.507	617.95
429.883	648.23
430.259	649.14
430.635	622.92
431.011	634.45
431.387	640.1
431.763	657.72
432.138	679.42
432.514	664.5
432.89	656.37
433.265	665.86
433.641	659.53
434.016	676.93
434.392	697.27
434.767	682.81
435.143	708.57
435.518	704.95
435.894	714.22
436.269	720.77
436.644	713.77
437.02	708.12
437.395	716.25
437.77	750.83
438.145	765.74
438.52	777.49
438.895	753.99
439.271	740.66
439.646	772.07
440.021	768
440.395	777.27
440.77	766.65
441.145	796.02
441.52	788.79
441.895	786.53
442.27	793.54
442.645	791.28
443.019	831.96
443.394	796.93
443.769	794.22
444.143	789.92
444.518	807.78
444.892	808.91
445.267	819.3
445.641	838.06
446.016	830.83
446.39	850.49
446.764	808.91
447.139	851.16
447.513	850.49
447.887	851.16
448.262	863.82
448.636	882.35
449.01	857.94
449.384	872.41
449.758	892.07
450.132	877.83
450.506	873.08
450.88	894.78
451.254	908.34
451.628	889.36
452.002	935
452.376	931.61
452.75	931.61
453.123	957.15
453.497	964.16
453.871	950.6
454.244	986.08
454.618	977.26
454.992	980.65
455.365	1001.67
455.739	998.96
456.112	1010.48
456.486	1029.24
456.859	1031.72
457.232	1045.51
457.606	1052.74
457.979	1052.06
458.352	1077.6
458.725	1082.34
459.099	1102
459.472	1115.34
459.845	1126.86
460.218	1121.44
460.591	1150.59
460.964	1138.39
461.337	1186.07
461.71	1168.9
462.083	1189.69
462.456	1218.61
462.829	1212.28
463.201	1245.05
463.574	1215.67
463.947	1269.68
464.32	1263.36
464.692	1305.39
465.065	1315.11
465.438	1311.49
465.81	1342
466.183	1374.09
466.555	1383.13
466.928	1390.58
467.3	1400.98
467.672	1414.54
468.045	1453.86
468.417	1470.36
468.789	1481.2
469.161	1483.24
469.534	1543.12
469.906	1528.43
470.278	1572.28
470.65	1598.26
471.022	1647.08
471.394	1656.34
471.766	1685.27
472.138	1685.94
472.51	1763.46
472.882	1764.36
473.253	1828.09
473.625	1843
473.997	1891.59
474.369	1934.75
474.74	1968.2
475.112	2007.52
475.484	2045.48
475.855	2096.56
476.227	2129.32
476.598	2191.02
476.97	2226.72
477.341	2280.73
477.713	2344.91
478.084	2373.16
478.455	2471.91
478.827	2497.22
479.198	2604.56
479.569	2627.84
479.94	2678.23
480.311	2773.83
480.682	2845.69
481.053	2898.57
481.424	3000.03
481.795	3041.39
482.166	3137.43
482.537	3170.2
482.908	3290.87
483.279	3356.18
483.65	3442.28
484.021	3546.69
484.391	3652.67
484.762	3708.94
485.133	3763.18
485.503	3851.31
485.874	3978.09
486.244	4093.11
486.615	4174.92
486.985	4254.46
487.356	4366.55
487.726	4499.88
488.097	4587.79
488.467	4683.15
488.837	4782.36
489.207	4957.04
489.578	5021.22
489.948	5148.9
490.318	5258.05
490.688	5393.19
491.058	5409.69
491.428	5549.35
491.798	5722.45
492.168	5834.08
492.538	5914.08
492.908	6012.16
493.278	6148.65
493.648	6248.76
494.017	6389.78
494.387	6483.11
494.757	6586.15
495.126	6749.54
495.496	6767.39
495.866	6877.67
496.235	7062.75
496.605	7135.07
496.974	7227.04
497.344	7365.8
497.713	7402.4
498.082	7556.98
498.452	7666.8
498.821	7674.04
499.19	7834.03
499.559	7922.84
499.928	8049.39
500.298	8109.28
500.667	8220.91
501.036	8312.21
501.405	8422.04
501.774	8398.76
502.143	8536.16
502.512	8656.61
502.88	8753.1
503.249	8770.5
503.618	8944.06
503.987	8982.48
504.356	9102.7
504.724	9139.53
505.093	9210.27
505.462	9338.4
505.83	9445.51
506.199	9552.86
506.567	9698.39
506.936	9700.65
507.304	9774.32
507.672	9891.6
508.041	9953.98
508.409	10029.68
508.777	10133.41
509.145	10165.5
509.514	10319.84
509.882	10334.53
510.25	10365.72
510.618	10610.46
510.986	10547.18
511.354	10707.4
511.722	10746.5
512.09	10856.1
512.458	10937.23
512.826	11021.07
513.193	11033.5
513.561	11025.59
513.929	11160.5
514.297	11344
514.664	11395.75
515.032	11455.86
515.4	11581.73
515.767	11662.86
516.135	11710.77
516.502	11660.37
516.869	11918.44
517.237	11826.24
517.604	11927.03
517.972	12028.27
518.339	12075.28
518.706	12177.42
519.073	12212.9
519.44	12289.06
519.808	12501.03
520.175	12439.79
520.542	12548.26
520.909	12607.92
521.276	12625.54
521.643	12714.58
522.009	12855.59
522.376	12992.31
522.743	13030.28
523.11	13178.3
523.477	13229.14
523.843	13340.33
524.21	13458.29
524.577	13529.25
524.943	13585.07
525.31	13720.2
525.676	13788.23
526.043	13817.15
526.409	13985.28
526.776	14107.76
527.142	14164.03
527.508	14250.59
527.874	14338.27
528.241	14437.25
528.607	14460.98
528.973	14612.38
529.339	14613.06
529.705	14720.18
530.071	14822.77
530.437	14881.76
530.803	14978.48
531.169	15117.46
531.535	15100.28
531.901	15162.65
532.267	15245.14
532.632	15333.95
532.998	15296.21
533.364	15451.23
533.73	15502.98
534.095	15569.2
534.461	15658.68
534.826	15692.36
535.192	15917.21
535.557	16039.92
535.923	16012.8
536.288	15993.14
536.653	16113.36
537.019	16092.12
537.384	16189.07
537.749	16365.56
538.114	16302.74
538.479	16348.38
538.845	16379.57
539.21	16413.69
539.575	16552.22
539.94	16590.19
540.305	16700.01
540.67	16705.66
541.034	16819.78
541.399	16853
541.764	16830.86
542.129	17021.59
542.494	17075.37
542.858	17060.91
543.223	17089.38
543.587	17231.52
543.952	17241.69
544.316	17403.05
544.681	17363.5
545.045	17464.29
545.41	17547
545.774	17618.63
546.138	17555.81
546.503	17639.2
546.867	17746.99
547.231	17846.65
547.595	17886.65
547.959	17872.19
548.324	18050.49
548.688	18042.8
549.052	18189.47
549.416	18153.53
549.779	18230.14
550.143	18223.14
550.507	18334.55
550.871	18360.76
551.235	18508.1
551.599	18607.76
551.962	18695.67
552.326	18719.17
552.689	18837.13
553.053	18692.28
553.417	18810.24
553.78	19087.29
554.143	18941.76
554.507	19111.47
554.87	19131.36
555.234	19326.38
555.597	19171.36
555.96	19238.93
556.323	19379.94
556.686	19418.13
557.05	19560.73
557.413	19585.59
557.776	19558.24
558.139	19761.63
558.502	19781.06
558.865	19788.07
559.228	19974.5
559.59	19975.41
559.953	19955.29
560.316	20189.41
560.679	20265.12
561.041	20382.18
561.404	20458.11
561.767	20569.74
562.129	20499.46
562.492	20725.67
562.854	20696.29
563.217	20715.95
563.579	20868.94
563.941	20915.72
564.304	21039.79
564.666	21158.43
565.028	21280.46
565.39	21363.62
565.753	21341.02
566.115	21450.62
566.477	21504.86
566.839	21661.69
567.201	21743.27
567.563	21684.97
567.925	21876.6
568.287	21920.67
568.648	21907.79
569.01	22002.02
569.372	22242.47
569.734	22144.62
570.095	22308.9
570.457	22495.79
570.819	22463.7
571.18	22550.03
571.542	22731.72
571.903	22709.8
572.265	22786.63
572.626	22910.47
572.987	22908.89
573.349	23029.34
573.71	23229.78
574.071	23311.82
574.432	23441.53
574.794	23633.62
575.155	23639.04
575.516	23512.04
575.877	23819.83
576.238	23858.24
576.599	24016.2
576.96	24137.56
577.32	24128.74
577.681	24250.32
578.042	24417.1
578.403	24468.85
578.763	24652.57
579.124	24746.81
579.485	24946.8
579.845	25221.37
580.206	25227.25
580.566	25228.6
580.927	25405.77
581.287	25787.01
581.648	25741.13
582.008	25913.78
582.368	26057.73
582.728	26251.85
583.089	26355.58
583.449	26589.7
583.809	26578.85
584.169	26966.64
584.529	26946.52
584.889	27288.44
585.249	27331.15
585.609	27301.99
585.969	27699.05
586.329	27912.83
586.688	28105.14
587.048	28228.3
587.408	28324.57
587.768	28522.07
588.127	28752.8
588.487	28888.17
588.846	29241.83
589.206	29270.98
589.565	29470.07
589.925	29902.15
590.284	29817.63
590.643	30073.45
591.003	30403.16
591.362	30593.66
591.721	30823.94
592.08	30910.49
592.44	31158.84
592.799	31418.95
593.158	31317.93
593.517	31550.24
593.876	31886.96
594.235	31933.28
594.593	32254.63
594.952	32474.74
595.311	32514.06
595.67	32743.88
596.029	33076.98
596.387	33194.27
596.746	33341.38
597.104	33453.92
597.463	33674.93
597.822	33885.78
598.18	33984.08
598.538	34187.24
598.897	34413.9
599.255	34330.51
599.613	34949.93
599.972	34969.36
600.33	35068.34
600.688	35179.98
601.046	35480.54
601.404	35622.68
601.762	35849.79
602.12	35979.05
602.478	36184.25
602.836	36101.99
603.194	36146.51
603.552	36460.4
603.91	36347.41
604.268	36673.05
604.625	36606.16
604.983	36862.87
605.341	36762.31
605.698	37183.09
606.056	37200.04
606.413	37370.2
606.771	37614.72
607.128	37753.92
607.485	37620.14
607.843	37818.33
608.2	38104.65
608.557	38214.25
608.914	38186.23
609.272	38517.29
609.629	38644.07
609.986	38856.94
610.343	38787.57
610.7	39165.64
611.057	39082.7
611.414	39245.18
611.771	39420.09
612.127	39558.85
612.484	39651.73
612.841	39809.46
613.198	39747.09
613.554	39771.95
613.911	40233.18
614.267	40154.99
614.624	40223.69
614.98	40311.14
615.337	40667.97
615.693	40498.71
616.05	40443.8
616.406	40892.37
616.762	40755.65
617.118	40800.4
617.475	40987.96
617.831	41063.89
618.187	41121.29
618.543	41334.62
618.899	41521.06
619.255	41505.69
619.611	41396.99
619.967	41600.15
620.323	41795.4
620.678	41664.78
621.034	41549.98
621.39	41585.91
621.746	41646.7
622.101	42029.06
622.457	41891.67
622.812	41860.93
623.168	42095.73
623.523	41985.68
623.879	42207.14
624.234	42107.25
624.589	42206.23
624.945	42280.58
625.3	42302.96
625.655	42266.12
626.01	42523.29
626.365	42472.22
626.72	42485.55
627.075	42528.03
627.43	42417.08
627.785	42521.03
628.14	42590.63
628.495	42733.68
628.85	42558.99
629.205	42527.58
629.559	42758.31
629.914	42565.77
630.269	42590.86
630.623	42603.74
630.978	42393.8
631.332	42683.74
631.687	42800.8
632.041	42771.19
632.396	42700.91
632.75	42549.28
633.104	42573.46
633.459	42566.9
633.813	42508.37
634.167	42507.7
634.521	42555.6
634.875	42520.8
635.229	42566.68
635.583	42386.12
635.937	42459.34
636.291	42302.05
636.645	42597.86
636.999	42295.72
637.352	42571.87
637.706	42413.46
638.06	42367.81
638.413	42419.79
638.767	42259.11
639.121	42412.33
639.474	42124.2
639.828	42197.87
640.181	42392.67
640.534	42288.94
640.888	42214.82
641.241	42069.74
641.594	42072.91
641.947	42242.39
642.301	42132.34
642.654	42097.31
643.007	42070.65
643.36	42111.55
643.713	41958.33
644.066	42175.95
644.419	41879.46
644.771	41493.26
645.124	41227.5
645.477	41334.17
645.83	40990
646.182	40856.67
646.535	40783.9
646.888	40780.74
647.24	40553.62
647.593	40832.71
647.945	40699.83
648.298	40594.53
648.65	40466.17
649.002	40430.46
649.355	40588.42
649.707	40492.16
650.059	40802.43
650.411	41189.54
650.763	41088.75
651.115	41578.23
651.467	41375.97
651.819	41430.44
652.171	41412.13
652.523	41371.23
652.875	41196.09
653.227	41054.17
653.578	41552.69
653.93	41296.88
654.282	40991.35
654.633	41128.52
654.985	41075.87
655.337	41133.95
655.688	41084.68
656.039	41336.65
656.391	40874.97
656.742	41018.24
657.094	40978.7
657.445	41211.01
657.796	41071.12
658.147	40900.73
658.498	41050.33
658.849	41074.06
659.2	41077.23
659.551	40878.13
659.902	41019.37
660.253	40930.34
660.604	41112.03
660.955	40854.63
661.306	41006.72
661.656	40875.87
662.007	40962.65
662.358	40899.6
662.708	40951.35
663.059	40882.88
663.409	40679.27
663.76	40920.62
664.11	40860.06
664.461	40867.74
664.811	40956.78
665.161	40810.57
665.511	40751.13
665.862	40846.27
666.212	40782.54
666.562	40833.62
666.912	40778.93
667.262	40735.31
667.612	40672.04
667.962	40580.74
668.312	40510.01
668.662	40942.09
669.011	40745.71
669.361	40617.12
669.711	40658.93
670.06	40651.25
670.41	40546.39
670.76	40532.61
671.109	40726.05
671.459	40522.89
671.808	40564.7
672.157	40685.6
672.507	40446.06
672.856	40406.51
673.205	40447.41
673.554	40658.7
673.904	40592.94
674.253	40661.42
674.602	40545.49
674.951	40004.71
675.3	39680.65
675.649	40314.76
675.998	40321.99
676.346	40340.52
676.695	40371.93
677.044	40209.68
677.393	40297.58
677.741	40202.45
678.09	40194.08
678.438	40049
678.787	40149.79
679.135	40158.15
679.484	39951.6
679.832	40113.63
680.181	39821.44
680.529	40011.72
680.877	39935.33
681.225	39897.6
681.573	40138.04
681.922	39845.17
682.27	39619.64
682.618	39748.9
682.966	39601.78
683.314	39703.7
683.661	39562.46
684.009	39229.82
684.357	39174.9
684.705	39262.58
685.053	39388.46
685.4	39176.48
685.748	39064.17
686.095	38911.63
686.443	38860.33
686.79	38761.35
687.138	39061.91
687.485	38898.53
687.832	38691.53
688.18	38857.4
688.527	38626.22
688.874	38565.65
689.221	38454.47
689.568	38550.29
689.915	38387.8
690.262	38258.99
690.609	38312.55
690.956	38086.8
691.303	38020.13
691.65	37901.94
691.997	37838.21
692.344	37607.49
692.69	37575.17
693.037	37710.99
693.383	37287.27
693.73	37525.91
694.077	37191.23
694.423	37307.61
694.769	37004.11
695.116	37091.34
695.462	37040.27
695.808	36933.15
696.155	36958.92
696.501	36689.54
696.847	36688.64
697.193	36420.4
697.539	36606.83
697.885	36419.72
698.231	36240.06
698.577	36104.02
698.923	36261.08
699.269	35946.51
699.614	35894.76
699.96	35832.39
700.306	35874.88
700.651	35674.43
700.997	35647.31
701.342	35625.39
701.688	35466.3
702.033	35319.86
702.379	35327.77
702.724	35169.36
703.069	35201.22
703.415	34935.69
703.76	34963.71
704.105	34903.15
704.45	34711.06
704.795	34531.86
705.14	34546.1
705.485	34396.04
705.83	34283.51
706.175	34398.98
706.52	34277.18
706.865	34102.49
707.209	34136.16
707.554	34052.78
707.899	34030.18
708.243	33923.51
708.588	33880.58
708.932	33645.78
709.277	33638.32
709.621	33649.62
709.966	33451.66
710.31	33480.36
710.654	33275.85
710.998	33284.44
711.342	33262.97
711.687	33079.24
712.031	33036.53
712.375	32904.78
712.719	32919.02
713.063	32888.74
713.407	32880.83
713.75	32754.73
714.094	32715.18
714.438	32690.55
714.782	32751.57
715.125	32492.14
715.469	32540.27
715.812	32294.63
716.156	32230.68
716.499	32224.12
716.843	32241.98
717.186	32027.29
717.53	32173.05
717.873	32301.41
718.216	32059.83
718.559	31841.54
718.902	31676.12
719.246	31849.22
719.589	31696.23
719.932	31566.51
720.275	31660.52
720.617	31621.88
720.96	31519.28
721.303	31400.64
721.646	31363.36
721.989	31214.21
722.331	31465.05
722.674	31211.27
723.016	31246.07
723.359	31130.14
723.701	31189.58
724.044	31044.95
724.386	30943.71
724.729	30990.03
725.071	30854.89
725.413	31007.43
725.755	30864.84
726.097	30656.71
726.439	30447.9
726.782	30539.87
727.124	30760.21
727.465	30507.56
727.807	30532.87
728.149	30552.3
728.491	30456.49
728.833	30433.21
729.175	30273.67
729.516	30255.14
729.858	30262.14
730.199	30232.31
730.541	30210.62
730.882	30102.37
731.224	30137.17
731.565	29935.6
731.906	30038.42
732.248	29968.82
732.589	29745.55
732.93	29697.41
733.271	29757.52
733.612	29680.91
733.953	29744.87
734.294	29642.27
734.635	29558.66
734.976	29624.64
735.317	29402.5
735.658	29509.85
735.999	29464.65
736.339	29385.78
736.68	29427.36
737.021	29381.71
737.361	29176.97
737.702	29304.88
738.042	29184.66
738.383	29230.76
738.723	29165.67
739.063	29018.33
739.404	29131.32
739.744	29050.87
740.084	28880.94
740.424	29013.36
740.764	28863.76
741.104	28967.94
741.444	28755.52
741.784	28687.72
742.124	28791.45
742.464	28816.98
742.804	28682.07
743.143	28621.73
743.483	28590.1
743.823	28410.21
744.162	28490.44
744.502	28503.09
744.841	28350.55
745.181	28421.06
745.52	28255.19
745.86	28261.97
746.199	28174.29
746.538	28149.88
746.877	28261.52
747.216	28213.61
747.556	28099.71
747.895	28111.46
748.234	27998.47
748.573	27946.27
748.911	28036.66
749.25	27841.87
749.589	27753.73
749.928	27788.31
750.267	27802.09
750.605	27683.23
750.944	27627.86
751.283	27500.18
751.621	27605.49
751.96	27440.07
752.298	27439.39
752.636	27466.28
752.975	27315.78
753.313	27249.57
753.651	27323.24
753.989	27172.73
754.327	27191.26
754.666	27022.68
755.004	27036.24
755.342	27052.96
755.679	26920.08
756.017	26779.3
756.355	26874.21
756.693	26784.72
757.031	26864.94
