Data from hue_40_FLMS001491_89.txt Node
Date: Mon Feb 06 15:08:41 GMT 2017
User: dcchb
Spectrometer: FLMS00149
Trigger mode: 0
Integration Time (sec): 2.000000E-2
Scans to average: 10
Electric dark correction enabled: true
Nonlinearity correction enabled: false
Boxcar width: 0
XAxis mode: Wavelengths
Number of Pixels in Spectrum: 2048
>>>>>Begin Spectral Data<<<<<
341.393	-23.4
341.776	-23.4
342.16	-23.4
342.543	-62.95
342.927	-43.06
343.31	-62.5
343.693	-77.64
344.077	-46.68
344.46	-84.19
344.843	-46.23
345.226	-49.62
345.61	-43.29
345.993	-10.52
346.376	-14.14
346.759	4.39
347.142	31.06
347.525	54.33
347.908	68.35
348.291	71.96
348.674	95.01
349.057	109.7
349.44	131.85
349.823	157.83
350.206	155.58
350.588	192.86
350.971	212.3
351.354	226.76
351.737	253.2
352.119	253.43
352.502	272.63
352.884	283.03
353.267	288.23
353.65	294.55
354.032	326.64
354.414	286.65
354.797	320.32
355.179	346.08
355.562	316.02
355.944	321.22
356.326	345.63
356.709	358.73
357.091	331.84
357.473	334.33
357.855	333.88
358.238	350.37
358.62	326.19
359.002	353.08
359.384	341.11
359.766	337.49
360.148	340.65
360.53	346.3
360.912	341.11
361.294	352.18
361.676	364.38
362.057	332.52
362.439	335.23
362.821	371.39
363.203	367.55
363.584	318.73
363.966	338.62
364.348	346.76
364.729	324.61
365.111	339.75
365.493	330.71
365.874	336.81
366.256	325.06
366.637	328.68
367.019	324.61
367.4	322.12
367.781	308.11
368.163	307.89
368.544	304.95
368.925	327.55
369.306	320.99
369.688	318.51
370.069	317.83
370.45	315.57
370.831	319.86
371.212	323.03
371.593	318.06
371.974	342.46
372.355	331.62
372.736	350.82
373.117	320.09
373.498	328
373.879	333.88
374.26	320.99
374.641	313.08
375.021	326.64
375.402	328.68
375.783	341.11
376.163	330.26
376.544	341.78
376.925	313.76
377.305	348.11
377.686	339.52
378.066	345.85
378.447	350.6
378.827	338.62
379.208	344.04
379.588	328.9
379.968	332.07
380.349	325.06
380.729	339.52
381.109	351.95
381.489	366.42
381.87	363.48
382.25	348.79
382.63	335.46
383.01	352.18
383.39	348.56
383.77	349.02
384.15	360.32
384.53	365.29
384.91	353.08
385.29	360.54
385.67	332.52
386.049	357.6
386.429	362.58
386.809	359.19
387.189	364.84
387.568	372.52
387.948	376.59
388.328	364.16
388.707	363.03
389.087	370.48
389.466	378.39
389.846	371.84
390.225	374.33
390.605	389.69
390.984	377.72
391.363	394.21
391.743	385.4
392.122	367.09
392.501	382.01
392.881	377.94
393.26	376.59
393.639	371.84
394.018	368.68
394.397	372.52
394.776	380.88
395.155	390.15
395.534	380.65
395.913	386.53
396.292	394.89
396.671	398.51
397.05	396.47
397.429	411.16
397.808	408.45
398.186	377.72
398.565	417.49
398.944	398.28
399.323	403.7
399.701	410.48
400.08	412.97
400.458	402.12
400.837	416.81
401.215	416.13
401.594	427.66
401.972	415.68
402.351	421.1
402.729	410.03
403.107	387.89
403.486	414.78
403.864	425.4
404.242	422.91
404.62	442.8
404.999	436.92
405.377	412.29
405.755	433.99
406.133	424.49
406.511	426.98
406.889	428.11
407.267	469.47
407.645	450.48
408.023	466.3
408.401	454.1
408.779	462.23
409.156	457.04
409.534	467.43
409.912	456.81
410.29	473.53
410.667	470.59
411.045	484.61
411.422	462.23
411.8	468.34
412.178	475.57
412.555	482.57
412.933	479.18
413.31	496.13
413.687	488.45
414.065	498.39
414.442	491.16
414.819	484.83
415.197	499.52
415.574	511.95
415.951	521.67
416.328	517.37
416.705	483.25
417.082	531.61
417.46	528.22
417.837	549.46
418.214	524.38
418.591	508.79
418.967	518.5
419.344	545.4
419.721	541.55
420.098	527.99
420.475	543.81
420.852	545.17
421.228	555.11
421.605	556.24
421.982	545.17
422.358	536.81
422.735	548.79
423.111	555.11
423.488	565.28
423.864	544.27
424.241	565.28
424.617	561.67
424.994	580.65
425.37	591.72
425.746	574.1
426.123	589.69
426.499	585.39
426.875	589.46
427.251	596.47
427.627	607.77
428.003	604.6
428.379	597.15
428.756	625.85
429.132	615.68
429.507	619.29
429.883	646.64
430.259	636.47
430.635	652.06
431.011	647.99
431.387	684.37
431.763	668.1
432.138	666.3
432.514	673.3
432.89	640.99
433.265	692.28
433.641	671.49
434.016	690.48
434.392	704.26
434.767	700.19
435.143	703.81
435.518	702.91
435.894	734.77
436.269	718.95
436.644	737.48
437.02	744.49
437.395	745.62
437.77	750.36
438.145	702.45
438.52	749.91
438.895	775.9
439.271	780.64
439.646	781.55
440.021	775.45
440.395	764.6
440.77	784.03
441.145	784.26
441.52	794.88
441.895	814.54
442.27	798.04
442.645	810.7
443.019	807.54
443.394	826.97
443.769	805.95
444.143	818.38
444.518	868.1
444.892	843.69
445.267	857.7
445.641	838.04
446.016	862.68
446.39	853.41
446.764	847.76
447.139	858.61
447.513	863.35
447.887	865.16
448.262	894.09
448.636	874.43
449.01	895.22
449.384	892.05
449.758	916.23
450.132	913.75
450.506	911.49
450.88	902.67
451.254	919.17
451.628	935.67
452.002	926.4
452.376	938.38
452.75	965.05
453.123	942.22
453.497	962.33
453.871	973.41
454.244	992.16
454.618	982.45
454.992	991.94
455.365	1021.54
455.739	1041.43
456.112	1027.64
456.486	1046.17
456.859	1055.66
457.232	1077.36
457.606	1062.9
457.979	1087.3
458.352	1110.58
458.725	1116
459.099	1094.31
459.472	1143.12
459.845	1159.16
460.218	1174.98
460.591	1172.72
460.964	1161.2
461.337	1188.77
461.71	1204.59
462.083	1242.78
462.456	1229.67
462.829	1238.71
463.201	1263.34
463.574	1280.52
463.947	1266.73
464.32	1286.39
464.692	1323.68
465.065	1308.77
465.438	1341.98
465.81	1345.6
466.183	1374.98
466.555	1390.12
466.928	1408.65
467.3	1431.25
467.672	1464.92
468.045	1484.13
468.417	1487.29
468.789	1527.97
469.161	1507.63
469.534	1571.81
469.906	1591.7
470.278	1617.46
470.65	1613.84
471.022	1665.37
471.394	1700.17
471.766	1716.89
472.138	1734.29
472.51	1778.58
472.882	1848.41
473.253	1812.93
473.625	1851.35
473.997	1921.63
474.369	1928.41
474.74	1983.1
475.112	2002.98
475.484	2055.86
475.855	2091.12
476.227	2137.9
476.598	2178.57
476.97	2233.94
477.341	2257.21
477.713	2344.44
478.084	2348.96
478.455	2483.65
478.827	2496.76
479.198	2543.31
479.569	2569.07
479.94	2674.38
480.311	2697.66
480.682	2796.18
481.053	2849.29
481.424	2922.51
481.795	3001.6
482.166	3054.48
482.537	3127.47
482.908	3220.58
483.279	3281.37
483.65	3372.67
484.021	3472.1
484.391	3551.42
484.762	3652.21
485.133	3685.88
485.503	3775.37
485.874	3837.74
486.244	3961.8
486.615	4057.39
486.985	4155.02
487.356	4240.44
487.726	4295.13
488.097	4471.39
488.467	4503.71
488.837	4702.57
489.207	4736.7
489.578	4813.76
489.948	4918.16
490.318	5036.35
490.688	5111.6
491.058	5231.83
491.428	5353.63
491.798	5447.87
492.168	5546.85
492.538	5622.32
492.908	5730.8
493.278	5887.4
493.648	5973.5
494.017	6002.88
494.387	6212.14
494.757	6277.45
495.126	6338.46
495.496	6382.53
495.866	6524.22
496.235	6647.16
496.605	6747.72
496.974	6861.61
497.344	6949.97
497.713	7034.49
498.082	7158.78
498.452	7229.74
498.821	7322.84
499.19	7334.6
499.559	7479.22
499.928	7621.59
500.298	7640.58
500.667	7747.92
501.036	7799.67
501.405	7923.73
501.774	7982.71
502.143	8098.42
502.512	8185.42
502.88	8321.91
503.249	8352.2
503.618	8450.95
503.987	8483.04
504.356	8601.45
504.724	8670.15
505.093	8747.21
505.462	8776.82
505.83	8898.62
506.199	8927.55
506.567	9132.06
506.936	9123.93
507.304	9271.72
507.672	9331.38
508.041	9446.63
508.409	9478.27
508.777	9568.43
509.145	9603.46
509.514	9694.08
509.882	9800.29
510.25	9857.47
510.618	9922.55
510.986	9967.07
511.354	10068.31
511.722	10110.79
512.09	10243.22
512.458	10320.05
512.826	10426.04
513.193	10408.64
513.561	10505.13
513.929	10561.86
514.297	10708.52
514.664	10755.52
515.032	10833.94
515.4	10894.5
515.767	10977.44
516.135	11010.43
516.502	10970.66
516.869	11231.22
517.237	11215.62
517.604	11157.55
517.972	11349.4
518.339	11436.18
518.706	11443.19
519.073	11531.1
519.44	11574.71
519.808	11737.42
520.175	11765.67
520.542	11891.76
520.909	11930.41
521.276	11982.61
521.643	12032.55
522.009	12136.95
522.376	12266.22
522.743	12347.8
523.11	12458.98
523.477	12518.41
523.843	12602.25
524.21	12725.87
524.577	12791.4
524.943	12809.03
525.31	12898.74
525.676	13008.34
526.043	13166.08
526.409	13133.31
526.776	13281.56
527.142	13296.47
527.508	13450.37
527.874	13604.71
528.241	13540.53
528.607	13605.84
528.973	13752.05
529.339	13747.08
529.705	13884.71
530.071	14072.5
530.437	14046.51
530.803	14162.66
531.169	14209.67
531.535	14272.27
531.901	14403.79
532.267	14390.91
532.632	14547.06
532.998	14592.03
533.364	14648.98
533.73	14712.93
534.095	14829.09
534.461	14832.7
534.826	14934.17
535.192	14923.77
535.557	15074.28
535.923	15034.28
536.288	15213.26
536.653	15182.98
537.019	15121.96
537.384	15246.25
537.749	15369.64
538.114	15435.63
538.479	15540.26
538.845	15596.52
539.21	15532.12
539.575	15545.23
539.94	15607.15
540.305	15836.07
540.67	15778.67
541.034	15834.03
541.399	15913.8
541.764	15952.22
542.129	16095.27
542.494	16056.4
542.858	16172.55
543.223	16281.48
543.587	16326.68
543.952	16284.19
544.316	16422.49
544.681	16461.36
545.045	16436.73
545.41	16614.35
545.774	16633.33
546.138	16707.46
546.503	16778.19
546.867	16709.72
547.231	16976.15
547.595	16809.15
547.959	16961.69
548.324	17020.89
548.688	17138.41
549.052	17167.56
549.416	17191.06
549.779	17261.11
550.143	17224.05
550.507	17373.43
550.871	17479.19
551.235	17386.76
551.599	17473.54
551.962	17572.52
552.326	17695.9
552.689	17843.25
553.053	17590.82
553.417	17764.83
553.78	18073.07
554.143	17960.76
554.507	18014.31
554.87	18051.15
555.234	18187.87
555.597	18164.37
555.96	18232.16
556.323	18375.66
556.686	18374.08
557.05	18502.89
557.413	18558.93
557.776	18597.35
558.139	18750.34
558.502	18755.99
558.865	18782.66
559.228	18874.18
559.59	18984.68
559.953	18933.61
560.316	19177.9
560.679	19086.15
561.041	19258.58
561.404	19344.45
561.767	19478.68
562.129	19404.56
562.492	19688.62
562.854	19577.66
563.217	19676.19
563.579	19696.76
563.941	19777.43
564.304	19762.07
564.666	20038.44
565.028	19943.53
565.39	20103.3
565.753	20236.4
566.115	20290.41
566.477	20409.05
566.839	20465.55
567.201	20499.45
567.563	20539.67
567.925	20750.74
568.287	20650.4
568.648	20815.14
569.01	20936.05
569.372	21004.07
569.734	20991.41
570.095	21110.05
570.457	21225.98
570.819	21307.56
571.18	21287.67
571.542	21492.87
571.903	21494.22
572.265	21605.86
572.626	21647.44
572.987	21712.75
573.349	21772.18
573.71	21866.19
574.071	22020.54
574.432	22098.27
574.794	22346.18
575.155	22229.8
575.516	22244.94
575.877	22531.03
576.238	22571.71
576.599	22662.33
576.96	22710.46
577.32	22930.34
577.681	23062.09
578.042	23165.59
578.403	23264.12
578.763	23317.23
579.124	23517.67
579.485	23584.34
579.845	23810.55
580.206	23803.31
580.566	24041.95
580.927	24139.8
581.287	24370.08
581.648	24389.97
582.008	24667.47
582.368	24639.68
582.728	24864.08
583.089	25007.35
583.449	25091.64
583.809	25304.29
584.169	25514.68
584.529	25541.8
584.889	25978.62
585.249	25841.91
585.609	25972.52
585.969	26314.89
586.329	26532.96
586.688	26735.44
587.048	26843.23
587.408	26994.42
587.768	27166.62
588.127	27335.43
588.487	27420.62
588.846	27748.75
589.206	27763.44
589.565	27888.18
589.925	28281.16
590.284	28216.98
590.643	28543.98
591.003	28745.56
591.362	28960.24
591.721	29045.21
592.08	29329.27
592.44	29610.17
592.799	29736.72
593.158	29777.4
593.517	29904.85
593.876	30297.61
594.235	30213.09
594.593	30435
594.952	30737.82
595.311	30814.2
595.67	30894.65
596.029	31343
596.387	31495.32
596.746	31630.91
597.104	31649.89
597.463	31830.45
597.822	32286.71
598.18	32104.79
598.538	32262.3
598.897	32568.51
599.255	32491.22
599.613	33090.75
599.972	33019.57
600.33	33254.82
600.688	33115.61
601.046	33405.1
601.404	33656.62
601.762	33841.02
602.12	33980.22
602.478	34156.04
602.836	34283.04
603.194	34226.54
603.552	34351.74
603.91	34456.14
604.268	34761.67
604.625	34777.94
604.983	34987.2
605.341	34946.75
605.698	35266.52
606.056	35424.48
606.413	35403.69
606.771	35650.01
607.128	35787.63
607.485	35708.09
607.843	35867.18
608.2	36262.87
608.557	36431.23
608.914	36249.09
609.272	36627.38
609.629	36560.49
609.986	36822.86
610.343	36776.98
610.7	37055.4
611.057	37133.13
611.414	37150.31
611.771	37239.35
612.127	37430.53
612.484	37479.79
612.841	37616.28
613.198	37657.64
613.554	37659.22
613.911	37884.98
614.267	37902.83
614.624	37980.34
614.98	38042.71
615.337	38323.84
615.693	38312.54
616.05	38209.04
616.406	38575.81
616.762	38567.67
617.118	38585.98
617.475	38574
617.831	38816.48
618.187	38785.52
618.543	38992.07
618.899	39059.64
619.255	39187.77
619.611	39193.19
619.967	39402
620.323	39403.81
620.678	39386.18
621.034	39359.74
621.39	39372.17
621.746	39365.17
622.101	39794.98
622.457	39634.99
622.812	39680.86
623.168	39754.76
623.523	39814.65
623.879	39945.26
624.234	39680.19
624.589	39841.09
624.945	40006.73
625.3	40081.76
625.655	40121.76
626.01	39985.71
626.365	40129.21
626.72	40001.31
627.075	40042.44
627.43	40026.17
627.785	40039.5
628.14	40116.56
628.495	39994.98
628.85	40109.55
629.205	39994.08
629.559	40232.49
629.914	40170.34
630.269	40144.35
630.623	40158.36
630.978	40007.63
631.332	40229.78
631.687	40357
632.041	40308.19
632.396	40214.86
632.75	40125.15
633.104	40181.42
633.459	39907.75
633.813	40069.78
634.167	40037.92
634.521	40019.16
634.875	40209.44
635.229	40044.24
635.583	39893.97
635.937	39969.67
636.291	39868.43
636.645	39903.68
636.999	39920.41
637.352	40047.18
637.706	39694.2
638.06	39891.25
638.413	39770.8
638.767	39814.65
639.121	39848.54
639.474	39713.63
639.828	39640.64
640.181	39743.69
640.534	39711.6
640.888	39568.55
641.241	39641.77
641.594	39583.46
641.947	39771.93
642.301	39545.5
642.654	39531.26
643.007	39659.62
643.36	39616.68
643.713	39393.19
644.066	39740.07
644.419	39331.72
644.771	39213.98
645.124	38867.1
645.477	38704.84
645.83	38594.11
646.182	38407.45
646.535	38251.52
646.888	38359.09
647.24	38177.85
647.593	38355.25
647.945	38208.81
648.298	38085.65
648.65	37958.2
649.002	37900.8
649.355	38033.68
649.707	38143.73
650.059	38103.5
650.411	38586.88
650.763	38730.61
651.115	38989.58
651.467	38943.03
651.819	38735.8
652.171	38750.49
652.523	38611.29
652.875	38750.49
653.227	38640.44
653.578	38801.11
653.93	38604.73
654.282	38643.6
654.633	38456.49
654.985	38502.14
655.337	38582.36
655.688	38524.96
656.039	38707.33
656.391	38338.75
656.742	38382.59
657.094	38572.19
657.445	38643.38
657.796	38497.39
658.147	38338.98
658.498	38533.55
658.849	38487
659.2	38405.87
659.551	38296.72
659.902	38496.71
660.253	38362.48
660.604	38493.32
660.955	38225.31
661.306	38310.96
661.656	38269.6
662.007	38399.54
662.358	38391.63
662.708	38378.3
663.059	38284.52
663.409	37958.65
663.76	38299.66
664.11	38254.01
664.461	38287.45
664.811	38336.27
665.161	38255.82
665.511	38245.42
665.862	38076.39
666.212	38271.18
666.562	38445.19
666.912	38136.05
667.262	38156.84
667.612	38167
667.962	38302.37
668.312	38201.58
668.662	38228.02
669.011	38101.24
669.361	38065.99
669.711	38050.85
670.06	38035.93
670.41	37945.54
670.76	37987.57
671.109	38086.78
671.459	38050.17
671.808	37939.21
672.157	38012.43
672.507	37759.11
672.856	37756.85
673.205	37778.99
673.554	38036.61
673.904	37816.05
674.253	38101.24
674.602	37845.88
674.951	37268.27
675.3	37231.89
675.649	37746.45
675.998	37566.12
676.346	37567.47
676.695	37860.35
677.044	37436.4
677.393	37720.24
677.741	37606.12
678.09	37467.36
678.438	37471.66
678.787	37661.71
679.135	37570.86
679.484	37352.34
679.832	37425.33
680.181	37220.82
680.529	37412.67
680.877	37227.37
681.225	37177.88
681.573	37493.8
681.922	36988.96
682.27	36938.34
682.618	37006.13
682.966	36926.36
683.314	37035.96
683.661	36808.17
684.009	36755.52
684.357	36673.48
684.705	36700.6
685.053	36631.9
685.4	36606.82
685.748	36380.84
686.095	36363.89
686.443	36270.78
686.79	36257.22
687.138	36381.52
687.485	36442.98
687.832	36172.48
688.18	36104.69
688.527	35946.72
688.874	36028.53
689.221	36002.99
689.568	35913.05
689.915	35788.08
690.262	35777.24
690.609	35565.94
690.956	35655.66
691.303	35581.99
691.65	35341.54
691.997	35445.49
692.344	35040.53
692.69	35143.36
693.037	35306.52
693.383	34966.64
693.73	35069.91
694.077	34784.49
694.423	34881.67
694.769	34789.24
695.116	34589.02
695.462	34608.23
695.808	34583.82
696.155	34471.96
696.501	34281.01
696.847	34307.45
697.193	34016.15
697.539	34149.71
697.885	33714.69
698.231	33731.64
698.577	33820.68
698.923	33677.86
699.269	33525.77
699.614	33389.5
699.96	33329.39
700.306	33417.75
700.651	33231.99
700.997	33086.91
701.342	33042.17
701.688	33044.65
702.033	32769.41
702.379	32954.71
702.724	32652.57
703.069	32845.79
703.415	32468.17
703.76	32533.48
704.105	32459.36
704.45	32458.68
704.795	32293.71
705.14	32083.1
705.485	32159.03
705.83	32157.22
706.175	32045.81
706.52	32008.07
706.865	31864.35
707.209	31746.16
707.554	31697.8
707.899	31705.93
708.243	31506.84
708.588	31519.04
708.932	31261.65
709.277	31192.73
709.621	31330.12
709.966	31156.12
710.31	31270.01
710.654	30802.9
710.998	31045.84
711.342	31021.43
711.687	30965.61
712.031	30668.67
712.375	30678.39
712.719	30633.19
713.063	30509.13
713.407	30757.26
713.75	30455.12
714.094	30482.91
714.438	30406.08
714.782	30368.11
715.125	30209.7
715.469	30249.92
715.812	30098.06
716.156	29971.06
716.499	29998.86
716.843	30049.03
717.186	29837.51
717.53	29963.83
717.873	29889.03
718.216	29809.26
718.559	29668.92
718.902	29613.33
719.246	29596.61
719.589	29490.62
719.932	29242.27
720.275	29438.19
720.617	29341.7
720.96	29335.15
721.303	29237.75
721.646	29312.77
721.989	29015.83
722.331	29158.43
722.674	28912.11
723.016	29210.4
723.359	28949.17
723.701	28961.6
724.044	28710.08
724.386	28765.22
724.729	28841.6
725.071	28788.72
725.413	28734.71
725.755	28666.24
726.097	28480.48
726.439	28343.31
726.782	28567.26
727.124	28644.09
727.465	28470.76
727.807	28333.59
728.149	28284.78
728.491	28235.97
728.833	28305.12
729.175	28209.53
729.516	28115.74
729.858	28087.27
730.199	28081.39
730.541	28053.37
730.882	28026.03
731.224	28046.14
731.565	27854.28
731.906	27868.74
732.248	27892.47
732.589	27784.68
732.93	27780.84
733.271	27780.16
733.612	27734.96
733.953	27791.91
734.294	27588.07
734.635	27634.17
734.976	27531.58
735.317	27343.11
735.658	27380.17
735.999	27308.08
736.339	27270.79
736.68	27370.45
737.021	27347.18
737.361	27150.57
737.702	27296.78
738.042	27056.11
738.383	27091.14
738.723	27159.16
739.063	26948.32
739.404	27019.95
739.744	26859.51
740.084	26823.35
740.424	26969.11
740.764	26767.53
741.104	26841.43
741.444	26667.19
741.784	26605.95
742.124	26706.29
742.464	26654.77
742.804	26518.27
743.143	26484.37
743.483	26516.69
743.823	26399.86
744.162	26466.07
744.502	26496.8
744.841	26287.32
745.181	26422
745.52	26333.87
745.86	26373.87
746.199	26166.42
746.538	26248.22
746.877	26290.71
747.216	26197.38
747.556	26152.86
747.895	26109.92
748.234	25982.01
748.573	26046.42
748.911	26031.5
749.25	25950.83
749.589	25795.58
749.928	25878.51
750.267	25877.84
750.605	25721.91
750.944	25657.05
751.283	25657.28
751.621	25597.39
751.96	25571.86
752.298	25529.37
752.636	25559.88
752.975	25318.98
753.313	25331.64
753.651	25312.65
753.989	25220.9
754.327	25267.68
754.666	25006.22
755.004	25060.68
755.342	25066.11
755.679	25001.7
756.017	24818.2
756.355	25009.38
756.693	24832.44
757.031	24874.47
