Data from hue_310_FLMS001491_34.txt Node
Date: Mon Feb 06 15:49:36 GMT 2017
User: dcchb
Spectrometer: FLMS00149
Trigger mode: 0
Integration Time (sec): 2.000000E-2
Scans to average: 10
Electric dark correction enabled: true
Nonlinearity correction enabled: false
Boxcar width: 0
XAxis mode: Wavelengths
Number of Pixels in Spectrum: 2048
>>>>>Begin Spectral Data<<<<<
341.393	-10.99
341.776	-10.99
342.16	-10.99
342.543	-43.53
342.927	-61.61
343.31	-73.59
343.693	-66.58
344.077	-60.7
344.46	-52.12
344.843	-58.22
345.226	-40.14
345.61	-41.95
345.993	-11.89
346.376	-21.61
346.759	14.55
347.142	37.15
347.525	43.93
347.908	66.98
348.291	69.91
348.674	87.09
349.057	107.2
349.44	121.21
349.823	156.24
350.206	165.05
350.588	193.53
350.971	219.51
351.354	226.29
351.737	249.8
352.119	255.22
352.502	258.38
352.884	269.91
353.267	267.2
353.65	280.76
354.032	301.09
354.414	295.22
354.797	300.87
355.179	336.12
355.562	321.43
355.944	321.66
356.326	336.57
356.709	331.38
357.091	334.54
357.473	324.37
357.855	345.84
358.238	357.82
358.62	322.56
359.002	351.94
359.384	322.56
359.766	323.69
360.148	337.7
360.53	337.03
360.912	328.44
361.294	310.59
361.676	332.73
362.057	320.98
362.439	329.34
362.821	323.01
363.203	324.14
363.584	315.1
363.966	308.1
364.348	314.88
364.729	327.08
365.111	301.32
365.493	324.14
365.874	314.43
366.256	321.21
366.637	312.39
367.019	297.25
367.4	330.47
367.781	307.2
368.163	291.6
368.544	293.86
368.925	324.82
369.306	309.23
369.688	309
370.069	306.07
370.45	306.07
370.831	301.09
371.212	310.13
371.593	314.88
371.974	323.24
372.355	316.69
372.736	313.3
373.117	315.1
373.498	328.44
373.879	311.49
374.26	309.91
374.641	303.13
375.021	337.03
375.402	331.15
375.783	302
376.163	324.6
376.544	317.36
376.925	320.75
377.305	323.47
377.686	320.3
378.066	310.13
378.447	310.13
378.827	345.16
379.208	335.44
379.588	322.56
379.968	338.61
380.349	318.04
380.729	330.47
381.109	330.92
381.489	345.61
381.87	331.6
382.25	330.7
382.63	322.34
383.01	345.16
383.39	320.08
383.77	323.47
384.15	340.41
384.53	332.28
384.91	330.02
385.29	350.81
385.67	356.69
386.049	328.66
386.429	362.56
386.809	346.29
387.189	361.43
387.568	332.96
387.948	339.06
388.328	365.72
388.707	355.78
389.087	365.27
389.466	346.06
389.846	363.24
390.225	344.48
390.605	356.23
390.984	347.65
391.363	359.62
391.743	345.84
392.122	371.6
392.501	367.08
392.881	354.65
393.26	367.98
393.639	351.04
394.018	372.28
394.397	364.14
394.776	375.44
395.155	366.4
395.534	367.98
395.913	384.26
396.292	377.7
396.671	370.24
397.05	383.35
397.429	373.63
397.808	380.19
398.186	396.01
398.565	387.19
398.944	386.06
399.323	392.84
399.701	394.65
400.08	403.92
400.458	417.93
400.837	412.28
401.215	409.57
401.594	405.72
401.972	405.05
402.351	408.44
402.729	425.84
403.107	400.3
403.486	418.83
403.864	423.12
404.242	414.99
404.62	403.92
404.999	398.94
405.377	412.05
405.755	448.21
406.133	408.89
406.511	429.68
406.889	459.96
407.267	434.65
407.645	444.59
408.023	443.46
408.401	454.76
408.779	461.54
409.156	443.24
409.534	466.51
409.912	485.27
410.29	496.57
410.667	492.73
411.045	500.41
411.422	507.64
411.8	477.59
412.178	501.54
412.555	503.12
412.933	516.46
413.31	510.35
413.687	546.06
414.065	563.01
414.442	531.37
414.819	574.31
415.197	540.41
415.574	580.18
415.951	580.18
416.328	591.71
416.705	596.68
417.082	597.58
417.46	599.39
417.837	616.34
418.214	605.27
418.591	612.27
418.967	617.24
419.344	629.22
419.721	628.32
420.098	638.26
420.475	668.09
420.852	665.6
421.228	675.1
421.605	651.37
421.982	687.3
422.358	691.82
422.735	694.76
423.111	714.19
423.488	719.39
423.864	685.04
424.241	704.92
424.617	734.98
424.994	730.01
425.37	736.34
425.746	738.82
426.123	752.61
426.499	764.58
426.875	760.74
427.251	782.21
427.627	791.7
428.003	804.13
428.379	810.01
428.756	819.72
429.132	853.85
429.507	842.55
429.883	852.72
430.259	866.73
430.635	849.55
431.011	859.5
431.387	889.1
431.763	922.77
432.138	908.08
432.514	890
432.89	906.73
433.265	901.76
433.641	928.42
434.016	964.58
434.392	978.36
434.767	993.05
435.143	958.7
435.518	1015.2
435.894	1011.81
436.269	995.09
436.644	1018.82
437.02	1026.72
437.395	1031.24
437.77	1036.22
438.145	1055.65
438.52	1061.75
438.895	1065.82
439.271	1058.81
439.646	1107.85
440.021	1117.12
440.395	1109.66
440.77	1073.28
441.145	1073.05
441.52	1133.84
441.895	1137
442.27	1106.27
442.645	1127.29
443.019	1147.4
443.394	1149.66
443.769	1148.98
444.143	1151.69
444.518	1171.58
444.892	1154.63
445.267	1168.64
445.641	1182.65
446.016	1164.35
446.39	1195.76
446.764	1188.3
447.139	1181.07
447.513	1207.96
447.887	1194.4
448.262	1187.85
448.636	1222.65
449.01	1228.53
449.384	1227.17
449.758	1202.31
450.132	1231.01
450.506	1233.05
450.88	1253.39
451.254	1247.74
451.628	1254.06
452.002	1298.81
452.376	1288.19
452.75	1291.35
453.123	1264.23
453.497	1286.83
453.871	1275.53
454.244	1314.85
454.618	1304.68
454.992	1333.83
455.365	1330.9
455.739	1318.24
456.112	1363.66
456.486	1354.85
456.859	1381.74
457.232	1380.39
457.606	1402.76
457.979	1393.27
458.352	1441.4
458.725	1411.35
459.099	1419.93
459.472	1466.49
459.845	1440.5
460.218	1424.23
460.591	1485.24
460.964	1461.29
461.337	1470.33
461.71	1489.99
462.083	1534.28
462.456	1544.68
462.829	1511.46
463.201	1522.53
463.574	1539.93
463.947	1558.24
464.32	1586.71
464.692	1592.59
465.065	1573.83
465.438	1589.87
465.81	1619.25
466.183	1609.53
466.555	1642.75
466.928	1626.93
467.3	1631.45
467.672	1675.97
468.045	1730.21
468.417	1716.2
468.789	1700.38
469.161	1723.2
469.534	1711.45
469.906	1749.64
470.278	1748.74
470.65	1761.85
471.022	1812.47
471.394	1853.82
471.766	1829.19
472.138	1839.58
472.51	1848.85
472.882	1879.81
473.253	1908.74
473.625	1888.62
473.997	1947.83
474.369	1924.33
474.74	1951.45
475.112	1971.33
475.484	2021.73
475.855	2004.55
476.227	2028.51
476.598	2066.02
476.97	2094.27
477.341	2102.63
477.713	2110.31
478.084	2124.1
478.455	2173.59
478.827	2172.68
479.198	2235.73
479.569	2196.19
479.94	2245.22
480.311	2291.32
480.682	2287.71
481.053	2313.92
481.424	2349.63
481.795	2397.99
482.166	2426.69
482.537	2402.73
482.908	2433.24
483.279	2435.95
483.65	2502.17
484.021	2519.34
484.391	2549.17
484.762	2535.84
485.133	2565.89
485.503	2583.29
485.874	2636.17
486.244	2609.51
486.615	2642.5
486.985	2726.11
487.356	2726.11
487.726	2711.2
488.097	2802.27
488.467	2774.48
488.837	2851.08
489.207	2892.89
489.578	2863.51
489.948	2893.34
490.318	2912.55
490.688	2893.57
491.058	2920.01
491.428	2983.51
491.798	2993.23
492.168	3053.11
492.538	3057.18
492.908	3076.16
493.278	3137.4
493.648	3120.91
494.017	3140.12
494.387	3148.02
494.757	3183.96
495.126	3203.84
495.496	3205.65
495.866	3244.07
496.235	3266.89
496.605	3258.53
496.974	3247.01
497.344	3268.25
497.713	3273.45
498.082	3291.3
498.452	3352.76
498.821	3342.82
499.19	3345.31
499.559	3367.91
499.928	3396.15
500.298	3407.45
500.667	3411.75
501.036	3414.23
501.405	3466.66
501.774	3442.48
502.143	3460.33
502.512	3433.67
502.88	3505.98
503.249	3511.18
503.618	3517.73
503.987	3521.12
504.356	3528.13
504.724	3555.47
505.093	3519.99
505.462	3562.7
505.83	3586.21
506.199	3573.55
506.567	3622.81
506.936	3649.25
507.304	3665.98
507.672	3648.35
508.041	3623.72
508.409	3658.29
508.777	3625.07
509.145	3708.69
509.514	3700.55
509.882	3743.04
510.25	3708.69
510.618	3729.48
510.986	3764.51
511.354	3792.53
511.722	3764.28
512.09	3806.09
512.458	3768.12
512.826	3817.84
513.193	3795.24
513.561	3783.04
513.929	3776.48
514.297	3853.54
514.664	3903.48
515.032	3891.06
515.4	3893.32
515.767	3887.89
516.135	3888.8
516.502	3862.81
516.869	3868.01
517.237	3908
517.604	3912.3
517.972	3950.94
518.339	3925.63
518.706	3949.13
519.073	3957.95
519.44	3962.47
519.808	3964.95
520.175	3972.18
520.542	3986.19
520.909	4023.48
521.276	3998.85
521.643	4020.54
522.009	4089.02
522.376	4068.45
522.743	4104.84
523.11	4121.11
523.477	4076.14
523.843	4159.07
524.21	4210.37
524.577	4232.29
524.943	4225.28
525.31	4193.42
525.676	4198.39
526.043	4253.53
526.409	4291.27
526.776	4308.67
527.142	4298.28
527.508	4310.03
527.874	4331.04
528.241	4339.86
528.607	4338.5
528.973	4393.19
529.339	4403.81
529.705	4451.27
530.071	4473.41
530.437	4479.74
530.803	4467.31
531.169	4481.55
531.535	4519.97
531.901	4501.89
532.267	4517.93
532.632	4569
532.998	4584.37
533.364	4568.1
533.73	4601.77
534.095	4650.36
534.461	4667.08
534.826	4689
535.192	4713.86
535.557	4759.73
535.923	4761.09
536.288	4797.92
536.653	4744.14
537.019	4771.48
537.384	4864.14
537.749	4818.49
538.114	4829.79
538.479	4849.9
538.845	4828.88
539.21	4923.57
539.575	4889.67
539.94	4897.13
540.305	4909.33
540.67	4961.76
541.034	4969.45
541.399	4963.34
541.764	5018.26
542.129	5023.46
542.494	5055.55
542.858	5068.2
543.223	5099.61
543.587	5083.11
543.952	5115.88
544.316	5159.95
544.681	5153.85
545.045	5205.15
545.41	5270.91
545.774	5243.34
546.138	5239.04
546.503	5208.08
546.867	5306.84
547.231	5332.37
547.595	5324.01
547.959	5336.67
548.324	5408.3
548.688	5407.4
549.052	5383.67
549.416	5383.9
549.779	5370.57
550.143	5437.68
550.507	5510.67
550.871	5439.49
551.235	5511.8
551.599	5512.48
551.962	5566.94
552.326	5583.21
552.689	5571.92
553.053	5591.35
553.417	5574.63
553.78	5685.13
554.143	5654.85
554.507	5615.08
554.87	5691.23
555.234	5719.26
555.597	5711.57
555.96	5738.92
556.323	5686.94
556.686	5775.3
557.05	5788.63
557.413	5772.36
557.776	5780.72
558.139	5782.98
558.502	5823.66
558.865	5808.29
559.228	5905.69
559.59	5836.09
559.953	5927.84
560.316	5959.48
560.679	5959.7
561.041	5968.52
561.404	5979.36
561.767	5994.5
562.129	5955.63
562.492	6067.72
562.854	6070.43
563.217	6099.81
563.579	6063.2
563.941	6107.95
564.304	6150.43
564.666	6154.27
565.028	6176.42
565.39	6228.4
565.753	6213.03
566.115	6194.72
566.477	6198.34
566.839	6274.5
567.201	6295.96
567.563	6333.93
567.925	6319.47
568.287	6319.69
568.648	6350.2
569.01	6410.99
569.372	6494.15
569.734	6459.8
570.095	6502.06
570.457	6531.89
570.819	6526.24
571.18	6546.58
571.542	6621.15
571.903	6607.14
572.265	6640.14
572.626	6727.14
572.987	6741.6
573.349	6768.27
573.71	6835.84
574.071	6824.31
574.432	6918.32
574.794	6994.03
575.155	6999
575.516	6961.94
575.877	7061.59
576.238	7147.92
576.599	7212.78
576.96	7197.64
577.32	7283.74
577.681	7351.76
578.042	7467.91
578.403	7531.19
578.763	7603.27
579.124	7700.67
579.485	7836.71
579.845	7907.9
580.206	8019.53
580.566	8124.16
580.927	8259.75
581.287	8360.99
581.648	8432.41
582.008	8564.15
582.368	8728.22
582.728	8907.2
583.089	9059.28
583.449	9117.13
583.809	9346.28
584.169	9431.7
584.529	9561.64
584.889	9845.48
585.249	9989.43
585.609	10128.63
585.969	10348.51
586.329	10554.84
586.688	10771.33
587.048	10967.25
587.408	11146.23
587.768	11349.16
588.127	11646.33
588.487	11802.03
588.846	12154.34
589.206	12334.68
589.565	12604.27
589.925	12880.65
590.284	13111.15
590.643	13325.84
591.003	13604.7
591.362	13942.77
591.721	14115.87
592.08	14419.37
592.44	14785.23
592.799	15030.2
593.158	15207.14
593.517	15543.63
593.876	15908.59
594.235	16105.2
594.593	16383.16
594.952	16802.58
595.311	16934.78
595.67	17312.62
596.029	17699.96
596.387	17970.01
596.746	18316.89
597.104	18551.24
597.463	18850.89
597.822	19153.25
598.18	19474.15
598.538	19681.38
598.897	19983.97
599.255	20231.64
599.613	20710.27
599.972	20925.64
600.33	21279.3
600.688	21453.31
601.046	21798.61
601.404	22151.59
601.762	22351.14
602.12	22770.33
602.478	22984.34
602.836	23282.41
603.194	23438.11
603.552	23786.13
603.91	23907.25
604.268	24374.59
604.625	24492.32
604.983	24903.38
605.341	24886.89
605.698	25298.85
606.056	25576.14
606.413	25673.99
606.771	25968.44
607.128	26394.19
607.485	26437.36
607.843	26788.98
608.2	27038.7
608.557	27341.96
608.914	27429.87
609.272	27725.68
609.629	27992.12
609.986	28252.22
610.343	28375.38
610.7	28763.17
611.057	28862.15
611.414	29068.47
611.771	29250.84
612.127	29592.75
612.484	29710.04
612.841	29998.62
613.198	29946.87
613.554	30106.41
613.911	30468.44
614.267	30548.43
614.624	30749.56
614.98	30894.87
615.337	31240.62
615.693	31387.28
616.05	31380.28
616.406	31808.97
616.762	31657.33
617.118	31920.83
617.475	31959.92
617.831	32257.77
618.187	32232.46
618.543	32492.56
618.899	32836.74
619.255	32894.59
619.611	32992.89
619.967	33094.36
620.323	33381.35
620.678	33349.72
621.034	33349.72
621.39	33577.73
621.746	33643.04
622.101	34059.53
622.457	33958.29
622.812	33959.87
623.168	34185.4
623.523	34247.55
623.879	34451.38
624.234	34336.81
624.589	34601.21
624.945	34610.47
625.3	34744.26
625.655	34706.06
626.01	34846.17
626.365	34931.6
626.72	34859.96
627.075	35052.95
627.43	35061.08
627.785	34902.9
628.14	35164.13
628.495	35345.6
628.85	35394.63
629.205	35301.76
629.559	35500.85
629.914	35329.78
630.269	35375.65
630.623	35578.13
630.978	35346.05
631.332	35540.17
631.687	35670.11
632.041	35659.49
632.396	35784.91
632.75	35604.8
633.104	35600.5
633.459	35670.79
633.813	35671.01
634.167	35746.94
634.521	35722.08
634.875	35673.27
635.229	35759.6
635.583	35654.51
635.937	35714.17
636.291	35623.55
636.645	35757.11
636.999	35738.81
637.352	35780.39
637.706	35584.69
638.06	35894.28
638.413	35774.29
638.767	35656.77
639.121	35719.6
639.474	35549.43
639.828	35703.1
640.181	35694.06
640.534	35712.59
640.888	35678.69
641.241	35440.96
641.594	35550.34
641.947	35724.12
642.301	35600.05
642.654	35622.42
643.007	35695.19
643.36	35554.4
643.713	35712.14
644.066	35783.32
644.419	35585.82
644.771	35254.3
645.124	34989.22
645.477	34944.25
645.83	34710.81
646.182	34617.93
646.535	34601.21
646.888	34712.84
647.24	34492.74
647.593	34752.17
647.945	34687.99
648.298	34613.64
648.65	34530.02
649.002	34233.53
649.355	34624.49
649.707	34642.79
650.059	34580.19
650.411	34898.6
650.763	34972.5
651.115	35419.49
651.467	35345.6
651.819	35348.08
652.171	35168.88
652.523	35251.36
652.875	35232.38
653.227	35127.3
653.578	35401.19
653.93	35282.32
654.282	35108.99
654.633	34954.65
654.985	35209.78
655.337	35009.56
655.688	35134.3
656.039	35173.4
656.391	35002.55
656.742	35083.46
657.094	35053.4
657.445	35039.62
657.796	35086.85
658.147	34905.83
658.498	35012.95
658.849	35183.11
659.2	35115.32
659.551	34947.19
659.902	35123.23
660.253	35034.19
660.604	35064.7
660.955	34900.64
661.306	34971.37
661.656	34955.55
662.007	34948.32
662.358	34932.73
662.708	34888.66
663.059	34967.98
663.409	34673.98
663.76	34930.24
664.11	34961.43
664.461	34939.73
664.811	34900.41
665.161	34985.15
665.511	34748.55
665.862	34839.85
666.212	34991.03
666.562	34929.11
666.912	34892.73
667.262	34904.93
667.612	34864.25
667.962	34900.86
668.312	34829.23
668.662	34927.98
669.011	34901.09
669.361	34839.85
669.711	34787.87
670.06	34712.39
670.41	34633.07
670.76	34685.73
671.109	34814.54
671.459	34723.92
671.808	34692.96
672.157	34876.68
672.507	34591.04
672.856	34630.13
673.205	34641.66
673.554	34821.09
673.904	34497.93
674.253	34763.92
674.602	34755.1
674.951	34085.06
675.3	33889.36
675.649	34534.09
675.998	34487.31
676.346	34497.03
676.695	34636.91
677.044	34316.47
677.393	34473.98
677.741	34542.91
678.09	34292.52
678.438	34347.88
678.787	34397.6
679.135	34267.88
679.484	34139.07
679.832	34279.41
680.181	34071.28
680.529	34204.16
680.877	34137.72
681.225	34046.87
681.573	34232.4
681.922	33996.03
682.27	33883.26
682.618	34022.69
682.966	33810.5
683.314	33991.28
683.661	33772.53
684.009	33606.43
684.357	33610.95
684.705	33521.24
685.053	33537.51
685.4	33541.58
685.748	33476.49
686.095	33447.57
686.443	33310.85
686.79	33362.82
687.138	33407.79
687.485	33212.32
687.832	33161.02
688.18	33265.42
688.527	33086.67
688.874	33019.56
689.221	33041.02
689.568	32954.7
689.915	32924.19
690.262	32857.75
690.609	32771.65
690.956	32653.46
691.303	32597.65
691.65	32365.34
691.997	32499.12
692.344	32199.69
692.69	32164.66
693.037	32243.76
693.383	31841.73
693.73	32115.17
694.077	32003.76
694.423	31926.93
694.769	31877.89
695.116	31674.51
695.462	31629.08
695.808	31594.96
696.155	31707.95
696.501	31393.84
696.847	31417.11
697.193	31180.06
697.539	31300.28
697.885	31032.94
698.231	31048.08
698.577	30929.67
698.923	30820.07
699.269	30759.28
699.614	30568.77
699.96	30612.61
700.306	30648.09
700.651	30643.12
700.997	30458.72
701.342	30406.52
701.688	30347.99
702.033	30178.27
702.379	30142.8
702.724	30205.84
703.069	30223.7
703.415	29904.61
703.76	29816.48
704.105	29842.92
704.45	29818.06
704.795	29610.38
705.14	29545.3
705.485	29585.07
705.83	29453.55
706.175	29559.76
706.52	29425.07
706.865	29225.76
707.209	29228.69
707.554	29198.19
707.899	29198.19
708.243	28988.25
708.588	29081.35
708.932	28871.19
709.277	28733.11
709.621	28905.54
709.966	28669.16
710.31	28741.02
710.654	28444.53
710.998	28540.58
711.342	28516.4
711.687	28551.65
712.031	28237.53
712.375	28184.88
712.719	28200.93
713.063	28182.85
713.407	28272.56
713.75	28060.59
714.094	28115.73
714.438	28010.87
714.782	28028.27
715.125	27914.61
715.469	27860.82
715.812	27698.11
716.156	27528.85
716.499	27615.18
716.843	27551
717.186	27501.51
717.53	27565.69
717.873	27525.24
718.216	27548.96
718.559	27428.52
718.902	27241.63
719.246	27279.14
719.589	27047.06
719.932	27098.13
720.275	27159.37
720.617	26994.4
720.96	26894.07
721.303	26915.99
721.646	27128.86
721.989	26784.69
722.331	26723.9
722.674	26727.74
723.016	26774.75
723.359	26706.73
723.701	26784.47
724.044	26522.33
724.386	26382.22
724.729	26516
725.071	26422.89
725.413	26440.75
725.755	26425.38
726.097	26313.97
726.439	26212.73
726.782	26282.11
727.124	26346.28
727.465	26243.91
727.807	26195.78
728.149	26167.98
728.491	26121.43
728.833	26134.54
729.175	25926.18
729.516	25865.85
729.858	26005.05
730.199	25925.73
730.541	25869.01
730.882	25848.22
731.224	25799.18
731.565	25756.24
731.906	25722.12
732.248	25736.58
732.589	25558.06
732.93	25607.1
733.271	25513.99
733.612	25469.92
733.953	25613.87
734.294	25496.14
734.635	25424.5
734.976	25429.25
735.317	25262.02
735.658	25254.56
735.999	25190.61
736.339	25201.23
736.68	25285.52
737.021	25209.82
737.361	25023.16
737.702	25228.57
738.042	25062.25
738.383	25132.31
738.723	25042.82
739.063	25031.29
739.404	24983.16
739.744	24880.79
740.084	24701.81
740.424	24850.96
740.764	24741.58
741.104	24941.58
741.444	24621.58
741.784	24611.42
742.124	24763.28
742.464	24610.51
742.804	24530.74
743.143	24582.26
743.483	24633.34
743.823	24403.96
744.162	24411.19
744.502	24481.25
744.841	24302.04
745.181	24384.3
745.52	24266.11
745.86	24302.27
746.199	24335.04
746.538	24216.4
746.877	24247.81
747.216	24247.13
747.556	24187.7
747.895	24072.67
748.234	24001.94
748.573	24011.2
748.911	23884.2
749.25	23902.51
749.589	23721.95
749.928	23757.65
750.267	23765.79
750.605	23728.73
750.944	23742.74
751.283	23595.4
751.621	23612.12
751.96	23501.39
752.298	23610.31
752.636	23565.57
752.975	23445.57
753.313	23324.67
753.651	23417.55
753.989	23269.76
754.327	23296.65
754.666	23156.54
755.004	23201.73
755.342	23103.21
755.679	23157.44
756.017	23038.58
756.355	23088.97
756.693	22908.18
757.031	22903.66
757.368	22790.67
757.706	22748.87
758.044	22695.31
758.381	22767.17
758.719	22597.23
759.056	22580.51
759.394	22548.42
759.731	22509.1
