Data from hue_60_FLMS001491_73.txt Node
Date: Mon Feb 06 15:17:53 GMT 2017
User: dcchb
Spectrometer: FLMS00149
Trigger mode: 0
Integration Time (sec): 2.000000E-2
Scans to average: 10
Electric dark correction enabled: true
Nonlinearity correction enabled: false
Boxcar width: 0
XAxis mode: Wavelengths
Number of Pixels in Spectrum: 2048
>>>>>Begin Spectral Data<<<<<
341.393	6.67
341.776	6.67
342.16	6.67
342.543	-52.99
342.927	-53.67
343.31	-82.37
343.693	-67.91
344.077	-72.65
344.46	-58.64
344.843	-48.93
345.226	-46.44
345.61	-28.81
345.993	-23.84
346.376	13.22
346.759	8.7
347.142	32.65
347.525	50.51
347.908	39.89
348.291	67.68
348.674	99.55
349.057	117.4
349.44	131.86
349.823	135.25
350.206	175.93
350.588	206.21
350.971	206.44
351.354	242.37
351.737	265.19
352.119	244.4
352.502	268.35
352.884	293.44
353.267	283.27
353.65	297.28
354.032	304.96
354.414	320.1
354.797	319.43
355.179	337.51
355.562	332.99
355.944	316.04
356.326	353.78
356.709	351.74
357.091	333.66
357.473	348.13
357.855	342.93
358.238	368.69
358.62	354.91
359.002	365.75
359.384	354.45
359.766	336.6
360.148	346.77
360.53	346.09
360.912	365.3
361.294	350.84
361.676	321.69
362.057	327.11
362.439	338.18
362.821	346.32
363.203	326.21
363.584	324.4
363.966	334.12
364.348	357.17
364.729	351.06
365.111	321.46
365.493	298.64
365.874	352.19
366.256	335.47
366.637	309.71
367.019	339.31
367.4	345.87
367.781	311.52
368.163	335.02
368.544	308.13
368.925	313.33
369.306	321.01
369.688	303.61
370.069	321.23
370.45	330.5
370.831	333.89
371.212	326.88
371.593	317.17
371.974	321.01
372.355	330.27
372.736	319.65
373.117	314
373.498	318.07
373.879	338.18
374.26	326.43
374.641	328.47
375.021	322.82
375.402	336.38
375.783	351.52
376.163	336.15
376.544	343.15
376.925	334.12
377.305	344.74
377.686	318.52
378.066	348.8
378.447	362.14
378.827	327.56
379.208	340.67
379.588	349.48
379.968	328.24
380.349	334.12
380.729	330.05
381.109	335.47
381.489	348.58
381.87	349.71
382.25	340.22
382.63	358.52
383.01	344.28
383.39	332.99
383.77	341.12
384.15	358.75
384.53	358.97
384.91	347
385.29	354.45
385.67	337.51
386.049	348.58
386.429	337.73
386.809	353.1
387.189	353.78
387.568	363.27
387.948	361.91
388.328	349.03
388.707	362.59
389.087	373.66
389.466	344.74
389.846	354.68
390.225	365.75
390.605	356.71
390.984	381.8
391.363	357.39
391.743	372.31
392.122	352.65
392.501	375.92
392.881	364.4
393.26	369.14
393.639	394.68
394.018	386.54
394.397	365.75
394.776	360.56
395.155	383.83
395.534	368.46
395.913	370.72
396.292	367.56
396.671	390.61
397.05	389.71
397.429	390.39
397.808	396.94
398.186	398.29
398.565	377.96
398.944	387.9
399.323	370.95
399.701	395.13
400.08	395.58
400.458	381.57
400.837	426.54
401.215	389.71
401.594	395.13
401.972	414.57
402.351	392.19
402.729	389.26
403.107	409.59
403.486	399.88
403.864	398.07
404.242	419.09
404.62	410.27
404.999	412.08
405.377	412.08
405.755	437.16
406.133	415.7
406.511	416.6
406.889	418.63
407.267	435.58
407.645	440.78
408.023	424.28
408.401	440.1
408.779	442.59
409.156	419.09
409.534	441.01
409.912	445.98
410.29	453.43
410.667	470.16
411.045	475.81
411.422	467.67
411.8	436.03
412.178	459.31
412.555	455.02
412.933	470.38
413.31	459.54
413.687	463.83
414.065	468.35
414.442	455.47
414.819	484.85
415.197	481.68
415.574	499.31
415.951	496.37
416.328	505.41
416.705	476.26
417.082	498.4
417.46	490.95
417.837	487.56
418.214	495.02
418.591	506.09
418.967	498.18
419.344	522.81
419.721	496.82
420.098	494.56
420.475	520.33
420.852	525.52
421.228	524.62
421.605	523.49
421.982	519.42
422.358	522.13
422.735	515.58
423.111	516.71
423.488	546.54
423.864	544.51
424.241	551.51
424.617	555.13
424.994	551.28
425.37	561
425.746	559.42
426.123	556.71
426.499	564.17
426.875	576.82
427.251	564.62
427.627	578.63
428.003	594.45
428.379	586.99
428.756	604.39
429.132	603.94
429.507	620.21
429.883	628.57
430.259	598.52
430.635	621.11
431.011	584.05
431.387	622.24
431.763	633.54
432.138	633.54
432.514	639.87
432.89	653.43
433.265	625.86
433.641	649.36
434.016	654.56
434.392	677.38
434.767	668.8
435.143	670.83
435.518	690.72
435.894	703.6
436.269	670.15
436.644	686.2
437.02	702.24
437.395	695.46
437.77	700.66
438.145	697.04
438.52	722.58
438.895	733.43
439.271	715.12
439.646	707.89
440.021	735.91
440.395	737.72
440.77	705.86
441.145	742.92
441.52	764.16
441.895	735.23
442.27	767.1
442.645	752.41
443.019	760.54
443.394	770.94
443.769	777.49
444.143	784.5
444.518	788.79
444.892	778.62
445.267	802.13
445.641	792.18
446.016	784.95
446.39	786.53
446.764	789.47
447.139	799.64
447.513	805.74
447.887	803.26
448.262	823.59
448.636	813.88
449.01	847.1
449.384	821.79
449.758	826.76
450.132	825.18
450.506	857.04
450.88	845.97
451.254	862.24
451.628	860.2
452.002	866.98
452.376	899.3
452.75	880.54
453.123	884.16
453.497	899.75
453.871	899.52
454.244	921.9
454.618	939.3
454.992	967.55
455.365	946.53
455.739	944.72
456.112	972.29
456.486	963.03
456.859	985.17
457.232	995.12
457.606	1028.11
457.979	1017.94
458.352	1037.37
458.725	1015.91
459.099	1023.36
459.472	1070.14
459.845	1073.31
460.218	1089.35
460.591	1072.85
460.964	1080.54
461.337	1131.61
461.71	1129.35
462.083	1144.26
462.456	1135.9
462.829	1130.03
463.201	1156.69
463.574	1172.51
463.947	1201.66
464.32	1219.52
464.692	1235.33
465.065	1230.82
465.438	1231.27
465.81	1274.43
466.183	1329.8
466.555	1337.93
466.928	1311.49
467.3	1312.85
467.672	1367.76
468.045	1396.91
468.417	1425.39
468.789	1447.98
469.161	1452.05
469.534	1461.77
469.906	1486.4
470.278	1524.82
470.65	1535.89
471.022	1586.51
471.394	1632.61
471.766	1626.51
472.138	1666.06
472.51	1675.78
472.882	1742.21
473.253	1780.86
473.625	1803.23
473.997	1849.56
474.369	1921.19
474.74	1936.56
475.112	1973.17
475.484	2017.69
475.855	2081.64
476.227	2131.36
476.598	2178.36
476.97	2240.96
477.341	2275.08
477.713	2360.28
478.084	2398.47
478.455	2472.59
478.827	2516.88
479.198	2600.27
479.569	2672.59
479.94	2762.53
480.311	2798.01
480.682	2896.76
481.053	3005.01
481.424	3094.95
481.795	3213.81
482.166	3217.66
482.537	3314.83
482.908	3431.66
483.279	3532.22
483.65	3586.01
484.021	3748.94
484.391	3845.21
484.762	3960.69
485.133	4028.93
485.503	4103.28
485.874	4290.62
486.244	4366.1
486.615	4519.09
486.985	4639.09
487.356	4806.31
487.726	4969.93
488.097	5090.6
488.467	5161.56
488.837	5355.68
489.207	5502.79
489.578	5660.76
489.948	5750.02
490.318	5937.58
490.688	6020.29
491.058	6205.83
491.428	6352.26
491.798	6520.85
492.168	6721.07
492.538	6805.36
492.908	6982.3
493.278	7134.84
493.648	7266.59
494.017	7469.97
494.387	7671.55
494.757	7721.72
495.126	7906.57
495.496	8010.98
495.866	8264.75
496.235	8398.76
496.605	8558.76
496.974	8673.78
497.344	8916.26
497.713	9059.76
498.082	9236.48
498.452	9347.44
498.821	9530.71
499.19	9612.97
499.559	9817.71
499.928	9951.04
500.298	10071.03
500.667	10303.12
501.036	10301.09
501.405	10621.75
501.774	10652.94
502.143	10824.46
502.512	10933.61
502.88	11150.33
503.249	11288.63
503.618	11468.51
503.987	11474.61
504.356	11722.97
504.724	11844.1
505.093	12014.03
505.462	12104.88
505.83	12237.98
506.199	12386.45
506.567	12690.17
506.936	12790.51
507.304	12898.98
507.672	13037.96
508.041	13152.08
508.409	13318.63
508.777	13464.84
509.145	13597.5
509.514	13785.51
509.882	13910.03
510.25	13895.11
510.618	14136.01
510.986	14210.81
511.354	14496.68
511.722	14547.08
512.09	14758.14
512.458	14743
512.826	15083.78
513.193	15056.89
513.561	15233.84
513.929	15393.15
514.297	15574.62
514.664	15699.36
515.032	15910.2
515.4	16056.87
515.767	16079.24
516.135	16278.78
516.502	16299.8
516.869	16511.77
517.237	16711.54
517.604	16630.86
517.972	16830.18
518.339	17056.84
518.706	17108.82
519.073	17282.82
519.44	17341.35
519.808	17600.55
520.175	17683.49
520.542	17929.36
520.909	18020.88
521.276	18100.2
521.643	18306.75
522.009	18518.5
522.376	18584.03
522.743	18733.86
523.11	18869.9
523.477	19085.49
523.843	19200.51
524.21	19402.54
524.577	19611.8
524.943	19748.52
525.31	19805.24
525.676	19995.07
526.043	20192.58
526.409	20332.91
526.776	20470.54
527.142	20561.83
527.508	20670.76
527.874	21004.08
528.241	21021.48
528.607	21063.74
528.973	21299.67
529.339	21415.37
529.705	21510.73
530.071	21708.69
530.437	21934.45
530.803	21911.63
531.169	22144.16
531.535	22122.02
531.901	22297.83
532.267	22349.81
532.632	22581.67
532.998	22606.52
533.364	22702.11
533.73	22754.09
534.095	23104.14
534.461	23120.86
534.826	23115.21
535.192	23249.9
535.557	23432.27
535.923	23529.89
536.288	23634.97
536.653	23715.2
537.019	23646.27
537.384	23806.49
537.749	23899.82
538.114	24092.81
538.479	24062.76
538.845	24103.21
539.21	24159.48
539.575	24299.81
539.94	24460.03
540.305	24554.72
540.67	24525.8
541.034	24693.93
541.399	24756.07
541.764	24776.86
542.129	24958.78
542.494	24986.12
542.858	25008.49
543.223	25138.89
543.587	25318.09
543.952	25277.64
544.316	25395.38
544.681	25396.28
545.045	25467.92
545.41	25678.99
545.774	25754.01
546.138	25760.11
546.503	25838.76
546.867	25789.49
547.231	26108.81
547.595	26169.82
547.959	26122.36
548.324	26219.08
548.688	26381.57
549.052	26501.56
549.416	26431.96
549.779	26444.16
550.143	26566.87
550.507	26838.5
550.871	26854.1
551.235	26835.11
551.599	27133.41
551.962	27154.2
552.326	27165.5
552.689	27412.5
553.053	27343.35
553.417	27365.72
553.78	27732.72
554.143	27669.44
554.507	27862.88
554.87	27844.35
555.234	28150.33
555.597	28072.14
555.96	28103.78
556.323	28289.76
556.686	28349.2
557.05	28620.15
557.413	28571.79
557.776	28670.09
558.139	28986.92
558.502	28832.8
558.865	28994.38
559.228	29268.5
559.59	29354.37
559.953	29372.22
560.316	29732.89
560.679	29741.25
561.041	29784.64
561.404	29989.61
561.767	30293.55
562.129	30133.11
562.492	30452.87
562.854	30480.44
563.217	30506.2
563.579	30646.31
563.941	30818.96
564.304	31036.59
564.666	31156.58
565.028	31153.19
565.39	31244.72
565.753	31458.49
566.115	31714.53
566.477	31679.73
566.839	31747.07
567.201	32008.08
567.563	32017.58
567.925	32269.32
568.287	32340.05
568.648	32408.07
569.01	32598.58
569.372	32845.58
569.734	32682.42
570.095	32851.9
570.457	33189.07
570.819	33159.02
571.18	33113.37
571.542	33272.23
571.903	33404.21
572.265	33554.48
572.626	33737.31
572.987	33709.51
573.349	33897.07
573.71	33799.22
574.071	34043.29
574.432	34082.38
574.794	34414.12
575.155	34374.8
575.516	34274.92
575.877	34418.64
576.238	34493.67
576.599	34596.94
576.96	34613.44
577.32	34679.88
577.681	34792.19
578.042	34897.27
578.403	34900.66
578.763	34989.93
579.124	35093.88
579.485	35160.54
579.845	35149.47
580.206	35275.34
580.566	35203.48
580.927	35293.65
581.287	35470.59
581.648	35337.26
582.008	35543.59
582.368	35404.61
582.728	35695.45
583.089	35530.48
583.449	35483.25
583.809	35566.86
584.169	35756.23
584.529	35593.3
584.889	35891.82
585.249	35550.14
585.609	35554.21
585.969	35845.27
586.329	35634.88
586.688	35860.86
587.048	35819.06
587.408	35774.77
587.768	35731.83
588.127	35744.71
588.487	35819.96
588.846	35913.07
589.206	35708.33
589.565	35837.59
589.925	35932.5
590.284	35910.36
590.643	35963.91
591.003	36001.2
591.362	36134.53
591.721	35987.42
592.08	36050.69
592.44	36141.54
592.799	36167.07
593.158	36131.82
593.517	36039.39
593.876	36222.66
594.235	36085.49
594.593	36215.66
594.952	36174.3
595.311	36152.38
595.67	36171.37
596.029	36488.19
596.387	36403
596.746	36587.4
597.104	36330.91
597.463	36362.77
597.822	36450.45
598.18	36430.57
598.538	36355.77
598.897	36754.17
599.255	36417.46
599.613	36810.67
599.972	36805.92
600.33	36886.37
600.688	36649.09
601.046	36792.82
601.404	36975.19
601.762	36836.88
602.12	36984.9
602.478	37135.63
602.836	37125.69
603.194	36921.85
603.552	37039.37
603.91	36835.75
604.268	37113.26
604.625	36964.11
604.983	37231.9
605.341	37056.09
605.698	37316.42
606.056	37265.57
606.413	37339.24
606.771	37460.14
607.128	37532.46
607.485	37465.34
607.843	37523.65
608.2	37822.85
608.557	37814.71
608.914	37770.19
609.272	38027.59
609.629	37942.62
609.986	38174.7
610.343	37799.57
610.7	38248.82
611.057	38240.01
611.414	38212.22
611.771	38303.74
612.127	38413.11
612.484	38417.63
612.841	38538.31
613.198	38535.14
613.554	38557.29
613.911	38695.59
614.267	38807.68
614.624	38606.78
614.98	38738.53
615.337	39034.34
615.693	38979.88
616.05	38823.5
616.406	39074.57
616.762	38982.14
617.118	39051.06
617.475	39026.66
617.831	39212.42
618.187	39094.68
618.543	39218.97
618.899	39525.85
619.255	39421.68
619.611	39383.94
619.967	39552.75
620.323	39712.97
620.678	39488.11
621.034	39465.52
621.39	39478.17
621.746	39432.52
622.101	39936.01
622.457	39619.86
622.812	39549.58
623.168	39654.66
623.523	39780.76
623.879	39877.26
624.234	39565.4
624.589	39975.79
624.945	39930.81
625.3	39910.25
625.655	39854.88
626.01	39974.66
626.365	40036.12
626.72	39878.84
627.075	39912.28
627.43	39893.53
627.785	39863.92
628.14	39978.72
628.495	40039.74
628.85	40049
629.205	39943.47
629.559	40208.1
629.914	39965.84
630.269	40013.98
630.623	39987.99
630.978	39889.23
631.332	40023.24
631.687	40152.96
632.041	39831.83
632.396	39995.45
632.75	39834.55
633.104	39925.16
633.459	39732.4
633.813	39790.03
634.167	39792.96
634.521	39765.17
634.875	39888.1
635.229	39759.97
635.583	39608.79
635.937	39641.33
636.291	39585.51
636.645	39709.35
636.999	39593.87
637.352	39437.72
637.706	39451.96
638.06	39631.39
638.413	39459.64
638.767	39297.61
639.121	39495.57
639.474	39305.52
639.828	39308.23
640.181	39474.78
640.534	39481.56
640.888	39379.87
641.241	39131.06
641.594	39313.43
641.947	39331.96
642.301	39196.37
642.654	39236.82
643.007	39236.82
643.36	39163.6
643.713	39156.82
644.066	39274.33
644.419	38936.94
644.771	38705.31
645.124	38359.56
645.477	38357.52
645.83	38128.6
646.182	37984.65
646.535	37887.48
646.888	37981.04
647.24	37849.74
647.593	37914.14
647.945	37809.97
648.298	37760.48
648.65	37627.6
649.002	37528.17
649.355	37741.27
649.707	37814.94
650.059	37878.89
650.411	38197.98
650.763	38315.94
651.115	38612.43
651.467	38454.92
651.819	38606.78
652.171	38467.35
652.523	38355.49
652.875	38322.04
653.227	38280.01
653.578	38548.93
653.93	38510.29
654.282	38179.67
654.633	38197.98
654.985	38221.03
655.337	38327.92
655.688	38222.38
656.039	38212.44
656.391	38006.12
656.742	38165.44
657.094	38020.36
657.445	38179
657.796	38066.23
658.147	38173.12
658.498	37989.62
658.849	38122.73
659.2	38006.35
659.551	37912.34
659.902	38119.11
660.253	38065.33
660.604	38011.99
660.955	37880.7
661.306	37866.01
661.656	37889.29
662.007	37968.15
662.358	37837.76
662.708	37780.59
663.059	37916.63
663.409	37596.19
663.76	37879.12
664.11	37860.59
664.461	38054.93
664.811	37995.27
665.161	37901.04
665.511	37676.86
665.862	37925.22
666.212	37938.32
666.562	37769.74
666.912	37908.04
667.262	37660.82
667.612	37712.79
667.962	37815.16
668.312	37729.29
668.662	38029.4
669.011	37720.48
669.361	37707.14
669.711	37641.16
670.06	37736.52
670.41	37566.58
670.76	37572.23
671.109	37767.71
671.459	37703.3
671.808	37702.4
672.157	37623.76
672.507	37471.44
672.856	37390.32
673.205	37610.88
673.554	37576.3
673.904	37540.37
674.253	37674.15
674.602	37586.24
674.951	36937.22
675.3	36879.82
675.649	37528.62
675.998	37268.29
676.346	37450.88
676.695	37477.09
677.044	37219.7
677.393	37320.49
677.741	37373.14
678.09	37239.13
678.438	37131.34
678.787	37186.25
679.135	37275.52
679.484	36999.59
679.832	37217.21
680.181	36996.88
680.529	37086.6
680.877	36926.6
681.225	36792.14
681.573	37107.16
681.922	36839.14
682.27	36680.5
682.618	36824.46
682.966	36560.51
683.314	36626.49
683.661	36572.26
684.009	36327.29
684.357	36334.75
684.705	36395.54
685.053	36283.45
685.4	36233.96
685.748	36229.89
686.095	36137.92
686.443	35939.96
686.79	35796.23
687.138	35912.39
687.485	35850.47
687.832	35776.35
688.18	35844.14
688.527	35712.85
688.874	35575.9
689.221	35601.89
689.568	35437.83
689.915	35361.67
690.262	35479.86
690.609	35248.45
690.956	35286.42
691.303	35145.18
691.65	35064.73
691.997	34954.22
692.344	34818.41
692.69	34861.34
693.037	34770.95
693.383	34466.1
693.73	34613.67
694.077	34463.84
694.423	34456.16
694.769	34361.02
695.116	34356.05
695.462	34280.12
695.808	34189.72
696.155	34258.65
696.501	33944.08
696.847	33968.71
697.193	33741.15
697.539	33834.93
697.885	33723.29
698.231	33500.02
698.577	33558.55
698.923	33404.88
699.269	33311.78
699.614	33131.22
699.96	33198.11
700.306	33025.46
700.651	32861.62
700.997	32848.97
701.342	32704.11
701.688	32728.74
702.033	32635.87
702.379	32584.79
702.724	32352.26
703.069	32564.23
703.415	32176.22
703.76	32270.45
704.105	32319.72
704.45	32132.83
704.795	32011.25
705.14	31810.35
705.485	31785.27
705.83	31613.75
706.175	31751.59
706.52	31724.48
706.865	31438.38
707.209	31532.84
707.554	31455.11
707.899	31519.74
708.243	31310.02
708.588	31211.04
708.932	31114.55
709.277	31072.06
709.621	31074.1
709.966	30943.25
710.31	30846.08
710.654	30700.32
710.998	30802.24
711.342	30838.85
711.687	30517.05
712.031	30589.82
712.375	30378.98
712.719	30493.1
713.063	30355.7
713.407	30388.92
713.75	30203.84
714.094	30296.27
714.438	30112.09
714.782	30119.77
715.125	30022.6
715.469	30081.81
715.812	29810.63
716.156	29734.25
716.499	29728.14
716.843	29889.5
717.186	29638.43
717.53	29754.58
717.873	29656.51
718.216	29658.32
718.559	29403.41
718.902	29309.4
719.246	29372.45
719.589	29338.78
719.932	29109.86
720.275	29198.22
720.617	28964.55
720.96	28918
721.303	28965
721.646	28977.88
721.989	28784.89
722.331	28941.05
722.674	28883.87
723.016	28791.9
723.359	28746.25
723.701	28827.15
724.044	28540.38
724.386	28490.66
724.729	28557.78
725.071	28468.07
725.413	28421.96
725.755	28405.47
726.097	28245.92
726.439	28115.31
726.782	28200.5
727.124	28275.3
727.465	28142.2
727.807	28210.9
728.149	27942.66
728.491	28119.6
728.833	28123.44
729.175	27911.24
729.516	27919.38
729.858	27845.03
730.199	27915.54
730.541	27819.95
730.882	27757.8
731.224	27752.15
731.565	27617.01
731.906	27684.81
732.248	27597.35
732.589	27554.87
732.93	27393.07
733.271	27489.33
733.612	27454.31
733.953	27440.3
734.294	27264.93
734.635	27371.82
734.976	27269.45
735.317	27059.06
735.658	27109.68
735.999	27163.92
736.339	27186.29
736.68	27137.03
737.021	26942.91
737.361	26923.02
737.702	27099.51
738.042	26951.49
738.383	26915.34
738.723	26926.41
739.063	26743.14
739.404	26892.97
739.744	26710.37
740.084	26732.07
740.424	26715.79
740.764	26683.93
741.104	26683.71
741.444	26406.65
741.784	26427.89
742.124	26465.41
742.464	26398.74
742.804	26370.95
743.143	26299.76
743.483	26285.07
743.823	26118.3
744.162	26210.05
744.502	26286.2
744.841	26160.78
745.181	26260.44
745.52	26041.69
745.86	26044.85
746.199	26003.72
746.538	25969.83
746.877	26049.6
747.216	25789.04
747.556	25861.13
747.895	25758.31
748.234	25798.76
748.573	25681.02
748.911	25665.2
749.25	25677.18
749.589	25492.55
749.928	25551.08
750.267	25497.52
750.605	25472.44
750.944	25399.22
751.283	25316.28
751.621	25348.6
751.96	25225.66
752.298	25196.96
752.636	25159.68
752.975	25074.93
753.313	25014.14
753.651	25015.73
753.989	24871.1
754.327	24909.74
754.666	24677.2
755.004	24813.92
755.342	24836.97
755.679	24647.15
756.017	24517.89
756.355	24698.9
756.693	24345.46
