Data from hue_130_FLMS001491_00094.txt Node
Date: Tue Feb 07 16:58:21 GMT 2017
User: dcchb
Spectrometer: FLMS00149
Trigger mode: 0
Integration Time (sec): 2.000000E-2
Scans to average: 10
Electric dark correction enabled: true
Nonlinearity correction enabled: false
Boxcar width: 0
XAxis mode: Wavelengths
Number of Pixels in Spectrum: 2048
>>>>>Begin Spectral Data<<<<<
341.393	-24.58
341.776	-24.58
342.16	-24.58
342.543	-57.34
342.927	-51.69
343.31	-71.13
343.693	-64.12
344.077	-61.64
344.46	-68.64
344.843	-51.69
345.226	-31.58
345.61	-22.77
345.993	-31.13
346.376	-4.24
346.759	15.65
347.142	32.37
347.525	30.34
347.908	60.17
348.291	71.92
348.674	95.87
349.057	100.62
349.44	131.8
349.823	131.35
350.206	145.36
350.588	197.34
350.971	203.89
351.354	209.09
351.737	224.46
352.119	239.37
352.502	252.48
352.884	272.14
353.267	278.02
353.65	300.61
354.032	306.49
354.414	310.56
354.797	317.34
355.179	323.44
355.562	323.66
355.944	332.25
356.326	358.01
356.709	297.9
357.091	329.77
357.473	342.65
357.855	318.24
358.238	344
358.62	329.31
359.002	329.31
359.384	342.65
359.766	344.23
360.148	352.82
360.53	311.46
360.912	338.8
361.294	332.25
361.676	327.28
362.057	329.54
362.439	338.8
362.821	313.04
363.203	328.41
363.584	317.79
363.966	319.37
364.348	316.66
364.729	319.6
365.111	304.46
365.493	309.2
365.874	334.28
366.256	313.49
366.637	316.88
367.019	336.77
367.4	306.94
367.781	322.53
368.163	304.91
368.544	289.54
368.925	305.81
369.306	329.77
369.688	292.48
370.069	308.07
370.45	320.5
370.831	332.25
371.212	311.91
371.593	316.88
371.974	303.33
372.355	322.08
372.736	314.85
373.117	305.81
373.498	319.82
373.879	304.23
374.26	305.13
374.641	304.46
375.021	317.11
375.402	304.23
375.783	297.9
376.163	325.02
376.544	311.46
376.925	304.68
377.305	333.83
377.686	322.99
378.066	325.47
378.447	327.96
378.827	317.34
379.208	323.44
379.588	319.6
379.968	305.81
380.349	340.61
380.729	328.18
381.109	315.08
381.489	315.53
381.87	329.31
382.25	334.06
382.63	335.41
383.01	327.51
383.39	347.17
383.77	344.23
384.15	339.93
384.53	328.18
384.91	363.66
385.29	348.3
385.67	334.06
386.049	344.45
386.429	344.23
386.809	342.87
387.189	350.33
387.568	343.55
387.948	345.36
388.328	342.19
388.707	355.98
389.087	357.79
389.466	367.05
389.846	349.43
390.225	343.1
390.605	353.27
390.984	367.28
391.363	372.7
391.743	380.84
392.122	365.24
392.501	346.71
392.881	386.26
393.26	374.96
393.639	367.05
394.018	384
394.397	375.19
394.776	364.57
395.155	387.39
395.534	368.18
395.913	369.31
396.292	401.85
396.671	368.18
397.05	353.49
397.429	377.9
397.808	375.41
398.186	381.97
398.565	364.79
398.944	378.8
399.323	376.54
399.701	367.5
400.08	389.88
400.458	377.45
400.837	398.69
401.215	400.72
401.594	410.89
401.972	399.82
402.351	396.66
402.729	405.47
403.107	383.78
403.486	400.05
403.864	409.09
404.242	390.1
404.62	415.64
404.999	389.42
405.377	418.35
405.755	421.06
406.133	427.84
406.511	421.51
406.889	411.57
407.267	419.93
407.645	437.79
408.023	427.39
408.401	423.1
408.779	418.8
409.156	419.25
409.534	439.59
409.912	417.9
410.29	448.86
410.667	438.24
411.045	460.38
411.422	470.1
411.8	466.48
412.178	428.29
412.555	445.02
412.933	453.83
413.31	470.1
413.687	453.38
414.065	468.07
414.442	451.34
414.819	462.19
415.197	462.64
415.574	474.62
415.951	476.65
416.328	462.64
416.705	487.5
417.082	501.51
417.46	506.94
417.837	492.7
418.214	479.37
418.591	474.62
418.967	485.69
419.344	499.25
419.721	506.03
420.098	512.59
420.475	508.74
420.852	511.68
421.228	505.13
421.605	499.03
421.982	506.26
422.358	535.18
422.735	517.11
423.111	526.6
423.488	526.82
423.864	521.17
424.241	534.05
424.617	530.89
424.994	534.28
425.37	533.6
425.746	539.03
426.123	566.82
426.499	525.01
426.875	587.61
427.251	568.63
427.627	561.62
428.003	560.49
428.379	569.08
428.756	589.19
429.132	597.1
429.507	612.92
429.883	593.49
430.259	595.07
430.635	617.89
431.011	606.37
431.387	625.35
431.763	625.12
432.138	622.64
432.514	610.21
432.89	620.38
433.265	640.27
433.641	652.02
434.016	633.94
434.392	641.62
434.767	649.3
435.143	684.33
435.518	653.82
435.894	651.56
436.269	644.79
436.644	691.79
437.02	672.36
437.395	694.95
437.77	706.25
438.145	682.98
438.52	697.44
438.895	743.77
439.271	709.19
439.646	727.95
440.021	710.77
440.395	728.85
440.77	729.08
441.145	731.34
441.52	760.04
441.895	776.08
442.27	751.9
442.645	768.17
443.019	754.61
443.394	777.89
443.769	757.78
444.143	773.6
444.518	757.1
444.892	764.1
445.267	785.8
445.641	804.78
446.016	784.89
446.39	798.23
446.764	800.04
447.139	808.85
447.513	794.84
447.887	805.01
448.262	835.06
448.636	825.35
449.01	837.1
449.384	846.14
449.758	836.87
450.132	867.15
450.506	855.63
450.88	835.97
451.254	853.37
451.628	860.15
452.002	892.91
452.376	892.91
452.75	898.79
453.123	903.31
453.497	899.24
453.871	908.51
454.244	909.64
454.618	927.04
454.992	955.06
455.365	952.57
455.739	964.55
456.112	975.17
456.486	972.91
456.859	992.12
457.232	1007.26
457.606	1036.41
457.979	1042.74
458.352	1046.36
458.725	1052.91
459.099	1049.75
459.472	1077.09
459.845	1074.6
460.218	1098.56
460.591	1097.43
460.964	1112.34
461.337	1107.15
461.71	1155.51
462.083	1153.02
462.456	1148.27
462.829	1185.11
463.201	1201.15
463.574	1221.95
463.947	1207.93
464.32	1241.15
464.692	1260.81
465.065	1269.85
465.438	1291.1
465.81	1284.09
466.183	1303.75
466.555	1364.99
466.928	1371.32
467.3	1357.76
467.672	1392.34
468.045	1441.6
468.417	1434.82
468.789	1445.22
469.161	1484.31
469.534	1519.79
469.906	1539.9
470.278	1542.39
470.65	1592.11
471.022	1629.39
471.394	1670.97
471.766	1686.57
472.138	1713.91
472.51	1720.69
472.882	1787.81
473.253	1814.47
473.625	1825.09
473.997	1876.62
474.369	1913.9
474.74	1967.91
475.112	2025.99
475.484	2070.06
475.855	2076.84
476.227	2146.89
476.598	2227.79
476.97	2271.86
477.341	2313.22
477.713	2390.28
478.084	2416.72
478.455	2488.58
478.827	2538.07
479.198	2629.37
479.569	2678.4
479.94	2766.31
480.311	2822.81
480.682	2930.83
481.053	3052.41
481.424	3093.31
481.795	3141.44
482.166	3270.48
482.537	3317.71
482.908	3397.71
483.279	3507.76
483.65	3626.18
484.021	3726.74
484.391	3810.13
484.762	3890.8
485.133	3955.21
485.503	4077.92
485.874	4201.53
486.244	4340.28
486.615	4470.22
486.985	4581.4
487.356	4705.47
487.726	4745.02
488.097	4933.03
488.467	5009.87
488.837	5174.16
489.207	5291.44
489.578	5496.86
489.948	5541.83
490.318	5642.39
490.688	5748.15
491.058	5896.17
491.428	6020.92
491.798	6162.61
492.168	6341.36
492.538	6419.55
492.908	6629.03
493.278	6786.77
493.648	6808.01
494.017	6930.5
494.387	7068.12
494.757	7230.37
495.126	7351.73
495.496	7457.71
495.866	7472.63
496.235	7679.63
496.605	7847.53
496.974	7942.45
497.344	8018.15
497.713	8159.84
498.082	8257.01
498.452	8410.23
498.821	8531.58
499.19	8527.97
499.559	8713.05
499.928	8772.03
500.298	8908.07
500.667	9026.49
501.036	9131.79
501.405	9187.16
501.774	9214.28
502.143	9389.87
502.512	9435.29
502.88	9589.86
503.249	9619.92
503.618	9713.47
503.987	9812.45
504.356	9865.56
504.724	9949.63
505.093	10049.96
505.462	10102.62
505.83	10195.27
506.199	10333.12
506.567	10451.31
506.936	10415.15
507.304	10593.68
507.672	10522.04
508.041	10682.04
508.409	10724.52
508.777	10840
509.145	10859.21
509.514	10910.5
509.882	10962.03
510.25	11030.05
510.618	11138.07
510.986	11141.23
511.354	11242.02
511.722	11296.03
512.09	11368.35
512.458	11386.42
512.826	11422.13
513.193	11510.26
513.561	11488.12
513.929	11587.55
514.297	11633.65
514.664	11750.71
515.032	11676.59
515.4	11819.41
515.767	11846.07
516.135	11936.01
516.502	11777.37
516.869	11891.27
517.237	11986.41
517.604	11897.6
517.972	12089.91
518.339	12070.47
518.706	12016.46
519.073	12067.54
519.44	12144.6
519.808	12222.56
520.175	12228.89
520.542	12237.02
520.909	12298.26
521.276	12359.73
521.643	12369.22
522.009	12450.58
522.376	12490.35
522.743	12492.61
523.11	12596.56
523.477	12625.49
523.843	12643.57
524.21	12654.86
524.577	12716.33
524.943	12646.28
525.31	12780.74
525.676	12710
526.043	12807.4
526.409	12835.65
526.776	12901.64
527.142	12905.93
527.508	12918.81
527.874	12956.33
528.241	12860.96
528.607	12951.58
528.973	12956.55
529.339	12958.81
529.705	12999.04
530.071	13071.13
530.437	13024.12
530.803	13056.66
531.169	13113.16
531.535	13054.4
531.901	12899.38
532.267	12968.98
532.632	13000.62
532.998	12913.84
533.364	12984.12
533.73	13006.95
534.095	13055.08
534.461	13031.13
534.826	12961.75
535.192	12898.02
535.557	13009.21
535.923	12896.67
536.288	12942.99
536.653	12939.38
537.019	12857.12
537.384	12821.87
537.749	12838.81
538.114	12745.94
538.479	12724.69
538.845	12773.96
539.21	12611.48
539.575	12717.24
539.94	12712.26
540.305	12695.99
540.67	12637.24
541.034	12611.93
541.399	12604.92
541.764	12623.23
542.129	12574.64
542.494	12509.78
542.858	12511.59
543.223	12373.97
543.587	12420.07
543.952	12428.43
544.316	12334.2
544.681	12286.29
545.045	12207.65
545.41	12301.88
545.774	12288.55
546.138	12154.54
546.503	12222.79
546.867	12105.5
547.231	12204.03
547.595	12085.61
547.959	12101.43
548.324	12058.72
548.688	12046.07
549.052	12051.49
549.416	11893.53
549.779	11895.56
550.143	11905.73
550.507	11847.88
550.871	11980.98
551.235	11824.15
551.599	11801.33
551.962	11841.78
552.326	11833.19
552.689	11841.78
553.053	11672.07
553.417	11639.98
553.78	11794.77
554.143	11638.17
554.507	11745.96
554.87	11612.63
555.234	11696.92
555.597	11524.73
555.96	11586.87
556.323	11597.49
556.686	11554.55
557.05	11548.23
557.413	11541
557.776	11576.02
558.139	11577.61
558.502	11573.76
558.865	11514.56
559.228	11459.64
559.59	11576.93
559.953	11401.11
560.316	11556.59
560.679	11482.24
561.041	11578.51
561.404	11475.01
561.767	11628
562.129	11474.33
562.492	11649.92
562.854	11544.84
563.217	11552.52
563.579	11545.97
563.941	11668.22
564.304	11617.6
564.666	11658.28
565.028	11638.17
565.39	11589.13
565.753	11541.45
566.115	11620.32
566.477	11682.91
566.839	11666.87
567.201	11697.15
567.563	11626.64
567.925	11699.86
568.287	11715
568.648	11719.07
569.01	11774.21
569.372	11771.05
569.734	11672.97
570.095	11695.57
570.457	11744.15
570.819	11724.72
571.18	11662.8
571.542	11783.48
571.903	11805.62
572.265	11796.58
572.626	11831.16
572.987	11836.13
573.349	11785.28
573.71	11815.79
574.071	11887.2
574.432	11861.44
574.794	11913.87
575.155	11878.39
575.516	11804.49
575.877	11900.53
576.238	11948.22
576.599	11843.36
576.96	11858.28
577.32	11820.99
577.681	11951.15
578.042	11851.27
578.403	11872.74
578.763	11930.14
579.124	11933.75
579.485	11850.82
579.845	11948.44
580.206	11927.2
580.566	11911.16
580.927	11950.93
581.287	12031.6
581.648	11914.55
582.008	11958.84
582.368	11983.47
582.728	11925.84
583.089	11952.74
583.449	11891.5
583.809	11979.85
584.169	11957.71
584.529	11890.59
584.889	11864.15
585.249	11796.81
585.609	11816.69
585.969	11863.25
586.329	11762.01
586.688	11785.96
587.048	11843.36
587.408	11745.74
587.768	11826.19
588.127	11776.92
588.487	11728.56
588.846	11773.31
589.206	11722.91
589.565	11752.06
589.925	11776.92
590.284	11746.19
590.643	11706.19
591.003	11789.13
591.362	11773.31
591.721	11758.39
592.08	11757.26
592.44	11702.12
592.799	11642.01
593.158	11675.91
593.517	11701.44
593.876	11648.34
594.235	11657.38
594.593	11679.98
594.952	11707.55
595.311	11608.11
595.67	11629.81
596.029	11680.43
596.387	11673.65
596.746	11662.35
597.104	11604.72
597.463	11566.08
597.822	11655.57
598.18	11583.03
598.538	11627.77
598.897	11721.56
599.255	11581.9
599.613	11672.07
599.972	11611.5
600.33	11665.74
600.688	11617.83
601.046	11623.03
601.404	11735.34
601.762	11693.08
602.12	11772.63
602.478	11693.76
602.836	11709.81
603.194	11601.33
603.552	11591.39
603.91	11600.88
604.268	11611.73
604.625	11613.99
604.983	11610.15
605.341	11623.48
605.698	11623.48
606.056	11558.85
606.413	11630.94
606.771	11669.58
607.128	11646.76
607.485	11691.27
607.843	11662.57
608.2	11672.97
608.557	11696.7
608.914	11649.47
609.272	11764.49
609.629	11837.49
609.986	11763.59
610.343	11679.07
610.7	11766.75
611.057	11663.7
611.414	11687.88
611.771	11769.46
612.127	11778.5
612.484	11743.7
612.841	11792.74
613.198	11800.2
613.554	11747.77
613.911	11814.44
614.267	11866.86
614.624	11703.48
614.98	11865.96
615.337	11845.62
615.693	11846.07
616.05	11832.29
616.406	11933.98
616.762	11849.91
617.118	11825.28
617.475	11912.06
617.831	11884.49
618.187	11972.85
618.543	11872.29
618.899	11993.64
619.255	11931.49
619.611	11999.06
619.967	12013.53
620.323	12020.98
620.678	11940.53
621.034	11907.77
621.39	11929.01
621.746	11895.11
622.101	12052.62
622.457	12021.21
622.812	12009.01
623.168	12064.15
623.523	11986.63
623.879	12124.48
624.234	11935.56
624.589	11959.52
624.945	12013.3
625.3	11995.22
625.655	11954.09
626.01	11967.2
626.365	12040.19
626.72	11980.31
627.075	11935.56
627.43	11881.33
627.785	11892.85
628.14	11954.77
628.495	11887.65
628.85	11930.82
629.205	11835.23
629.559	12007.42
629.914	11873.19
630.269	11857.6
630.623	11929.91
630.978	11854.21
631.332	11807.2
631.687	11862.34
632.041	11831.16
632.396	11866.19
632.75	11804.27
633.104	11788
633.459	11749.58
633.813	11817.37
634.167	11722.69
634.521	11802.46
634.875	11832.29
635.229	11736.7
635.583	11651.28
635.937	11687.43
636.291	11743.25
636.645	11764.49
636.999	11662.57
637.352	11620.77
637.706	11647.21
638.06	11674.78
638.413	11583.93
638.767	11650.6
639.121	11547.78
639.474	11473.65
639.828	11486.08
640.181	11481.34
640.534	11564.05
640.888	11520.21
641.241	11467.55
641.594	11482.47
641.947	11475.01
642.301	11507.32
642.654	11486.99
643.007	11534.44
643.36	11513.43
643.713	11568.57
644.066	11551.84
644.419	11395.92
644.771	11325.63
645.124	11246.54
645.477	11310.95
645.83	11228.46
646.182	11214.22
646.535	11154.57
646.888	11085.64
647.24	11107.79
647.593	11167.45
647.945	11178.75
648.298	11070.27
648.65	11087.22
649.002	10960.67
649.355	11067.79
649.707	11104.62
650.059	11108.24
650.411	11256.48
650.763	11253.09
651.115	11343.49
651.467	11348.46
651.819	11339.42
652.171	11296.71
652.523	11217.84
652.875	11238.63
653.227	11199.54
653.578	11371.73
653.93	11315.92
654.282	11308.01
654.633	11262.81
654.985	11309.14
655.337	11342.58
655.688	11347.33
656.039	11276.82
656.391	11255.35
656.742	11340.78
657.094	11328.57
657.445	11302.36
657.796	11323.15
658.147	11294.67
658.498	11317.73
658.849	11354.79
659.2	11383.26
659.551	11252.87
659.902	11350.27
660.253	11366.31
660.604	11416.03
660.955	11286.77
661.306	11355.24
661.656	11351.4
662.007	11309.82
662.358	11281.79
662.708	11346.42
663.059	11393.2
663.409	11247.9
663.76	11292.41
664.11	11373.99
664.461	11338.06
664.811	11343.49
665.161	11321.57
665.511	11319.31
665.862	11368.57
666.212	11416.93
666.562	11357.27
666.912	11377.16
667.262	11378.74
667.612	11362.24
667.962	11399.53
668.312	11369.48
668.662	11372.86
669.011	11442.02
669.361	11358.63
669.711	11318.4
670.06	11382.81
670.41	11361.79
670.76	11278.4
671.109	11296.26
671.459	11268.46
671.808	11280.66
672.157	11282.47
672.507	11300.32
672.856	11296.26
673.205	11335.35
673.554	11387.33
673.904	11258.29
674.253	11298.97
674.602	11338.74
674.951	11197.5
675.3	10996.6
675.649	11289.25
675.998	11190.27
676.346	11172.64
676.695	11243.38
677.044	11127.22
677.393	11150.95
677.741	11159.31
678.09	11176.94
678.438	11191.63
678.787	11171.29
679.135	11106.21
679.484	10993.44
679.832	11065.53
680.181	11082.25
680.529	11115.7
680.877	11072.08
681.225	11001.35
681.573	11084.28
681.922	10947.11
682.27	10967.9
682.618	10947.11
682.966	10911.18
683.314	10883.39
683.661	10946.89
684.009	10869.38
684.357	10830.51
684.705	10826.44
685.053	10833.44
685.4	10817.17
685.748	10708.25
686.095	10696.95
686.443	10657.86
686.79	10672.32
687.138	10674.13
687.485	10668.93
687.832	10624.18
688.18	10632.09
688.527	10594.58
688.874	10583.96
689.221	10533.11
689.568	10478.88
689.915	10526.11
690.262	10494.24
690.609	10378.99
690.956	10399.11
691.303	10350.07
691.65	10307.13
691.997	10329.95
692.344	10186.46
692.69	10233.01
693.037	10216.29
693.383	10130.86
693.73	10150.07
694.077	10091.09
694.423	10054.93
694.769	9980.81
695.116	10020.13
695.462	9977.65
695.808	9917.31
696.155	9940.13
696.501	9843.64
696.847	9879.8
697.193	9745.56
697.539	9830.08
697.885	9691.78
698.231	9673.7
698.577	9688.16
698.923	9672.8
699.269	9636.19
699.614	9558.45
699.96	9576.98
700.306	9514.61
700.651	9530.65
700.997	9459.47
701.342	9352.58
701.688	9389.87
702.033	9341.51
702.379	9320.94
702.724	9295.86
703.069	9260.15
703.415	9186.71
703.76	9157.56
704.105	9190.32
704.45	9151.23
704.795	9136.99
705.14	9047.73
705.485	9014.28
705.83	8987.62
706.175	9010.22
706.52	9002.98
706.865	8981.74
707.209	8920.27
707.554	8870.56
707.899	8942.42
708.243	8928.18
708.588	8801.41
708.932	8786.72
709.277	8774.97
709.621	8687.51
709.966	8669.43
710.31	8723.67
710.654	8617.01
710.998	8694.29
711.342	8637.8
711.687	8581.07
712.031	8585.14
712.375	8576.55
712.719	8512.38
713.063	8533.84
713.407	8466.27
713.75	8565.03
714.094	8531.13
714.438	8442.55
714.782	8439.83
715.125	8433.96
715.469	8474.18
715.812	8412.94
716.156	8341.31
716.499	8347.86
716.843	8333.62
717.186	8321.87
717.53	8322.1
717.873	8352.83
718.216	8335.43
718.559	8309.67
718.902	8222.44
719.246	8264.25
719.589	8337.01
719.932	8204.13
720.275	8195.32
720.617	8203.68
720.96	8167.75
721.303	8185.6
721.646	8175.89
721.989	8196
722.331	8151.03
722.674	8172.72
723.016	8132.95
723.359	8129.56
723.701	8157.36
724.044	8117.81
724.386	8060.41
724.729	8119.84
725.071	8099.96
725.413	8044.14
725.755	8080.07
726.097	8026.06
726.439	7981.32
726.782	8014.76
727.124	8129.11
727.465	8012.5
727.807	8036.46
728.149	7973.41
728.491	8015.66
728.833	8058.6
729.175	8053.18
729.516	8069.9
729.858	8053.63
730.199	8042.56
730.541	7993.07
730.882	7986.29
731.224	8026.29
731.565	7943.8
731.906	7955.33
732.248	7980.19
732.589	7979.96
732.93	7952.16
733.271	7998.72
733.612	8000.3
733.953	7989.68
734.294	7968.21
734.635	8012.73
734.976	8053.4
735.317	7916.91
735.658	7950.58
735.999	8000.07
736.339	7978.38
736.68	7970.92
737.021	8022.67
737.361	7974.76
737.702	7982.22
738.042	7973.41
738.383	7923.69
738.723	7994.65
739.063	7966.63
739.404	8047.75
739.744	8056.57
740.084	8004.59
740.424	8042.1
740.764	8006.85
741.104	8046.62
741.444	8043.01
741.784	8116
742.124	8046.85
742.464	8117.58
742.804	8158.49
743.143	8147.64
743.483	8221.08
743.823	8158.71
744.162	8195.32
744.502	8221.08
744.841	8225.6
745.181	8287.97
745.52	8352.61
745.86	8390.57
746.199	8377.69
746.538	8428.99
746.877	8484.35
747.216	8542.43
747.556	8529.32
747.895	8567.97
748.234	8642.77
748.573	8617.01
748.911	8763.89
749.25	8774.52
749.589	8835.53
749.928	8887.28
750.267	9001.63
750.605	8991.23
750.944	9075.3
751.283	9148.29
751.621	9252.24
751.96	9324.78
752.298	9437.32
752.636	9485.68
752.975	9530.43
753.313	9561.61
753.651	9800.02
753.989	9876.18
754.327	9974.94
754.666	9992.11
755.004	10174.48
755.342	10371.99
755.679	10432.1
756.017	10519.78
756.355	10677.74
756.693	10747.34
757.031	10982.82
757.368	11016.94
757.706	11153.21
758.044	11319.08
758.381	11526.76
758.719	11569.92
759.056	11790.93
759.394	11886.52
759.731	12090.59
