Data from hue_34_FLMS001491_00051.txt Node
Date: Tue Feb 07 17:25:49 GMT 2017
User: dcchb
Spectrometer: FLMS00149
Trigger mode: 0
Integration Time (sec): 2.000000E-2
Scans to average: 10
Electric dark correction enabled: true
Nonlinearity correction enabled: false
Boxcar width: 0
XAxis mode: Wavelengths
Number of Pixels in Spectrum: 2048
>>>>>Begin Spectral Data<<<<<
341.393	-12.73
341.776	-12.73
342.16	-12.73
342.543	-51.82
342.927	-68.32
343.31	-78.03
343.693	-67.41
344.077	-52.5
344.46	-64.48
344.843	-44.36
345.226	-52.5
345.61	-42.33
345.993	-28.77
346.376	1.06
346.759	19.14
347.142	9.87
347.525	53.04
347.908	46.93
348.291	74.05
348.674	99.14
349.057	127.16
349.44	125.58
349.823	145.46
350.206	163.54
350.588	194.27
350.971	223.2
351.354	243.99
351.737	246.25
352.119	230.88
352.502	281.28
352.884	259.58
353.267	273.59
353.65	302.97
354.032	315.18
354.414	293.71
354.797	324.89
355.179	336.87
355.562	301.84
355.944	329.64
356.326	333.48
356.709	344.55
357.091	322.41
357.473	345.68
357.855	353.14
358.238	340.71
358.62	323.08
359.002	346.36
359.384	339.13
359.766	350.88
360.148	330.54
360.53	340.94
360.912	328.51
361.294	357.43
361.676	333.03
362.057	333.25
362.439	323.31
362.821	337.1
363.203	320.82
363.584	343.65
363.966	342.75
364.348	325.8
364.729	294.61
365.111	319.02
365.493	316.53
365.874	311.56
366.256	336.87
366.637	312.24
367.019	301.16
367.4	302.97
367.781	306.36
368.163	314.95
368.544	325.12
368.925	307.94
369.306	302.29
369.688	323.99
370.069	304.55
370.45	313.14
370.831	310.88
371.212	315.63
371.593	315.85
371.974	313.82
372.355	302.29
372.736	337.32
373.117	312.69
373.498	336.19
373.879	312.69
374.26	313.59
374.641	307.72
375.021	321.28
375.402	319.24
375.783	326.47
376.163	323.76
376.544	337.55
376.925	322.41
377.305	328.51
377.686	335.06
378.066	337.1
378.447	319.02
378.827	326.02
379.208	336.87
379.588	343.88
379.968	345.01
380.349	316.31
380.729	337.55
381.109	347.04
381.489	340.71
381.87	346.36
382.25	350.2
382.63	326.93
383.01	330.99
383.39	333.25
383.77	335.74
384.15	332.58
384.53	352.46
384.91	345.23
385.29	338.68
385.67	349.3
386.049	356.53
386.429	344.33
386.809	336.87
387.189	360.37
387.568	353.37
387.948	352.69
388.328	356.3
388.707	338.9
389.087	360.37
389.466	358.34
389.846	356.76
390.225	375.06
390.605	369.86
390.984	370.99
391.363	381.61
391.743	362.86
392.122	373.7
392.501	375.06
392.881	356.98
393.26	368.51
393.639	381.84
394.018	387.49
394.397	368.51
394.776	390.43
395.155	407.15
395.534	385.46
395.913	381.61
396.292	391.56
396.671	385.23
397.05	377.09
397.429	384.78
397.808	400.37
398.186	400.37
398.565	393.14
398.944	397.66
399.323	401.27
399.701	392.69
400.08	404.44
400.458	386.13
400.837	415.29
401.215	382.07
401.594	377.77
401.972	406.02
402.351	397.21
402.729	399.69
403.107	423.65
403.486	388.17
403.864	415.74
404.242	421.61
404.62	412.12
404.999	395.85
405.377	435.4
405.755	396.53
406.133	436.08
406.511	438.79
406.889	419.35
407.267	429.07
407.645	441.73
408.023	436.75
408.401	413.7
408.779	458.67
409.156	453.48
409.534	450.99
409.912	433.82
410.29	429.75
410.667	451.89
411.045	450.09
411.422	448.51
411.8	446.25
412.178	447.38
412.555	460.93
412.933	462.97
413.31	471.56
413.687	461.84
414.065	467.26
414.442	476.08
414.819	491.67
415.197	487.6
415.574	503.42
415.951	501.16
416.328	470.88
416.705	492.35
417.082	501.61
417.46	500.03
417.837	519.24
418.214	501.39
418.591	491.22
418.967	507.26
419.344	533.02
419.721	521.95
420.098	513.36
420.475	543.87
420.852	537.32
421.228	527.6
421.605	550.42
421.982	521.27
422.358	538.22
422.735	543.87
423.111	552.46
423.488	540.71
423.864	564.43
424.241	542.06
424.617	542.06
424.994	559.01
425.37	563.3
425.746	566.24
426.123	556.75
426.499	566.24
426.875	570.31
427.251	575.28
427.627	581.38
428.003	584.55
428.379	582.06
428.756	589.97
429.132	621.16
429.507	615.96
429.883	614.15
430.259	597.88
430.635	595.62
431.011	623.19
431.387	609.86
431.763	643.98
432.138	607.82
432.514	617.99
432.89	651.89
433.265	646.92
433.641	671.32
434.016	670.19
434.392	674.94
434.767	685.11
435.143	672.68
435.518	688.95
435.894	698.67
436.269	696.41
436.644	693.02
437.02	684.88
437.395	730.08
437.77	717.88
438.145	733.47
438.52	709.06
438.895	732.34
439.271	754.94
439.646	743.86
440.021	763.98
440.395	749.51
440.77	745.9
441.145	743.41
441.52	751.1
441.895	746.35
442.27	773.69
442.645	778.89
443.019	758.78
443.394	777.76
443.769	767.14
444.143	783.86
444.518	778.67
444.892	793.81
445.267	797.65
445.641	778.67
446.016	792.9
446.39	800.36
446.764	828.38
447.139	815.5
447.513	820.7
447.887	841.26
448.262	849.4
448.636	844.43
449.01	845.1
449.384	851.43
449.758	844.2
450.132	844.43
450.506	867.03
450.88	845.1
451.254	840.13
451.628	886.46
452.002	881.04
452.376	891.21
452.75	878.32
453.123	914.48
453.497	928.72
453.871	907.25
454.244	928.49
454.618	936.63
454.992	977.3
455.365	946.57
455.739	942.5
456.112	982.5
456.486	978.66
456.859	1001.48
457.232	1032.22
457.606	1006.91
457.979	1021.82
458.352	1015.5
458.725	1045.33
459.099	1058.21
459.472	1045.33
459.845	1073.12
460.218	1077.42
460.591	1107.02
460.964	1088.94
461.337	1111.99
461.71	1118.77
462.083	1173.91
462.456	1153.57
462.829	1166
463.201	1160.8
463.574	1218.65
463.947	1234.02
464.32	1235.15
464.692	1255.72
465.065	1240.57
465.438	1274.7
465.81	1276.28
466.183	1304.98
466.555	1297.75
466.928	1345.2
467.3	1335.49
467.672	1331.19
468.045	1375.71
468.417	1393.79
468.789	1425.43
469.161	1431.08
469.534	1465.2
469.906	1514.24
470.278	1497.07
470.65	1511.98
471.022	1517.18
471.394	1580.23
471.766	1596.05
472.138	1620.68
472.51	1668.13
472.882	1710.39
473.253	1698.87
473.625	1721.01
473.997	1768.47
474.369	1806.44
474.74	1829.71
475.112	1845.76
475.484	1909.94
475.855	1924.62
476.227	1977.73
476.598	2014.57
476.97	2062.25
477.341	2101.12
477.713	2116.71
478.084	2192.41
478.455	2276.71
478.827	2300.89
479.198	2378.17
479.569	2426.31
479.94	2486.87
480.311	2524.38
480.682	2594.21
481.053	2664.04
481.424	2718.73
481.795	2775.22
482.166	2853.64
482.537	2885.05
482.908	3000.98
483.279	3035.1
483.65	3148.1
484.021	3184.25
484.391	3280.07
484.762	3290.24
485.133	3370.69
485.503	3425.6
485.874	3559.84
486.244	3614.07
486.615	3722.77
486.985	3842.09
487.356	3826.04
487.726	3976.55
488.097	4087.51
488.467	4103.78
488.837	4224
489.207	4305.13
489.578	4385.58
489.948	4489.75
490.318	4618.11
490.688	4686.59
491.058	4743.76
491.428	4854.94
491.798	4983.08
492.168	5066.01
492.538	5063.07
492.908	5204.76
493.278	5314.14
493.648	5320.24
494.017	5489.5
494.387	5536.96
494.757	5603.85
495.126	5770.17
495.496	5756.84
495.866	5905.76
496.235	5979.21
496.605	6055.82
496.974	6106.89
497.344	6196.38
497.713	6236.15
498.082	6329.93
498.452	6427.78
498.821	6475.01
499.19	6564.95
499.559	6611.96
499.928	6722.24
500.298	6767.89
500.667	6826.87
501.036	6864.38
501.405	6978.5
501.774	6976.7
502.143	7149.35
502.512	7160.19
502.88	7263.47
503.249	7251.94
503.618	7343.92
503.987	7382.56
504.356	7394.99
504.724	7545.49
505.093	7519.51
505.462	7592.05
505.83	7600.86
506.199	7769.22
506.567	7881.98
506.936	7877.24
507.304	7965.14
507.672	8006.95
508.041	8031.58
508.409	8159.04
508.777	8204.01
509.145	8258.24
509.514	8282.42
509.882	8331.46
510.25	8345.47
510.618	8394.96
510.986	8416.88
511.354	8556.77
511.722	8655.52
512.09	8652.36
512.458	8677.67
512.826	8791.34
513.193	8838.34
513.561	8912.92
513.929	8980.94
514.297	9032.46
514.664	9065.91
515.032	9173.47
515.4	9129.63
515.767	9173.93
516.135	9256.64
516.502	9241.95
516.869	9392
517.237	9394.48
517.604	9379.8
517.972	9522.16
518.339	9532.56
518.706	9552.45
519.073	9666.79
519.44	9682.84
519.808	9751.09
520.175	9738.66
520.542	9872.21
520.909	9926
521.276	9898.43
521.643	10000.12
522.009	10065.65
522.376	10120.79
522.743	10190.4
523.11	10234.46
523.477	10340.22
523.843	10403.95
524.21	10510.61
524.577	10539.77
524.943	10596.26
525.31	10652.53
525.676	10733.88
526.043	10784.96
526.409	10842.13
526.776	10909.25
527.142	11010.04
527.508	10995.8
527.874	11068.56
528.241	11123.03
528.607	11138.39
528.973	11267.2
529.339	11292.29
529.705	11414.54
530.071	11523.92
530.437	11562.79
530.803	11627.87
531.169	11656.57
531.535	11668.78
531.901	11769.56
532.267	11759.39
532.632	11906.51
532.998	11845.49
533.364	11945.15
533.73	12042.1
534.095	12085.04
534.461	12061.53
534.826	12155.77
535.192	12218.59
535.557	12276.89
535.923	12268.99
536.288	12337.91
536.653	12453.84
537.019	12373.84
537.384	12507.17
537.749	12605.47
538.114	12590.56
538.479	12618.81
538.845	12708.07
539.21	12706.04
539.575	12788.75
539.94	12808.63
540.305	12958.23
540.67	12868.52
541.034	12929.98
541.399	12983.32
541.764	12999.14
542.129	13160.04
542.494	13138.12
542.858	13192.35
543.223	13196.42
543.587	13358.22
543.952	13334.27
544.316	13430.31
544.681	13400.26
545.045	13522.96
545.41	13588.72
545.774	13600.48
546.138	13596.41
546.503	13700.59
546.867	13719.57
547.231	13836.4
547.595	13894.03
547.959	13871.66
548.324	13893.12
548.688	13924.08
549.052	13974.25
549.416	14110.29
549.779	14126.79
550.143	14155.72
550.507	14311.42
550.871	14262.15
551.235	14272.1
551.599	14363.62
551.962	14355.48
552.326	14558.64
552.689	14514.12
553.053	14514.8
553.417	14545.08
553.78	14749.15
554.143	14682.03
554.507	14739.88
554.87	14791.4
555.234	14983.72
555.597	14849.48
555.96	14908.46
556.323	14969.93
556.686	15076.6
557.05	15075.92
557.413	15097.39
557.776	15163.82
558.139	15262.8
558.502	15351.16
558.865	15406.08
559.228	15491.05
559.59	15538.96
559.953	15516.81
560.316	15624.15
560.679	15602.91
561.041	15725.62
561.404	15829.8
561.767	15897.59
562.129	15818.04
562.492	16027.3
562.854	15951.6
563.217	15953.86
563.579	16029.34
563.941	16114.99
564.304	16231.37
564.666	16261.65
565.028	16323.12
565.39	16397.46
565.753	16474.3
566.115	16464.13
566.477	16560.4
566.839	16572.37
567.201	16788.87
567.563	16846.94
567.925	16849.88
568.287	16970.33
568.648	16888.07
569.01	17073.15
569.372	17133.72
569.734	17130.1
570.095	17188.63
570.457	17336.2
570.819	17353.15
571.18	17391.56
571.542	17437.21
571.903	17520.37
572.265	17589.75
572.626	17706.36
572.987	17793.36
573.349	17825.45
573.71	17830.87
574.071	17922.85
574.432	18080.81
574.794	18227.02
575.155	18257.98
575.516	18344.98
575.877	18416.39
576.238	18497.97
576.599	18726.89
576.96	18745.88
577.32	18803.05
577.681	18944.52
578.042	19103.61
578.403	19230.84
578.763	19296.6
579.124	19529.13
579.485	19632.41
579.845	19825.17
580.206	19866.98
580.566	19988.1
580.927	20166.4
581.287	20350.58
581.648	20533.63
582.008	20693.62
582.368	20842.09
582.728	21061.52
583.089	21149.66
583.449	21349.42
583.809	21556.2
584.169	21814.27
584.529	21893.37
584.889	22274.37
585.249	22329.96
585.609	22428.72
585.969	22807.47
586.329	22847.69
586.688	23313.44
587.048	23384.17
587.408	23533.32
587.768	23734.9
588.127	23914.33
588.487	24319.97
588.846	24635.44
589.206	24652.16
589.565	24898.03
589.925	25220.06
590.284	25358.81
590.643	25677.22
591.003	25988.62
591.362	26209.86
591.721	26493.24
592.08	26773.01
592.44	26996.28
592.799	27258.65
593.158	27470.17
593.517	27642.14
593.876	27911.96
594.235	28162.35
594.593	28361.67
594.952	28713.07
595.311	28718.95
595.67	29130.46
596.029	29575.87
596.387	29752.37
596.746	30013.6
597.104	30099.93
597.463	30376.31
597.822	30615.62
598.18	30818.1
598.538	31057.87
598.897	31489.27
599.255	31339.44
599.613	31988.24
599.972	31951.63
600.33	32295.35
600.688	32432.97
601.046	32665.74
601.404	33023.92
601.762	33176.91
602.12	33372.16
602.478	33654.86
602.836	33731.92
603.194	33837.68
603.552	34050.79
603.91	34131.24
604.268	34522.41
604.625	34568.29
604.983	34893.02
605.341	34880.82
605.698	35272
606.056	35397.19
606.413	35633.12
606.771	35825.2
607.128	35919.44
607.485	35888.25
607.843	36233.33
608.2	36479.65
608.557	36697.95
608.914	36857.04
609.272	37065.85
609.629	37022.91
609.986	37295.9
610.343	37432.39
610.7	37672.39
611.057	37831.03
611.414	37879.39
611.771	38044.58
612.127	38421.74
612.484	38460.16
612.841	38629.87
613.198	38657.22
613.554	38722.75
613.911	39056.53
614.267	38984.67
614.624	39244.77
614.98	39394.6
615.337	39645.89
615.693	39545.78
616.05	39610.19
616.406	39834.36
616.762	39975.6
617.118	39905.55
617.475	40105.77
617.831	40229.15
618.187	40399.09
618.543	40413.56
618.899	40719.99
619.255	40673.89
619.611	40784.39
619.967	40957.72
620.323	40912.53
620.678	40986.65
621.034	40915.24
621.39	41039.98
621.746	41052.18
622.101	41472.29
622.457	41189.13
622.812	41364.04
623.168	41536.69
623.523	41597.25
623.879	41745.95
624.234	41590.02
624.589	41777.59
624.945	41945.04
625.3	41853.74
625.655	41946.17
626.01	42025.72
626.365	42007.19
626.72	42011.25
627.075	42116.11
627.43	42041.31
627.785	42081.31
628.14	42124.25
628.495	42227.97
628.85	42287.41
629.205	42197.01
629.559	42422.09
629.914	42238.37
630.269	42315.88
630.623	42220.51
630.978	42135.32
631.332	42364.24
631.687	42439.27
632.041	42339.83
632.396	42455.54
632.75	42430.9
633.104	42439.04
633.459	42133.28
633.813	42333.28
634.167	42297.12
634.521	42324.47
634.875	42491.24
635.229	42355.43
635.583	42224.58
635.937	42206.5
636.291	42366.05
636.645	42250.34
636.999	42110.23
637.352	42342.32
637.706	42178.71
638.06	42379.15
638.413	42110.69
638.767	41952.5
639.121	42192.49
639.474	42011.25
639.828	42078.82
640.181	42140.06
640.534	42090.57
640.888	41912.95
641.241	41774.42
641.594	41934.42
641.947	42071.37
642.301	41922.22
642.654	41920.64
643.007	42005.38
643.36	42013.51
643.713	41972.39
644.066	42025.49
644.419	41890.13
644.771	41566.97
645.124	41247.66
645.477	41037.95
645.83	40918.4
646.182	40868.01
646.535	40685.87
646.888	40716.37
647.24	40519.32
647.593	40774.9
647.945	40690.61
648.298	40521.8
648.65	40367
649.002	40450.62
649.355	40540.78
649.707	40488.36
650.059	40703.27
650.411	41075.91
650.763	41191.39
651.115	41557.93
651.467	41342.57
651.819	41347.54
652.171	41298.96
652.523	41331.5
652.875	41159.3
653.227	41116.14
653.578	41248.34
653.93	41231.16
654.282	41140.32
654.633	41060.32
654.985	41246.75
655.337	41148.9
655.688	41131.28
656.039	41352.06
656.391	41068.23
656.742	41129.47
657.094	41046.76
657.445	41176.7
657.796	41039.98
658.147	41100.54
658.498	41045.18
658.849	41208.56
659.2	40976.25
659.551	40925.41
659.902	41015.57
660.253	40961.56
660.604	40909.59
660.955	40790.27
661.306	40917.95
661.656	40777.39
662.007	40913.2
662.358	40870.04
662.708	40858.06
663.059	40912.53
663.409	40696.94
663.76	40990.26
664.11	40854.9
664.461	40833.88
664.811	40844.05
665.161	40933.32
665.511	40668.92
665.862	40817.61
666.212	40987.55
666.562	40760.67
666.912	40785.07
667.262	40791.4
667.612	40740.33
667.962	40775.81
668.312	40659.43
668.662	41017.61
669.011	40828.69
669.361	40792.08
669.711	40789.14
670.06	40658.52
670.41	40729.25
670.76	40568.81
671.109	40965.86
671.459	40603.61
671.808	40715.69
672.157	40614.68
672.507	40505.08
672.856	40484.74
673.205	40578.07
673.554	40571.07
673.904	40480.9
674.253	40748.46
674.602	40484.06
674.951	40058.31
675.3	39788.49
675.649	40437.28
675.998	40363.84
676.346	40322.48
676.695	40602.48
677.044	40195.03
677.393	40408.36
677.741	40339.21
678.09	40214.24
678.438	40137.18
678.787	40244.97
679.135	40198.42
679.484	39969.73
679.832	40232.77
680.181	39936.73
680.529	40000.01
680.877	39929.95
681.225	39884.76
681.573	40077.97
681.922	39715.72
682.27	39564.09
682.618	39864.42
682.966	39595.95
683.314	39726.79
683.661	39552.56
684.009	39588.49
684.357	39373.36
684.705	39374.26
685.053	39449.51
685.4	39489.96
685.748	39181.27
686.095	39072.57
686.443	39136.08
686.79	39036.87
687.138	39082.29
687.485	38949.19
687.832	38880.49
688.18	38881.84
688.527	38795.07
688.874	38697.44
689.221	38544.45
689.568	38428.07
689.915	38458.13
690.262	38565.7
690.609	38303.78
690.956	38254.06
691.303	38242.31
691.65	37922.1
691.997	37963
692.344	37906.73
692.69	37686.62
693.037	37779.95
693.383	37448.66
693.73	37779.05
694.077	37373.18
694.423	37384.71
694.769	37283.92
695.116	37251.83
695.462	37063.59
695.808	37000.99
696.155	37097.03
696.501	36855.68
696.847	36935
697.193	36445.75
697.539	36676.48
697.885	36506.31
698.231	36462.93
698.577	36374.11
698.923	36438.29
699.269	36092.54
699.614	36057.96
699.96	35977.29
700.306	35983.39
700.651	35758.76
700.997	35683.96
701.342	35654.13
701.688	35553.57
702.033	35491.88
702.379	35309.28
702.724	35298.44
703.069	35437.64
703.415	34928.5
703.76	34974.38
704.105	35041.95
704.45	35036.07
704.795	34801.95
705.14	34686.02
705.485	34721.28
705.83	34521.28
706.175	34608.51
706.52	34498.46
706.865	34234.96
707.209	34276.54
707.554	34147.51
707.899	34262.98
708.243	34099.15
708.588	33997.91
708.932	33740.06
709.277	33601.08
709.621	33841.53
709.966	33571.7
710.31	33711.59
710.654	33360.63
710.998	33402.89
711.342	33361.09
711.687	33330.13
712.031	33211.49
712.375	33012.39
712.719	33184.59
713.063	33110.92
713.407	33102.56
713.75	32927.88
714.094	32887.88
714.438	32881.78
714.782	32731.27
715.125	32679.3
715.469	32781.21
715.812	32495.8
716.156	32402.47
716.499	32401.56
716.843	32418.74
717.186	32265.52
717.53	32362.02
717.873	32305.97
718.216	32204.51
718.559	32135.58
718.902	31918.19
719.246	32000.44
719.589	31905.08
719.932	31693.11
720.275	31705.54
720.617	31759.09
720.96	31619.89
721.303	31651.3
721.646	31638.42
721.989	31352.33
722.331	31393.23
722.674	31485.66
723.016	31362.27
723.359	31262.61
723.701	31360.91
724.044	31195.27
724.386	31157.98
724.729	31355.26
725.071	31167.02
725.413	30999.34
725.755	31074.59
726.097	30902.85
726.439	30784.43
726.782	30668.5
727.124	30886.57
727.465	30681.83
727.807	30753.47
728.149	30720.25
728.491	30588.28
728.833	30610.88
729.175	30562.06
729.516	30556.64
729.858	30465.34
730.199	30473.93
730.541	30328.4
730.882	30381.73
731.224	30346.02
731.565	30176.31
731.906	30278.91
732.248	30124.79
732.589	30001.4
732.93	29786.49
733.271	29908.52
733.612	30076.88
733.953	29965.7
734.294	29840.95
734.635	29892.7
734.976	29852.93
735.317	29635.08
735.658	29767.96
735.999	29548.3
736.339	29673.27
736.68	29665.36
737.021	29501.3
737.361	29461.53
737.702	29579.04
738.042	29405.03
738.383	29306.96
738.723	29402.77
739.063	29393.51
739.404	29332.49
739.744	29283.23
740.084	29184.47
740.424	29161.2
740.764	29075.32
741.104	29264.92
741.444	29031.03
741.784	28965.5
742.124	28866.52
742.464	28968.66
742.804	28871.49
743.143	28856.35
743.483	28882.56
743.823	28804.14
744.162	28647.99
744.502	28807.53
744.841	28607.99
745.181	28642.57
745.52	28573.87
745.86	28586.07
746.199	28459.97
746.538	28499.52
746.877	28563.25
747.216	28456.13
747.556	28388.34
747.895	28417.49
748.234	28311.28
748.573	28196.02
748.911	28180.21
749.25	28139.53
749.589	28081.45
749.928	28088.91
750.267	28085.29
750.605	27956.71
750.944	27831.06
751.283	27778.86
751.621	27942.92
751.96	27694.79
752.298	27584.97
752.636	27664.51
752.975	27445.31
753.313	27555.82
753.651	27538.87
753.989	27546.78
754.327	27264.75
754.666	27233.56
755.004	27318.76
755.342	27368.25
755.679	27359.21
756.017	27135.49
756.355	27198.54
756.693	26915.15
757.031	27010.74
757.368	26922.84
