Data from hue_210_FLMS001491_00072.txt Node
Date: Tue Feb 07 16:41:40 GMT 2017
User: dcchb
Spectrometer: FLMS00149
Trigger mode: 0
Integration Time (sec): 2.000000E-2
Scans to average: 10
Electric dark correction enabled: true
Nonlinearity correction enabled: false
Boxcar width: 0
XAxis mode: Wavelengths
Number of Pixels in Spectrum: 2048
>>>>>Begin Spectral Data<<<<<
341.393	10.03
341.776	10.03
342.16	10.03
342.543	-55.51
342.927	-58.22
343.31	-71.1
343.693	-72.46
344.077	-66.81
344.46	-51.89
344.843	-64.55
345.226	-33.36
345.61	-33.81
345.993	-1.05
346.376	-16.64
346.759	17.94
347.142	12.74
347.525	43.7
347.908	63.13
348.291	75.11
348.674	78.27
349.057	120.76
349.44	116.92
349.823	126.64
350.206	161.44
350.588	200.08
350.971	213.64
351.354	219.74
351.737	238.5
352.119	261.77
352.502	274.2
352.884	286.63
353.267	262.22
353.65	306.29
354.032	289.57
354.414	298.83
354.797	309.46
355.179	314.2
355.562	316.01
355.944	321.43
356.326	327.99
356.709	342.9
357.091	339.06
357.473	325.95
357.855	340.87
358.238	325.73
358.62	344.71
359.002	319.4
359.384	370.24
359.766	349.68
360.148	330.25
360.53	330.47
360.912	330.47
361.294	360.3
361.676	338.83
362.057	356.46
362.439	349.45
362.821	333.41
363.203	334.77
363.584	308.33
363.966	330.25
364.348	311.49
364.729	323.24
365.111	313.3
365.493	319.85
365.874	328.66
366.256	325.95
366.637	308.78
367.019	310.59
367.4	323.69
367.781	336.8
368.163	299.51
368.544	306.29
368.925	290.47
369.306	310.13
369.688	316.91
370.069	305.61
370.45	315.1
370.831	322.56
371.212	321.66
371.593	319.4
371.974	321.66
372.355	306.29
372.736	292.05
373.117	323.92
373.498	317.82
373.879	326.86
374.26	320.3
374.641	302.68
375.021	319.17
375.402	311.26
375.783	320.3
376.163	317.59
376.544	323.24
376.925	331.83
377.305	314.2
377.686	312.39
378.066	326.86
378.447	316.91
378.827	333.86
379.208	323.24
379.588	318.27
379.968	336.8
380.349	348.78
380.729	341.54
381.109	314.2
381.489	337.48
381.87	323.69
382.25	351.04
382.63	322.56
383.01	347.19
383.39	351.94
383.77	338.83
384.15	356.46
384.53	347.19
384.91	353.52
385.29	365.27
385.67	348.55
386.049	353.3
386.429	341.54
386.809	347.87
387.189	342.22
387.568	359.17
387.948	327.53
388.328	370.7
388.707	362.11
389.087	346.74
389.466	338.38
389.846	354.65
390.225	375.67
390.605	370.7
390.984	382.22
391.363	364.14
391.743	372.73
392.122	379.06
392.501	375.22
392.881	387.42
393.26	372.96
393.639	393.29
394.018	380.41
394.397	390.58
394.776	405.05
395.155	395.55
395.534	397.81
395.913	405.72
396.292	393.97
396.671	387.65
397.05	397.81
397.429	409.57
397.808	388.32
398.186	397.81
398.565	399.4
398.944	402.33
399.323	417.47
399.701	400.98
400.08	426.29
400.458	417.02
400.837	439.4
401.215	424.48
401.594	408.21
401.972	428.77
402.351	437.59
402.729	432.39
403.107	436.91
403.486	431.71
403.864	444.59
404.242	427.19
404.62	443.01
404.999	459.73
405.377	451.6
405.755	449.34
406.133	454.76
406.511	468.55
406.889	471.03
407.267	498.38
407.645	483.24
408.023	495.89
408.401	475.33
408.779	507.87
409.156	514.65
409.534	535.89
409.912	526.62
410.29	509
410.667	534.08
411.045	546.96
411.422	572.95
411.8	558.94
412.178	588.77
412.555	585.83
412.933	579.73
413.31	596.23
413.687	610.92
414.065	591.48
414.442	612.72
414.819	622.89
415.197	637.58
415.574	649.56
415.951	649.56
416.328	663.34
416.705	683.23
417.082	683
417.46	684.81
417.837	711.25
418.214	698.37
418.591	708.77
418.967	693.63
419.344	719.84
419.721	752.16
420.098	755.55
420.475	779.73
420.852	774.75
421.228	781.31
421.605	783.79
421.982	819.05
422.358	831.93
422.735	837.12
423.111	848.42
423.488	845.03
423.864	862.89
424.241	901.98
424.617	912.83
424.994	941.08
425.37	950.34
425.746	942.88
426.123	934.52
426.499	973.39
426.875	984.24
427.251	982.88
427.627	1008.87
428.003	1033.05
428.379	1045.71
428.756	1039.15
429.132	1060.62
429.507	1074.18
429.883	1112.15
430.259	1124.8
430.635	1110.34
431.011	1129.32
431.387	1131.58
431.763	1170.45
432.138	1164.12
432.514	1194.18
432.89	1226.04
433.265	1212.03
433.641	1262.2
434.016	1285.93
434.392	1311.69
434.767	1353.5
435.143	1348.75
435.518	1360.73
435.894	1415.19
436.269	1412.7
436.644	1466.03
437.02	1461.06
437.395	1464.23
437.77	1499.93
438.145	1508.29
438.52	1530.21
438.895	1585.81
439.271	1600.72
439.646	1637.78
440.021	1630.55
440.395	1637.33
440.77	1667.84
441.145	1735.86
441.52	1720.49
441.895	1754.16
442.27	1779.47
442.645	1781.28
443.019	1820.83
443.394	1814.05
443.769	1821.51
444.143	1806.14
444.518	1874.84
444.892	1888.62
445.267	1896.53
445.641	1932.92
446.016	1946.02
446.39	1947.6
446.764	1969.52
447.139	1904.44
447.513	1996.42
447.887	2015.17
448.262	2022.4
448.636	2014.27
449.01	2055.17
449.384	2062.18
449.758	2087.94
450.132	2078
450.506	2146.47
450.88	2099.01
451.254	2131.55
451.628	2160.48
452.002	2213.13
452.376	2204.32
452.75	2260.36
453.123	2252.68
453.497	2306.69
453.871	2292.91
454.244	2324.77
454.618	2355.96
454.992	2399.8
455.365	2402.06
455.739	2471.21
456.112	2459.91
456.486	2493.8
456.859	2508.95
457.232	2534.71
457.606	2506.46
457.979	2629.85
458.352	2641.82
458.725	2638.66
459.099	2644.08
459.472	2742.61
459.845	2700.35
460.218	2744.87
460.591	2821.93
460.964	2818.32
461.337	2895.38
461.71	2922.95
462.083	2950.29
462.456	2921.59
462.829	2948.93
463.201	3001.59
463.574	2996.84
463.947	3030.29
464.32	3126.56
464.692	3154.13
465.065	3196.84
465.438	3206.33
465.81	3285.65
466.183	3270.06
466.555	3358.41
466.928	3385.76
467.3	3358.19
467.672	3436.6
468.045	3536.71
468.417	3498.98
468.789	3544.85
469.161	3565.87
469.534	3629.14
469.906	3705.75
470.278	3694.68
470.65	3747.1
471.022	3798.85
471.394	3875.69
471.766	3897.84
472.138	3955.91
472.51	4034.78
472.882	4086.53
473.253	4112.07
473.625	4143.7
473.997	4203.59
474.369	4282.68
474.74	4295.57
475.112	4345.73
475.484	4444.04
475.855	4496.01
476.227	4566.52
476.598	4664.37
476.97	4686.06
477.341	4753.41
477.713	4825.49
478.084	4858.49
478.455	4960.18
478.827	5018.03
479.198	5134.19
479.569	5143
479.94	5261.42
480.311	5297.12
480.682	5375.99
481.053	5519.94
481.424	5594.06
481.795	5650.78
482.166	5686.04
482.537	5708.86
482.908	5826.6
483.279	5928.06
483.65	6019.14
484.021	6108.4
484.391	6145.46
484.762	6151.34
485.133	6289.64
485.503	6308.62
485.874	6470.88
486.244	6454.6
486.615	6540.03
486.985	6619.35
487.356	6736.4
487.726	6792.22
488.097	6893.46
488.467	6944.53
488.837	7117.19
489.207	7121.03
489.578	7205.55
489.948	7314.47
490.318	7329.16
490.688	7434.24
491.058	7425.2
491.428	7529.83
491.798	7619.32
492.168	7775.7
492.538	7780.45
492.908	7829.03
493.278	7948.58
493.648	7955.36
494.017	8005.07
494.387	8079.19
494.757	8117.61
495.126	8163.03
495.496	8191.51
495.866	8216.14
496.235	8304.95
496.605	8367.77
496.974	8363.93
497.344	8515.57
497.713	8474.44
498.082	8572.06
498.452	8596.47
498.821	8650.93
499.19	8641.89
499.559	8717.37
499.928	8695.9
500.298	8707.65
500.667	8829.68
501.036	8804.6
501.405	8873.07
501.774	8949.68
502.143	8878.95
502.512	9042.78
502.88	8989.45
503.249	8925.95
503.618	9085.95
503.987	9030.13
504.356	9065.84
504.724	9071.71
505.093	9101.09
505.462	9158.94
505.83	9171.14
506.199	9216.11
506.567	9228.99
506.936	9285.26
507.304	9363.91
507.672	9398.26
508.041	9382.44
508.409	9404.13
508.777	9512.6
509.145	9513.05
509.514	9432.83
509.882	9500.85
510.25	9522.55
510.618	9576.78
510.986	9605.48
511.354	9624.01
511.722	9634.18
512.09	9651.58
512.458	9658.14
512.826	9702.88
513.193	9730.22
513.561	9724.35
513.929	9746.95
514.297	9814.97
514.664	9810.22
515.032	9838.92
515.4	9792.14
515.767	9791.01
516.135	9840.5
516.502	9783.56
516.869	9927.28
517.237	9898.81
517.604	9875.98
517.972	9982.42
518.339	9926.38
518.706	9873.27
519.073	9948.75
519.44	9942.42
519.808	9981.97
520.175	9898.36
520.542	10045.92
520.909	10012.25
521.276	9946.72
521.643	9965.47
522.009	10049.99
522.376	10086.15
522.743	10040.72
523.11	10126.82
523.477	10180.16
523.843	10113.72
524.21	10199.59
524.577	10212.02
524.943	10174.28
525.31	10226.03
525.676	10259.25
526.043	10235.97
526.409	10260.83
526.776	10292.92
527.142	10304.45
527.508	10313.03
527.874	10271.91
528.241	10330.66
528.607	10277.55
528.973	10331.79
529.339	10202.53
529.705	10341.73
530.071	10295.41
530.437	10390.32
530.803	10327.5
531.169	10362.98
531.535	10226.48
531.901	10233.04
532.267	10227.39
532.632	10235.3
532.998	10214.73
533.364	10258.8
533.73	10244.79
534.095	10301.73
534.461	10210.21
534.826	10218.12
535.192	10168.86
535.557	10202.75
535.923	10124.56
536.288	10084.11
536.653	10100.61
537.019	10087.5
537.384	10049.99
537.749	10057.9
538.114	9973.61
538.479	9933.38
538.845	10001.18
539.21	9889.54
539.575	9905.81
539.94	9823.78
540.305	9873.95
540.67	9863.78
541.034	9881.41
541.399	9821.3
541.764	9718.47
542.129	9767.96
542.494	9676.21
542.858	9694.52
543.223	9672.82
543.587	9634.63
543.952	9557.12
544.316	9622.88
544.681	9558.48
545.045	9574.3
545.41	9614.75
545.774	9456.56
546.138	9480.29
546.503	9435.54
546.867	9477.35
547.231	9423.79
547.595	9387.18
547.959	9320.52
548.324	9347.18
548.688	9350.12
549.052	9301.54
549.416	9270.8
549.779	9208.88
550.143	9199.16
550.507	9220.41
550.871	9106.51
551.235	9076
551.599	9138.15
551.962	9049.11
552.326	9117.59
552.689	9100.86
553.053	9012.5
553.417	9002.11
553.78	9074.2
554.143	8952.39
554.507	8994.65
554.87	8940.19
555.234	8928.89
555.597	8911.26
555.96	8935.67
556.323	8845.05
556.686	8802.79
557.05	8813.64
557.413	8840.76
557.776	8807.08
558.139	8820.64
558.502	8803.02
558.865	8711.72
559.228	8788.1
559.59	8807.76
559.953	8823.58
560.316	8843.92
560.679	8744.71
561.041	8792.4
561.404	8864.03
561.767	8847.99
562.129	8774.32
562.492	8824.71
562.854	8763.24
563.217	8801.89
563.579	8812.96
563.941	8782.45
564.304	8838.72
564.666	8863.35
565.028	8885.5
565.39	8847.31
565.753	8804.37
566.115	8845.05
566.477	8874.88
566.839	8872.85
567.201	8842.11
567.563	8890.7
567.925	8846.86
568.287	8881.66
568.648	8868.55
569.01	8947.87
569.372	8996.46
569.734	8925.5
570.095	8997.59
570.457	8944.26
570.819	8993.75
571.18	8969.57
571.542	9002.56
571.903	8981.09
572.265	9019.51
572.626	9024.48
572.987	9062.22
573.349	9045.04
573.71	9019.51
574.071	9052.5
574.432	9135.89
574.794	9110.81
575.155	9161.88
575.516	9135.44
575.877	9120.3
576.238	9093.18
576.599	9177.47
576.96	9145.61
577.32	9239.84
577.681	9142.67
578.042	9210.46
578.403	9184.02
578.763	9191.48
579.124	9156.23
579.485	9255.21
579.845	9237.13
580.206	9260.41
580.566	9225.15
580.927	9131.14
581.287	9299.28
581.648	9246.62
582.008	9330.91
582.368	9340.18
582.728	9394.41
583.089	9322.55
583.449	9333.4
583.809	9399.84
584.169	9386.73
584.529	9337.01
584.889	9435.54
585.249	9349.44
585.609	9281.42
585.969	9392.38
586.329	9356.67
586.688	9368.65
587.048	9293.17
587.408	9328.2
587.768	9390.35
588.127	9440.74
588.487	9336.34
588.846	9504.47
589.206	9375.43
589.565	9376.56
589.925	9430.57
590.284	9405.94
590.643	9392.15
591.003	9415.43
591.362	9457.69
591.721	9503.79
592.08	9483
592.44	9477.12
592.799	9503.79
593.158	9483.23
593.517	9445.49
593.876	9443.45
594.235	9448.2
594.593	9470.8
594.952	9473.28
595.311	9526.84
595.67	9449.55
596.029	9566.84
596.387	9520.51
596.746	9532.04
597.104	9488.2
597.463	9479.84
597.822	9474.19
598.18	9459.72
598.538	9497.69
598.897	9565.03
599.255	9438.48
599.613	9589.21
599.972	9493.62
600.33	9473.06
600.688	9501.08
601.046	9544.24
601.404	9541.3
601.762	9537.46
602.12	9563.22
602.478	9579.27
602.836	9566.16
603.194	9531.36
603.552	9481.64
603.91	9469.89
604.268	9536.33
604.625	9512.15
604.983	9524.13
605.341	9520.51
605.698	9567.52
606.056	9609.1
606.413	9570.91
606.771	9602.32
607.128	9577.46
607.485	9566.39
607.843	9577.91
608.2	9568.19
608.557	9607.29
608.914	9553.96
609.272	9620.85
609.629	9610.23
609.986	9696.33
610.343	9572.04
610.7	9660.4
611.057	9671.24
611.414	9601.41
611.771	9597.35
612.127	9636.67
612.484	9655.42
612.841	9632.15
613.198	9680.51
613.554	9731.81
613.911	9760.96
614.267	9747.63
614.624	9669.66
614.98	9704.91
615.337	9763.22
615.693	9774.52
616.05	9737.68
616.406	9839.37
616.762	9769.55
617.118	9789.21
617.475	9707.4
617.831	9795.76
618.187	9770
618.543	9786.72
618.899	9833.05
619.255	9778.13
619.611	9789.66
619.967	9833.05
620.323	9915.76
620.678	9830.56
621.034	9853.61
621.39	9800.73
621.746	9801.63
622.101	9944.68
622.457	9827.17
622.812	9808.41
623.168	9895.42
623.523	9885.7
623.879	9904.46
624.234	9813.16
624.589	9836.89
624.945	9864.01
625.3	9880.73
625.655	9803.89
626.01	9892.71
626.365	9849.32
626.72	9891.8
627.075	9824.23
627.43	9827.17
627.785	9876.66
628.14	9836.21
628.495	9781.97
628.85	9840.28
629.205	9745.82
629.559	9828.3
629.914	9731.81
630.269	9779.71
630.623	9706.72
630.978	9715.76
631.332	9745.82
631.687	9739.04
632.041	9681.41
632.396	9735.65
632.75	9695.2
633.104	9735.42
633.459	9695.88
633.813	9683.9
634.167	9635.99
634.521	9712.37
634.875	9642.32
635.229	9704.46
635.583	9611.13
635.937	9626.05
636.291	9601.41
636.645	9532.49
636.999	9533.17
637.352	9588.08
637.706	9546.27
638.06	9515.99
638.413	9588.31
638.767	9538.82
639.121	9590.57
639.474	9537.01
639.828	9476.67
640.181	9495.43
640.534	9536.78
640.888	9471.02
641.241	9398.48
641.594	9479.38
641.947	9400.74
642.301	9455.2
642.654	9415.2
643.007	9499.04
643.36	9319.84
643.713	9434.64
644.066	9450.01
644.419	9435.09
644.771	9304.25
645.124	9255.43
645.477	9203.46
645.83	9184.7
646.182	9118.49
646.535	9115.33
646.888	9075.33
647.24	9076.91
647.593	9158.26
647.945	9087.3
648.298	9061.54
648.65	9028.1
649.002	9062.9
649.355	9081.65
649.707	9076.91
650.059	9112.61
650.411	9171.6
650.763	9206.17
651.115	9332.72
651.467	9241.2
651.819	9201.2
652.171	9337.47
652.523	9220.18
652.875	9268.09
653.227	9197.13
653.578	9262.67
653.93	9320.74
654.282	9275.55
654.633	9152.16
654.985	9273.74
655.337	9257.47
655.688	9241.42
656.039	9233.06
656.391	9235.77
656.742	9249.33
657.094	9251.37
657.445	9281.87
657.796	9218.6
658.147	9254.3
658.498	9226.73
658.849	9260.63
659.2	9269.67
659.551	9271.48
659.902	9243.68
660.253	9264.93
660.604	9331.59
660.955	9284.81
661.306	9276
661.656	9255.43
662.007	9278.03
662.358	9305.15
662.708	9290.91
663.059	9298.6
663.409	9255.43
663.76	9296.34
664.11	9367.75
664.461	9314.19
664.811	9409.55
665.161	9325.26
665.511	9304.47
665.862	9348.09
666.212	9306.28
666.562	9355.54
666.912	9299.95
667.262	9275.55
667.612	9317.35
667.962	9291.59
668.312	9326.17
668.662	9417.92
669.011	9325.49
669.361	9322.33
669.711	9271.03
670.06	9278.94
670.41	9265.38
670.76	9225.6
671.109	9285.49
671.459	9239.84
671.808	9322.55
672.157	9294.53
672.507	9211.14
672.856	9301.76
673.205	9311.48
673.554	9322.1
673.904	9304.47
674.253	9284.59
674.602	9243.68
674.951	9067.64
675.3	9068.32
675.649	9231.03
675.998	9159.39
676.346	9143.35
676.695	9178.37
677.044	9035.33
677.393	9173.4
677.741	9224.02
678.09	9064.03
678.438	9140.64
678.787	9126.17
679.135	9057.47
679.484	8995.1
679.832	9071.71
680.181	9074.65
680.529	9021.09
680.877	9027.19
681.225	8977.48
681.573	8981.77
681.922	8999.17
682.27	8891.6
682.618	8915.78
682.966	8840.98
683.314	8862.9
683.661	8850.7
684.009	8814.54
684.357	8815.67
684.705	8734.77
685.053	8844.15
685.4	8763.47
685.748	8680.99
686.095	8779.06
686.443	8705.84
686.79	8671.5
687.138	8688.9
687.485	8672.4
687.832	8667.2
688.18	8676.92
688.527	8598.73
688.874	8595.79
689.221	8640.54
689.568	8567.32
689.915	8586.75
690.262	8488.22
690.609	8501.33
690.956	8415.23
691.303	8460.2
691.65	8377.27
691.997	8407.1
692.344	8334.78
692.69	8350.6
693.037	8296.82
693.383	8209.36
693.73	8342.24
694.077	8245.29
694.423	8263.6
694.769	8219.98
695.116	8138.85
695.462	8138.63
695.808	8098.4
696.155	8143.37
696.501	8004.17
696.847	8034.68
697.193	7996.26
697.539	8025.41
697.885	7951.74
698.231	7905.19
698.577	7929.37
698.923	7869.48
699.269	7820.9
699.614	7812.08
699.96	7755.36
700.306	7792.2
700.651	7633.56
700.997	7620.22
701.342	7625.65
701.688	7621.81
702.033	7628.13
702.379	7553.33
702.724	7597.63
703.069	7559.66
703.415	7450.06
703.76	7475.82
704.105	7389.72
704.45	7472.2
704.795	7333.68
705.14	7374.58
705.485	7376.61
705.83	7317.86
706.175	7266.33
706.52	7267.46
706.865	7233.79
707.209	7255.04
707.554	7193.57
707.899	7248.26
708.243	7163.06
708.588	7149.5
708.932	7085.1
709.277	7131.87
709.621	7106.34
709.966	7017.53
710.31	7078.32
710.654	6964.42
710.998	6987.02
711.342	7063.85
711.687	6964.65
712.031	6895.04
712.375	6941.82
712.719	6923.74
713.063	6901.6
713.407	6910.41
713.75	6888.04
714.094	6907.02
714.438	6900.02
714.782	6866.12
715.125	6845.1
715.469	6909.96
715.812	6803.52
716.156	6808.95
716.499	6793.35
716.843	6833.58
717.186	6705.9
717.53	6807.14
717.873	6747.93
718.216	6722.39
718.559	6734.82
718.902	6711.55
719.246	6676.97
719.589	6657.08
719.932	6660.93
720.275	6648.95
720.617	6627.26
720.96	6675.16
721.303	6679.01
721.646	6670.42
721.989	6597.2
722.331	6655.73
722.674	6589.52
723.016	6590.42
723.359	6589.74
723.701	6565.11
724.044	6558.33
724.386	6588.84
724.729	6598.56
725.071	6555.39
725.413	6550.42
725.755	6560.82
726.097	6528.05
726.439	6489.86
726.782	6510.2
727.124	6547.03
727.465	6550.2
727.807	6475.62
728.149	6461.61
728.491	6508.39
728.833	6536.86
729.175	6496.64
729.516	6488.5
729.858	6512.46
730.199	6572.79
730.541	6503.64
730.882	6506.81
731.224	6505.9
731.565	6550.2
731.906	6507.71
732.248	6514.49
732.589	6419.35
732.93	6429.52
733.271	6506.13
733.612	6510.65
733.953	6449.41
734.294	6510.42
734.635	6546.13
734.976	6565.79
735.317	6482.17
735.658	6508.61
735.999	6497.09
736.339	6487.15
736.68	6507.48
737.021	6451.67
737.361	6477.43
737.702	6560.82
738.042	6547.26
738.383	6531.44
738.723	6537.54
739.063	6501.83
739.404	6502.29
739.744	6549.29
740.084	6510.2
740.424	6575.96
740.764	6558.56
741.104	6623.41
741.444	6610.76
741.784	6577.54
742.124	6588.84
742.464	6625.45
742.804	6637.2
743.143	6621.15
743.483	6636.52
743.823	6672.68
744.162	6737.53
744.502	6710.42
744.841	6763.3
745.181	6778.89
745.52	6815.72
745.86	6871.32
746.199	6855.05
746.538	6887.14
746.877	6995.61
747.216	7003.06
747.556	7044.42
747.895	7068.6
748.234	7141.59
748.573	7223.4
748.911	7192.89
749.25	7330.74
749.589	7320.12
749.928	7415.93
750.267	7366.44
750.605	7480.11
750.944	7568.25
751.283	7641.01
751.621	7752.2
751.96	7761.69
752.298	7868.35
752.636	8026.99
752.975	8071.06
753.313	8157.84
753.651	8233.99
753.989	8354.89
754.327	8488.22
754.666	8535
755.004	8652.74
755.342	8826.52
755.679	8968.44
756.017	9007.08
756.355	9200.07
756.693	9285.26
757.031	9379.05
757.368	9599.38
757.706	9772.71
758.044	9912.37
758.381	10067.39
758.719	10114.17
759.056	10287.95
759.394	10468.74
759.731	10687.49
760.068	10801.83
760.405	10961.15
760.743	11056.97
761.08	11255.61
761.417	11462.61
761.754	11585.54
762.091	11846.33
762.428	11971.52
762.765	12148.47
763.102	12311.85
763.438	12509.36
763.775	12599.98
764.112	12870.93
764.449	13042.23
764.785	13222.79
765.122	13348.43
765.458	13469.79
765.795	13670.69
766.131	13862.32
766.467	13897.35
766.804	14061.41
767.14	14158.36
767.476	14392.7
767.812	14505.47
768.148	14709.3
