Data from hue_210_FLMS001491_00024.txt Node
Date: Tue Feb 07 16:40:57 GMT 2017
User: dcchb
Spectrometer: FLMS00149
Trigger mode: 0
Integration Time (sec): 2.000000E-2
Scans to average: 10
Electric dark correction enabled: true
Nonlinearity correction enabled: false
Boxcar width: 0
XAxis mode: Wavelengths
Number of Pixels in Spectrum: 2048
>>>>>Begin Spectral Data<<<<<
341.393	-7.46
341.776	-7.46
342.16	-7.46
342.543	-51.52
342.927	-64.63
343.31	-71.18
343.693	-65.31
344.077	-78.64
344.46	-50.17
344.843	-51.07
345.226	-37.51
345.61	-37.74
345.993	-22.15
346.376	2.49
346.759	25.31
347.142	25.76
347.525	33.22
347.908	39.32
348.291	65.99
348.674	105.53
349.057	116.16
349.44	111.41
349.823	131.3
350.206	189.15
350.588	198.41
350.971	205.87
351.354	243.61
351.737	251.07
352.119	250.16
352.502	266.66
352.884	275.47
353.267	279.99
353.65	308.69
354.032	304.85
354.414	297.39
354.797	319.31
355.179	316.6
355.562	310.5
355.944	324.06
356.326	321.35
356.709	317.73
357.091	332.19
357.473	330.84
357.855	341.46
358.238	324.96
358.62	329.26
359.002	341.46
359.384	324.51
359.766	326.55
360.148	341.46
360.53	365.64
360.912	339.43
361.294	342.59
361.676	344.4
362.057	339.88
362.439	306.88
362.821	317.51
363.203	339.2
363.584	326.32
363.966	334
364.348	314.34
364.729	310.27
365.111	316.38
365.493	325.87
365.874	305.98
366.256	330.16
366.637	324.51
367.019	314.34
367.4	299.65
367.781	306.88
368.163	301.01
368.544	325.42
368.925	331.29
369.306	333.78
369.688	308.01
370.069	287
370.45	297.39
370.831	302.82
371.212	317.96
371.593	318.86
371.974	277.96
372.355	327
372.736	324.51
373.117	298.98
373.498	309.14
373.879	324.74
374.26	330.16
374.641	291.29
375.021	310.05
375.402	310.27
375.783	319.31
376.163	331.74
376.544	338.3
376.925	329.93
377.305	325.87
377.686	326.09
378.066	335.58
378.447	347.11
378.827	325.19
379.208	349.14
379.588	330.16
379.968	311.18
380.349	320.44
380.729	338.07
381.109	331.06
381.489	322.48
381.87	319.77
382.25	344.17
382.63	337.17
383.01	338.3
383.39	337.84
383.77	333.1
384.15	336.26
384.53	340.78
384.91	351.63
385.29	338.75
385.67	342.14
386.049	340.33
386.429	336.04
386.809	334.45
387.189	347.56
387.568	331.29
387.948	390.27
388.328	364.28
388.707	354.57
389.087	369.93
389.466	343.49
389.846	361.8
390.225	361.35
390.605	364.74
390.984	356.37
391.363	369.71
391.743	352.53
392.122	363.83
392.501	367.67
392.881	372.19
393.26	356.6
393.639	359.54
394.018	379.65
394.397	367.45
394.776	391.85
395.155	367.45
395.534	371.97
395.913	383.04
396.292	389.37
396.671	376.94
397.05	391.18
397.429	377.39
397.808	390.95
398.186	389.14
398.565	394.57
398.944	404.96
399.323	398.63
399.701	407.9
400.08	410.38
400.458	427.79
400.837	396.15
401.215	410.16
401.594	416.71
401.972	409.48
402.351	397.5
402.729	423.04
403.107	425.07
403.486	444.73
403.864	451.06
404.242	415.58
404.62	445.41
404.999	436.15
405.377	444.73
405.755	453.1
406.133	450.61
406.511	467.11
406.889	457.84
407.267	481.34
407.645	476.37
408.023	487.9
408.401	489.03
408.779	501
409.156	504.39
409.534	501.91
409.912	515.47
410.29	512.3
410.667	543.26
411.045	524.73
411.422	521.79
411.8	548.01
412.178	530.61
412.555	552.3
412.933	564.73
413.31	597.95
413.687	596.37
414.065	604.28
414.442	603.37
414.819	605.41
415.197	641.57
415.574	633.66
415.951	649.7
416.328	648.34
416.705	644.95
417.082	676.82
417.46	689.47
417.837	676.82
418.214	675.24
418.591	706.65
418.967	714.78
419.344	710.72
419.721	733.54
420.098	750.04
420.475	752.07
420.852	772.64
421.228	753.43
421.605	787.32
421.982	784.84
422.358	832.75
422.735	801.79
423.111	837.04
423.488	841.33
423.864	856.47
424.241	888.11
424.617	888.11
424.994	915.68
425.37	915.68
425.746	920.2
426.123	937.6
426.499	942.57
426.875	955.46
427.251	995.23
427.627	1017.15
428.003	1018.05
428.379	1031.84
428.756	1047.43
429.132	1048.33
429.507	1089.01
429.883	1059.86
430.259	1090.14
430.635	1078.16
431.011	1111.38
431.387	1127.43
431.763	1127.65
432.138	1162.91
432.514	1188.67
432.89	1175.79
433.265	1218.5
433.641	1229.8
434.016	1255.56
434.392	1266.18
434.767	1303.24
435.143	1293.53
435.518	1339.85
435.894	1337.37
436.269	1378.72
436.644	1437.25
437.02	1450.36
437.395	1437.25
437.77	1509.34
438.145	1495.78
438.52	1521.09
438.895	1542.11
439.271	1572.39
439.646	1586.17
440.021	1640.86
440.395	1641.54
440.77	1632.27
441.145	1663.01
441.52	1710.69
441.895	1699.39
442.27	1693.74
442.645	1752.04
443.019	1774.64
443.394	1732.38
443.769	1806.96
444.143	1804.47
444.518	1835.21
444.892	1821.2
445.267	1881.08
445.641	1874.53
446.016	1925.6
446.39	1925.15
446.764	1937.8
447.139	1933.28
447.513	1974.41
447.887	1957.01
448.262	1962.21
448.636	2001.76
449.01	2034.75
449.384	2048.76
449.758	2055.09
450.132	2066.61
450.506	2060.96
450.88	2095.99
451.254	2108.65
451.628	2129.44
452.002	2161.07
452.376	2185.25
452.75	2180.06
453.123	2235.65
453.497	2254.63
453.871	2272.93
454.244	2279.71
454.618	2342.31
454.992	2340.73
455.365	2366.49
455.739	2404
456.112	2396.55
456.486	2391.8
456.859	2474.74
457.232	2527.84
457.606	2487.84
457.979	2540.05
458.352	2583.21
458.725	2601.06
459.099	2608.52
459.472	2665.69
459.845	2707.05
460.218	2696.43
460.591	2751.34
460.964	2747.95
461.337	2815.75
461.71	2838.57
462.083	2903.65
462.456	2873.82
462.829	2887.61
463.201	2933.71
463.574	2943.65
463.947	3011.22
464.32	3067.26
464.692	3092.8
465.065	3103.87
465.438	3154.95
465.81	3190.65
466.183	3204.21
466.555	3293.7
466.928	3236.3
467.3	3320.82
467.672	3333.92
468.045	3408.95
468.417	3454.6
468.789	3493.47
469.161	3534.6
469.534	3543.41
469.906	3634.71
470.278	3650.75
470.65	3668.83
471.022	3722.16
471.394	3810.75
471.766	3811.65
472.138	3887.13
472.51	3932.33
472.882	3978.2
473.253	4036.05
473.625	4131.87
473.997	4217.97
474.369	4203.73
474.74	4243.5
475.112	4312.65
475.484	4366.89
475.855	4443.27
476.227	4436.04
476.598	4568.02
476.97	4583.83
477.341	4697.73
477.713	4716.94
478.084	4753.55
478.455	4894.33
478.827	4896.82
479.198	5065.86
479.569	5045.74
479.94	5196.25
480.311	5177.72
480.682	5289.8
481.053	5433.76
481.424	5469.91
481.795	5509.69
482.166	5609.57
482.537	5664.03
482.908	5784.71
483.279	5797.59
483.65	5864.7
484.021	5993.97
484.391	6031.93
484.762	6097.47
485.133	6093.4
485.503	6232.6
485.874	6347.63
486.244	6417.68
486.615	6468.08
486.985	6524.57
487.356	6653.84
487.726	6713.5
488.097	6800.05
488.467	6846.6
488.837	6892.47
489.207	7021.51
489.578	7083.43
489.948	7092.47
490.318	7203.88
490.688	7239.36
491.058	7378.11
491.428	7367.04
491.798	7420.37
492.168	7601.16
492.538	7692.23
492.908	7677.99
493.278	7767.03
493.648	7812.22
494.017	7844.09
494.387	7902.39
494.757	7908.49
495.126	8009.51
495.496	8067.36
495.866	8074.82
496.235	8169.5
496.605	8232.78
496.974	8232.1
497.344	8265.55
497.713	8331.08
498.082	8444.75
498.452	8429.38
498.821	8474.81
499.19	8462.6
499.559	8589.15
499.928	8566.33
500.298	8611.98
500.667	8680.68
501.036	8720.22
501.405	8691.3
501.774	8717.74
502.143	8732.65
502.512	8815.81
502.88	8866.66
503.249	8809.71
503.618	8893.33
503.987	8881.12
504.356	8951.63
504.724	8992.31
505.093	8968.35
505.462	9058.97
505.83	9039.08
506.199	9062.59
506.567	9141.68
506.936	9159.99
507.304	9225.75
507.672	9159.76
508.041	9220.32
508.409	9239.31
508.777	9343.71
509.145	9326.08
509.514	9319.3
509.882	9338.96
510.25	9335.12
510.618	9332.41
510.986	9379.87
511.354	9459.86
511.722	9455.8
512.09	9516.13
512.458	9435.23
512.826	9528.34
513.193	9492.18
513.561	9590.93
513.929	9595
514.297	9627.09
514.664	9632.29
515.032	9625.28
515.4	9699.18
515.767	9640.42
516.135	9669.58
516.502	9593.42
516.869	9716.35
517.237	9686.98
517.604	9666.64
517.972	9817.37
518.339	9777.37
518.706	9733.98
519.073	9737.82
519.44	9756.13
519.808	9827.54
520.175	9769.46
520.542	9913.19
520.909	9804.26
521.276	9785.96
521.643	9865.73
522.009	9863.47
522.376	9812.4
522.743	9873.86
523.11	9899.85
523.477	10000.87
523.843	10018.72
524.21	9997.93
524.577	10006.06
524.943	10019.17
525.31	10038.83
525.676	10121.32
526.043	10065.05
526.409	10056.68
526.776	10137.59
527.142	10072.96
527.508	10112.28
527.874	10080.19
528.241	10119.96
528.607	10093.07
528.973	10197.02
529.339	10102.56
529.705	10168.77
530.071	10127.19
530.437	10148.66
530.803	10143.46
531.169	10125.61
531.535	10066.63
531.901	10145.04
532.267	10045.39
532.632	10020.75
532.998	10016.91
533.364	10061.88
533.73	10037.25
534.095	10027.08
534.461	10037.02
534.826	10000.64
535.192	10037.93
535.557	10025.5
535.923	9924.71
536.288	9954.54
536.653	9922.22
537.019	9937.59
537.384	9850.81
537.749	9880.64
538.114	9885.16
538.479	9810.36
538.845	9787.77
539.21	9740.08
539.575	9773.08
539.94	9775.34
540.305	9767.2
540.67	9742.34
541.034	9648.79
541.399	9653.31
541.764	9628.9
542.129	9641.1
542.494	9593.87
542.858	9617.37
543.223	9505.74
543.587	9565.62
543.952	9445.63
544.316	9499.64
544.681	9397.04
545.045	9377.61
545.41	9374.89
545.774	9372.41
546.138	9291.96
546.503	9319.75
546.867	9282.69
547.231	9274.33
547.595	9287.21
547.959	9252.86
548.324	9148.69
548.688	9173.54
549.052	9149.59
549.416	9117.05
549.779	9109.36
550.143	9046.54
550.507	9079.76
550.871	9040.89
551.235	9002.93
551.599	9041.34
551.962	8998.18
552.326	8949.14
552.689	8949.37
553.053	8886.77
553.417	8863.95
553.78	8899.88
554.143	8841.58
554.507	8899.65
554.87	8804.06
555.234	8846.77
555.597	8711.64
555.96	8696.72
556.323	8758.19
556.686	8693.78
557.05	8730.39
557.413	8734.69
557.776	8676.83
558.139	8708.92
558.502	8704.18
558.865	8685.65
559.228	8622.82
559.59	8663.73
559.953	8696.49
560.316	8756.83
560.679	8660.79
561.041	8734.91
561.404	8609.27
561.767	8697.85
562.129	8620.79
562.492	8674.57
562.854	8652.43
563.217	8562.26
563.579	8661.02
563.941	8696.04
564.304	8663.73
564.666	8657.17
565.028	8653.56
565.39	8685.87
565.753	8639.55
566.115	8678.87
566.477	8692.43
566.839	8716.38
567.201	8745.31
567.563	8718.19
567.925	8721.13
568.287	8702.37
568.648	8740.34
569.01	8798.41
569.372	8803.61
569.734	8753.22
570.095	8766.1
570.457	8784.63
570.819	8794.12
571.18	8769.26
571.542	8820.56
571.903	8829.37
572.265	8823.5
572.626	8851.07
572.987	8867.11
573.349	8873.89
573.71	8801.12
574.071	8857.62
574.432	8899.88
574.794	8967
575.155	8928.58
575.516	8856.26
575.877	8958.18
576.238	8894.23
576.599	8955.24
576.96	8933.55
577.32	9009.03
577.681	8973.55
578.042	9019.2
578.403	8989.59
578.763	8960.89
579.124	8969.71
579.485	9013.77
579.845	9023.94
580.206	9089.03
580.566	9111.85
580.927	9090.16
581.287	9120.89
581.648	9108.69
582.008	9108.01
582.368	9133.09
582.728	9109.82
583.089	9155.47
583.449	9161.57
583.809	9218.06
584.169	9186.65
584.529	9108.91
584.889	9218.51
585.249	9157.27
585.609	9072.53
585.969	9236.59
586.329	9113.43
586.688	9152.75
587.048	9107.78
587.408	9183.71
587.768	9146.2
588.127	9180.78
588.487	9162.7
588.846	9185.07
589.206	9249.25
589.565	9217.38
589.925	9260.55
590.284	9215.58
590.643	9249.7
591.003	9251.28
591.362	9313.2
591.721	9267.78
592.08	9280.21
592.44	9264.62
592.799	9306.42
593.158	9244.5
593.517	9295.8
593.876	9348.91
594.235	9249.93
594.593	9303.03
594.952	9279.3
595.311	9270.49
595.67	9265.52
596.029	9300.32
596.387	9313.43
596.746	9388.68
597.104	9270.94
597.463	9295.57
597.822	9324.95
598.18	9268.68
598.538	9299.87
598.897	9341
599.255	9230.94
599.613	9345.74
599.972	9266.65
600.33	9410.6
600.688	9359.53
601.046	9392.3
601.404	9381.9
601.762	9362.47
602.12	9364.27
602.478	9376.48
602.836	9388.68
603.194	9383.03
603.552	9329.02
603.91	9322.47
604.268	9320.43
604.625	9347.78
604.983	9406.31
605.341	9350.94
605.698	9350.71
606.056	9382.35
606.413	9431.39
606.771	9397.04
607.128	9439.07
607.485	9392.52
607.843	9399.75
608.2	9417.38
608.557	9476.59
608.914	9409.47
609.272	9491.95
609.629	9443.59
609.986	9480.43
610.343	9481.33
610.7	9532.4
611.057	9494.21
611.414	9520.2
611.771	9446.31
612.127	9554.33
612.484	9560.65
612.841	9579.18
613.198	9542.57
613.554	9572.4
613.911	9543.7
614.267	9582.57
614.624	9506.42
614.98	9524.5
615.337	9564.49
615.693	9545.51
616.05	9562.23
616.406	9616.02
616.762	9556.13
617.118	9563.59
617.475	9585.74
617.831	9625.96
618.187	9566.53
618.543	9617.6
618.899	9664.15
619.255	9624.61
619.611	9680.42
619.967	9641.33
620.323	9697.6
620.678	9632.74
621.034	9630.48
621.39	9630.93
621.746	9620.31
622.101	9679.97
622.457	9638.62
622.812	9669.12
623.168	9681.1
623.523	9665.06
623.879	9723.81
624.234	9648.56
624.589	9696.24
624.945	9744.38
625.3	9667.09
625.655	9674.55
626.01	9703.93
626.365	9653.31
626.72	9678.16
627.075	9624.38
627.43	9654.89
627.785	9607.21
628.14	9716.13
628.495	9665.96
628.85	9656.7
629.205	9615.79
629.559	9674.1
629.914	9589.58
630.269	9551.84
630.623	9617.83
630.978	9629.35
631.332	9590.48
631.687	9611.05
632.041	9527.43
632.396	9546.87
632.75	9485.17
633.104	9577.15
633.459	9512.52
633.813	9509.58
634.167	9484.27
634.521	9518.39
634.875	9520.2
635.229	9492.41
635.583	9433.88
635.937	9442.46
636.291	9369.92
636.645	9429.13
636.999	9394.56
637.352	9434.33
637.706	9330.6
638.06	9408.79
638.413	9374.89
638.767	9340.77
639.121	9313.88
639.474	9331.73
639.828	9272.3
640.181	9326.99
640.534	9293.09
640.888	9302.81
641.241	9216.93
641.594	9269.81
641.947	9342.81
642.301	9235.92
642.654	9275.46
643.007	9273.88
643.36	9318.63
643.713	9173.54
644.066	9206.54
644.419	9215.8
644.771	9164.96
645.124	9094.68
645.477	9140.55
645.83	8929.71
646.182	8957.73
646.535	8916.15
646.888	8955.7
647.24	8857.39
647.593	8873.21
647.945	8894.68
648.298	8860.11
648.65	8865.08
649.002	8853.78
649.355	8925.19
649.707	8870.05
650.059	8936.26
650.411	9026.43
650.763	9057.16
651.115	9164.96
651.467	9131.74
651.819	9124.28
652.171	9102.36
652.523	9071.85
652.875	9084.73
653.227	9039.54
653.578	9123.6
653.93	9098.07
654.282	9043.6
654.633	9078.86
654.985	9097.61
655.337	9135.58
655.688	9164.5
656.039	9115.24
656.391	9103.94
656.742	9097.39
657.094	9090.38
657.445	9183.49
657.796	9129.48
658.147	9082.25
658.498	9122.47
658.849	9128.8
659.2	9146.43
659.551	9129.93
659.902	9165.18
660.253	9139.87
660.604	9165.63
660.955	9079.54
661.306	9181.91
661.656	9166.99
662.007	9156.37
662.358	9131.96
662.708	9185.3
663.059	9226.2
663.409	9074.34
663.76	9197.95
664.11	9127.44
664.461	9135.35
664.811	9155.92
665.161	9161.79
665.511	9126.54
665.862	9144.17
666.212	9237.72
666.562	9138.97
666.912	9133.77
667.262	9214.45
667.612	9136.71
667.962	9194.56
668.312	9163.6
668.662	9214
669.011	9186.2
669.361	9162.7
669.711	9180.78
670.06	9083.83
670.41	9052.64
670.76	9059.87
671.109	9142.58
671.459	9126.09
671.808	9095.58
672.157	9119.76
672.507	9068.24
672.856	9062.36
673.205	9095.13
673.554	9110.72
673.904	9086.77
674.253	9069.37
674.602	9066.88
674.951	8950.05
675.3	8944.4
675.649	9001.57
675.998	9050.38
676.346	8973.78
676.695	9021.46
677.044	8979.2
677.393	8949.14
677.741	9026.43
678.09	8978.97
678.438	8956.83
678.787	8974.68
679.135	8936.94
679.484	8908.24
679.832	8922.03
680.181	8905.08
680.529	8950.5
680.877	8855.13
681.225	8849.48
681.573	8842.25
681.922	8790.73
682.27	8798.86
682.618	8798.64
682.966	8791.86
683.314	8835.7
683.661	8788.92
684.009	8737.4
684.357	8680
684.705	8697.4
685.053	8696.95
685.4	8705.31
685.748	8638.64
686.095	8614.91
686.443	8517.52
686.79	8520.45
687.138	8610.62
687.485	8596.16
687.832	8560.9
688.18	8535.59
688.527	8402.49
688.874	8469.83
689.221	8462.38
689.568	8373.79
689.915	8464.41
690.262	8353.9
690.609	8337.63
690.956	8296.05
691.303	8307.35
691.65	8239.56
691.997	8311.42
692.344	8213.34
692.69	8173.57
693.037	8198.65
693.383	8077.98
693.73	8100.8
694.077	8059.22
694.423	8043.86
694.769	8014.93
695.116	7991.65
695.462	7934.93
695.808	7963.63
696.155	7965.67
696.501	7846.35
696.847	7866.91
697.193	7805.67
697.539	7793.24
697.885	7692.45
698.231	7743.07
698.577	7711.21
698.923	7713.7
699.269	7619.23
699.614	7616.52
699.96	7622.85
700.306	7589.86
700.651	7546.24
700.997	7610.87
701.342	7462.4
701.688	7499.69
702.033	7458.11
702.379	7410.88
702.724	7437.32
703.069	7428.96
703.415	7347.83
703.76	7352.8
704.105	7310.99
704.45	7297.89
704.795	7254.95
705.14	7234.39
705.485	7212.47
705.83	7196.42
706.175	7156.2
706.52	7148.74
706.865	7084.56
707.209	7120.49
707.554	7063.77
707.899	7073.26
708.243	7039.59
708.588	7018.35
708.932	6996.88
709.277	6967.5
709.621	6966.6
709.966	6940.83
710.31	6957.11
710.654	6876.88
710.998	6849.76
711.342	6851.8
711.687	6880.72
712.031	6814.06
712.375	6786.04
712.719	6786.04
713.063	6746.49
713.407	6805.47
713.75	6781.29
714.094	6699.48
714.438	6703.33
714.782	6724.34
715.125	6652.48
715.469	6720.73
715.812	6662.88
716.156	6607.51
716.499	6576.1
716.843	6630.56
717.186	6626.94
717.53	6666.04
717.873	6645.7
718.216	6618.81
718.559	6570.45
718.902	6525.93
719.246	6571.35
719.589	6550.79
719.932	6552.37
720.275	6541.52
720.617	6529.32
720.96	6491.13
721.303	6568.64
721.646	6517.34
721.989	6487.97
722.331	6516.89
722.674	6535.42
723.016	6464.24
723.359	6486.61
723.701	6488.19
724.044	6452.71
724.386	6447.97
724.729	6499.72
725.071	6470.79
725.413	6452.03
725.755	6464.01
726.097	6454.29
726.439	6416.55
726.782	6402.54
727.124	6428.08
727.465	6423.56
727.807	6360.06
728.149	6380.62
728.491	6430.79
728.833	6388.08
729.175	6388.31
729.516	6434.18
729.858	6376.1
730.199	6384.92
730.541	6374.75
730.882	6390.79
731.224	6381.53
731.565	6362.54
731.906	6378.36
732.248	6370.68
732.589	6343.34
732.93	6361.41
733.271	6420.17
733.612	6355.77
733.953	6387.4
734.294	6332.49
734.635	6329.78
734.976	6402.32
735.317	6405.71
735.658	6358.7
735.999	6384.46
736.339	6424.24
736.68	6404.35
737.021	6424.46
737.361	6393.28
737.702	6386.95
738.042	6382.43
738.383	6400.51
738.723	6419.94
739.063	6454.52
739.404	6436.21
739.744	6476.21
740.084	6420.4
740.424	6507.63
740.764	6453.39
741.104	6474.18
741.444	6525.7
741.784	6543.56
742.124	6612.93
742.464	6516.89
742.804	6582.43
743.143	6608.64
743.483	6606.61
743.823	6612.71
744.162	6641.18
744.502	6698.35
744.841	6724.12
745.181	6672.14
745.52	6770.9
745.86	6791.23
746.199	6827.39
746.538	6871.46
746.877	6916.88
747.216	6949.65
747.556	6933.83
747.895	7033.94
748.234	7041.85
748.573	7032.58
748.911	7133.82
749.25	7188.74
749.589	7192.13
749.928	7300.37
750.267	7418.11
750.605	7478.9
750.944	7474.38
751.283	7570.42
751.621	7639.57
751.96	7728.61
752.298	7794.82
752.636	7903.75
752.975	7953.46
753.313	8009.96
753.651	8121.14
753.989	8253.12
754.327	8323.4
754.666	8415.82
755.004	8559.77
755.342	8597.74
755.679	8790.73
756.017	8943.27
756.355	9060.55
756.693	9132.42
757.031	9336.7
757.368	9454.89
757.706	9591.84
758.044	9646.53
758.381	9862.79
758.719	9955.44
759.056	10137.36
759.394	10299.62
759.731	10458.71
760.068	10477.69
760.405	10644.47
760.743	10896.89
761.08	11036.09
761.417	11168.97
761.754	11355.41
762.091	11512.92
762.428	11627.94
762.765	11846.47
763.102	12088.95
763.438	12114.26
763.775	12316.51
764.112	12501.82
764.449	12747.91
764.785	12845.99
765.122	12997.4
765.458	13149.26
765.795	13225.19
766.131	13438.52
766.467	13579.76
766.804	13699.3
767.14	13850.26
767.476	14050.7
767.812	14128.89
768.148	14364.14
768.485	14464.93
