Data from hue_50_FLMS001491_60.txt Node
Date: Mon Feb 06 15:10:33 GMT 2017
User: dcchb
Spectrometer: FLMS00149
Trigger mode: 0
Integration Time (sec): 2.000000E-2
Scans to average: 10
Electric dark correction enabled: true
Nonlinearity correction enabled: false
Boxcar width: 0
XAxis mode: Wavelengths
Number of Pixels in Spectrum: 2048
>>>>>Begin Spectral Data<<<<<
341.393	-14.6
341.776	-14.6
342.16	-14.6
342.543	-59.57
342.927	-80.82
343.31	-67.03
343.693	-82.17
344.077	-72.46
344.46	-56.41
344.843	-34.04
345.226	-38.78
345.61	-28.39
345.993	-34.72
346.376	8.67
346.759	4.15
347.142	13.64
347.525	30.82
347.908	76.92
348.291	87.77
348.674	92.74
349.057	99.29
349.44	116.69
349.823	148.78
350.206	151.27
350.588	189.91
350.971	186.52
351.354	217.71
351.737	217.93
352.119	251.38
352.502	257.48
352.884	278.72
353.267	271.49
353.65	292.73
354.032	287.99
354.414	291.38
354.797	316.46
355.179	326.4
355.562	323.69
355.944	323.24
356.326	336.8
356.709	323.24
357.091	341.77
357.473	330.7
357.855	326.86
358.238	356.23
358.62	333.64
359.002	324.14
359.384	344.71
359.766	345.39
360.148	326.4
360.53	341.54
360.912	354.43
361.294	337.48
361.676	348.78
362.057	340.87
362.439	319.4
362.821	312.84
363.203	330.25
363.584	331.83
363.966	305.39
364.348	340.41
364.729	331.38
365.111	323.69
365.493	322.79
365.874	331.6
366.256	286.63
366.637	297.03
367.019	308.55
367.4	308.78
367.781	282.34
368.163	324.14
368.544	319.62
368.925	326.4
369.306	309.68
369.688	312.17
370.069	299.29
370.45	320.53
370.831	316.91
371.212	299.06
371.593	302.68
371.974	297.25
372.355	313.52
372.736	314.43
373.117	319.17
373.498	305.84
373.879	317.82
374.26	286.4
374.641	303.81
375.021	335.9
375.402	330.47
375.783	329.57
376.163	315.33
376.544	313.52
376.925	335.44
377.305	316.69
377.686	318.72
378.066	332.05
378.447	324.14
378.827	328.21
379.208	329.34
379.588	318.49
379.968	339.28
380.349	332.51
380.729	330.47
381.109	322.79
381.489	323.47
381.87	330.47
382.25	317.59
382.63	329.34
383.01	344.26
383.39	331.38
383.77	335.22
384.15	338.61
384.53	339.74
384.91	346.06
385.29	324.14
385.67	349.45
386.049	344.26
386.429	321.66
386.809	354.2
387.189	357.59
387.568	352.62
387.948	345.16
388.328	362.34
388.707	344.93
389.087	349.68
389.466	323.47
389.846	334.09
390.225	327.31
390.605	353.75
390.984	353.07
391.363	378.61
391.743	369.11
392.122	329.12
392.501	356.01
392.881	341.54
393.26	357.59
393.639	372.96
394.018	369.11
394.397	371.6
394.776	377.7
395.155	363.69
395.534	368.21
395.913	380.87
396.292	361.66
396.671	382.67
397.05	377.48
397.429	363.01
397.808	368.89
398.186	371.15
398.565	410.24
398.944	378.83
399.323	368.89
399.701	378.15
400.08	358.95
400.458	381.54
400.837	393.75
401.215	395.1
401.594	364.37
401.972	386.29
402.351	382.9
402.729	372.5
403.107	380.87
403.486	378.83
403.864	383.13
404.242	378.83
404.62	401.66
404.999	386.52
405.377	393.52
405.755	387.87
406.133	402.56
406.511	394.2
406.889	414.76
407.267	405.95
407.645	403.24
408.023	425.84
408.401	397.81
408.779	422.67
409.156	413.41
409.534	413.18
409.912	416.34
410.29	419.73
410.667	415.89
411.045	429.9
411.422	410.47
411.8	412.73
412.178	420.19
412.555	434.65
412.933	436.01
413.31	440.53
413.687	435.55
414.065	445.04
414.442	455.89
414.819	433.75
415.197	455.89
415.574	433.29
415.951	461.99
416.328	452.28
416.705	459.73
417.082	464.25
417.46	485.72
417.837	430.81
418.214	470.13
418.591	485.5
418.967	459.73
419.344	475.55
419.721	483.91
420.098	472.84
420.475	475.78
420.852	488.43
421.228	475.78
421.605	456.57
421.982	505.38
422.358	498.15
422.735	490.47
423.111	502.67
423.488	488.66
423.864	512.16
424.241	507.42
424.617	526.17
424.994	506.96
425.37	500.86
425.746	519.39
426.123	503.57
426.499	515.78
426.875	525.04
427.251	509.45
427.627	528.43
428.003	539.05
428.379	539.73
428.756	563.01
429.132	553.29
429.507	552.61
429.883	562.1
430.259	567.98
430.635	543.57
431.011	575.44
431.387	572.27
431.763	557.81
432.138	574.08
432.514	590.58
432.89	567.3
433.265	606.4
433.641	600.07
434.016	627.41
434.392	600.97
434.767	611.59
435.143	608.66
435.518	616.11
435.894	605.27
436.269	616.11
436.644	633.29
437.02	632.16
437.395	638.49
437.77	635.77
438.145	635.55
438.52	652.05
438.895	646.4
439.271	666.96
439.646	678.26
440.021	660.63
440.395	662.21
440.77	652.05
441.145	685.26
441.52	682.33
441.895	666.73
442.27	688.88
442.645	683.46
443.019	703.57
443.394	691.37
443.769	696.79
444.143	707.41
444.518	699.5
444.892	692.5
445.267	706.28
445.641	703.57
446.016	700.41
446.39	712.16
446.764	731.82
447.139	731.14
447.513	708.09
447.887	721.42
448.262	743.34
448.636	746.05
449.01	745.38
449.384	748.31
449.758	756.45
450.132	743.79
450.506	766.17
450.88	752.38
451.254	763.68
451.628	788.99
452.002	788.99
452.376	791.7
452.75	776.11
453.123	785.83
453.497	795.32
453.871	814.07
454.244	806.62
454.618	809.1
454.992	807.52
455.365	829.44
455.739	828.99
456.112	849.33
456.486	855.66
456.859	875.99
457.232	914.86
457.606	880.06
457.979	887.29
458.352	892.94
458.725	901.08
459.099	926.16
459.472	931.13
459.845	947.18
460.218	953.73
460.591	927.07
460.964	966.61
461.337	973.17
461.71	985.82
462.083	1007.97
462.456	993.5
462.829	1011.81
463.201	1050.23
463.574	1042.54
463.947	1034.63
464.32	1068.76
464.692	1082.99
465.065	1057.23
465.438	1086.16
465.81	1105.14
466.183	1136.78
466.555	1160.05
466.928	1159.15
467.3	1150.34
467.672	1193.95
468.045	1236.21
468.417	1244.8
468.789	1255.19
469.161	1258.36
469.534	1252.03
469.906	1322.99
470.278	1324.12
470.65	1337
471.022	1393.27
471.394	1388.75
471.766	1396.88
472.138	1443.89
472.51	1472.14
472.882	1483.66
473.253	1529.54
473.625	1553.26
473.997	1605.01
474.369	1626.26
474.74	1630.1
475.112	1695.18
475.484	1712.58
475.855	1757.78
476.227	1812.24
476.598	1858.11
476.97	1875.97
477.341	1964.33
477.713	2003.2
478.084	2020.37
478.455	2069.86
478.827	2144.21
479.198	2214.94
479.569	2268.05
479.94	2332.45
480.311	2407.71
480.682	2464.88
481.053	2579.9
481.424	2619
481.795	2647.92
482.166	2762.27
482.537	2796.85
482.908	2847.92
483.279	2947.58
483.65	3099.66
484.021	3176.27
484.391	3199.55
484.762	3353.22
485.133	3406.77
485.503	3512.08
485.874	3614.45
486.244	3722.25
486.615	3885.86
486.985	3919.08
487.356	4024.61
487.726	4114.1
488.097	4223.48
488.467	4321.1
488.837	4481.55
489.207	4565.61
489.578	4730.58
489.948	4819.85
490.318	4849.45
490.688	4966.06
491.058	5098.93
491.428	5316.56
491.798	5385.71
492.168	5538.7
492.538	5642.2
492.908	5773.49
493.278	5902.75
493.648	5963.54
494.017	6089.42
494.387	6216.87
494.757	6319.92
495.126	6504.32
495.496	6579.8
495.866	6692.79
496.235	6839.45
496.605	7013.69
496.974	7106.34
497.344	7211.19
497.713	7303.85
498.082	7449.61
498.452	7570.51
498.821	7622.03
499.19	7787.68
499.559	7917.39
499.928	8009.14
500.298	8180.66
500.667	8316.48
501.036	8405.29
501.405	8498.17
501.774	8544.94
502.143	8678.73
502.512	8765.96
502.88	8949.23
503.249	8967.53
503.618	9175.44
503.987	9284.36
504.356	9282.33
504.724	9460.63
505.093	9503.56
505.462	9586.95
505.83	9679.83
506.199	9794.4
506.567	10029.2
506.936	10036.43
507.304	10115.07
507.672	10274.84
508.041	10421.28
508.409	10464.22
508.777	10590.09
509.145	10684.32
509.514	10770.65
509.882	10848.84
510.25	10970.19
510.618	11073.47
510.986	11147.14
511.354	11263.52
511.722	11386.9
512.09	11581.48
512.458	11511.87
512.826	11569.95
513.193	11708.25
513.561	11746.67
513.929	11922.48
514.297	12028.02
514.664	12179.88
515.032	12218.52
515.4	12322.25
515.767	12493.09
516.135	12508.46
516.502	12458.74
516.869	12663.93
517.237	12835.45
517.604	12784.38
517.972	13010.59
518.339	13080.64
518.706	13032.51
519.073	13231.83
519.44	13237.7
519.808	13402.9
520.175	13447.87
520.542	13639.27
520.909	13713.62
521.276	13692.61
521.643	13957.46
522.009	14008.76
522.376	14088.98
522.743	14219.15
523.11	14376.66
523.477	14479.25
523.843	14587.27
524.21	14845.57
524.577	14800.15
524.943	14946.58
525.31	14987.04
525.676	15119.46
526.043	15200.59
526.409	15264.09
526.776	15444.2
527.142	15466.57
527.508	15668.6
527.874	15758.09
528.241	15907.46
528.607	15890.97
528.973	16049.61
529.339	16114.24
529.705	16186.78
530.071	16413.66
530.437	16463.83
530.803	16593.55
531.169	16661.79
531.535	16677.39
531.901	16726.65
532.267	16737.05
532.632	16927.1
532.998	17031.5
533.364	17118.28
533.73	17111.27
534.095	17260.65
534.461	17351.49
534.826	17468.33
535.192	17531.15
535.557	17497.48
535.923	17530.25
536.288	17700.64
536.653	17849.56
537.019	17752.84
537.384	17834.87
537.749	17997.58
538.114	18007.52
538.479	18050.01
538.845	18152.38
539.21	18123.9
539.575	18324.8
539.94	18313.95
540.305	18466.72
540.67	18421.52
541.034	18490.22
541.399	18558.47
541.764	18691.34
542.129	18752.13
542.494	18781.06
542.858	18814.05
543.223	18875.75
543.587	18974.5
543.952	18906.25
544.316	19018.79
544.681	19089.75
545.045	19295.17
545.41	19267.37
545.774	19330.42
546.138	19414.04
546.503	19506.01
546.867	19487.26
547.231	19722.28
547.595	19757.31
547.959	19774.25
548.324	19785.55
548.688	19868.94
549.052	19985.1
549.416	20034.36
549.779	19980.12
550.143	20117.75
550.507	20264.18
550.871	20283.17
551.235	20247.91
551.599	20461.47
551.962	20512.54
552.326	20612.65
552.689	20669.82
553.053	20571.52
553.417	20687.9
553.78	20909.59
554.143	20713.21
554.507	20904.39
554.87	21084.73
555.234	21143.48
555.597	21082.92
555.96	21148
556.323	21320.65
556.686	21195.91
557.05	21499.86
557.413	21548.22
557.776	21642.45
558.139	21776.46
558.502	21714.99
558.865	21939.17
559.228	22065.49
559.59	22119.05
559.953	22087.41
560.316	22354.75
560.679	22371.93
561.041	22520.4
561.404	22587.29
561.767	22759.49
562.129	22649.66
562.492	22915.64
562.854	22870.22
563.217	23020.5
563.579	23085.58
563.941	23307.04
564.304	23272.24
564.666	23396.53
565.028	23534.16
565.39	23493.48
565.753	23560.14
566.115	23721.95
566.477	23874.26
566.839	23985.67
567.201	24082.39
567.563	24134.14
567.925	24274.25
568.287	24256.62
568.648	24449.84
569.01	24450.97
569.372	24620.68
569.734	24620.68
570.095	24638.08
570.457	24928.02
570.819	24954.46
571.18	25044.17
571.542	25071.97
571.903	25206.88
572.265	25297.05
572.626	25384.73
572.987	25563.03
573.349	25555.35
573.71	25676.7
574.071	25789.01
574.432	25700.88
574.794	25972.96
575.155	25905.17
575.516	25995.79
575.877	26128.89
576.238	26233.75
576.599	26347.19
576.96	26369.11
577.32	26424.93
577.681	26629.44
578.042	26696.33
578.403	26799.83
578.763	26775.65
579.124	26825.82
579.485	27041.41
579.845	27179.71
580.206	27199.6
580.566	27329.99
580.927	27274.85
581.287	27567.5
581.648	27520.72
582.008	27730.43
582.368	27821.73
582.728	27999.12
583.089	27848.84
583.449	28047.93
583.809	28088.84
584.169	28290.41
584.529	28223.3
584.889	28498.54
585.249	28414.7
585.609	28437.53
585.969	28757.75
586.329	28812.21
586.688	28854.69
587.048	29025.99
587.408	28898.53
587.768	29067.8
588.127	29230.5
588.487	29180.11
588.846	29480.67
589.206	29402.7
589.565	29461.01
589.925	29805.85
590.284	29729.25
590.643	29994.55
591.003	30100.54
591.362	30199.74
591.721	30239.52
592.08	30307.08
592.44	30516.34
592.799	30607.87
593.158	30702.55
593.517	30666.4
593.876	30829.78
594.235	30800.86
594.593	30950.23
594.952	31158.81
595.311	31068.65
595.67	31241.98
596.029	31477.9
596.387	31570.33
596.746	31628.41
597.104	31622.3
597.463	31710.66
597.822	31855.74
598.18	31568.29
598.538	31897.78
598.897	32085.57
599.255	31898.91
599.613	32370.31
599.972	32213.02
600.33	32355.62
600.688	32234.27
601.046	32467.03
601.404	32689.39
601.762	32605.33
602.12	32905.21
602.478	32917.64
602.836	32932.1
603.194	32901.14
603.552	33072.44
603.91	33035.15
604.268	33251.19
604.625	33082.15
604.983	33389.26
605.341	33250.96
605.698	33481.24
606.056	33608.92
606.413	33537.73
606.771	33639.2
607.128	33901.34
607.485	33657.28
607.843	33784.51
608.2	34030.15
608.557	34125.74
608.914	33993.32
609.272	34259.3
609.629	34343.14
609.986	34381.33
610.343	34410.93
610.7	34575.9
611.057	34618.84
611.414	34702.22
611.771	34762.11
612.127	34991.93
612.484	34837.81
612.841	35006.85
613.198	34953.52
613.554	34979.05
613.911	35332.49
614.267	35253.62
614.624	35278.48
614.98	35390.34
615.337	35591.69
615.693	35476.44
616.05	35425.59
616.406	35775.64
616.762	35642.99
617.118	35693.61
617.475	35628.07
617.831	35938.35
618.187	35988.52
618.543	35977.9
618.899	36155.74
619.255	36060.38
619.611	36114.39
619.967	36223.09
620.323	36397.77
620.678	36143.99
621.034	36158.68
621.39	36235.74
621.746	36241.17
622.101	36529.29
622.457	36366.36
622.812	36446.58
623.168	36574.49
623.523	36501.72
623.879	36696.97
624.234	36386.92
624.589	36698.1
624.945	36678.44
625.3	36727.93
625.655	36743.3
626.01	36931.32
626.365	36812.68
626.72	36812.68
627.075	36786.91
627.43	36919.79
627.785	36732.23
628.14	36833.24
628.495	36902.39
628.85	36832.79
629.205	36750.08
629.559	37049.51
629.914	36854.71
630.269	36977.19
630.623	36786.69
630.978	36784.65
631.332	36939
631.687	36979
632.041	36842.05
632.396	36941.71
632.75	36786.01
633.104	36836.4
633.459	36740.36
633.813	36719.8
634.167	36576.98
634.521	36779.91
634.875	36787.59
635.229	36692.91
635.583	36522.97
635.937	36496.98
636.291	36614.04
636.645	36703.98
636.999	36573.13
637.352	36576.07
637.706	36441.39
638.06	36702.62
638.413	36515.51
638.767	36409.07
639.121	36502.4
639.474	36299.02
639.828	36374.72
640.181	36426.25
640.534	36456.08
640.888	36233.93
641.241	36137.21
641.594	36312.12
641.947	36268.51
642.301	36255.63
642.654	36268.51
643.007	36275.97
643.36	36219.92
643.713	36139.7
644.066	36282.29
644.419	36155.74
644.771	35850.22
645.124	35553.5
645.477	35581.07
645.83	35262.21
646.182	35122.33
646.535	34985.61
646.888	35074.87
647.24	34796.91
647.593	35097.02
647.945	35003.68
648.298	34758.27
648.65	34787.64
649.002	34790.36
649.355	34878.49
649.707	34774.54
650.059	35088.88
650.411	35349.89
650.763	35345.82
651.115	35821.97
651.467	35611.8
651.819	35690.9
652.171	35520.51
652.523	35471.92
652.875	35451.13
653.227	35339.04
653.578	35611.35
653.93	35504.69
654.282	35337.23
654.633	35372.49
654.985	35355.99
655.337	35497.23
655.688	35392.83
656.039	35429.44
656.391	35086.85
656.742	35156.22
657.094	35313.96
657.445	35349.21
657.796	35300.17
658.147	35180.63
658.498	35139.5
658.849	35362.32
659.2	35286.16
659.551	35043.91
659.902	35307.63
660.253	35184.92
660.604	35329.1
660.955	34944.02
661.306	35170.91
661.656	35089.11
662.007	35090.24
662.358	35011.37
662.708	35067.19
663.059	35205.94
663.409	34942.44
663.76	35262.21
664.11	35198.26
664.461	35114.87
664.811	34996.45
665.161	35079.16
665.511	34988.77
665.862	34992.61
666.212	35106.51
666.562	35085.94
666.912	34919.17
667.262	35141.08
667.612	34993.97
667.962	35082.55
668.312	34992.61
668.662	35044.81
669.011	34905.83
669.361	34934.31
669.711	34851.82
670.06	34807.76
670.41	34906.06
670.76	34816.34
671.109	35007.75
671.459	34857.25
671.808	34823.58
672.157	34919.62
672.507	34544.26
672.856	34626.74
673.205	34901.31
673.554	34775.44
673.904	34747.42
674.253	34857.93
674.602	34738.38
674.951	34238.05
675.3	34122.8
675.649	34610.93
675.998	34509.69
676.346	34589.23
676.695	34753.97
677.044	34631.49
677.393	34531.61
677.741	34440.76
678.09	34453.64
678.438	34422.46
678.787	34554.88
679.135	34529.8
679.484	34217.04
679.832	34317.83
680.181	34152.18
680.529	34234.89
680.877	34081.67
681.225	34151.73
681.573	34358.96
681.922	34052.07
682.27	34008.23
682.618	34032.64
682.966	33951.06
683.314	33954.9
683.661	33977.5
684.009	33699.09
684.357	33615.25
684.705	33579.99
685.053	33793.32
685.4	33581.57
685.748	33422.26
686.095	33496.38
686.443	33326.89
686.79	33340
687.138	33471.97
687.485	33325.54
687.832	33227.91
688.18	33316.95
688.527	33029.05
688.874	33059.55
689.221	32923.74
689.568	32860.01
689.915	32984.75
690.262	32833.12
690.609	32785.44
690.956	32667.7
691.303	32664.99
691.65	32483.98
691.997	32464.99
692.344	32418.44
692.69	32198.79
693.037	32286.92
693.383	32119.47
693.73	32220.71
694.077	31946.14
694.423	31989.3
694.769	31874.5
695.116	31808.51
695.462	31759.7
695.808	31656.2
696.155	31721.28
696.501	31465.25
696.847	31510.67
697.193	31207.85
697.539	31366.27
697.885	31125.37
698.231	31042.88
698.577	31083.79
698.923	30950.68
699.269	30862.1
699.614	30652.16
699.96	30618.26
700.306	30663.69
700.651	30555.21
700.997	30378.72
701.342	30281.55
701.688	30332.85
702.033	30099.18
702.379	30166.07
702.724	30079.07
703.069	30231.61
703.415	29791.39
703.76	29783.26
704.105	29771.73
704.45	29857.38
704.795	29686.99
705.14	29462.36
705.485	29563.83
705.83	29351.18
706.175	29326.32
706.52	29379.88
706.865	29389.14
707.209	29285.64
707.554	29168.81
707.899	29182.14
708.243	29000.23
708.588	28944.86
708.932	28885.43
709.277	28803.4
709.621	28770.63
709.966	28591.2
710.31	28682.04
710.654	28436.4
710.998	28566.57
711.342	28557.75
711.687	28449.28
712.031	28362.28
712.375	28257.87
712.719	28198.44
713.063	28146.92
713.407	28267.36
713.75	28105.11
714.094	28007.94
714.438	27946.92
714.782	27913.02
715.125	27709.19
715.469	27868.73
715.812	27639.36
716.156	27619.02
716.499	27661.5
716.843	27629.87
717.186	27420.15
717.53	27634.16
717.873	27447.72
718.216	27380.83
718.559	27363.66
718.902	27221.97
719.246	27256.54
719.589	27008.19
719.932	27064.46
720.275	27028.07
720.617	26990.34
720.96	26875.31
721.303	26965.93
721.646	26897.68
721.989	26819.72
722.331	26833.28
722.674	26720.29
723.016	26818.36
723.359	26683.45
723.701	26628.76
724.044	26483.23
724.386	26382.67
724.729	26589.67
725.071	26440.29
725.413	26392.16
725.755	26459.05
726.097	26320.97
726.439	26151.04
726.782	26196.01
727.124	26285.27
727.465	26086.4
727.807	26178.15
728.149	25980.64
728.491	26074.2
728.833	26139.28
729.175	25990.36
729.516	25919.4
729.858	25836.02
730.199	25915.11
730.541	25927.99
730.882	25874.88
731.224	25892.51
731.565	25715.34
731.906	25573.42
732.248	25691.39
732.589	25532.07
732.93	25574.55
733.271	25570.49
733.612	25422.69
733.953	25598.28
734.294	25349.02
734.635	25291.17
734.976	25423.15
735.317	25252.98
735.658	25190.38
735.999	25209.82
736.339	25136.15
736.68	25274.67
737.021	25157.62
737.361	25019.99
737.702	25190.61
738.042	25165.07
738.383	25087.33
738.723	24968.47
739.063	24996.26
739.404	24944.51
739.744	24901.12
740.084	24765.31
740.424	24792.43
740.764	24724.18
741.104	24758.76
741.444	24729.6
741.784	24628.59
742.124	24713.11
742.464	24628.82
742.804	24568.7
743.143	24512.43
743.483	24513.79
743.823	24445.77
744.162	24321.93
744.502	24458.42
744.841	24297.75
745.181	24297.3
745.52	24281.25
745.86	24237.64
746.199	24170.52
746.538	24216.62
746.877	24270.18
747.216	24180.24
747.556	24141.37
747.895	24165.55
748.234	24039.45
748.573	23994.71
748.911	23927.14
749.25	23894.37
749.589	23724.21
749.928	23894.6
750.267	23844.2
750.605	23640.59
750.944	23675.62
751.283	23590.88
751.621	23637.66
751.96	23600.14
752.298	23473.14
752.636	23462.74
752.975	23305.69
753.313	23395.63
753.651	23464.55
753.989	23291.22
754.327	23226.59
754.666	23019.82
755.004	23179.36
755.342	23153.15
755.679	23072.25
756.017	22983.66
756.355	22981.85
756.693	22808.07
757.031	22877.9
