Data from hue_350_FLMS001491_66.txt Node
Date: Mon Feb 06 15:38:22 GMT 2017
User: dcchb
Spectrometer: FLMS00149
Trigger mode: 0
Integration Time (sec): 2.000000E-2
Scans to average: 10
Electric dark correction enabled: true
Nonlinearity correction enabled: false
Boxcar width: 0
XAxis mode: Wavelengths
Number of Pixels in Spectrum: 2048
>>>>>Begin Spectral Data<<<<<
341.393	-0.69
341.776	-0.69
342.16	-0.69
342.543	-63.29
342.927	-63.29
343.31	-78.88
343.693	-76.17
344.077	-56.06
344.46	-70.07
344.843	-47.47
345.226	-54.02
345.61	-23.29
345.993	-5.66
346.376	10.16
346.759	-4.31
347.142	14.22
347.525	67.1
347.908	57.39
348.291	84.5
348.674	100.1
349.057	82.47
349.44	121.56
349.823	139.19
350.206	173.31
350.588	192.75
350.971	213.31
351.354	222.58
351.737	253.76
352.119	245.4
352.502	254.22
352.884	264.39
353.267	279.75
353.65	287.89
354.032	313.65
354.414	310.94
354.797	336.93
355.179	313.88
355.562	349.58
355.944	369.47
356.326	330.37
356.709	330.82
357.091	321.11
357.473	330.82
357.855	332.41
358.238	334.89
358.62	336.02
359.002	333.99
359.384	344.16
359.766	326.53
360.148	360.43
360.53	309.81
360.912	336.02
361.294	305.97
361.676	345.51
362.057	325.4
362.439	321.56
362.821	325.18
363.203	297.38
363.584	292.86
363.966	330.37
364.348	322.01
364.729	329.02
365.111	304.61
365.493	342.35
365.874	298.06
366.256	339.41
366.637	315.91
367.019	301.45
367.4	304.61
367.781	297.38
368.163	304.38
368.544	322.69
368.925	303.03
369.306	309.36
369.688	288.79
370.069	322.92
370.45	315.46
370.831	315.46
371.212	310.26
371.593	306.19
371.974	317.27
372.355	304.16
372.736	307.77
373.117	301.67
373.498	314.33
373.879	318.85
374.26	316.36
374.641	316.59
375.021	296.02
375.402	316.81
375.783	319.3
376.163	336.93
376.544	320.43
376.925	340.54
377.305	312.75
377.686	319.75
378.066	334.67
378.447	318.4
378.827	341.67
379.208	324.72
379.588	322.01
379.968	337.15
380.349	332.86
380.729	336.25
381.109	338.51
381.489	319.53
381.87	337.15
382.25	334.89
382.63	333.08
383.01	353.65
383.39	355.23
383.77	329.69
384.15	352.74
384.53	357.94
384.91	332.41
385.29	354.1
385.67	355.23
386.049	357.49
386.429	336.93
386.809	336.7
387.189	352.97
387.568	359.52
387.948	337.83
388.328	359.98
388.707	339.64
389.087	343.03
389.466	363.14
389.846	344.84
390.225	357.26
390.605	352.74
390.984	336.93
391.363	352.97
391.743	340.99
392.122	339.41
392.501	373.08
392.881	373.99
393.26	354.1
393.639	374.89
394.018	377.6
394.397	376.93
394.776	359.98
395.155	366.3
395.534	380.77
395.913	371.73
396.292	373.76
396.671	369.69
397.05	361.78
397.429	370.6
397.808	375.34
398.186	385.96
398.565	387.77
398.944	374.89
399.323	376.47
399.701	391.39
400.08	379.86
400.458	385.06
400.837	399.98
401.215	393.87
401.594	399.52
401.972	405.17
402.351	389.81
402.729	399.52
403.107	392.07
403.486	412.4
403.864	413.99
404.242	389.35
404.62	388.22
404.999	398.17
405.377	410.14
405.755	413.31
406.133	407.21
406.511	421.67
406.889	433.65
407.267	435.91
407.645	404.72
408.023	432.74
408.401	448.11
408.779	406.53
409.156	436.81
409.534	425.51
409.912	421.9
410.29	434.32
410.667	442.69
411.045	418.73
411.422	441.33
411.8	435.45
412.178	439.07
412.555	432.74
412.933	451.5
413.31	454.89
413.687	439.52
414.065	468.22
414.442	465.28
414.819	475.91
415.197	475.23
415.574	485.85
415.951	475
416.328	473.42
416.705	474.78
417.082	469.8
417.46	492.85
417.837	493.76
418.214	507.77
418.591	505.74
418.967	499.18
419.344	506.41
419.721	535.11
420.098	511.38
420.475	513.64
420.852	524.94
421.228	512.51
421.605	507.32
421.982	543.93
422.358	538.05
422.735	541.21
423.111	538.73
423.488	539.63
423.864	545.51
424.241	548.45
424.617	543.93
424.994	560.88
425.37	581.67
425.746	547.09
426.123	582.34
426.499	558.39
426.875	577.6
427.251	565.17
427.627	592.74
428.003	583.7
428.379	592.74
428.756	588.67
429.132	593.42
429.507	595.22
429.883	603.13
430.259	623.02
430.635	597.03
431.011	617.14
431.387	626.86
431.763	619.18
432.138	651.72
432.514	649.91
432.89	645.39
433.265	642.91
433.641	653.53
434.016	645.62
434.392	672.96
434.767	652.62
435.143	685.62
435.518	666.86
435.894	683.58
436.269	689.23
436.644	699.4
437.02	710.7
437.395	691.95
437.77	708.22
438.145	702.57
438.52	694.66
438.895	705.28
439.271	723.81
439.646	733.07
440.021	730.14
440.395	751.15
440.77	726.52
441.145	753.19
441.52	769.23
441.895	752.73
442.27	757.48
442.645	766.97
443.019	770.81
443.394	778.72
443.769	777.82
444.143	769.68
444.518	791.6
444.892	760.42
445.267	786.63
445.641	788.44
446.016	793.19
446.39	805.16
446.764	820.08
447.139	812.17
447.513	762.23
447.887	785.28
448.262	808.78
448.636	820.3
449.01	829.34
449.384	827.31
449.758	833.64
450.132	810.59
450.506	847.87
450.88	837.25
451.254	858.95
451.628	834.54
452.002	874.77
452.376	880.87
452.75	881.32
453.123	873.64
453.497	873.18
453.871	890.58
454.244	898.95
454.618	874.31
454.992	910.92
455.365	920.87
455.739	935.78
456.112	954.31
456.486	926.06
456.859	962.22
457.232	947.31
457.606	947.08
457.979	944.14
458.352	971.26
458.725	988.89
459.099	995.89
459.472	985.5
459.845	1001.09
460.218	1042.9
460.591	1021.43
460.964	1041.31
461.337	1053.07
461.71	1073.63
462.083	1068.88
462.456	1066.85
462.829	1067.08
463.201	1094.42
463.574	1081.09
463.947	1116.57
464.32	1129.22
464.692	1119.05
465.065	1123.12
465.438	1140.75
465.81	1170.12
466.183	1191.59
466.555	1230.91
466.928	1181.88
467.3	1223.46
467.672	1230.24
468.045	1228.65
468.417	1246.28
468.789	1259.61
469.161	1289.22
469.534	1284.47
469.906	1299.39
470.278	1332.15
470.65	1338.26
471.022	1364.02
471.394	1388.88
471.766	1383
472.138	1384.36
472.51	1415.32
472.882	1464.13
473.253	1467.52
473.625	1476.56
473.997	1511.13
474.369	1505.93
474.74	1522.21
475.112	1545.48
475.484	1582.32
475.855	1603.11
476.227	1621.19
476.598	1661.86
476.97	1659.83
477.341	1709.55
477.713	1726.49
478.084	1719.49
478.455	1771.01
478.827	1798.58
479.198	1850.56
479.569	1840.39
479.94	1896.66
480.311	1962.19
480.682	1955.64
481.053	1993.61
481.424	2062.53
481.795	2084.45
482.166	2105.02
482.537	2117.67
482.908	2187.27
483.279	2176.43
483.65	2229.31
484.021	2251.45
484.391	2302.75
484.762	2306.59
485.133	2346.14
485.503	2367.83
485.874	2453.48
486.244	2437.21
486.615	2486.93
486.985	2499.81
487.356	2578.68
487.726	2594.27
488.097	2611.67
488.467	2636.07
488.837	2692.12
489.207	2758.33
489.578	2749.52
489.948	2789.74
490.318	2864.54
490.688	2846.24
491.058	2912.45
491.428	2951.55
491.798	2972.79
492.168	3013.01
492.538	3042.62
492.908	3098.44
493.278	3117.64
493.648	3091.66
494.017	3145.44
494.387	3172.78
494.757	3209.39
495.126	3255.49
495.496	3277.87
495.866	3300.24
496.235	3328.26
496.605	3388.6
496.974	3376.62
497.344	3417.75
497.713	3405.32
498.082	3435.6
498.452	3494.81
498.821	3508.37
499.19	3575.03
499.559	3576.39
499.928	3600.57
500.298	3611.19
500.667	3622.94
501.036	3624.07
501.405	3721.02
501.774	3687.12
502.143	3708.59
502.512	3710.4
502.88	3739.1
503.249	3799.66
503.618	3785.2
503.987	3782.71
504.356	3821.13
504.724	3816.16
505.093	3876.27
505.462	3865.42
505.83	3898.87
506.199	3920.79
506.567	3983.61
506.936	3923.72
507.304	3975.47
507.672	4016.15
508.041	4006.89
508.409	3984.74
508.777	4056.15
509.145	4054.79
509.514	4121.69
509.882	4117.17
510.25	4101.8
510.618	4152.19
510.986	4162.36
511.354	4176.6
511.722	4162.14
512.09	4190.61
512.458	4238.52
512.826	4247.56
513.193	4275.81
513.561	4278.97
513.929	4281.23
514.297	4323.04
514.664	4309.93
515.032	4335.92
515.4	4344.05
515.767	4333.21
516.135	4416.82
516.502	4356.03
516.869	4460.43
517.237	4473.77
517.604	4391.96
517.972	4473.77
518.339	4464.73
518.706	4513.77
519.073	4511.73
519.44	4532.75
519.808	4596.7
520.175	4587.89
520.542	4622.46
520.909	4641.45
521.276	4603.71
521.643	4644.38
522.009	4660.65
522.376	4662.46
522.743	4686.87
523.11	4729.13
523.477	4782.68
523.843	4763.7
524.21	4761.22
524.577	4814.32
524.943	4840.08
525.31	4835.79
525.676	4929.57
526.043	4939.07
526.409	4970.48
526.776	4996.92
527.142	5022.9
527.508	5050.7
527.874	5050.7
528.241	5091.83
528.607	5120.3
528.973	5138.61
529.339	5098.83
529.705	5173.18
530.071	5193.07
530.437	5238.04
530.803	5252.5
531.169	5261.32
531.535	5279.62
531.901	5336.57
532.267	5345.16
532.632	5370.92
532.998	5345.61
533.364	5374.08
533.73	5431.03
534.095	5432.84
534.461	5468.99
534.826	5470.8
535.192	5514.42
535.557	5514.42
535.923	5534.08
536.288	5563.68
536.653	5628.54
537.019	5643.23
537.384	5599.39
537.749	5628.54
538.114	5672.61
538.479	5681.87
538.845	5666.73
539.21	5706.73
539.575	5722.55
539.94	5741.08
540.305	5813.62
540.67	5795.77
541.034	5815.65
541.399	5843.67
541.764	5871.24
542.129	5920.51
542.494	5869.44
542.858	5969.77
543.223	5955.54
543.587	6030.56
543.952	6039.83
544.316	6019.94
544.681	6045.93
545.045	6093.84
545.41	6123.44
545.774	6108.98
546.138	6178.13
546.503	6169.77
546.867	6220.39
547.231	6316.2
547.595	6237.79
547.959	6294.96
548.324	6255.64
548.688	6278.92
549.052	6291.57
549.416	6360.95
549.779	6355.3
550.143	6364.34
550.507	6410.89
550.871	6451.57
551.235	6477.1
551.599	6507.39
551.962	6491.79
552.326	6485.69
552.689	6553.26
553.053	6528.18
553.417	6601.17
553.78	6651.11
554.143	6632.58
554.507	6657.89
554.87	6645.69
555.234	6720.71
555.597	6617.66
555.96	6675.29
556.323	6746.25
556.686	6715.06
557.05	6760.03
557.413	6779.24
557.776	6767.04
558.139	6828.05
558.502	6863.53
558.865	6895.85
559.228	6873.93
559.59	6916.41
559.953	7001.61
560.316	7047.71
560.679	6995.51
561.041	7014.94
561.404	7114.83
561.767	7101.72
562.129	7116.86
562.492	7176.75
562.854	7120.02
563.217	7177.42
563.579	7209.06
563.941	7223.75
564.304	7255.84
564.666	7271.21
565.028	7280.25
565.39	7325.67
565.753	7352.33
566.115	7372.9
566.477	7422.16
566.839	7434.14
567.201	7499.45
567.563	7485.66
567.925	7553.91
568.287	7519.34
568.648	7529.96
569.01	7584.87
569.372	7680.24
569.734	7652.89
570.095	7726.79
570.457	7778.99
570.819	7759.33
571.18	7778.99
571.542	7817.63
571.903	7803.17
572.265	7933.79
572.626	7974.92
572.987	7983.28
573.349	8051.75
573.71	8077.51
574.071	8089.94
574.432	8171.07
574.794	8247.68
575.155	8303.72
575.516	8331.07
575.877	8357.05
576.238	8404.96
576.599	8481.8
576.96	8529.48
577.32	8596.14
577.681	8686.09
578.042	8757.95
578.403	8833.65
578.763	8863.93
579.124	8985.06
579.485	9070.48
579.845	9205.39
580.206	9203.81
580.566	9273.19
580.927	9427.53
581.287	9654.2
581.648	9596.34
582.008	9837.24
582.368	9884.7
582.728	10051.25
583.089	10120.17
583.449	10293.27
583.809	10456.43
584.169	10643.55
584.529	10845.35
584.889	11048.28
585.249	11068.85
585.609	11295.28
585.969	11493.92
586.329	11666.57
586.688	11920.12
587.048	12089.16
587.408	12223.62
587.768	12440.34
588.127	12694.12
588.487	12936.59
588.846	13220.88
589.206	13347.88
589.565	13569.57
589.925	13843.24
590.284	14087.98
590.643	14308.76
591.003	14600.51
591.362	14904.23
591.721	15157.1
592.08	15412.69
592.44	15606.36
592.799	15969.74
593.158	16133.57
593.517	16487.69
593.876	16802.48
594.235	16992.53
594.593	17261
594.952	17651.27
595.311	17835
595.67	18138.04
596.029	18589.78
596.387	18868.64
596.746	19150.44
597.104	19454.84
597.463	19505.01
597.822	20062.96
598.18	20156.29
598.538	20431.09
598.897	20829.27
599.255	20910.85
599.613	21553.54
599.972	21618.17
600.33	22051.38
600.688	22117.6
601.046	22483.69
601.404	22792.83
601.762	23055.2
602.12	23387.85
602.478	23737.44
602.836	23956.19
603.194	24089.97
603.552	24416.52
603.91	24656.96
604.268	25059.89
604.625	25198.65
604.983	25482.48
605.341	25519.99
605.698	26141.9
606.056	26290.59
606.413	26419.86
606.771	26914.08
607.128	27034.3
607.485	27166.28
607.843	27411.24
608.2	27857.33
608.557	28093.48
608.914	28154.5
609.272	28620.7
609.629	28788.38
609.986	29083.51
610.343	29195.83
610.7	29647.57
611.057	29700.9
611.414	29849.14
611.771	29963.49
612.127	30382.69
612.484	30514.89
612.841	30871.49
613.198	30882.11
613.554	30976.12
613.911	31321.87
614.267	31472.83
614.624	31653.39
614.98	31811.58
615.337	32100.84
615.693	32127.73
616.05	32294.5
616.406	32646.36
616.762	32610.2
617.118	32778.11
617.475	32839.35
617.831	33172
618.187	33269.17
618.543	33373.8
618.899	33710.06
619.255	33758.19
619.611	33832.09
619.967	34201.57
620.323	34247.45
620.678	34087.9
621.034	34240.67
621.39	34318.18
621.746	34442.92
622.101	34773.53
622.457	34740.32
622.812	34898.96
623.168	34966.3
623.523	35196.8
623.879	35305.27
624.234	35239.51
624.589	35464.82
624.945	35496.68
625.3	35581.2
625.655	35604.25
626.01	35846.27
626.365	35900.51
626.72	35901.41
627.075	35852.38
627.43	36119.04
627.785	35979.6
628.14	36133.27
628.495	36166.49
628.85	36299.6
629.205	36064.12
629.559	36384.11
629.914	36353.15
630.269	36298.01
630.623	36409.65
630.978	36413.49
631.332	36572.81
631.687	36632.92
632.041	36495.75
632.396	36599.93
632.75	36475.41
633.104	36597.67
633.459	36450.55
633.813	36526.94
634.167	36535.52
634.521	36576.65
634.875	36663.43
635.229	36646.71
635.583	36588.18
635.937	36567.16
636.291	36466.15
636.645	36558.8
636.999	36634.28
637.352	36627.72
637.706	36516.54
638.06	36733.03
638.413	36502.53
638.767	36444.68
639.121	36602.19
639.474	36498.69
639.828	36407.84
640.181	36698.46
640.534	36629.08
640.888	36472.25
641.241	36331.23
641.594	36579.59
641.947	36494.85
642.301	36399.25
642.654	36487.84
643.007	36617.1
643.36	36573.94
643.713	36464.34
644.066	36526.48
644.419	36461.17
644.771	36234.97
645.124	35880.17
645.477	35872.04
645.83	35603.57
646.182	35568.54
646.535	35423.46
646.888	35397.93
647.24	35265.05
647.593	35539.84
647.945	35498.49
648.298	35347.31
648.65	35375.78
649.002	35290.36
649.355	35372.16
649.707	35248.1
650.059	35344.14
650.411	35810.34
650.763	35833.62
651.115	36168.07
651.467	36035.42
651.819	36119.71
652.171	35987.74
652.523	36196.55
652.875	35986.61
653.227	35905.48
653.578	36222.54
653.93	36030.68
654.282	35902.32
654.633	35833.85
654.985	35918.59
655.337	36031.13
655.688	35925.37
656.039	35978.47
656.391	35771.93
656.742	35755.43
657.094	35776.9
657.445	35874.3
657.796	35907.97
658.147	35763.57
658.498	35782.1
658.849	35830.23
659.2	35765.6
659.551	35755.2
659.902	35940.06
660.253	35840.4
660.604	35844.02
660.955	35647.64
661.306	35868.42
661.656	35758.59
662.007	35799.5
662.358	35778.25
662.708	35724.47
663.059	35684.7
663.409	35485.15
663.76	35773.51
664.11	35695.32
664.461	35737.58
664.811	35737.58
665.161	35738.71
665.511	35574.19
665.862	35584.13
666.212	35671.59
666.562	35886.73
666.912	35548.43
667.262	35676.34
667.612	35716.79
667.962	35653.74
668.312	35665.04
668.662	35758.82
669.011	35663.45
669.361	35614.64
669.711	35540.07
670.06	35575.55
670.41	35475.66
670.76	35485.38
671.109	35624.81
671.459	35522.22
671.808	35421.43
672.157	35491.93
672.507	35223.92
672.856	35299.17
673.205	35311.15
673.554	35538.03
673.904	35147.54
674.253	35509.56
674.602	35505.72
674.951	34899.86
675.3	34866.64
675.649	35182.56
675.998	35184.37
676.346	35315.89
676.695	35304.37
677.044	35140.76
677.393	35251.71
677.741	35127.2
678.09	35105.05
678.438	35103.02
678.787	35188.89
679.135	35209.23
679.484	34909.8
679.832	35047.88
680.181	34763.59
680.529	35014.21
680.877	34736.47
681.225	34792.52
681.573	34927.43
681.922	34859.86
682.27	34528.34
682.618	34778.05
682.966	34530.15
683.314	34580.55
683.661	34586.2
684.009	34476.14
684.357	34293.32
684.705	34262.14
685.053	34368.12
685.4	34292.64
685.748	34099.2
686.095	33997.51
686.443	34104.85
686.79	33944.4
687.138	33937.62
687.485	33952.31
687.832	33859.66
688.18	33877.29
688.527	33682.94
688.874	33696.95
689.221	33709.16
689.568	33526.56
689.915	33498.31
690.262	33452.67
690.609	33408.37
690.956	33208.6
691.303	33197.76
691.65	32987.59
691.997	33058.55
692.344	32914.15
692.69	32835.51
693.037	32872.79
693.383	32558.23
693.73	32672.8
694.077	32503.09
694.423	32467.83
694.769	32377.44
695.116	32354.84
695.462	32313.26
695.808	32156.43
696.155	32292.7
696.501	32031.46
696.847	32099.25
697.193	31926.15
697.539	31974.29
697.885	31784.01
698.231	31655.65
698.577	31536.56
698.923	31558.25
699.269	31404.58
699.614	31339.05
699.96	31265.6
700.306	31280.07
700.651	31129.34
700.997	30912.17
701.342	30988.32
701.688	30839.63
702.033	30959.85
702.379	30870.59
702.724	30737.03
703.069	30693.64
703.415	30302.24
703.76	30460.65
704.105	30413.2
704.45	30365.29
704.795	30131.85
705.14	30012.76
705.485	30073.32
705.83	29791.29
706.175	29915.58
706.52	29898.41
706.865	29664.29
707.209	29728.7
707.554	29540.45
707.899	29662.03
708.243	29461.13
708.588	29503.16
708.932	29349.72
709.277	29302.04
709.621	29415.71
709.966	29151.76
710.31	29184.98
710.654	28882.62
710.998	28928.49
711.342	29031.54
711.687	28821.83
712.031	28742.73
712.375	28657.76
712.719	28775.95
713.063	28705.45
713.407	28727.37
713.75	28702.28
714.094	28474.04
714.438	28375.06
714.782	28502.74
715.125	28278.79
715.469	28359.69
715.812	28225.46
716.156	28163.31
716.499	28149.98
716.843	28215.97
717.186	27888.97
717.53	28078.57
717.873	28121.05
718.216	28087.83
718.559	27807.84
718.902	27671.12
719.246	27724.45
719.589	27666.83
719.932	27510
720.275	27531.47
720.617	27530.11
720.96	27393.84
721.303	27434.52
721.646	27401.98
721.989	27234.98
722.331	27386.84
722.674	27287.63
723.016	27286.27
723.359	27197.91
723.701	27209.67
724.044	26954.53
724.386	26856.45
724.729	27094.19
725.071	26931.03
725.413	26985.72
725.755	26865.49
726.097	26780.98
726.439	26670.02
726.782	26661.21
727.124	26834.76
727.465	26556.12
727.807	26603.81
728.149	26534.43
728.491	26342.57
728.833	26534.88
729.175	26402
729.516	26338.73
729.858	26285.4
730.199	26355.23
730.541	26249.24
730.882	26299.18
731.224	26360.87
731.565	26109.36
731.906	26162.01
732.248	26202.23
732.589	25999.98
732.93	25905.07
733.271	25857.61
733.612	25972.86
733.953	25949.13
734.294	25759.99
734.635	25836.82
734.976	25872.98
735.317	25633.89
735.658	25654
735.999	25698.75
736.339	25745.75
736.68	25645.64
737.021	25580.78
737.361	25489.71
737.702	25616.04
738.042	25411.52
738.383	25523.83
738.723	25456.04
739.063	25340.79
739.404	25421.69
739.744	25195.48
740.084	25216.27
740.424	25208.36
740.764	25309.15
741.104	25187.35
741.444	25019.89
741.784	25063.96
742.124	25077.97
742.464	25093.11
742.804	25009.27
743.143	24926.34
743.483	24944.87
743.823	24950.74
744.162	24830.97
744.502	24833.01
744.841	24764.08
745.181	24788.49
745.52	24744.65
745.86	24715.27
746.199	24651.32
746.538	24722.05
746.877	24720.01
747.216	24687.25
747.556	24515.5
747.895	24701.48
748.234	24410.19
748.573	24448.83
748.911	24365.22
749.25	24299.91
749.589	24350.31
749.928	24380.14
750.267	24270.76
750.605	24144.89
750.944	24220.14
751.283	24088.39
751.621	24159.58
751.96	24027.83
752.298	23925.46
752.636	24013.14
752.975	23883.2
753.313	23817.89
753.651	23939.7
753.989	23730.21
754.327	23685.24
754.666	23575.86
755.004	23649.31
755.342	23647.05
755.679	23628.97
756.017	23389.65
756.355	23475.75
756.693	23360.5
757.031	23480.72
757.368	23299.49
757.706	23254.52
758.044	23167.29
758.381	23205.03
758.719	23064.24
759.056	23150.56
759.394	23069.21
759.731	22935.43
760.068	22743.12
760.405	22771.59
760.743	22612.95
