Data from hue_190_FLMS001491_00019.txt Node
Date: Tue Feb 07 16:44:55 GMT 2017
User: dcchb
Spectrometer: FLMS00149
Trigger mode: 0
Integration Time (sec): 2.000000E-2
Scans to average: 10
Electric dark correction enabled: true
Nonlinearity correction enabled: false
Boxcar width: 0
XAxis mode: Wavelengths
Number of Pixels in Spectrum: 2048
>>>>>Begin Spectral Data<<<<<
341.393	-25.18
341.776	-25.18
342.16	-25.18
342.543	-55.24
342.927	-74.9
343.31	-61.34
343.693	-71.06
344.077	-55.01
344.46	-69.7
344.843	-55.24
345.226	-62.24
345.61	-33.32
345.993	-27.44
346.376	-3.04
346.759	-13.43
347.142	34.48
347.525	37.41
347.908	67.02
348.291	87.13
348.674	94.14
349.057	131.65
349.44	122.38
349.823	138.65
350.206	154.93
350.588	181.14
350.971	211.2
351.354	241.48
351.737	242.38
352.119	249.84
352.502	245.32
352.884	270.4
353.267	282.83
353.65	288.26
354.032	299.78
354.414	307.92
354.797	315.37
355.179	320.8
355.562	312.21
355.944	336.84
356.326	336.16
356.709	330.97
357.091	343.17
357.473	342.94
357.855	327.58
358.238	329.61
358.62	327.8
359.002	338.88
359.384	335.03
359.766	301.59
360.148	344.52
360.53	320.57
360.912	328.71
361.294	314.92
361.676	321.7
362.057	336.16
362.439	316.73
362.821	318.31
363.203	330.29
363.584	314.7
363.966	313.34
364.348	332.77
364.729	328.93
365.111	317.86
365.493	323.51
365.874	324.86
366.256	307.46
366.637	296.39
367.019	314.7
367.4	324.86
367.781	298.65
368.163	307.69
368.544	311.08
368.925	300.01
369.306	306.79
369.688	320.12
370.069	311.53
370.45	307.01
370.831	318.99
371.212	316.5
371.593	304.98
371.974	314.7
372.355	336.16
372.736	306.56
373.117	306.11
373.498	318.99
373.879	316.95
374.26	309.5
374.641	314.02
375.021	325.32
375.402	321.02
375.783	333.23
376.163	334.81
376.544	331.42
376.925	311.98
377.305	336.16
377.686	335.26
378.066	338.42
378.447	332.77
378.827	310.18
379.208	320.12
379.588	324.41
379.968	339.55
380.349	327.8
380.729	329.61
381.109	333.68
381.489	347.01
381.87	326.67
382.25	351.53
382.63	333.68
383.01	333
383.39	334.13
383.77	339.1
384.15	333.23
384.53	342.49
384.91	333.45
385.29	336.62
385.67	327.12
386.049	351.3
386.429	355.37
386.809	362.15
387.189	356.73
387.568	353.11
387.948	334.58
388.328	371.42
388.707	348.37
389.087	358.99
389.466	360.12
389.846	350.4
390.225	368.93
390.605	377.97
390.984	370.29
391.363	363.28
391.743	379.78
392.122	367.35
392.501	401.02
392.881	373.45
393.26	384.3
393.639	362.6
394.018	363.73
394.397	391.98
394.776	370.74
395.155	367.12
395.534	373.68
395.913	386.33
396.292	374.13
396.671	388.37
397.05	401.47
397.429	365.99
397.808	397.63
398.186	403.28
398.565	398.08
398.944	403.73
399.323	407.57
399.701	395.14
400.08	414.35
400.458	420
400.837	421.36
401.215	401.7
401.594	419.55
401.972	420.68
402.351	424.52
402.729	409.38
403.107	427.46
403.486	420
403.864	427.23
404.242	443.51
404.62	446.22
404.999	439.44
405.377	450.74
405.755	453.67
406.133	458.42
406.511	469.04
406.889	467.69
407.267	475.59
407.645	495.03
408.023	472.88
408.401	471.98
408.779	480.11
409.156	522.83
409.534	508.36
409.912	520.57
410.29	497.74
410.667	523.96
411.045	521.24
411.422	538.64
411.8	529.15
412.178	557.4
412.555	558.3
412.933	570.73
413.31	591.52
413.687	576.16
414.065	610.28
414.442	606.89
414.819	606.66
415.197	628.59
415.574	626.33
415.951	656.38
416.328	650.05
416.705	648.92
417.082	652.99
417.46	673.1
417.837	686.66
418.214	682.6
418.591	646.89
418.967	675.82
419.344	729.6
419.721	738.64
420.098	711.52
420.475	727.11
420.852	754.46
421.228	762.82
421.605	766.21
421.982	800.56
422.358	786.1
422.735	818.86
423.111	812.76
423.488	838.07
423.864	865.87
424.241	849.6
424.617	874.68
424.994	884.4
425.37	905.41
425.746	911.06
426.123	918.97
426.499	932.53
426.875	921.01
427.251	953.55
427.627	953.1
428.003	968.92
428.379	982.02
428.756	1013.43
429.132	1033.09
429.507	1016.15
429.883	1044.17
430.259	1049.37
430.635	1059.99
431.011	1069.48
431.387	1098.18
431.763	1109.48
432.138	1118.52
432.514	1132.75
432.89	1156.48
433.265	1211.62
433.641	1204.16
434.016	1244.84
434.392	1233.09
434.767	1282.58
435.143	1267.21
435.518	1323.03
435.894	1331.17
436.269	1340.43
436.644	1378.4
437.02	1396.7
437.395	1391.5
437.77	1462.69
438.145	1449.81
438.52	1475.12
438.895	1490.48
439.271	1529.35
439.646	1564.15
440.021	1611.84
440.395	1586.98
440.77	1581.1
441.145	1650.93
441.52	1664.49
441.895	1677.15
442.27	1719.86
442.645	1685.96
443.019	1691.38
443.394	1715.34
443.769	1738.61
444.143	1760.98
444.518	1804.6
444.892	1808.44
445.267	1830.81
445.641	1834.43
446.016	1850.02
446.39	1882.11
446.764	1886.86
447.139	1929.12
447.513	1923.92
447.887	1909.46
448.262	1938.61
448.636	1922.34
449.01	2006.4
449.384	2001.43
449.758	2015.89
450.132	2034.42
450.506	2029.9
450.88	2080.52
451.254	2102.67
451.628	2087.08
452.002	2120.3
452.376	2146.74
452.75	2183.12
453.123	2157.81
453.497	2212.05
453.871	2227.64
454.244	2275.55
454.618	2306.06
454.992	2314.42
455.365	2342.44
455.739	2392.38
456.112	2405.26
456.486	2441.42
456.859	2458.82
457.232	2530.68
457.606	2462.66
457.979	2521.42
458.352	2558.48
458.725	2586.5
459.099	2638.93
459.472	2648.87
459.845	2690.23
460.218	2709.43
460.591	2745.82
460.964	2756.66
461.337	2828.3
461.71	2898.13
462.083	2932.93
462.456	2953.27
462.829	2954.85
463.201	3019.93
463.574	3014.51
463.947	3080.05
464.32	3121.63
464.692	3133.38
465.065	3212.02
465.438	3207.27
465.81	3283.43
466.183	3327.5
466.555	3356.88
466.928	3409.08
467.3	3421.28
467.672	3478.68
468.045	3604.55
468.417	3603.87
468.789	3629.86
469.161	3659.47
469.534	3726.36
469.906	3833.47
470.278	3862.85
470.65	3891.1
471.022	3948.95
471.394	4021.26
471.766	4076.4
472.138	4073.01
472.51	4164.76
472.882	4227.13
473.253	4308.49
473.625	4350.3
473.997	4462.61
474.369	4461.93
474.74	4578.76
475.112	4605.88
475.484	4705.54
475.855	4784.63
476.227	4829.83
476.598	4967.45
476.97	5018.75
477.341	5174.23
477.713	5249.03
478.084	5215.36
478.455	5392.3
478.827	5441.34
479.198	5552.52
479.569	5627.55
479.94	5734.44
480.311	5807.43
480.682	5945.28
481.053	6089.46
481.424	6129.46
481.795	6221.88
482.166	6331.49
482.537	6432.95
482.908	6550.92
483.279	6637.47
483.65	6748.2
484.021	6901.19
484.391	6914.75
484.762	6971.24
485.133	7055.99
485.503	7128.3
485.874	7366.94
486.244	7444.23
486.615	7552.92
486.985	7651
487.356	7808.96
487.726	7926.25
488.097	7948.39
488.467	8028.62
488.837	8188.16
489.207	8258.89
489.578	8401.26
489.948	8433.13
490.318	8582.5
490.688	8571.2
491.058	8762.16
491.428	8857.07
491.798	8943.17
492.168	9092.09
492.538	9109.49
492.908	9203.05
493.278	9337.28
493.648	9260
494.017	9466.54
494.387	9552.64
494.757	9629.25
495.126	9692.53
495.496	9733.43
495.866	9764.62
496.235	9837.38
496.605	9920.09
496.974	9988.11
497.344	10061.56
497.713	10146.75
498.082	10165.51
498.452	10263.59
498.821	10289.35
499.19	10320.53
499.559	10326.18
499.928	10471.49
500.298	10496.8
500.667	10580.64
501.036	10511.72
501.405	10663.35
501.774	10619.73
502.143	10685.72
502.512	10685.04
502.88	10841.2
503.249	10796.91
503.618	10819.96
503.987	10883.91
504.356	10907.41
504.724	10938.37
505.093	10969.78
505.462	11031.02
505.83	11036.67
506.199	11097.69
506.567	11168.87
506.936	11153.28
507.304	11262.43
507.672	11300.17
508.041	11293.62
508.409	11276.44
508.777	11332.03
509.145	11389.88
509.514	11426.72
509.882	11527.51
510.25	11471.24
510.618	11439.6
510.986	11460.84
511.354	11508.75
511.722	11604.34
512.09	11657.22
512.458	11612.93
512.826	11660.16
513.193	11683.21
513.561	11609.77
513.929	11700.16
514.297	11845.92
514.664	11790.78
515.032	11785.35
515.4	11862.41
515.767	11860.61
516.135	11832.58
516.502	11782.19
516.869	11899.93
517.237	11893.37
517.604	11891.34
517.972	11928.4
518.339	11925.01
518.706	11935.18
519.073	11870.55
519.44	11886.59
519.808	11999.36
520.175	11959.59
520.542	12008.4
520.909	12012.01
521.276	11963.65
521.643	11993.26
522.009	12072.58
522.376	12055.63
522.743	12059.92
523.11	12134.5
523.477	12124.1
523.843	12155.29
524.21	12171.11
524.577	12225.34
524.943	12188.51
525.31	12258.79
525.676	12232.57
526.043	12201.61
526.409	12223.76
526.776	12239.58
527.142	12171.33
527.508	12247.26
527.874	12241.84
528.241	12244.55
528.607	12170.2
528.973	12205.68
529.339	12151.45
529.705	12200.03
530.071	12212.46
530.437	12218.56
530.803	12121.39
531.169	12184.44
531.535	12058.57
531.901	12086.36
532.267	12008.17
532.632	12082.3
532.998	11985.8
533.364	12023.54
533.73	11912.81
534.095	12050.21
534.461	11961.39
534.826	11984.9
535.192	11858.57
535.557	11909.64
535.923	11777.22
536.288	11767.28
536.653	11810.44
537.019	11696.32
537.384	11677.33
537.749	11639.37
538.114	11622.19
538.479	11496.77
538.845	11540.39
539.21	11390.79
539.575	11450.9
539.94	11376.1
540.305	11329.32
540.67	11291.58
541.034	11217.01
541.399	11153.51
541.764	11242.09
542.129	11115.32
542.494	11066.95
542.858	11058.37
543.223	11007.97
543.587	10990.57
543.952	10938.6
544.316	10823.12
544.681	10796.23
545.045	10743.57
545.41	10674.87
545.774	10669.23
546.138	10568.21
546.503	10565.73
546.867	10509.46
547.231	10533.41
547.595	10484.82
547.959	10431.94
548.324	10324.6
548.688	10277.37
549.052	10232.4
549.416	10253.19
549.779	10064.95
550.143	10185.4
550.507	10067.66
550.871	9995.8
551.235	10029.69
551.599	10007.77
551.962	9960.32
552.326	9951.73
552.689	9894.33
553.053	9808.23
553.417	9803.49
553.78	9785.86
554.143	9754.22
554.507	9702.02
554.87	9688.46
555.234	9641.23
555.597	9644.39
555.96	9580.89
556.323	9563.04
556.686	9437.85
557.05	9522.59
557.413	9426.09
557.776	9379.09
558.139	9438.75
558.502	9368.47
558.865	9307.23
559.228	9325.53
559.59	9353.55
559.953	9330.5
560.316	9367.11
560.679	9250.28
561.041	9330.05
561.404	9292.76
561.767	9284.63
562.129	9222.94
562.492	9331.41
562.854	9287.11
563.217	9205.53
563.579	9278.98
563.941	9267.91
564.304	9252.99
564.666	9222.26
565.028	9242.6
565.39	9139.55
565.753	9201.02
566.115	9180.45
566.477	9172.77
566.839	9208.25
567.201	9189.94
567.563	9211.86
567.925	9250.96
568.287	9196.04
568.648	9190.85
569.01	9220.9
569.372	9254.12
569.734	9237.17
570.095	9209.15
570.457	9190.85
570.819	9199.43
571.18	9213.44
571.542	9240.79
571.903	9296.15
572.265	9231.75
572.626	9237.4
572.987	9180.22
573.349	9272.43
573.71	9226.78
574.071	9233.33
574.432	9232.88
574.794	9261.13
575.155	9214.12
575.516	9283.5
575.877	9271.75
576.238	9229.71
576.599	9289.37
576.96	9193.56
577.32	9163.73
577.681	9251.86
578.042	9197.4
578.403	9185.65
578.763	9122.15
579.124	9218.87
579.485	9228.81
579.845	9271.97
580.206	9236.04
580.566	9219.32
580.927	9172.32
581.287	9271.97
581.648	9160.56
582.008	9180.9
582.368	9257.28
582.728	9201.92
583.089	9206.66
583.449	9185.65
583.809	9164.18
584.169	9134.8
584.529	9115.59
584.889	9127.34
585.249	9049.61
585.609	9041.92
585.969	9086.44
586.329	9100
586.688	9079.89
587.048	9070.17
587.408	9090.96
587.768	9034.47
588.127	9026.1
588.487	8980.91
588.846	9063.84
589.206	9045.76
589.565	9015.71
589.925	9001.25
590.284	8994.69
590.643	8956.28
591.003	8924.86
591.362	9016.39
591.721	8949.5
592.08	8932.1
592.44	8967.8
592.799	8978.42
593.158	8938.65
593.517	8908.59
593.876	9005.54
594.235	8901.14
594.593	8915.37
594.952	8914.02
595.311	8876.5
595.67	8921.47
596.029	8951.3
596.387	8941.81
596.746	9011.19
597.104	8860.46
597.463	8893.68
597.822	8874.02
598.18	8813.23
598.538	8902.04
598.897	8893.23
599.255	8806.45
599.613	8942.49
599.972	8839.89
600.33	8855.94
600.688	8838.09
601.046	8849.61
601.404	8926.67
601.762	8886.9
602.12	8867.01
602.478	8873.34
602.836	8858.65
603.194	8824.3
603.552	8833.34
603.91	8819.78
604.268	8785.43
604.625	8811.19
604.983	8775.72
605.341	8811.19
605.698	8840.12
606.056	8855.49
606.413	8832.44
606.771	8811.19
607.128	8826.34
607.485	8838.31
607.843	8785.66
608.2	8796.28
608.557	8857.97
608.914	8812.1
609.272	8927.35
609.629	8846.22
609.986	8940.46
610.343	8892.32
610.7	8906.56
611.057	8858.65
611.414	8844.64
611.771	8849.84
612.127	8895.03
612.484	8871.98
612.841	8909.27
613.198	8874.7
613.554	8951.53
613.911	8982.04
614.267	8937.97
614.624	8929.38
614.98	8924.64
615.337	8956.95
615.693	8924.19
616.05	8929.61
616.406	8931.42
616.762	8877.18
617.118	8945.2
617.475	8925.77
617.831	9049.61
618.187	9004.64
618.543	8960.34
618.899	8965.09
619.255	9030.4
619.611	8963.96
619.967	8997.86
620.323	9057.06
620.678	9009.16
621.034	9005.31
621.39	8926.22
621.746	8979.1
622.101	9022.49
622.457	9012.55
622.812	9030.62
623.168	9015.26
623.523	9066.56
623.879	9047.8
624.234	8975.26
624.589	8990.85
624.945	9019.55
625.3	9011.87
625.655	8987.01
626.01	9059.78
626.365	8983.39
626.72	8971.42
627.075	8971.42
627.43	8946.11
627.785	8943.17
628.14	8956.5
628.495	8965.09
628.85	8958.99
629.205	8973.45
629.559	9035.82
629.914	8942.49
630.269	8908.14
630.623	8938.42
630.978	8923.51
631.332	8949.04
631.687	8937.52
632.041	8870.4
632.396	8889.38
632.75	8888.93
633.104	8886.9
633.459	8782.27
633.813	8825.43
634.167	8850.74
634.521	8861.36
634.875	8821.14
635.229	8774.59
635.583	8782.72
635.937	8748.15
636.291	8780.24
636.645	8785.21
636.999	8732.1
637.352	8752.44
637.706	8728.03
638.06	8666.57
638.413	8724.42
638.767	8610.75
639.121	8757.86
639.474	8603.52
639.828	8667.02
640.181	8627.47
640.534	8699.56
640.888	8633.12
641.241	8613.01
641.594	8610.97
641.947	8593.12
642.301	8570.98
642.654	8582.95
643.007	8591.54
643.36	8614.36
643.713	8601.48
644.066	8615.49
644.419	8524.65
644.771	8469.96
645.124	8428.83
645.477	8450.07
645.83	8353.58
646.182	8331.89
646.535	8322.62
646.888	8326.46
647.24	8253.47
647.593	8350.64
647.945	8269.74
648.298	8238.55
648.65	8259.12
649.002	8236.97
649.355	8318.33
649.707	8264.77
650.059	8274.03
650.411	8422.73
650.763	8462.28
651.115	8504.54
651.467	8504.08
651.819	8470.64
652.171	8455.5
652.523	8491.43
652.875	8435.39
653.227	8392.45
653.578	8488.04
653.93	8433.35
654.282	8484.2
654.633	8386.12
654.985	8440.58
655.337	8508.6
655.688	8460.47
656.039	8509.96
656.391	8441.49
656.742	8459.57
657.094	8452.33
657.445	8450.53
657.796	8512.22
658.147	8477.42
658.498	8485.55
658.849	8528.94
659.2	8466.12
659.551	8481.71
659.902	8501.6
660.253	8486.46
660.604	8497.76
660.955	8443.75
661.306	8539.56
661.656	8431.09
662.007	8493.69
662.358	8457.76
662.708	8508.15
663.059	8486.91
663.409	8441.49
663.76	8508.38
664.11	8521.03
664.461	8504.54
664.811	8547.7
665.161	8532.11
665.511	8487.59
665.862	8514.71
666.212	8512.9
666.562	8501.37
666.912	8456.18
667.262	8481.26
667.612	8503.41
667.962	8528.04
668.312	8520.58
668.662	8521.71
669.011	8541.82
669.361	8496.17
669.711	8557.64
670.06	8514.03
670.41	8440.13
670.76	8516.74
671.109	8494.59
671.459	8473.58
671.808	8483.52
672.157	8505.67
672.507	8445.78
672.856	8430.19
673.205	8440.13
673.554	8433.58
673.904	8477.64
674.253	8479
674.602	8473.58
674.951	8298.44
675.3	8277.88
675.649	8437.65
675.998	8392.45
676.346	8405.78
676.695	8422.5
677.044	8321.49
677.393	8331.66
677.741	8342.96
678.09	8351.32
678.438	8334.37
678.787	8352.68
679.135	8296.18
679.484	8293.69
679.832	8304.54
680.181	8273.36
680.529	8242.85
680.877	8257.76
681.225	8211.21
681.573	8276.75
681.922	8199.91
682.27	8241.27
682.618	8233.13
682.966	8170.99
683.314	8132.79
683.661	8154.71
684.009	8135.28
684.357	8098.45
684.705	8153.36
685.053	8095.96
685.4	8051.21
685.748	7984.32
686.095	8030.42
686.443	7973.25
686.79	7987.04
687.138	7951.78
687.485	7934.38
687.832	7956.98
688.18	7992.23
688.527	7927.6
688.874	7878.34
689.221	7844.21
689.568	7788.62
689.915	7781.17
690.262	7739.13
690.609	7747.04
690.956	7749.75
691.303	7658.68
691.65	7661.17
691.997	7722.64
692.344	7662.52
692.69	7590.66
693.037	7608.97
693.383	7521.51
693.73	7525.58
694.077	7467.95
694.423	7478.12
694.769	7516.54
695.116	7441.06
695.462	7400.16
695.808	7380.72
696.155	7350.22
696.501	7300.05
696.847	7347.73
697.193	7293.49
697.539	7293.72
697.885	7176.89
698.231	7152.71
698.577	7211.69
698.923	7202.88
699.269	7131.92
699.614	7106.15
699.96	7057.57
700.306	7033.39
700.651	6994.75
700.997	6992.71
701.342	6998.59
701.688	6987.29
702.033	6907.74
702.379	6930.34
702.724	6888.53
703.069	6913.39
703.415	6817.57
703.76	6820.06
704.105	6835.2
704.45	6810.12
704.795	6712.27
705.14	6692.15
705.485	6688.99
705.83	6640.4
706.175	6675.66
706.52	6600.18
706.865	6632.04
707.209	6627.75
707.554	6613.29
707.899	6568.32
708.243	6547.3
708.588	6519.28
708.932	6535.77
709.277	6512.05
709.621	6514.08
709.966	6420.98
710.31	6440.64
710.654	6418.49
710.998	6420.3
711.342	6388.66
711.687	6400.64
712.031	6342.56
712.375	6274.76
712.719	6303.69
713.063	6341.43
713.407	6339.17
713.75	6295.1
714.094	6290.58
714.438	6211.94
714.782	6295.33
715.125	6232.05
715.469	6287.19
715.812	6231.15
716.156	6190.92
716.499	6190.92
716.843	6186.41
717.186	6124.71
717.53	6150.25
717.873	6176.01
718.216	6148.67
718.559	6076.8
718.902	6122.68
719.246	6095.79
719.589	6097.37
719.932	6067.99
720.275	6113.86
720.617	6114.32
720.96	6129.68
721.303	6077.93
721.646	6088.1
721.989	6059.63
722.331	6031.61
722.674	6062.79
723.016	6066.41
723.359	6062.57
723.701	6016.92
724.044	6044.94
724.386	5988.44
724.729	6056.47
725.071	5972.63
725.413	6029.12
725.755	5984.83
726.097	5976.92
726.439	5972.63
726.782	5982.57
727.124	5987.77
727.465	5962.68
727.807	5986.64
728.149	5962.91
728.491	5976.02
728.833	5954.32
729.175	5962.68
729.516	5976.69
729.858	5935.34
730.199	5932.4
730.541	6010.59
730.882	5976.47
731.224	5977.37
731.565	5983.25
731.906	5971.27
732.248	5998.16
732.589	5945.06
732.93	5966.75
733.271	5927.2
733.612	5907.32
733.953	5947.32
734.294	5931.04
734.635	5988.9
734.976	5972.17
735.317	5961.78
735.658	5975.79
735.999	5978.73
736.339	5963.36
736.68	5994.09
737.021	5967.88
737.361	5984.38
737.702	6013.3
738.042	6013.75
738.383	6012.85
738.723	6000.87
739.063	6015.79
739.404	6063.7
739.744	6048.56
740.084	6040.19
740.424	6056.69
740.764	6037.71
741.104	6094.88
741.444	6063.47
741.784	6079.06
742.124	6103.02
742.464	6153.86
742.804	6083.81
743.143	6170.13
743.483	6268.89
743.823	6199.29
744.162	6186.63
744.502	6257.36
744.841	6248.1
745.181	6279.74
745.52	6329
745.86	6380.3
746.199	6409.9
746.538	6432.5
746.877	6462.78
747.216	6561.31
747.556	6542.55
747.895	6620.97
748.234	6621.2
748.573	6684.02
748.911	6766.73
749.25	6768.76
749.589	6840.4
749.928	6919.04
750.267	6973.96
750.605	7064.35
750.944	7078.36
751.283	7111.35
751.621	7285.81
751.96	7297.56
752.298	7402.64
752.636	7510.21
752.975	7575.52
753.313	7621.62
753.651	7790.43
753.989	7867.72
754.327	8020.71
754.666	8067.49
755.004	8220.48
755.342	8345.9
755.679	8449.62
756.017	8575.49
756.355	8746.56
756.693	8822.95
757.031	9065.88
757.368	9111.53
757.706	9301.35
758.044	9360.78
758.381	9591.74
758.719	9722.13
759.056	9933.2
759.394	10072.4
759.731	10158.5
760.068	10349.23
760.405	10525.73
760.743	10647.98
761.08	10912.61
761.417	10955.77
761.754	11118.25
762.091	11363.67
762.428	11504.46
762.765	11682.98
763.102	11933.82
763.438	12022.41
763.775	12192.35
764.112	12442.06
764.449	12584.88
764.785	12735.16
765.122	12880.69
765.458	12998.2
765.795	13218.31
766.131	13405.65
