Data from hue_190_FLMS001491_00071.txt Node
Date: Tue Feb 07 16:45:44 GMT 2017
User: dcchb
Spectrometer: FLMS00149
Trigger mode: 0
Integration Time (sec): 2.000000E-2
Scans to average: 10
Electric dark correction enabled: true
Nonlinearity correction enabled: false
Boxcar width: 0
XAxis mode: Wavelengths
Number of Pixels in Spectrum: 2048
>>>>>Begin Spectral Data<<<<<
341.393	-20.25
341.776	-20.25
342.16	-20.25
342.543	-58.67
342.927	-64.55
343.31	-64.09
343.693	-81.95
344.077	-76.52
344.46	-69.29
344.843	-68.16
345.226	-44.21
345.61	-51.21
345.993	-16.19
346.376	5.28
346.759	11.61
347.142	26.75
347.525	35.56
347.908	57.71
348.291	96.13
348.674	95.22
349.057	143.36
349.44	139.52
349.823	147.65
350.206	157.82
350.588	162.11
350.971	192.85
351.354	213.64
351.737	245.28
352.119	229.23
352.502	234.2
352.884	265.39
353.267	277.59
353.65	302.9
354.032	304.03
354.414	315.78
354.797	313.75
355.179	309
355.562	319.85
355.944	326.18
356.326	334.31
356.709	330.92
357.091	330.7
357.473	332.73
357.855	320.3
358.238	335.67
358.62	329.34
359.002	328.89
359.384	340.19
359.766	316.46
360.148	352.39
360.53	316.91
360.912	324.6
361.294	336.35
361.676	327.08
362.057	337.93
362.439	340.87
362.821	328.21
363.203	319.85
363.584	306.74
363.966	315.33
364.348	319.17
364.729	323.01
365.111	305.16
365.493	309.91
365.874	314.65
366.256	314.65
366.637	303.58
367.019	316.46
367.4	293.18
367.781	306.74
368.163	324.14
368.544	306.29
368.925	315.1
369.306	333.41
369.688	325.95
370.069	306.52
370.45	306.52
370.831	321.66
371.212	317.82
371.593	312.62
371.974	305.16
372.355	288.89
372.736	300.19
373.117	312.62
373.498	333.64
373.879	307.42
374.26	297.03
374.641	309.46
375.021	308.1
375.402	326.63
375.783	322.34
376.163	337.03
376.544	318.49
376.925	324.37
377.305	324.6
377.686	305.61
378.066	291.6
378.447	322.11
378.827	305.61
379.208	319.62
379.588	318.04
379.968	322.34
380.349	326.86
380.729	318.04
381.109	336.8
381.489	325.5
381.87	335.22
382.25	326.18
382.63	343.58
383.01	341.32
383.39	340.87
383.77	306.07
384.15	320.08
384.53	333.86
384.91	334.77
385.29	335.44
385.67	345.84
386.049	325.05
386.429	336.35
386.809	331.83
387.189	327.08
387.568	326.63
387.948	355.1
388.328	341.54
388.707	335.22
389.087	363.24
389.466	356.91
389.846	352.39
390.225	339.74
390.605	352.62
390.984	356.91
391.363	344.03
391.743	345.84
392.122	373.63
392.501	378.61
392.881	382
393.26	365.27
393.639	356.01
394.018	358.49
394.397	375.67
394.776	372.28
395.155	371.37
395.534	370.24
395.913	374.76
396.292	380.19
396.671	379.96
397.05	372.28
397.429	379.51
397.808	388.1
398.186	382.67
398.565	390.81
398.944	373.41
399.323	394.88
399.701	376.57
400.08	398.49
400.458	402.11
400.837	399.62
401.215	399.4
401.594	418.15
401.972	415.67
402.351	396.68
402.729	403.92
403.107	412.5
403.486	436.68
403.864	432.39
404.242	431.71
404.62	409.57
404.999	425.38
405.377	434.88
405.755	430.81
406.133	446.85
406.511	440.53
406.889	474.87
407.267	445.27
407.645	440.98
408.023	449.79
408.401	473.29
408.779	479.39
409.156	464.03
409.534	485.27
409.912	471.03
410.29	494.54
410.667	487.08
411.045	525.72
411.422	530.01
411.8	518.94
412.178	544.03
412.555	560.52
412.933	548.54
413.31	570.01
413.687	582.44
414.065	564.82
414.442	579.05
414.819	572.73
415.197	607.53
415.574	584.02
415.951	631.25
416.328	617.92
416.705	625.83
417.082	660.18
417.46	632.38
417.837	662.21
418.214	648.66
418.591	667.64
418.967	677.36
419.344	661.54
419.721	697.92
420.098	713.29
420.475	705.6
420.852	706.05
421.228	731.82
421.605	725.04
421.982	762.1
422.358	762.78
422.735	797.13
423.111	783.34
423.488	821.31
423.864	832.38
424.241	829.89
424.617	830.12
424.994	865.6
425.37	850.01
425.746	895.2
426.123	882.77
426.499	899.5
426.875	906.95
427.251	919.38
427.627	956.9
428.003	936.33
428.379	946.5
428.756	976.78
429.132	991.02
429.507	1007.29
429.883	1001.41
430.259	990.12
430.635	1035.09
431.011	1035.54
431.387	1048.42
431.763	1062.2
432.138	1078.7
432.514	1129.32
432.89	1127.74
433.265	1145.82
433.641	1139.49
434.016	1175.42
434.392	1182.2
434.767	1210.45
435.143	1225.14
435.518	1273.5
435.894	1292.93
436.269	1277.57
436.644	1311.01
437.02	1323.21
437.395	1341.74
437.77	1397.11
438.145	1403.44
438.52	1427.62
438.895	1461.29
439.271	1444.57
439.646	1514.4
440.021	1518.91
440.395	1510.55
440.77	1542.87
441.145	1571.79
441.52	1586.03
441.895	1598.69
442.27	1655.63
442.645	1640.72
443.019	1674.39
443.394	1694.28
443.769	1675.29
444.143	1690.89
444.518	1741.28
444.892	1736.31
445.267	1763.43
445.641	1781.51
446.016	1756.42
446.39	1772.24
446.764	1810.43
447.139	1821.28
447.513	1855.63
447.887	1868.28
448.262	1872.58
448.636	1866.48
449.01	1932.46
449.384	1945.57
449.758	1902.63
450.132	1960.71
450.506	1983.31
450.88	1993.48
451.254	2029.41
451.628	2045.23
452.002	2064.21
452.376	2091.33
452.75	2107.37
453.123	2117.32
453.497	2142.85
453.871	2136.3
454.244	2207.48
454.618	2253.58
454.992	2268.73
455.365	2255.84
455.739	2292
456.112	2310.31
456.486	2376.52
456.859	2366.35
457.232	2416.52
457.606	2418.1
457.979	2433.24
458.352	2481.83
458.725	2507.14
459.099	2548.04
459.472	2593.24
459.845	2631.2
460.218	2618.77
460.591	2656.06
460.964	2698.32
461.337	2753.46
461.71	2772.22
462.083	2798.43
462.456	2821.25
462.829	2844.98
463.201	2898.77
463.574	2918.65
463.947	2924.08
464.32	3028.93
464.692	3068.7
465.065	3042.72
465.438	3117.52
465.81	3132.43
466.183	3206.55
466.555	3240.68
466.928	3288.81
467.3	3315.03
467.672	3314.8
468.045	3448.13
468.417	3458.07
468.789	3452.42
469.161	3555.25
469.534	3564.06
469.906	3652.19
470.278	3669.14
470.65	3718.18
471.022	3783.26
471.394	3841.11
471.766	3923.15
472.138	3916.59
472.51	4022.8
472.882	4099.19
473.253	4133.76
473.625	4247.88
473.997	4273.19
474.369	4295.57
474.74	4374.66
475.112	4473.87
475.484	4544.82
475.855	4565.61
476.227	4663.01
476.598	4805.38
476.97	4825.72
477.341	4919.05
477.713	4994.3
478.084	5061.42
478.455	5222.32
478.827	5228.65
479.198	5405.37
479.569	5390.68
479.94	5507.74
480.311	5535.53
480.682	5742.98
481.053	5863.43
481.424	5938.01
481.795	6017.78
482.166	6095.97
482.537	6170.09
482.908	6303.2
483.279	6350.88
483.65	6469.07
484.021	6598.33
484.391	6725.78
484.762	6799.91
485.133	6812.56
485.503	6919.68
485.874	7074.48
486.244	7147.47
486.615	7256.62
486.985	7387.91
487.356	7493
487.726	7522.15
488.097	7669.04
488.467	7685.98
488.837	7875.13
489.207	8004.17
489.578	8099.31
489.948	8167.33
490.318	8196.48
490.688	8270.15
491.058	8479.86
491.428	8513.53
491.798	8560.76
492.168	8847.54
492.538	8801.21
492.908	8875.11
493.278	9006.63
493.648	9027.87
494.017	9108.55
494.387	9148.09
494.757	9276.68
495.126	9347.18
495.496	9395.54
495.866	9352.16
496.235	9479.84
496.605	9534.07
496.974	9566.16
497.344	9760.28
497.713	9761.18
498.082	9787.4
498.452	9846.61
498.821	9886.6
499.19	9985.36
499.559	10016.09
499.928	10066.94
500.298	10032.82
500.667	10115.98
501.036	10124.11
501.405	10151
501.774	10210.89
502.143	10290.89
502.512	10258.12
502.88	10456.31
503.249	10402.3
503.618	10399.81
503.987	10416.76
504.356	10435.97
504.724	10522.75
505.093	10493.82
505.462	10529.98
505.83	10604.55
506.199	10618.56
506.567	10784.66
506.936	10667.37
507.304	10833.92
507.672	10798.67
508.041	10787.37
508.409	10861.49
508.777	10962.28
509.145	10958.44
509.514	10888.84
509.882	11006.58
510.25	10929.29
510.618	10987.14
510.986	10920.7
511.354	11041.15
511.722	11189.85
512.09	11161.83
512.458	11100.81
512.826	11108.72
513.193	11161.83
513.561	11134.03
513.929	11294.93
514.297	11222.61
514.664	11292.44
515.032	11238.43
515.4	11358.43
515.767	11288.6
516.135	11356.62
516.502	11238.89
516.869	11390.29
517.237	11322.27
517.604	11250.86
517.972	11359.11
518.339	11311.43
518.706	11316.85
519.073	11308.49
519.44	11297.87
519.808	11361.14
520.175	11371.54
520.542	11463.96
520.909	11377.86
521.276	11399.33
521.643	11369.28
522.009	11458.54
522.376	11457.86
522.743	11490.86
523.11	11488.37
523.477	11533.79
523.843	11488.14
524.21	11592.1
524.577	11574.92
524.943	11533.11
525.31	11555.26
525.676	11544.64
526.043	11565.2
526.409	11563.85
526.776	11635.26
527.142	11483.85
527.508	11574.7
527.874	11596.39
528.241	11497.18
528.607	11476.85
528.973	11514.13
529.339	11462.83
529.705	11532.44
530.071	11430.29
530.437	11412.21
530.803	11429.61
531.169	11514.58
531.535	11397.53
531.901	11292.22
532.267	11344.87
532.632	11320.69
532.998	11320.01
533.364	11288.38
533.73	11203.63
534.095	11251.09
534.461	11128.61
534.826	11238.66
535.192	11073.92
535.557	11064.43
535.923	11081.15
536.288	11008.16
536.653	10948.95
537.019	10854.71
537.384	10889.52
537.749	10818.56
538.114	10770.87
538.479	10785.11
538.845	10713.93
539.21	10571.11
539.575	10566.59
539.94	10504.89
540.305	10577.89
540.67	10463.31
541.034	10458.57
541.399	10379.7
541.764	10376.08
542.129	10293.15
542.494	10238.01
542.858	10240.72
543.223	10204.34
543.587	10162.76
543.952	10011.57
544.316	10113.27
544.681	9907.17
545.045	9959.82
545.41	9948.75
545.774	9879.6
546.138	9874.18
546.503	9772.26
546.867	9674.41
547.231	9685.93
547.595	9693.39
547.959	9599.38
548.324	9478.93
548.688	9449.78
549.052	9477.35
549.416	9368.43
549.779	9374.53
550.143	9357.8
550.507	9335.43
550.871	9251.82
551.235	9157.81
551.599	9223.35
551.962	9105.61
552.326	9048.43
552.689	9028.55
553.053	8967.08
553.417	8909
553.78	8987.65
554.143	8884.37
554.507	8852.28
554.87	8836.69
555.234	8875.78
555.597	8709.91
555.96	8706.07
556.323	8732.28
556.686	8715.56
557.05	8659.07
557.413	8641.21
557.776	8600.99
558.139	8615
558.502	8630.14
558.865	8545.85
559.228	8539.97
559.59	8498.62
559.953	8450.48
560.316	8504.04
560.679	8441.22
561.041	8448.22
561.404	8439.18
561.767	8438.28
562.129	8385.63
562.492	8441.44
562.854	8365.29
563.217	8391.95
563.579	8370.26
563.941	8328.23
564.304	8357.38
564.666	8343.82
565.028	8321.45
565.39	8355.12
565.753	8335.68
566.115	8342.01
566.477	8368.68
566.839	8357.61
567.201	8336.81
567.563	8287.55
567.925	8345.4
568.287	8388.56
568.648	8379.3
569.01	8319.19
569.372	8368.68
569.734	8262.47
570.095	8312.63
570.457	8329.13
570.819	8310.37
571.18	8238.74
571.542	8321.22
571.903	8363.48
572.265	8340.2
572.626	8356.93
572.987	8237.38
573.349	8265.86
573.71	8325.52
574.071	8347.89
574.432	8282.58
574.794	8408
575.155	8306.76
575.516	8248
575.877	8217.5
576.238	8242.58
576.599	8319.19
576.96	8332.75
577.32	8258.17
577.681	8312.63
578.042	8343.82
578.403	8299.98
578.763	8284.84
579.124	8271.96
579.485	8292.3
579.845	8294.1
580.206	8227.21
580.566	8308.79
580.927	8272.64
581.287	8295.01
581.648	8222.69
582.008	8237.16
582.368	8222.02
582.728	8192.86
583.089	8211.62
583.449	8201
583.809	8161.23
584.169	8224.28
584.529	8223.6
584.889	8190.38
585.249	8131.85
585.609	8122.36
585.969	8182.02
586.329	8147.67
586.688	8131.4
587.048	8112.19
587.408	8075.13
587.768	8095.69
588.127	8076.03
588.487	8102.92
588.846	8158.97
589.206	8035.81
589.565	8030.16
589.925	8113.32
590.284	8051.85
590.643	8059.31
591.003	8000.78
591.362	8064.05
591.721	8051.17
592.08	7975.69
592.44	8049.82
592.799	8003.94
593.158	7994.9
593.517	7996.94
593.876	8029.25
594.235	7988.8
594.593	7941.8
594.952	7958.29
595.311	7952.42
595.67	7911.06
596.029	7977.5
596.387	7903.15
596.746	7942.7
597.104	7930.95
597.463	7909.71
597.822	7950.38
598.18	7917.62
598.538	7907.22
598.897	7936.83
599.255	7832.87
599.613	7963.94
599.972	7893.21
600.33	7842.14
600.688	7841.69
601.046	7827.22
601.404	7904.28
601.762	7842.82
602.12	7871.06
602.478	7901.12
602.836	7934.57
603.194	7876.04
603.552	7884.4
603.91	7879.65
604.268	7819.77
604.625	7818.86
604.983	7893.89
605.341	7833.1
605.698	7927.79
606.056	7889.59
606.413	7847.11
606.771	7854.12
607.128	7865.64
607.485	7823.16
607.843	7825.87
608.2	7871.06
608.557	7868.8
608.914	7841.01
609.272	7829.94
609.629	7874.23
609.986	7905.64
610.343	7840.1
610.7	7927.33
611.057	7883.95
611.414	7839.65
611.771	7863.83
612.127	7899.09
612.484	7906.09
612.841	7952.42
613.198	7878.3
613.554	7937.28
613.911	7915.36
614.267	7939.54
614.624	7945.41
614.98	7939.99
615.337	7930.05
615.693	7922.14
616.05	7975.24
616.406	7936.83
616.762	7888.69
617.118	7951.74
617.475	7925.98
617.831	7988.8
618.187	7945.19
618.543	7981.34
618.899	8005.98
619.255	8025.86
619.611	7985.41
619.967	7953.77
620.323	8006.43
620.678	8011.85
621.034	7977.95
621.39	7935.02
621.746	8007.33
622.101	8032.87
622.457	7984.28
622.812	7975.47
623.168	8009.59
623.523	7979.08
623.879	7992.87
624.234	7954.45
624.589	8019.08
624.945	8009.59
625.3	8035.81
625.655	7923.04
626.01	7998.97
626.365	8021.57
626.72	7939.09
627.075	7972.76
627.43	7931.4
627.785	7893.21
628.14	7963.94
628.495	7965.53
628.85	7924.85
629.205	7913.77
629.559	8048.91
629.914	7883.72
630.269	7954.45
630.623	7884.17
630.978	7924.85
631.332	7902.7
631.687	7957.39
632.041	7906.09
632.396	7812.76
632.75	7867.67
633.104	7889.37
633.459	7806.89
633.813	7833.55
634.167	7825.42
634.521	7805.53
634.875	7857.28
635.229	7760.33
635.583	7751.29
635.937	7819.54
636.291	7765.3
636.645	7730.28
636.999	7717.62
637.352	7785.19
637.706	7655.7
638.06	7736.15
638.413	7716.04
638.767	7699.09
639.121	7664.06
639.474	7639.43
639.828	7650.51
640.181	7643.05
640.534	7686.66
640.888	7579.32
641.241	7587.46
641.594	7550.62
641.947	7670.39
642.301	7587.46
642.654	7608.02
643.007	7624.52
643.36	7547.68
643.713	7576.83
644.066	7618.19
644.419	7543.39
644.771	7541.58
645.124	7440.57
645.477	7483.96
645.83	7428.36
646.182	7405.31
646.535	7360.12
646.888	7410.51
647.24	7326.45
647.593	7368.03
647.945	7274.02
648.298	7345.43
648.65	7325.09
649.002	7311.3
649.355	7363.73
649.707	7313.79
650.059	7359.21
650.411	7370.06
650.763	7403.28
651.115	7523.73
651.467	7470.85
651.819	7494.8
652.171	7455.26
652.523	7543.62
652.875	7426.1
653.227	7458.42
653.578	7523.05
653.93	7536.38
654.282	7510.62
654.633	7456.61
654.985	7478.76
655.337	7515.37
655.688	7530.96
656.039	7499.77
656.391	7488.93
656.742	7457.97
657.094	7482.83
657.445	7526.89
657.796	7502.03
658.147	7563.5
658.498	7446.44
658.849	7452.77
659.2	7542.26
659.551	7449.83
659.902	7534.35
660.253	7509.27
660.604	7566.67
660.955	7529.15
661.306	7546.1
661.656	7492.09
662.007	7521.69
662.358	7566.67
662.708	7490.06
663.059	7448.93
663.409	7498.64
663.76	7531.64
664.11	7548.81
664.461	7550.62
664.811	7523.5
665.161	7561.24
665.511	7522.6
665.862	7547
666.212	7585.65
666.562	7576.61
666.912	7537.29
667.262	7531.64
667.612	7594.01
667.962	7571.19
668.312	7561.02
668.662	7609.38
669.011	7543.39
669.361	7540.45
669.711	7561.02
670.06	7533.45
670.41	7535.25
670.76	7489.38
671.109	7525.76
671.459	7482.6
671.808	7475.37
672.157	7489.38
672.507	7478.98
672.856	7434.92
673.205	7510.62
673.554	7471.3
673.904	7495.25
674.253	7521.24
674.602	7448.48
674.951	7404.64
675.3	7351.3
675.649	7392.21
675.998	7398.08
676.346	7436.95
676.695	7452.54
677.044	7422.26
677.393	7436.05
677.741	7384.07
678.09	7441.25
678.438	7423.17
678.787	7434.69
679.135	7370.74
679.484	7347.91
679.832	7341.36
680.181	7323.06
680.529	7340.46
680.877	7327.58
681.225	7300.91
681.573	7359.89
681.922	7249.61
682.27	7255.04
682.618	7216.62
682.966	7259.33
683.314	7204.42
683.661	7212.55
684.009	7179.56
684.357	7154.25
684.705	7055.72
685.053	7182.95
685.4	7151.08
685.748	7096.62
686.095	7119.9
686.443	7066.34
686.79	7066.79
687.138	7044.87
687.485	7068.37
687.832	7050.75
688.18	7062.5
688.527	7022.27
688.874	6943.86
689.221	6923.07
689.568	6887.59
689.915	6899.34
690.262	6934.82
690.609	6906.12
690.956	6863.41
691.303	6809.62
691.65	6761.04
691.997	6792.9
692.344	6759.46
692.69	6741.6
693.037	6771.66
693.383	6663.41
693.73	6648.95
694.077	6608.27
694.423	6602.17
694.769	6540.7
695.116	6558.1
695.462	6522.85
695.808	6528.95
696.155	6523.98
696.501	6506.58
696.847	6435.62
697.193	6421.84
697.539	6425.23
697.885	6419.58
698.231	6370.31
698.577	6347.04
698.923	6383.87
699.269	6272.69
699.614	6318.34
699.96	6232.01
700.306	6257.77
700.651	6212.58
700.997	6252.12
701.342	6162.86
701.688	6126.48
702.033	6130.55
702.379	6145.01
702.724	6114.95
703.069	6085.35
703.415	6025.01
703.76	6049.19
704.105	5962.19
704.45	6037.44
704.795	5930.55
705.14	5910.66
705.485	5942.08
705.83	5876.77
706.175	5893.04
706.52	5860.04
706.865	5826.15
707.209	5861.63
707.554	5776.88
707.899	5822.08
708.243	5818.46
708.588	5792.93
708.932	5674.29
709.277	5718.35
709.621	5749.31
709.966	5703.44
710.31	5720.61
710.654	5649.88
710.998	5637.45
711.342	5694.85
711.687	5657.34
712.031	5629.77
712.375	5585.47
712.719	5518.36
713.063	5581.63
713.407	5595.19
713.75	5512.03
714.094	5591.35
714.438	5563.55
714.782	5542.09
715.125	5528.3
715.469	5502.09
715.812	5491.47
716.156	5492.82
716.499	5502.09
716.843	5477.45
717.186	5432.71
717.53	5493.73
717.873	5443.33
718.216	5432.48
718.559	5465.03
718.902	5424.8
719.246	5487.4
719.589	5385.93
719.932	5376.89
720.275	5434.07
720.617	5402.43
720.96	5365.37
721.303	5424.35
721.646	5383.9
721.989	5373.28
722.331	5401.98
722.674	5361.3
723.016	5403.11
723.359	5305.48
723.701	5351.81
724.044	5343
724.386	5292.83
724.729	5319.04
725.071	5329.21
725.413	5315.65
725.755	5312.04
726.097	5296.67
726.439	5311.36
726.782	5304.8
727.124	5288.31
727.465	5258.93
727.807	5258.93
728.149	5304.8
728.491	5309.78
728.833	5282.21
729.175	5309.1
729.516	5293.05
729.858	5270.91
730.199	5286.95
730.541	5287.86
730.882	5265.93
731.224	5305.48
731.565	5299.61
731.906	5325.82
732.248	5346.38
732.589	5252.38
732.93	5265.93
733.271	5284.01
733.612	5316.33
733.953	5326.95
734.294	5293.28
734.635	5310.23
734.976	5256.22
735.317	5314.75
735.658	5316.56
735.999	5294.86
736.339	5295.31
736.68	5292.6
737.021	5303.67
737.361	5324.01
737.702	5334.86
738.042	5359.94
738.383	5337.57
738.723	5327.63
739.063	5309.55
739.404	5388.42
739.744	5361.3
740.084	5385.71
740.424	5419.6
740.764	5394.07
741.104	5399.72
741.444	5384.12
741.784	5451.24
742.124	5477.45
742.464	5478.81
742.804	5466.16
743.143	5492.6
743.483	5513.61
743.823	5533.72
744.162	5561.75
744.502	5616.66
744.841	5547.06
745.181	5642.87
745.52	5617.56
745.86	5657.11
746.199	5663.89
746.538	5750.89
746.877	5792.47
747.216	5824.11
747.556	5865.69
747.895	5886.26
748.234	5926.26
748.573	5983.88
748.911	6028.85
749.25	6071.79
749.589	6113.14
749.928	6182.07
750.267	6276.76
750.605	6341.61
750.944	6363.08
751.283	6413.93
751.621	6545.68
751.96	6541.61
752.298	6660.7
752.636	6783.64
752.975	6858.44
753.313	6916.97
753.651	7076.96
753.989	7137.75
754.327	7285.32
754.666	7337.74
755.004	7497.97
755.342	7664.06
755.679	7704.97
756.017	7891.85
756.355	8011.17
756.693	8209.36
757.031	8333.2
757.368	8442.57
757.706	8524.61
758.044	8623.13
758.381	8831.94
758.719	8959.85
759.056	9177.7
759.394	9299.5
759.731	9418.37
760.068	9539.27
760.405	9792.6
760.743	9868.53
761.08	10104.9
761.417	10265.8
761.754	10466.48
762.091	10607.94
762.428	10760.25
762.765	10894.04
763.102	11130.19
763.438	11248.15
763.775	11354.59
764.112	11571.08
764.449	11819.43
764.785	11970.84
765.122	12094.68
765.458	12258.75
765.795	12428.68
766.131	12640.88
766.467	12759.3
766.804	12919.52
