Data from hue_110_FLMS001491_00071.txt Node
Date: Tue Feb 07 17:01:47 GMT 2017
User: dcchb
Spectrometer: FLMS00149
Trigger mode: 0
Integration Time (sec): 2.000000E-2
Scans to average: 10
Electric dark correction enabled: true
Nonlinearity correction enabled: false
Boxcar width: 0
XAxis mode: Wavelengths
Number of Pixels in Spectrum: 2048
>>>>>Begin Spectral Data<<<<<
341.393	-6.72
341.776	-6.72
342.16	-6.72
342.543	-75.65
342.927	-64.35
343.31	-78.36
343.693	-68.19
344.077	-41.07
344.46	-65.93
344.843	-48.98
345.226	-39.94
345.61	-43.11
345.993	-13.5
346.376	-5.82
346.759	23.11
347.142	20.62
347.525	39.15
347.908	73.05
348.291	72.82
348.674	91.81
349.057	84.35
349.44	130
349.823	148.75
350.206	158.92
350.588	190.33
350.971	192.82
351.354	235.53
351.737	241.86
352.119	242.99
352.502	239.37
352.884	269.65
353.267	270.56
353.65	291.35
354.032	286.38
354.414	330.67
354.797	324.34
355.179	341.97
355.562	333.38
355.944	333.38
356.326	344.23
356.709	341.97
357.091	327.51
357.473	325.92
357.855	348.3
358.238	331.35
358.62	324.57
359.002	346.94
359.384	348.75
359.766	364.11
360.148	340.39
360.53	333.61
360.912	353.72
361.294	344.23
361.676	334.51
362.057	355.75
362.439	340.84
362.821	322.76
363.203	314.62
363.584	329.54
363.966	333.16
364.348	326.38
364.729	326.83
365.111	306.49
365.493	320.95
365.874	322.08
366.256	321.86
366.637	309.43
367.019	320.05
367.4	329.09
367.781	309.43
368.163	318.47
368.544	311.23
368.925	316.21
369.306	342.65
369.688	348.75
370.069	320.5
370.45	315.3
370.831	329.77
371.212	313.72
371.593	327.28
371.974	319.6
372.355	322.31
372.736	329.09
373.117	318.69
373.498	291.57
373.879	315.98
374.26	330.67
374.641	328.18
375.021	320.73
375.402	341.06
375.783	328.18
376.163	308.75
376.544	316.66
376.925	321.18
377.305	332.7
377.686	336.54
378.066	322.76
378.447	337
378.827	336.09
379.208	319.6
379.588	330.44
379.968	349.65
380.349	354.62
380.729	351.23
381.109	335.41
381.489	345.36
381.87	354.85
382.25	344.91
382.63	355.98
383.01	353.95
383.39	358.24
383.77	340.84
384.15	339.03
384.53	337.9
384.91	352.59
385.29	389.88
385.67	372.93
386.049	355.75
386.429	345.58
386.809	388.52
387.189	381.97
387.568	369.76
387.948	368.18
388.328	380.61
388.707	388.07
389.087	383.78
389.466	398.92
389.846	379.03
390.225	381.52
390.605	367.96
390.984	383.1
391.363	371.12
391.743	395.75
392.122	394.4
392.501	404.57
392.881	408.18
393.26	364.79
393.639	372.7
394.018	382.65
394.397	381.06
394.776	399.59
395.155	379.03
395.534	419.48
395.913	397.56
396.292	399.59
396.671	408.63
397.05	429.2
397.429	402.98
397.808	403.44
398.186	428.97
398.565	434.4
398.944	406.6
399.323	434.85
399.701	425.81
400.08	431.91
400.458	408.18
400.837	426.26
401.215	426.94
401.594	424.68
401.972	433.72
402.351	447.73
402.729	427.16
403.107	436.88
403.486	455.64
403.864	433.94
404.242	451.34
404.62	453.15
404.999	463.32
405.377	443.89
405.755	445.02
406.133	457.22
406.511	466.26
406.889	459.93
407.267	445.24
407.645	471.91
408.023	485.02
408.401	475.98
408.779	494.51
409.156	499.03
409.534	479.14
409.912	476.2
410.29	501.96
410.667	494.51
411.045	500.61
411.422	503.55
411.8	517.78
412.178	513.49
412.555	527.05
412.933	518.23
413.31	520.27
413.687	499.25
414.065	521.62
414.442	541.74
414.819	536.31
415.197	540.61
415.574	553.94
415.951	553.49
416.328	537.67
416.705	544.67
417.082	556.88
417.46	578.12
417.837	552.81
418.214	562.53
418.591	572.92
418.967	586.26
419.344	571.34
419.721	588.29
420.098	565.24
420.475	584.67
420.852	593.49
421.228	606.14
421.605	613.37
421.982	586.93
422.358	591.45
422.735	610.44
423.111	611.57
423.488	617.89
423.864	622.41
424.241	635.97
424.617	618.12
424.994	619.93
425.37	638.91
425.746	638.91
426.123	654.05
426.499	652.02
426.875	682.3
427.251	653.15
427.627	666.48
428.003	646.82
428.379	686.82
428.756	696.31
429.132	696.31
429.507	708.96
429.883	716.65
430.259	717.1
430.635	739.25
431.011	738.34
431.387	741.96
431.763	729.3
432.138	765.46
432.514	734.95
432.89	734.73
433.265	780.37
433.641	783.54
434.016	763.88
434.392	784.44
434.767	826.7
435.143	806.81
435.518	810.88
435.894	809.98
436.269	798.45
436.644	827.83
437.02	833.03
437.395	822.86
437.77	854.72
438.145	848.85
438.52	837.55
438.895	856.98
439.271	893.59
439.646	880.49
440.021	900.82
440.395	898.56
440.77	885.68
441.145	911.67
441.52	916.19
441.895	919.13
442.27	899.69
442.645	913.03
443.019	949.86
443.394	941.05
443.769	948.51
444.143	970.88
444.518	975.62
444.892	958
445.267	981.27
445.641	961.39
446.016	972.01
446.39	976.3
446.764	976.08
447.139	990.76
447.513	1011.56
447.887	1023.31
448.262	1007.04
448.636	1026.02
449.01	1032.57
449.384	1026.02
449.758	1077.54
450.132	1064.89
450.506	1055.62
450.88	1064.44
451.254	1089.75
451.628	1083.19
452.002	1099.46
452.376	1090.42
452.75	1116.64
453.123	1109.18
453.497	1149.86
453.871	1147.82
454.244	1159.8
454.618	1171.1
454.992	1213.36
455.365	1199.8
455.739	1220.82
456.112	1239.57
456.486	1254.71
456.859	1256.97
457.232	1282.96
457.606	1295.39
457.979	1299.01
458.352	1357.08
458.725	1334.03
459.099	1328.38
459.472	1364.09
459.845	1408.38
460.218	1404.99
460.591	1411.32
460.964	1438.66
461.337	1455.16
461.71	1498.1
462.083	1505.55
462.456	1499.68
462.829	1531.32
463.201	1531.77
463.574	1560.92
463.947	1553.46
464.32	1644.31
464.692	1636.85
465.065	1651.99
465.438	1675.94
465.81	1685.44
466.183	1724.3
466.555	1763.17
466.928	1746.23
467.3	1757.3
467.672	1806.34
468.045	1877.75
468.417	1871.42
468.789	1925.2
469.161	1931.31
469.534	1945.32
469.906	2006.78
470.278	2012.21
470.65	2055.37
471.022	2110.96
471.394	2117.97
471.766	2177.4
472.138	2246.78
472.51	2264.4
472.882	2291.52
473.253	2369.26
473.625	2371.52
473.997	2459.88
474.369	2484.06
474.74	2553.66
475.112	2619.42
475.484	2658.07
475.855	2714.79
476.227	2762.47
476.598	2865.29
476.97	2870.49
477.341	3003.59
477.713	3067.77
478.084	3089.92
478.455	3250.14
478.827	3249.91
479.198	3414.43
479.569	3450.36
479.94	3512.73
480.311	3626.4
480.682	3785.72
481.053	3858.71
481.424	3967.86
481.795	4058.71
482.166	4123.56
482.537	4269.77
482.908	4365.14
483.279	4484.91
483.65	4659.37
484.021	4716.09
484.391	4835.41
484.762	4965.12
485.133	5021.62
485.503	5147.27
485.874	5304.32
486.244	5465.9
486.615	5585.22
486.985	5738.21
487.356	5866.12
487.726	5990.41
488.097	6191.31
488.467	6226.79
488.837	6404.41
489.207	6595.36
489.578	6744.51
489.948	6920.55
490.318	7036.71
490.688	7111.28
491.058	7306.98
491.428	7478.96
491.798	7697.93
492.168	7892.05
492.538	7966.17
492.908	8131.14
493.278	8330.23
493.648	8445.94
494.017	8657.68
494.387	8738.36
494.757	8854.96
495.126	9051.12
495.496	9143.54
495.866	9215.86
496.235	9421.5
496.605	9527.04
496.974	9674.83
497.344	9821.27
497.713	9999.57
498.082	10079.34
498.452	10220.13
498.821	10341.71
499.19	10453.11
499.559	10625.09
499.928	10736.5
500.298	10860.11
500.667	10948.02
501.036	11049.03
501.405	11179.2
501.774	11209.48
502.143	11427.1
502.512	11456.93
502.88	11702.8
503.249	11694.44
503.618	11788.9
503.987	11884.26
504.356	11931.72
504.724	12047.42
505.093	12112.51
505.462	12251.26
505.83	12339.85
506.199	12444.93
506.567	12621.87
506.936	12726.5
507.304	12833.62
507.672	12800.17
508.041	12977.57
508.409	13025.02
508.777	13120.84
509.145	13166.49
509.514	13244.91
509.882	13420.95
510.25	13413.26
510.618	13469.31
510.986	13575.52
511.354	13679.47
511.722	13749.53
512.09	13769.86
512.458	13844.66
512.826	13933.25
513.193	13973.02
513.561	14027.71
513.929	14108.16
514.297	14246.69
514.664	14320.13
515.032	14293.69
515.4	14390.64
515.767	14467.25
516.135	14544.53
516.502	14463.18
516.869	14718.09
517.237	14554.25
517.604	14582.05
517.972	14800.57
518.339	14779.78
518.706	14850.06
519.073	14894.58
519.44	14905.43
519.808	15050.51
520.175	15033.79
520.542	15199.43
520.909	15187.23
521.276	15168.25
521.643	15351.07
522.009	15284.17
522.376	15401.91
522.743	15424.74
523.11	15447.11
523.477	15655.01
523.843	15669.02
524.21	15780.43
524.577	15799.19
524.943	15743.37
525.31	15840.32
525.676	15896.59
526.043	16038.73
526.409	15989.24
526.776	16109.92
527.142	16103.14
527.508	16061.56
527.874	16192.4
528.241	16246.86
528.607	16244.38
528.973	16355.56
529.339	16262.91
529.705	16337.93
530.071	16435.1
530.437	16378.83
530.803	16455.67
531.169	16522.79
531.535	16278.05
531.901	16389.91
532.267	16396.24
532.632	16432.17
532.998	16401.21
533.364	16445.05
533.73	16507.87
534.095	16512.84
534.461	16525.95
534.826	16526.63
535.192	16518.27
535.557	16545.16
535.923	16511.94
536.288	16395.11
536.653	16525.95
537.019	16385.16
537.384	16388.55
537.749	16455.22
538.114	16476.46
538.479	16371.83
538.845	16349.23
539.21	16273.07
539.575	16278.95
539.94	16290.48
540.305	16367.08
540.67	16311.49
541.034	16222.45
541.399	16236.01
541.764	16234.88
542.129	16236.01
542.494	16156.92
542.858	16284.15
543.223	16138.84
543.587	16049.58
543.952	16034.66
544.316	16054.1
544.681	16009.81
545.045	16042.8
545.41	16013.87
545.774	15989.92
546.138	15953.08
546.503	15873.54
546.867	15845.74
547.231	15912.41
547.595	15879.19
547.959	15861.79
548.324	15834.67
548.688	15814.78
549.052	15815.91
549.416	15686.42
549.779	15748.57
550.143	15638.52
550.507	15778.17
550.871	15768.23
551.235	15616.37
551.599	15669.47
551.962	15680.55
552.326	15712.86
552.689	15713.99
553.053	15534.56
553.417	15573.43
553.78	15737.5
554.143	15577.73
554.507	15569.59
554.87	15553.09
555.234	15603.26
555.597	15447.11
555.96	15570.95
556.323	15467.22
556.686	15440.33
557.05	15533.43
557.413	15565.3
557.776	15467.9
558.139	15613.43
558.502	15549.03
558.865	15457.5
559.228	15558.97
559.59	15441.23
559.953	15566.65
560.316	15556.94
560.679	15585.41
561.041	15577.5
561.404	15687.55
561.767	15650.27
562.129	15579.08
562.492	15681.23
562.854	15638.06
563.217	15554.68
563.579	15596.03
563.941	15637.39
564.304	15769.13
564.666	15793.09
565.028	15803.93
565.39	15747.89
565.753	15868.11
566.115	15822.47
566.477	15809.81
566.839	15953.54
567.201	15781.56
567.563	15729.13
567.925	16033.31
568.287	15868.34
568.648	15929.58
569.01	15925.06
569.372	16028.56
569.734	15933.87
570.095	16031.95
570.457	15969.35
570.819	16021.78
571.18	15991.05
571.542	16123.25
571.903	16081.67
572.265	16023.82
572.626	16071.5
572.987	16205.05
573.349	16203.47
573.71	16181.33
574.071	16224.71
574.432	16216.13
574.794	16270.82
575.155	16212.29
575.516	16230.36
575.877	16271.04
576.238	16377.93
576.599	16363.69
576.96	16354.2
577.32	16253.87
577.681	16403.92
578.042	16231.72
578.403	16457.48
578.763	16358.27
579.124	16400.3
579.485	16421.55
579.845	16444.6
580.206	16252.96
580.566	16395.33
580.927	16320.08
581.287	16345.16
581.648	16391.04
582.008	16346.07
582.368	16331.38
582.728	16345.84
583.089	16417.03
583.449	16344.26
583.809	16262
584.169	16383.58
584.529	16206.18
584.889	16368.89
585.249	16236.69
585.609	16177.71
585.969	16300.19
586.329	16258.84
586.688	16275.33
587.048	16233.75
587.408	16164.83
587.768	16152.85
588.127	16278.05
588.487	16255
588.846	16223.13
589.206	16121.21
589.565	16148.56
589.925	16227.65
590.284	16154.43
590.643	16148.78
591.003	16113.08
591.362	16191.5
591.721	16104.72
592.08	16091.38
592.44	16195.56
592.799	16170.7
593.158	16045.28
593.517	16072.85
593.876	16086.87
594.235	16049.8
594.593	16065.17
594.952	16113.08
595.311	16050.26
595.67	16089.58
596.029	16132.97
596.387	16139.52
596.746	16150.82
597.104	16007.77
597.463	16039.18
597.822	16066.98
598.18	16059.97
598.538	16011.61
598.897	16124.6
599.255	15925.51
599.613	16173.87
599.972	16043.48
600.33	16126.64
600.688	16003.25
601.046	16043.93
601.404	16110.59
601.762	16096.58
602.12	16145.62
602.478	16114.89
602.836	16040.76
603.194	15999.18
603.552	16086.87
603.91	16019.52
604.268	16062.23
604.625	15989.47
604.983	16099.97
605.341	15955.34
605.698	16010.71
606.056	16075.34
606.413	16033.99
606.771	16098.39
607.128	16088.45
607.485	16018.62
607.843	16021.56
608.2	16123.93
608.557	16223.13
608.914	16062.91
609.272	16175.68
609.629	16120.54
609.986	16204.83
610.343	16136.81
610.7	16240.31
611.057	16248.22
611.414	16303.81
611.771	16211.61
612.127	16315.33
612.484	16196.92
612.841	16320.98
613.198	16200.53
613.554	16330.47
613.911	16263.81
614.267	16325.05
614.624	16247.31
614.98	16278.95
615.337	16389.68
615.693	16374.77
616.05	16335.67
616.406	16404.82
616.762	16362.79
617.118	16338.84
617.475	16361.21
617.831	16373.41
618.187	16400.98
618.543	16383.35
618.899	16595.78
619.255	16534.99
619.611	16509.23
619.967	16454.99
620.323	16645.27
620.678	16626.96
621.034	16453.41
621.39	16469
621.746	16500.19
622.101	16692.27
622.457	16542.45
622.812	16520.98
623.168	16455.22
623.523	16663.57
623.879	16633.97
624.234	16455.44
624.589	16537.25
624.945	16604.82
625.3	16603.69
625.655	16606.4
626.01	16533.63
626.365	16573.18
626.72	16403.69
627.075	16470.36
627.43	16462.22
627.785	16489.79
628.14	16498.61
628.495	16499.74
628.85	16503.35
629.205	16484.59
629.559	16526.85
629.914	16458.61
630.269	16408.89
630.623	16427.65
630.978	16453.18
631.332	16441.66
631.687	16420.87
632.041	16379.96
632.396	16396.24
632.75	16391.26
633.104	16336.8
633.459	16346.29
633.813	16286.86
634.167	16309.46
634.521	16266.07
634.875	16198.95
635.229	16212.29
635.583	16141.78
635.937	16163.47
636.291	16092.74
636.645	16096.81
636.999	16080.09
637.352	16107.66
637.706	16041.22
638.06	16121.44
638.413	16033.31
638.767	16038.96
639.121	16001.67
639.474	15841.45
639.828	15852.75
640.181	15887.32
640.534	15950.6
640.888	15885.51
641.241	15871.05
641.594	15886.19
641.947	15938.39
642.301	15836.7
642.654	15842.13
643.007	15926.87
643.36	15867.66
643.713	15778.4
644.066	15810.04
644.419	15778.4
644.771	15771.17
645.124	15519.2
645.477	15516.03
645.83	15401.46
646.182	15382.02
646.535	15305.87
646.888	15337.05
647.24	15186.78
647.593	15342.93
647.945	15271.07
648.298	15214.35
648.65	15159.21
649.002	15230.84
649.355	15233.78
649.707	15200.11
650.059	15374.12
650.411	15423.15
650.763	15546.99
651.115	15677.61
651.467	15597.39
651.819	15584.96
652.171	15619.76
652.523	15567.56
652.875	15638.74
653.227	15520.78
653.578	15663.83
653.93	15594.9
654.282	15528.69
654.633	15511.29
654.985	15536.82
655.337	15618.18
655.688	15542.25
656.039	15587.9
656.391	15519.42
656.742	15591.96
657.094	15519.2
657.445	15564.17
657.796	15576.6
658.147	15501.57
658.498	15524.39
658.849	15557.39
659.2	15567.78
659.551	15582.47
659.902	15614.11
660.253	15577.05
660.604	15616.82
660.955	15600.1
661.306	15629.93
661.656	15550.83
662.007	15674.45
662.358	15623.83
662.708	15647.78
663.059	15631.74
663.409	15544.73
663.76	15673.32
664.11	15528.01
664.461	15637.61
664.811	15686.88
665.161	15616.82
665.511	15591.51
665.862	15626.76
666.212	15653.88
666.562	15593.54
666.912	15654.56
667.262	15567.33
667.612	15634.22
667.962	15647.33
668.312	15651.62
668.662	15690.04
669.011	15649.81
669.361	15618.18
669.711	15690.72
670.06	15504.06
670.41	15551.06
670.76	15537.5
671.109	15628.57
671.459	15508.12
671.808	15507.22
672.157	15606.2
672.507	15431.52
672.856	15401.01
673.205	15511.06
673.554	15545.41
673.904	15501.12
674.253	15546.99
674.602	15466.54
674.951	15222.93
675.3	15199.66
675.649	15496.6
675.998	15402.82
676.346	15353.1
676.695	15509.93
677.044	15338.86
677.393	15316.49
677.741	15386.54
678.09	15359.88
678.438	15264.74
678.787	15320.56
679.135	15253.44
679.484	15186.1
679.832	15215.7
680.181	15151.97
680.529	15188.81
680.877	15088.7
681.225	15140.45
681.573	15151.52
681.922	15087.8
682.27	15061.13
682.618	15015.03
682.966	14957.63
683.314	14842.83
683.661	14933
684.009	14836.05
684.357	14784.53
684.705	14841.93
685.053	14853
685.4	14794.7
685.748	14720.8
686.095	14594.25
686.443	14583.63
686.79	14600.12
687.138	14622.95
687.485	14562.84
687.832	14459.56
688.18	14526.68
688.527	14382.05
688.874	14506.57
689.221	14395.38
689.568	14237.42
689.915	14311.77
690.262	14263.18
690.609	14208.95
690.956	14117.65
691.303	14091.21
691.65	14103.19
691.997	14071.1
692.344	13989.07
692.69	14010.31
693.037	13952.91
693.383	13878.56
693.73	13876.08
694.077	13817.09
694.423	13812.12
694.769	13730.09
695.116	13712.24
695.462	13695.06
695.808	13543.66
696.155	13575.74
696.501	13484.45
696.847	13533.03
697.193	13355.19
697.539	13446.03
697.885	13289.88
698.231	13298.69
698.577	13228.41
698.923	13231.12
699.269	13181.18
699.614	13075.42
699.96	13027.96
700.306	13061.18
700.651	12911.13
700.997	12946.83
701.342	12839.49
701.688	12903.9
702.033	12835.88
702.379	12759.5
702.724	12793.39
703.069	12727.86
703.415	12597.01
703.76	12635.66
704.105	12546.17
704.45	12498.48
704.795	12464.36
705.14	12399.28
705.485	12343.69
705.83	12396.11
706.175	12424.81
706.52	12366.74
706.865	12239.73
707.209	12214.2
707.554	12175.78
707.899	12160.87
708.243	12113.86
708.588	12101.21
708.932	11968.78
709.277	11930.14
709.621	11962
709.966	11852.85
710.31	11942.57
710.654	11846.52
710.998	11867.99
711.342	11778.73
711.687	11792.29
712.031	11693.31
712.375	11664.83
712.719	11675.23
713.063	11649.69
713.407	11647.21
713.75	11551.62
714.094	11564.95
714.438	11536.93
714.782	11544.16
715.125	11500.55
715.469	11484.27
715.812	11442.92
716.156	11392.75
716.499	11429.81
716.843	11424.16
717.186	11376.03
717.53	11370.38
717.873	11392.07
718.216	11266.88
718.559	11377.16
718.902	11289.93
719.246	11238.63
719.589	11193.66
719.932	11228.69
720.275	11118.86
720.617	11158.86
720.96	11173.1
721.303	11188.69
721.646	11148.01
721.989	11098.97
722.331	11190.95
722.674	11109.14
723.016	11113.21
723.359	11115.7
723.701	11129.48
724.044	10996.15
724.386	11010.61
724.729	10995.93
725.071	10979.88
725.413	11003.16
725.755	11016.94
726.097	10917.74
726.439	10881.58
726.782	10959.99
727.124	10979.65
727.465	10878.19
727.807	10937.17
728.149	10821.92
728.491	10850.39
728.833	10852.43
729.175	10858.08
729.516	10820.56
729.858	10837.74
730.199	10863.5
730.541	10803.61
730.882	10744.86
731.224	10842.26
731.565	10808.36
731.906	10806.33
732.248	10814.91
732.589	10715.25
732.93	10741.69
733.271	10790.06
733.612	10819.43
733.953	10804.29
734.294	10763.16
734.635	10794.8
734.976	10755.71
735.317	10796.83
735.658	10686.33
735.999	10781.02
736.339	10818.53
736.68	10781.24
737.021	10825.99
737.361	10699.66
737.702	10793.9
738.042	10856.49
738.383	10784.18
738.723	10754.12
739.063	10814.01
739.404	10832.31
739.744	10839.77
740.084	10838.19
740.424	10824.63
740.764	10811.52
741.104	10909.83
741.444	10852.43
741.784	10857.4
742.124	10867.79
742.464	10951.41
742.804	10945.53
743.143	10952.08
743.483	10981.91
743.823	10907.34
744.162	10973.78
744.502	11056.71
744.841	11072.31
745.181	11148.69
745.52	11145.75
745.86	11179.88
746.199	11196.15
746.538	11223.72
746.877	11278.63
747.216	11412.41
747.556	11357.72
747.895	11484.95
748.234	11523.6
748.573	11539.41
748.911	11551.17
749.25	11660.54
749.589	11693.76
749.928	11831.61
750.267	11935.11
750.605	11956.58
750.944	11938.5
751.283	12071.83
751.621	12230.7
751.96	12373.74
752.298	12414.65
752.636	12501.87
752.975	12583.68
753.313	12632.49
753.651	12786.61
753.989	12841.98
754.327	12911.58
754.666	13012.82
755.004	13201.29
755.342	13352.7
755.679	13477.67
