Data from hue_270_FLMS001491_00021.txt Node
Date: Tue Feb 07 15:56:57 GMT 2017
User: dcchb
Spectrometer: FLMS00149
Trigger mode: 0
Integration Time (sec): 2.000000E-2
Scans to average: 10
Electric dark correction enabled: true
Nonlinearity correction enabled: false
Boxcar width: 0
XAxis mode: Wavelengths
Number of Pixels in Spectrum: 2048
>>>>>Begin Spectral Data<<<<<
341.393	-7.46
341.776	-7.46
342.16	-7.46
342.543	-58.76
342.927	-48.13
343.31	-77.96
343.693	-78.19
344.077	-87.68
344.46	-47.23
344.843	-37.51
345.226	-23.95
345.61	-33.67
345.993	-31.64
346.376	-3.84
346.759	2.94
347.142	27.57
347.525	54.69
347.908	66.89
348.291	66.89
348.674	87.23
349.057	115.48
349.44	134.01
349.823	141.69
350.206	170.17
350.588	194.12
350.971	209.94
351.354	243.84
351.737	218.3
352.119	268.92
352.502	267.79
352.884	271.63
353.267	268.47
353.65	290.61
354.032	292.42
354.414	295.13
354.797	302.59
355.179	308.69
355.562	305.98
355.944	331.52
356.326	337.39
356.709	342.59
357.091	350.73
357.473	331.06
357.855	336.04
358.238	345.53
358.62	355.7
359.002	342.59
359.384	353.44
359.766	334.45
360.148	327.45
360.53	312.53
360.912	332.65
361.294	343.49
361.676	342.59
362.057	328.35
362.439	343.49
362.821	344.4
363.203	317.96
363.584	309.14
363.966	319.99
364.348	323.16
364.729	318.41
365.111	332.65
365.493	322.03
365.874	313.21
366.256	318.86
366.637	338.75
367.019	324.74
367.4	302.59
367.781	329.71
368.163	315.92
368.544	306.66
368.925	303.49
369.306	310.95
369.688	304.85
370.069	327.45
370.45	298.52
370.831	315.02
371.212	307.34
371.593	327.22
371.974	327.68
372.355	314.12
372.736	317.96
373.117	329.71
373.498	315.47
373.879	302.14
374.26	312.08
374.641	303.95
375.021	342.14
375.402	319.77
375.783	312.31
376.163	352.08
376.544	345.98
376.925	325.42
377.305	312.31
377.686	324.06
378.066	335.36
378.447	336.26
378.827	340.1
379.208	339.65
379.588	335.13
379.968	342.36
380.349	346.21
380.729	321.8
381.109	332.87
381.489	331.06
381.87	346.21
382.25	357.05
382.63	349.37
383.01	343.27
383.39	347.79
383.77	345.75
384.15	336.94
384.53	358.41
384.91	344.4
385.29	374.23
385.67	340.33
386.049	356.37
386.429	355.7
386.809	365.64
387.189	349.6
387.568	361.8
387.948	369.48
388.328	385.07
388.707	365.87
389.087	375.36
389.466	365.64
389.846	363.61
390.225	356.15
390.605	375.81
390.984	376.71
391.363	369.03
391.743	385.75
392.122	364.74
392.501	393.66
392.881	378.52
393.26	391.85
393.639	391.18
394.018	389.14
394.397	386.2
394.776	382.36
395.155	396.83
395.534	393.21
395.913	404.28
396.292	400.67
396.671	408.35
397.05	388.69
397.429	394.57
397.808	404.96
398.186	391.85
398.565	428.24
398.944	415.13
399.323	423.04
399.701	409.71
400.08	437.95
400.458	441.8
400.837	409.71
401.215	421.68
401.594	444.73
401.972	422.81
402.351	426.43
402.729	461.23
403.107	443.6
403.486	434.79
403.864	449.48
404.242	450.84
404.62	471.63
404.999	487.44
405.377	451.74
405.755	458.07
406.133	480.21
406.511	500.78
406.889	491.51
407.267	504.62
407.645	495.35
408.023	496.71
408.401	513.66
408.779	513.66
409.156	509.82
409.534	527.9
409.912	526.77
410.29	534.68
410.667	522.7
411.045	501.91
411.422	547.78
411.8	567.89
412.178	564.5
412.555	582.58
412.933	571.06
413.31	564.5
413.687	592.07
414.065	606.09
414.442	601.11
414.819	591.85
415.197	622.36
415.574	618.29
415.951	637.72
416.328	623.03
416.705	647.21
417.082	634.33
417.46	638.63
417.837	657.38
418.214	660.77
418.591	668.46
418.967	647.89
419.344	669.81
419.721	706.87
420.098	697.83
420.475	695.8
420.852	722.24
421.228	744.84
421.605	757.04
421.982	735.8
422.358	739.64
422.735	783.71
423.111	786.19
423.488	813.09
423.864	814.44
424.241	811.05
424.617	815.12
424.994	833.88
425.37	851.73
425.746	811.5
426.123	857.15
426.499	870.71
426.875	876.36
427.251	868.68
427.627	908.45
428.003	920.65
428.379	933.08
428.756	925.85
429.132	955.91
429.507	955
429.883	960.65
430.259	963.59
430.635	981.44
431.011	975.79
431.387	1012.63
431.763	1041.55
432.138	1039.97
432.514	1052.18
432.89	1033.87
433.265	1100.54
433.641	1096.47
434.016	1107.32
434.392	1117.94
434.767	1148.9
435.143	1164.49
435.518	1158.16
435.894	1173.53
436.269	1219.85
436.644	1221.89
437.02	1237.26
437.395	1255.56
437.77	1268.89
438.145	1258.27
438.52	1291.27
438.895	1315.45
439.271	1343.47
439.646	1381.88
440.021	1363.13
440.395	1383.92
440.77	1375.11
441.145	1394.77
441.52	1433.18
441.895	1417.36
442.27	1420.3
442.645	1430.7
443.019	1446.74
443.394	1478.15
443.769	1515.44
444.143	1482.67
444.518	1509.34
444.892	1512.73
445.267	1542.11
445.641	1526.29
446.016	1529.45
446.39	1565.83
446.764	1564.7
447.139	1589.11
447.513	1590.24
447.887	1615.1
448.262	1606.51
448.636	1583.01
449.01	1622.1
449.384	1634.76
449.758	1639.73
450.132	1644.48
450.506	1688.32
450.88	1665.72
451.254	1699.84
451.628	1693.06
452.002	1705.94
452.376	1721.76
452.75	1734.19
453.123	1727.86
453.497	1790.46
453.871	1792.27
454.244	1845.83
454.618	1847.86
454.992	1890.57
455.365	1848.54
455.739	1896
456.112	1912.49
456.486	1924.24
456.859	1939.38
457.232	1966.73
457.606	1968.54
457.979	1970.8
458.352	2017.8
458.725	2038.14
459.099	2015.09
459.472	2080.62
459.845	2094.18
460.218	2121.07
460.591	2151.13
460.964	2137.34
461.337	2179.6
461.71	2187.51
462.083	2232.03
462.456	2239.49
462.829	2249.43
463.201	2259.6
463.574	2266.16
463.947	2316.55
464.32	2359.03
464.692	2368.07
465.065	2395.87
465.438	2398.58
465.81	2414.85
466.183	2459.82
466.555	2491.69
466.928	2519.71
467.3	2483.1
467.672	2569.42
468.045	2577.11
468.417	2621.63
468.789	2593.38
469.161	2648.29
469.534	2702.53
469.906	2715.63
470.278	2726.03
470.65	2786.59
471.022	2821.17
471.394	2870.88
471.766	2897.55
472.138	2897.78
472.51	2939.58
472.882	3023.42
473.253	3013.48
473.625	3027.04
473.997	3114.27
474.369	3102.07
474.74	3156.53
475.112	3183.19
475.484	3199.69
475.855	3262.74
476.227	3312.91
476.598	3369.63
476.97	3395.16
477.341	3442.85
477.713	3487.37
478.084	3506.57
478.455	3617.53
478.827	3633.35
479.198	3648.94
479.569	3706.8
479.94	3764.19
480.311	3779.11
480.682	3864.76
481.053	3890.75
481.424	3990.86
481.795	3968.48
482.166	4017.52
482.537	4065.88
482.908	4167.35
483.279	4201.25
483.65	4247.57
484.021	4328.47
484.391	4357.85
484.762	4363.73
485.133	4434.23
485.503	4511.29
485.874	4542.03
486.244	4568.24
486.615	4669.03
486.985	4685.07
487.356	4771.4
487.726	4783.83
488.097	4843.49
488.467	4916.48
488.837	4953.77
489.207	5016.37
489.578	5058.17
489.948	5063.14
490.318	5115.12
490.688	5179.52
491.058	5256.81
491.428	5282.8
491.798	5325.51
492.168	5476.69
492.538	5412.97
492.908	5477.37
493.278	5497.26
493.648	5512.4
494.017	5593.3
494.387	5640.3
494.757	5661.77
495.126	5746.97
495.496	5710.36
495.866	5736.35
496.235	5789.45
496.605	5801.88
496.974	5867.87
497.344	5864.48
497.713	5950.8
498.082	5945.61
498.452	5963.01
498.821	6043
499.19	5994.19
499.559	6075.77
499.928	6043.23
500.298	6173.62
500.667	6185.6
501.036	6149.89
501.405	6243.68
501.774	6257.01
502.143	6255.43
502.512	6287.52
502.88	6315.09
503.249	6323.45
503.618	6325.71
503.987	6359.15
504.356	6421.98
504.724	6410.45
505.093	6464.46
505.462	6421.98
505.83	6479.6
506.199	6468.98
506.567	6595.98
506.936	6555.76
507.304	6639.6
507.672	6599.37
508.041	6592.14
508.409	6666.49
508.777	6714.85
509.145	6757.79
509.514	6740.61
509.882	6763.66
510.25	6781.97
510.618	6762.76
510.986	6797.79
511.354	6837.56
511.722	6899.93
512.09	6942.87
512.458	6917.78
512.826	6935.64
513.193	6946.26
513.561	6987.39
513.929	7026.26
514.297	7056.99
514.664	7040.72
515.032	7102.41
515.4	7142.64
515.767	7038.23
516.135	7085.69
516.502	7096.08
516.869	7179.25
517.237	7194.16
517.604	7147.83
517.972	7243.65
518.339	7262.41
518.706	7216.99
519.073	7253.82
519.44	7264.44
519.808	7325.68
520.175	7301.05
520.542	7382.18
520.909	7366.59
521.276	7375.85
521.643	7458.79
522.009	7519.12
522.376	7447.04
522.743	7569.97
523.11	7565.22
523.477	7602.29
523.843	7531.78
524.21	7642.28
524.577	7662.62
524.943	7710.08
525.31	7660.82
525.676	7742.85
526.043	7748.72
526.409	7821.26
526.776	7889.06
527.142	7902.84
527.508	7840.47
527.874	7925.89
528.241	7952.56
528.607	7924.09
528.973	7969.28
529.339	7980.13
529.705	8034.82
530.071	8067.36
530.437	8082.27
530.803	8084.31
531.169	8169.73
531.535	8162.72
531.901	8156.85
532.267	8118.88
532.632	8226
532.998	8183.97
533.364	8257.86
533.73	8216.06
534.095	8282.49
534.461	8284.08
534.826	8240.46
535.192	8361.81
535.557	8333.57
535.923	8384.19
536.288	8348.26
536.653	8393.45
537.019	8353.68
537.384	8371.76
537.749	8420.57
538.114	8412.89
538.479	8385.77
538.845	8427.12
539.21	8384.64
539.575	8485.2
539.94	8454.69
540.305	8471.42
540.67	8520
541.034	8496.5
541.399	8494.92
541.764	8490.17
542.129	8518.19
542.494	8517.29
542.858	8555.71
543.223	8606.1
543.587	8611.98
543.952	8590.51
544.316	8639.77
544.681	8651.3
545.045	8626.44
545.41	8688.59
545.774	8632.99
546.138	8608.14
546.503	8659.21
546.867	8664.4
547.231	8692.43
547.595	8742.37
547.959	8754.57
548.324	8752.31
548.688	8725.65
549.052	8808.58
549.416	8764.06
549.779	8730.62
550.143	8770.84
550.507	8791.41
550.871	8825.08
551.235	8778.3
551.599	8870.05
551.962	8879.31
552.326	8912.53
552.689	8891.52
553.053	8870.5
553.417	8917.28
553.78	8978.97
554.143	8900.78
554.507	8934.91
554.87	9071.17
555.234	9045.41
555.597	8959.76
555.96	9026.43
556.323	9065.75
556.686	9038.86
557.05	9152.53
557.413	9102.13
557.776	9130.61
558.139	9129.48
558.502	9162.47
558.865	9188.01
559.228	9270.49
559.59	9299.64
559.953	9264.39
560.316	9380.09
560.679	9359.53
561.041	9414.22
561.404	9448.11
561.767	9472.52
562.129	9412.18
562.492	9521.56
562.854	9573.08
563.217	9544.16
563.579	9498.06
563.941	9591.16
564.304	9610.14
564.666	9696.92
565.028	9682.46
565.39	9688.11
565.753	9816.24
566.115	9771.49
566.477	9813.3
566.839	9854.2
567.201	9950.02
567.563	9943.47
567.925	9983.92
568.287	9974.2
568.648	9946.63
569.01	10041.09
569.372	10070.02
569.734	10076.12
570.095	10191.6
570.457	10141.88
570.819	10140.07
571.18	10137.13
571.542	10282.67
571.903	10261.43
572.265	10318.37
572.626	10396.11
572.987	10413.74
573.349	10457.8
573.71	10421.87
574.071	10461.19
574.432	10589.1
574.794	10665.48
575.155	10623
575.516	10507.75
575.877	10619.83
576.238	10711.81
576.599	10744.12
576.96	10713.62
577.32	10764.01
577.681	10797.23
578.042	10841.75
578.403	10830.9
578.763	10836.1
579.124	10861.86
579.485	11007.39
579.845	11014.17
580.206	10907.74
580.566	10962.42
580.927	11042.87
581.287	11083.32
581.648	11054.62
582.008	11134.17
582.368	11125.81
582.728	11200.16
583.089	11216.88
583.449	11230.89
583.809	11257.11
584.169	11252.81
584.529	11253.49
584.889	11387.05
585.249	11377.55
585.609	11317.44
585.969	11387.5
586.329	11382.3
586.688	11474.95
587.048	11497.78
587.408	11513.6
587.768	11577.55
588.127	11444.44
588.487	11478.79
588.846	11669.07
589.206	11627.94
589.565	11602.86
589.925	11647.6
590.284	11698.22
590.643	11752.91
591.003	11790.42
591.362	11787.49
591.721	11773.7
592.08	11795.62
592.44	11839.69
592.799	11792.91
593.158	11982.96
593.517	11872.46
593.876	11881.27
594.235	11869.29
594.593	11902.74
594.952	12045.78
595.311	11989.52
595.67	11988.84
596.029	12074.26
596.387	12098.66
596.746	12109.29
597.104	12061.15
597.463	12059.12
597.822	12144.09
598.18	12052.79
598.538	12121.72
598.897	12124.88
599.255	12011.21
599.613	12208.94
599.972	12163.52
600.33	12244.42
600.688	12177.98
601.046	12280.13
601.404	12375.04
601.762	12266.57
602.12	12429.28
602.478	12303.41
602.836	12392.89
603.194	12354.93
603.552	12361.03
603.91	12281.71
604.268	12337.53
604.625	12354.7
604.983	12376.62
605.341	12288.26
605.698	12322.39
606.056	12459.11
606.413	12414.81
606.771	12461.82
607.128	12446.68
607.485	12406.91
607.843	12410.75
608.2	12492.33
608.557	12490.75
608.914	12470.63
609.272	12514.47
609.629	12523.96
609.986	12625.2
610.343	12537.75
610.7	12626.79
611.057	12650.29
611.414	12636.28
611.771	12604.87
612.127	12689.16
612.484	12716.95
612.841	12709.27
613.198	12769.38
613.554	12718.99
613.911	12785.43
614.267	12756.73
614.624	12688.71
614.98	12766.44
615.337	12840.57
615.693	12843.05
616.05	12707.91
616.406	12879.44
616.762	12789.49
617.118	12780.23
617.475	12848.25
617.831	12884.18
618.187	12837.85
618.543	12913.33
618.899	12954.46
619.255	12946.1
619.611	12897.97
619.967	12900.45
620.323	12975.7
620.678	12895.48
621.034	12829.27
621.39	12924.18
621.746	12875.82
622.101	13062.71
622.457	12942.03
622.812	12962.82
623.168	12964.4
623.523	12951.75
623.879	13035.82
624.234	12878.31
624.589	12909.27
624.945	13049.15
625.3	12963.27
625.655	13008.25
626.01	12963.95
626.365	12967.34
626.72	12977.06
627.075	12979.77
627.43	12970.51
627.785	12945.87
628.14	12911.52
628.495	12914.69
628.85	12989.71
629.205	12919.89
629.559	12978.87
629.914	12955.82
630.269	12919.66
630.623	12976.61
630.978	12832.88
631.332	12952.65
631.687	12903.84
632.041	12863.16
632.396	12812.32
632.75	12800.79
633.104	12821.36
633.459	12805.99
633.813	12734.35
634.167	12763.96
634.521	12750.85
634.875	12780.23
635.229	12702.49
635.583	12683.96
635.937	12679.89
636.291	12718.54
636.645	12741.36
636.999	12629.95
637.352	12696.16
637.706	12549.27
638.06	12571.19
638.413	12633.79
638.767	12565.55
639.121	12551.99
639.474	12413.68
639.828	12475.6
640.181	12545.88
640.534	12619.78
640.888	12483.51
641.241	12404.19
641.594	12500.46
641.947	12442.16
642.301	12505.43
642.654	12445.1
643.007	12450.29
643.36	12458.88
643.713	12426.79
644.066	12393.12
644.419	12392.44
644.771	12364.65
645.124	12176.18
645.477	12140.25
645.83	12166.01
646.182	12068.38
646.535	12069.29
646.888	12060.47
647.24	12088.27
647.593	12048.5
647.945	12003.98
648.298	11998.78
648.65	11830.42
649.002	11861.16
649.355	11923.75
649.707	11991.78
650.059	11966.69
650.411	12166.23
650.763	12068.84
651.115	12297.08
651.467	12197.87
651.819	12157.65
652.171	12280.36
652.523	12151.32
652.875	12204.42
653.227	12142.05
653.578	12293.69
653.93	12220.47
654.282	12104.99
654.633	12152.67
654.985	12195.84
655.337	12209.4
655.688	12186.8
656.039	12255.05
656.391	12163.07
656.742	12161.49
657.094	12149.74
657.445	12222.5
657.796	12188.83
658.147	12102.96
658.498	12148.61
658.849	12225.22
659.2	12232.9
659.551	12123.3
659.902	12173.69
660.253	12201.26
660.604	12211.88
660.955	12136.63
661.306	12147.93
661.656	12111.55
662.007	12177.76
662.358	12145.67
662.708	12236.29
663.059	12168.27
663.409	12133.24
663.76	12160.13
664.11	12271.09
664.461	12232.9
664.811	12118.55
665.161	12186.57
665.511	12189.28
665.862	12210.98
666.212	12267.02
666.562	12244.42
666.912	12099.34
667.262	12115.84
667.612	12202.17
667.962	12194.48
668.312	12175.5
668.662	12210.75
669.011	12133.01
669.361	12180.02
669.711	12170.53
670.06	12181.37
670.41	12147.03
670.76	12123.52
671.109	12159
671.459	12111.55
671.808	12118.33
672.157	12156.74
672.507	12157.42
672.856	12029.97
673.205	12021.15
673.554	12100.25
673.904	12031.77
674.253	12048.04
674.602	12110.42
674.951	11860.25
675.3	11814.6
675.649	12013.02
675.998	11941.83
676.346	12005.56
676.695	12053.47
677.044	11893.92
677.393	12010.08
677.741	11935.51
678.09	11904.77
678.438	11879.46
678.787	11896.86
679.135	11829.52
679.484	11861.61
679.832	11855.96
680.181	11760.82
680.529	11853.02
680.877	11723.08
681.225	11831.33
681.573	11841.95
681.922	11679.01
682.27	11748.17
682.618	11737.77
682.966	11707.94
683.314	11671.33
683.661	11678.56
684.009	11610.32
684.357	11564.22
684.705	11582.97
685.053	11547.72
685.4	11536.87
685.748	11517.89
686.095	11455.52
686.443	11432.69
686.79	11375.75
687.138	11403.77
687.485	11426.37
687.832	11307.73
688.18	11406.25
688.527	11296.88
688.874	11328.52
689.221	11219.37
689.568	11215.75
689.915	11175.75
690.262	11208.52
690.609	11206.03
690.956	11139.14
691.303	11118.8
691.65	10963.78
691.997	11086.71
692.344	10960.84
692.69	10901.18
693.037	10963.1
693.383	10838.59
693.73	10902.31
694.077	10811.24
694.423	10823.44
694.769	10724.92
695.116	10691.24
695.462	10674.75
695.808	10624.13
696.155	10597.01
696.501	10567.41
696.847	10574.86
697.193	10526.95
697.539	10528.54
697.885	10471.59
698.231	10374.19
698.577	10425.04
698.923	10425.71
699.269	10284.93
699.614	10232.05
699.96	10194.76
700.306	10146.4
700.651	10144.59
700.997	10117.47
701.342	10140.98
701.688	10079.73
702.033	10040.64
702.379	9996.8
702.724	10033.41
703.069	10014.2
703.415	9840.65
703.76	9886.07
704.105	9868.44
704.45	9843.36
704.795	9749.35
705.14	9732.17
705.485	9756.81
705.83	9704.6
706.175	9623.25
706.52	9678.16
706.865	9596.81
707.209	9561.78
707.554	9509.81
707.899	9563.36
708.243	9474.78
708.588	9457.38
708.932	9399.07
709.277	9426.42
709.621	9387.32
709.966	9390.49
710.31	9392.07
710.654	9317.95
710.998	9309.81
711.342	9337.61
711.687	9238.85
712.031	9239.08
712.375	9226.65
712.719	9237.95
713.063	9171.06
713.407	9263.49
713.75	9141.91
714.094	9132.87
714.438	9107.33
714.782	9132.42
715.125	9055.81
715.469	9164.96
715.812	9042.25
716.156	9039.76
716.499	9033.21
716.843	9050.61
717.186	8936.26
717.53	9023.94
717.873	8995.47
718.216	9021.46
718.559	8958.18
718.902	8889.03
719.246	8973.78
719.589	8872.31
719.932	8815.81
720.275	8890.16
720.617	8886.32
720.96	8798.19
721.303	8875.02
721.646	8850.16
721.989	8807.68
722.331	8810.62
722.674	8786.89
723.016	8776.04
723.359	8811.29
723.701	8775.59
724.044	8713.67
724.386	8641.81
724.729	8693.1
725.071	8732.65
725.413	8726.55
725.755	8715.03
726.097	8688.36
726.439	8657.17
726.782	8667.57
727.124	8684.97
727.465	8543.05
727.807	8620.34
728.149	8623.05
728.491	8610.85
728.833	8636.38
729.175	8598.19
729.516	8585.99
729.858	8533.79
730.199	8527.69
730.541	8572.43
730.882	8552.77
731.224	8581.92
731.565	8535.82
731.906	8527.69
732.248	8554.58
732.589	8501.92
732.93	8514.35
733.271	8430.29
733.612	8538.08
733.953	8498.08
734.294	8549.83
734.635	8491.75
734.976	8515.71
735.317	8509.38
735.658	8480.68
735.999	8496.05
736.339	8476.39
736.68	8509.61
737.021	8493.34
737.361	8515.03
737.702	8508.25
738.042	8481.58
738.383	8444.07
738.723	8546.67
739.063	8491.53
739.404	8546.89
739.744	8505.77
740.084	8473.9
740.424	8523.84
740.764	8528.14
741.104	8612.2
741.444	8548.02
741.784	8527.46
742.124	8536.05
742.464	8567.91
742.804	8552.32
743.143	8607.01
743.483	8634.58
743.823	8617.17
744.162	8592.32
744.502	8637.06
744.841	8657.17
745.181	8696.27
745.52	8661.92
745.86	8787.57
746.199	8752.76
746.538	8857.17
746.877	8905.75
747.216	8866.43
747.556	8846.32
747.895	8930.39
748.234	8921.57
748.573	9030.27
748.911	9029.59
749.25	9106.88
749.589	9114.56
749.928	9255.8
750.267	9273.88
750.605	9282.47
750.944	9305.29
751.283	9378.96
751.621	9436.81
751.96	9523.14
752.298	9617.6
752.636	9757.94
752.975	9733.98
753.313	9840.87
753.651	10023.24
753.989	10010.13
754.327	10099.4
754.666	10136.46
755.004	10307.53
755.342	10462.32
755.679	10554.3
756.017	10648.76
756.355	10661.64
756.693	10853.5
757.031	11054.4
757.368	11108.18
757.706	11147.96
758.044	11273.15
758.381	11542.07
758.719	11587.27
759.056	11796.53
759.394	11973.92
759.731	11986.13
760.068	12119.68
760.405	12367.36
760.743	12385.66
761.08	12625.66
