Data from hue_26_FLMS001491_00072.txt Node
Date: Tue Feb 07 17:14:29 GMT 2017
User: dcchb
Spectrometer: FLMS00149
Trigger mode: 0
Integration Time (sec): 2.000000E-2
Scans to average: 10
Electric dark correction enabled: true
Nonlinearity correction enabled: false
Boxcar width: 0
XAxis mode: Wavelengths
Number of Pixels in Spectrum: 2048
>>>>>Begin Spectral Data<<<<<
341.393	-19.89
341.776	-19.89
342.16	-19.89
342.543	-56.72
342.927	-70.73
343.31	-80.9
343.693	-63.28
344.077	-68.92
344.46	-57.17
344.843	-43.61
345.226	-54.69
345.61	-7.91
345.993	-9.72
346.376	-24.18
346.759	6.33
347.142	14.69
347.525	42.71
347.908	66.66
348.291	60.11
348.674	122.48
349.057	97.4
349.44	127.91
349.823	124.74
350.206	145.08
350.588	192.76
350.971	204.06
351.354	221.46
351.737	238.19
352.119	252.42
352.502	273.89
352.884	281.35
353.267	275.47
353.65	280.44
354.032	291.97
354.414	299.65
354.797	308.47
355.179	329.26
355.562	308.24
355.944	344.4
356.326	340.1
356.709	339.2
357.091	342.36
357.473	326.77
357.855	347.56
358.238	337.62
358.62	353.21
359.002	350.95
359.384	336.49
359.766	350.73
360.148	335.58
360.53	321.35
360.912	343.04
361.294	350.5
361.676	341.23
362.057	331.97
362.439	322.48
362.821	341.91
363.203	327.22
363.584	350.05
363.966	341.69
364.348	325.64
364.729	306.88
365.111	340.1
365.493	319.31
365.874	311.18
366.256	326.55
366.637	312.53
367.019	309.37
367.4	315.7
367.781	324.74
368.163	319.77
368.544	305.53
368.925	313.44
369.306	337.62
369.688	327.67
370.069	315.47
370.45	310.73
370.831	315.02
371.212	324.29
371.593	324.74
371.974	307.34
372.355	313.44
372.736	327.45
373.117	297.17
373.498	316.15
373.879	303.72
374.26	301.24
374.641	318.18
375.021	297.39
375.402	308.69
375.783	316.38
376.163	334.91
376.544	310.5
376.925	332.87
377.305	334
377.686	330.61
378.066	320.44
378.447	317.05
378.827	323.83
379.208	345.3
379.588	320.67
379.968	338.52
380.349	329.03
380.729	336.71
381.109	336.26
381.489	348.24
381.87	319.54
382.25	317.51
382.63	324.96
383.01	330.16
383.39	352.08
383.77	334.68
384.15	323.16
384.53	350.73
384.91	346.21
385.29	344.17
385.67	347.11
386.049	336.49
386.429	338.3
386.809	359.99
387.189	350.73
387.568	357.5
387.948	368.8
388.328	364.96
388.707	349.82
389.087	375.36
389.466	365.64
389.846	372.19
390.225	374.23
390.605	349.6
390.984	366.77
391.363	366.77
391.743	376.71
392.122	368.13
392.501	388.92
392.881	373.78
393.26	364.06
393.639	394.34
394.018	372.87
394.397	375.36
394.776	366.54
395.155	387.11
395.534	359.54
395.913	385.75
396.292	382.14
396.671	362.7
397.05	387.79
397.429	384.85
397.808	397.96
398.186	395.7
398.565	382.14
398.944	408.35
399.323	391.85
399.701	403.83
400.08	393.21
400.458	394.11
400.837	395.02
401.215	407.9
401.594	395.47
401.972	404.06
402.351	421.68
402.729	408.58
403.107	402.02
403.486	401.12
403.864	407.22
404.242	392.53
404.62	407.22
404.999	431.18
405.377	415.58
405.755	428.01
406.133	412.64
406.511	414.23
406.889	430.72
407.267	439.31
407.645	415.58
408.023	434.34
408.401	437.28
408.779	444.73
409.156	435.47
409.534	455.81
409.912	439.76
410.29	455.58
410.667	461.68
411.045	456.03
411.422	466.2
411.8	459.42
412.178	453.77
412.555	465.07
412.933	485.64
413.31	452.42
413.687	480.44
414.065	460.55
414.442	485.86
414.819	475.92
415.197	492.64
415.574	491.74
415.951	504.85
416.328	480.44
416.705	486.09
417.082	498.29
417.46	489.7
417.837	486.31
418.214	492.19
418.591	485.64
418.967	496.71
419.344	506.65
419.721	499.65
420.098	522.92
420.475	544.17
420.852	516.37
421.228	515.69
421.605	533.77
421.982	536.94
422.358	536.71
422.735	537.84
423.111	542.36
423.488	560.44
423.864	521.12
424.241	536.03
424.617	524.28
424.994	552.08
425.37	571.06
425.746	559.31
426.123	574.22
426.499	557.05
426.875	590.72
427.251	569.48
427.627	580.78
428.003	578.97
428.379	575.8
428.756	595.24
429.132	588.46
429.507	609.7
429.883	620.1
430.259	628.91
430.635	616.25
431.011	612.87
431.387	626.88
431.763	604.96
432.138	636.82
432.514	653.09
432.89	618.29
433.265	650.15
433.641	664.16
434.016	656.48
434.392	654.9
434.767	662.58
435.143	662.81
435.518	677.72
435.894	679.53
436.269	690.15
436.644	696.93
437.02	687.89
437.395	706.87
437.77	738.06
438.145	739.87
438.52	712.52
438.895	724.27
439.271	708.23
439.646	740.55
440.021	745.29
440.395	745.29
440.77	751.62
441.145	756.36
441.52	765.86
441.895	765.86
442.27	740.09
442.645	780.32
443.019	789.36
443.394	784.61
443.769	783.93
444.143	776.25
444.518	805.18
444.892	771.73
445.267	775.35
445.641	776.02
446.016	785.52
446.39	784.16
446.764	796.14
447.139	819.19
447.513	826.19
447.887	815.8
448.262	837.27
448.636	825.74
449.01	836.36
449.384	828.23
449.758	825.06
450.132	855.34
450.506	869.58
450.88	871.84
451.254	874.1
451.628	869.81
452.002	882.69
452.376	915.23
452.75	902.35
453.123	903.03
453.497	909.35
453.871	922.69
454.244	929.47
454.618	941.22
454.992	943.03
455.365	952.07
455.739	985.74
456.112	965.17
456.486	981.67
456.859	985.74
457.232	995.91
457.606	1011.05
457.979	1003.59
458.352	1046.75
458.725	1025.28
459.099	1065.06
459.472	1067.32
459.845	1070.03
460.218	1086.98
460.591	1109.12
460.964	1083.81
461.337	1098.73
461.71	1106.86
462.083	1152.51
462.456	1151.38
462.829	1137.82
463.201	1160.65
463.574	1144.38
463.947	1198.84
464.32	1214.88
464.692	1218.27
465.065	1242
465.438	1215.79
465.81	1271.38
466.183	1277.03
466.555	1293.75
466.928	1337.59
467.3	1306.63
467.672	1305.5
468.045	1324.26
468.417	1345.73
468.789	1357.93
469.161	1399.06
469.534	1403.8
469.906	1445.39
470.278	1449.91
470.65	1482.67
471.022	1492.16
471.394	1509.56
471.766	1503.92
472.138	1559.73
472.51	1561.09
472.882	1599.73
473.253	1631.82
473.625	1634.76
473.997	1650.8
474.369	1700.97
474.74	1737.58
475.112	1760.18
475.484	1774.19
475.855	1797.01
476.227	1848.76
476.598	1893.06
476.97	1914.98
477.341	1919.27
477.713	1968.99
478.084	2002.43
478.455	2024.58
478.827	2046.27
479.198	2074.3
479.569	2149.55
479.94	2206.95
480.311	2200.39
480.682	2289.66
481.053	2319.49
481.424	2362.65
481.795	2413.95
482.166	2426.15
482.537	2511.57
482.908	2565.58
483.279	2557.67
483.65	2616.88
484.021	2679.93
484.391	2728.06
484.762	2777.78
485.133	2804.45
485.503	2851.45
485.874	2928.74
486.244	2953.37
486.615	3002.41
486.985	3040.37
487.356	3112.69
487.726	3117.88
488.097	3204.21
488.467	3229.75
488.837	3294.83
489.207	3382.06
489.578	3414.15
489.948	3481.49
490.318	3504.99
490.688	3536.4
491.058	3597.87
491.428	3658.66
491.798	3720.58
492.168	3809.17
492.538	3770.75
492.908	3791.09
493.278	3883.06
493.648	3909.95
494.017	3985.88
494.387	4034.92
494.757	4097.97
495.126	4144.52
495.496	4131.19
495.866	4153.79
496.235	4223.39
496.605	4278.31
496.974	4297.97
497.344	4328.25
497.713	4394.46
498.082	4416.16
498.452	4493.89
498.821	4499.09
499.19	4506.32
499.559	4595.59
499.928	4598.07
500.298	4683.04
500.667	4723.49
501.036	4685.98
501.405	4754.9
501.774	4724.4
502.143	4770.04
502.512	4815.69
502.88	4831.96
503.249	4883.94
503.618	4897.95
503.987	4946.08
504.356	4942.47
504.724	4961.9
505.093	5023.6
505.462	5031.28
505.83	5085.52
506.199	5132.29
506.567	5184.27
506.936	5119.19
507.304	5215.46
507.672	5272.18
508.041	5297.04
508.409	5311.95
508.777	5341.78
509.145	5386.75
509.514	5347.2
509.882	5379.29
510.25	5401.89
510.618	5472.17
510.986	5457.03
511.354	5527.99
511.722	5555.11
512.09	5605.05
512.458	5606.86
512.826	5594.66
513.193	5647.99
513.561	5658.38
513.929	5726.18
514.297	5790.36
514.664	5691.38
515.032	5734.76
515.4	5826.74
515.767	5864.48
516.135	5867.19
516.502	5886.62
516.869	5926.17
517.237	5962.1
517.604	5887.3
517.972	5945.61
518.339	6010.92
518.706	6056.56
519.073	6034.19
519.44	6045.04
519.808	6088.2
520.175	6090.91
520.542	6204.81
520.909	6181.31
521.276	6162.55
521.643	6228.99
522.009	6304.02
522.376	6308.53
522.743	6330.68
523.11	6400.28
523.477	6394.18
523.843	6460.4
524.21	6487.06
524.577	6515.76
524.943	6539.26
525.31	6589.66
525.676	6688.86
526.043	6672.37
526.409	6678.24
526.776	6750.78
527.142	6771.35
527.508	6797.34
527.874	6807.96
528.241	6894.51
528.607	6927.95
528.973	6941.29
529.339	6968.63
529.705	7021.06
530.071	7099.7
530.437	7122.07
530.803	7118.91
531.169	7244.56
531.535	7160.72
531.901	7199.36
532.267	7174.5
532.632	7245.01
532.998	7327.49
533.364	7320.49
533.73	7366.59
534.095	7462.63
534.461	7441.61
534.826	7475.96
535.192	7500.37
535.557	7565.22
535.923	7593.7
536.288	7550.31
536.653	7609.29
537.019	7595.28
537.384	7683.87
537.749	7722.73
538.114	7720.25
538.479	7707.14
538.845	7751.89
539.21	7817.42
539.575	7793.47
539.94	7882.28
540.305	7927.48
540.67	7951.66
541.034	7970.64
541.399	8004.31
541.764	8081.6
542.129	8099.22
542.494	8063.97
542.858	8139.9
543.223	8154.14
543.587	8226.9
543.952	8177.64
544.316	8232.78
544.681	8224.64
545.045	8293.79
545.41	8326.33
545.774	8357.29
546.138	8336.73
546.503	8351.19
546.867	8476.39
547.231	8508.25
547.595	8517.29
547.959	8531.53
548.324	8568.14
548.688	8589.6
549.052	8580.34
549.416	8606.78
549.779	8731.75
550.143	8699.66
550.507	8758.19
550.871	8775.36
551.235	8758.87
551.599	8863.27
551.962	8856.04
552.326	8808.36
552.689	8958.86
553.053	8841.35
553.417	8883.38
553.78	9027.33
554.143	9022.14
554.507	9064.17
554.87	9090.16
555.234	9135.35
555.597	9061.23
555.96	9203.83
556.323	9189.14
556.686	9205.63
557.05	9253.09
557.413	9369.02
557.776	9350.49
558.139	9350.71
558.502	9379.19
558.865	9431.84
559.228	9486.76
559.59	9533.53
559.953	9505.96
560.316	9541.67
560.679	9562.91
561.041	9643.36
561.404	9695.56
561.767	9748.67
562.129	9618.73
562.492	9814.43
562.854	9771.95
563.217	9787.09
563.579	9816.92
563.941	9910.93
564.304	9921.1
564.666	9976.91
565.028	9947.76
565.39	9986.18
565.753	10095.78
566.115	10086.97
566.477	10139.62
566.839	10146.63
567.201	10170.13
567.563	10181.2
567.925	10285.38
568.287	10267.98
568.648	10358.6
569.01	10344.13
569.372	10440.63
569.734	10444.02
570.095	10535.09
570.457	10581.87
570.819	10609.66
571.18	10656.67
571.542	10705.48
571.903	10714.07
572.265	10826.61
572.626	10831.35
572.987	10912.48
573.349	10978.24
573.71	10990.9
574.071	11095.3
574.432	11109.99
574.794	11279.48
575.155	11196.54
575.516	11248.07
575.877	11378.68
576.238	11407.84
576.599	11451.22
576.96	11547.27
577.32	11626.81
577.681	11719.01
578.042	11811.89
578.403	11925.79
578.763	12017.54
579.124	12188.15
579.485	12267.02
579.845	12382.5
580.206	12440.35
580.566	12551.76
580.927	12666.33
581.287	12807.12
581.648	12891.86
582.008	13091.41
582.368	13238.75
582.728	13403.26
583.089	13549.47
583.449	13676.7
583.809	13880.09
584.169	14046.86
584.529	14200.98
584.889	14512.61
585.249	14587.41
585.609	14745.6
585.969	15035.31
586.329	15203.89
586.688	15468.29
587.048	15660.38
587.408	15840.49
587.768	16034.61
588.127	16261.27
588.487	16582.16
588.846	16860.57
589.206	16991.42
589.565	17305.08
589.925	17712.75
590.284	17851.28
590.643	18146.64
591.003	18367.2
591.362	18727.64
591.721	18925.6
592.08	19268.87
592.44	19655.08
592.799	19888.52
593.158	20082.64
593.517	20485.34
593.876	20732.34
594.235	20975.27
594.593	21277.18
594.952	21684.85
595.311	21855.02
595.67	22186.08
596.029	22712.4
596.387	23041.2
596.746	23371.36
597.104	23492.94
597.463	23701.3
597.822	24160.95
598.18	24376.53
598.538	24633.02
598.897	25161.37
599.255	25196.63
599.613	25819.66
599.972	25969.03
600.33	26339.65
600.688	26432.53
601.046	26913.42
601.404	27277.02
601.762	27370.58
602.12	27870.91
602.478	28084.69
602.836	28262.08
603.194	28529.19
603.552	28933.02
603.91	29017.77
604.268	29525.78
604.625	29561.93
604.983	30032.66
605.341	30203.27
605.698	30537.95
606.056	30821.79
606.413	30953.54
606.771	31268.1
607.128	31447.53
607.485	31775.21
607.843	31883.91
608.2	32387.85
608.557	32644.57
608.914	32752.36
609.272	33036.42
609.629	33311.89
609.986	33723.63
610.343	33711.66
610.7	34156.62
611.057	34244.75
611.414	34438.87
611.771	34707.34
612.127	34886.77
612.484	35140.09
612.841	35393.19
613.198	35339.18
613.554	35692.85
613.911	35941.65
614.267	36205.15
614.624	36167.86
614.98	36541.64
615.337	36685.59
615.693	36737.79
616.05	36916.32
616.406	37383.2
616.762	37397.21
617.118	37448.51
617.475	37586.58
617.831	37744.54
618.187	37983.18
618.543	38016.63
618.899	38535.48
619.255	38444.64
619.611	38656.84
619.967	38787.45
620.323	38884.63
620.678	38828.58
621.034	39012.76
621.39	39136.15
621.746	39158.52
622.101	39641.44
622.457	39531.16
622.812	39654.32
623.168	39745.4
623.523	39937.03
623.879	39970.93
624.234	39945.39
624.589	40210.02
624.945	40275.78
625.3	40374.08
625.655	40427.19
626.01	40530.91
626.365	40541.53
626.72	40693.62
627.075	40621.3
627.43	40704.69
627.785	40568.65
628.14	40925.7
628.495	40929.09
628.85	40959.15
629.205	40937.91
629.559	41159.14
629.914	41232.81
630.269	41128.86
630.623	41191.69
630.978	41186.71
631.332	41284.79
631.687	41504.67
632.041	41131.35
632.396	41377.9
632.75	41349.2
633.104	41405.69
633.459	41189.2
633.813	41285.02
634.167	41275.98
634.521	41449.53
634.875	41431.68
635.229	41378.8
635.583	41163.44
635.937	41366.82
636.291	41211.35
636.645	41245.02
636.999	41281.17
637.352	41367.5
637.706	41251.12
638.06	41425.58
638.413	41311.46
638.767	41278.01
639.121	41405.01
639.474	41212.7
639.828	41393.49
640.181	41200.72
640.534	41392.36
640.888	41256.32
641.241	41097
641.594	41155.53
641.947	41264.9
642.301	41197.56
642.654	41258.8
643.007	41254.73
643.36	41161.86
643.713	41188.75
644.066	41277.78
644.419	41078.92
644.771	40842.09
645.124	40504.92
645.477	40517.13
645.83	40160.53
646.182	40061.32
646.535	39971.6
646.888	40221.99
647.24	40004.6
647.593	40027.65
647.945	40141.77
648.298	40019.06
648.65	39799.86
649.002	39809.8
649.355	39962.34
649.707	39947.42
650.059	40147.87
650.411	40619.72
650.763	40607.97
651.115	40968.87
651.467	40920.05
651.819	40870.34
652.171	40710.57
652.523	40703.11
652.875	40776.78
653.227	40637.58
653.578	40852.71
653.93	40701.08
654.282	40544.92
654.633	40538.6
654.985	40575.88
655.337	40583.34
655.688	40746.73
656.039	40844.58
656.391	40473.96
656.742	40477.81
657.094	40542.44
657.445	40771.58
657.796	40489.33
658.147	40586.73
658.498	40518.03
658.849	40664.92
659.2	40433.06
659.551	40394.19
659.902	40699.72
660.253	40414.76
660.604	40580.63
660.955	40301.99
661.306	40558.93
661.656	40423.12
662.007	40420.63
662.358	40451.82
662.708	40471.7
663.059	40480.74
663.409	40201.2
663.76	40513.06
664.11	40357.81
664.461	40511.48
664.811	40475.55
665.161	40567.75
665.511	40485.04
665.862	40255.21
666.212	40402.1
666.562	40507.64
666.912	40407.98
667.262	40537.69
667.612	40320.75
667.962	40442.1
668.312	40370.69
668.662	40498.37
669.011	40420.63
669.361	40251.37
669.711	40309.67
670.06	40210.92
670.41	40295.21
670.76	40266.51
671.109	40380.18
671.459	40287.98
671.808	40061.32
672.157	40264.48
672.507	39972.73
672.856	40057.93
673.205	40023.13
673.554	40074.2
673.904	40077.36
674.253	40214.54
674.602	40022.9
674.951	39495.46
675.3	39370.94
675.649	39911.49
675.998	39903.81
676.346	40031.49
676.695	40056.12
677.044	39769.8
677.393	40030.36
677.741	39951.04
678.09	39850.7
678.438	39767.32
678.787	39809.8
679.135	39700.65
679.484	39572.74
679.832	39718.28
680.181	39539.53
680.529	39602.35
680.877	39536.14
681.225	39559.41
681.573	39671.27
681.922	39450.49
682.27	39239.42
682.618	39268.8
682.966	39191.96
683.314	39299.53
683.661	39148.12
684.009	38917.17
684.357	39029.93
684.705	38870.62
685.053	38966.43
685.4	38870.16
685.748	38768.25
686.095	38750.62
686.443	38501.81
686.79	38503.85
687.138	38708.81
687.485	38559.21
687.832	38340.91
688.18	38521.25
688.527	38268.37
688.874	38402.15
689.221	38187.24
689.568	38033.58
689.915	37958.32
690.262	38066.12
690.609	37900.02
690.956	37687.14
691.303	37641.5
691.65	37546.13
691.997	37600.14
692.344	37400.6
692.69	37373.03
693.037	37264.78
693.383	37166.71
693.73	37326.25
694.077	36972.14
694.423	37059.82
694.769	36764.01
695.116	36783.67
695.462	36722.88
695.808	36663.44
696.155	36744.57
696.501	36423.22
696.847	36465.93
697.193	36079.28
697.539	36335.32
697.885	36017.13
698.231	35905.72
698.577	36041.54
698.923	35997.02
699.269	35798.83
699.614	35658.05
699.96	35580.53
700.306	35533.98
700.651	35358.17
700.997	35293.31
701.342	35303.25
701.688	35276.13
702.033	35083.15
702.379	34935.58
702.724	35039.08
703.069	35112.07
703.415	34667.79
703.76	34548.92
704.105	34740.33
704.45	34518.41
704.795	34483.16
705.14	34345.99
705.485	34261.25
705.83	34071.42
706.175	34130.63
706.52	34131.31
706.865	34021.03
707.209	33949.62
707.554	33828.04
707.899	33933.57
708.243	33626.01
708.588	33606.57
708.932	33432.12
709.277	33373.81
709.621	33422.4
709.966	33304.21
710.31	33274.83
710.654	33039.13
710.998	33058.34
711.342	33066.48
711.687	32972.01
712.031	32920.94
712.375	32742.42
712.719	32778.12
713.063	32694.73
713.407	32764.34
713.75	32479.37
714.094	32593.72
714.438	32497.9
714.782	32420.62
715.125	32210.23
715.469	32328.42
715.812	32083.68
716.156	32008.65
716.499	31994.86
716.843	32052.49
717.186	31829.9
717.53	32093.17
717.873	31944.47
718.216	31877.13
718.559	31803.01
718.902	31558.04
719.246	31687.53
719.589	31594.65
719.932	31462.68
720.275	31422.9
720.617	31381.1
720.96	31309.69
721.303	31218.61
721.646	31342.23
721.989	31118.5
722.331	31142.23
722.674	31060.2
723.016	31125.96
723.359	31018.62
723.701	31078.96
724.044	30914.44
724.386	30649.59
724.729	30947.21
725.071	30775.01
725.413	30815.46
725.755	30737.95
726.097	30721
726.439	30467.9
726.782	30501.12
727.124	30739.08
727.465	30408.24
727.807	30354.68
728.149	30441.91
728.491	30318.98
728.833	30361.24
729.175	30269.49
729.516	30072.43
729.858	30175.48
730.199	30166.44
730.541	30083.95
730.882	29946.56
731.224	30069.49
731.565	29780.46
731.906	29865.66
732.248	29937.97
732.589	29735.94
732.93	29684.64
733.271	29618.2
733.612	29749.95
733.953	29615.04
734.294	29602.39
734.635	29515.16
734.976	29579.34
735.317	29466.34
735.658	29319.68
735.999	29407.36
736.339	29312.45
736.68	29349.51
737.021	29154.71
737.361	29145.9
737.702	29366.01
738.042	29203.53
738.383	29125.79
738.723	29058.44
739.063	29062.06
739.404	29093.47
739.744	28978.22
740.084	28939.58
740.424	28991.55
740.764	28871.78
741.104	28969.18
741.444	28736.87
741.784	28750.43
742.124	28704.56
742.464	28576.88
742.804	28643.77
743.143	28629.53
743.483	28623.2
743.823	28515.63
744.162	28393.38
744.502	28444.9
744.841	28376.88
745.181	28517.44
745.52	28303.89
745.86	28370.1
746.199	28337.11
746.538	28235.64
746.877	28211.01
747.216	28252.59
747.556	28120.39
747.895	28205.59
748.234	27957.46
748.573	28028.42
748.911	28044.23
749.25	27944.35
749.589	27818.25
749.928	27959.49
750.267	27867.29
750.605	27776.9
750.944	27700.74
751.283	27655.54
751.621	27676.33
751.96	27538.48
752.298	27515.21
752.636	27593.62
752.975	27389.56
753.313	27359.73
753.651	27348.43
753.989	27309.56
754.327	27274.31
754.666	27127.42
755.004	27163.13
755.342	27161.32
755.679	27007.65
756.017	27014.66
756.355	27070.93
756.693	26976.01
757.031	26962.45
757.368	26822.57
757.706	26727.66
758.044	26722.24
758.381	26697.83
758.719	26706.87
759.056	26678.39
759.394	26565.63
