Data from hue_340_FLMS001491_40.txt Node
Date: Mon Feb 06 15:43:03 GMT 2017
User: dcchb
Spectrometer: FLMS00149
Trigger mode: 0
Integration Time (sec): 2.000000E-2
Scans to average: 10
Electric dark correction enabled: true
Nonlinearity correction enabled: false
Boxcar width: 0
XAxis mode: Wavelengths
Number of Pixels in Spectrum: 2048
>>>>>Begin Spectral Data<<<<<
341.393	-0.35
341.776	-0.35
342.16	-0.35
342.543	-36.51
342.927	-74.25
343.31	-50.75
343.693	-68.37
344.077	-59.56
344.46	-51.88
344.843	-57.3
345.226	-57.3
345.61	-32.89
345.993	-29.5
346.376	-8.26
346.759	-11.65
347.142	39.87
347.525	48.01
347.908	54.79
348.291	67.89
348.674	86.65
349.057	130.26
349.44	161.9
349.823	142.02
350.206	161.22
350.588	201
350.971	206.87
351.354	226.53
351.737	238.06
352.119	242.8
352.502	265.4
352.884	269.92
353.267	291.16
353.65	305.4
354.032	283.71
354.414	311.5
354.797	313.76
355.179	324.84
355.562	322.35
355.944	321.45
356.326	332.97
356.709	336.14
357.091	340.43
357.473	345.63
357.855	332.07
358.238	330.03
358.62	315.12
359.002	319.19
359.384	347.21
359.766	333.65
360.148	322.58
360.53	330.94
360.912	339.3
361.294	333.2
361.676	335.23
362.057	311.05
362.439	323.71
362.821	336.14
363.203	325.06
363.584	297.72
363.966	323.93
364.348	319.86
364.729	317.6
365.111	322.35
365.493	303.59
365.874	297.27
366.256	308.57
366.637	317.6
367.019	305.18
367.4	315.57
367.781	321.22
368.163	297.72
368.544	300.2
368.925	313.99
369.306	304.27
369.688	308.34
370.069	308.79
370.45	319.64
370.831	315.8
371.212	294.1
371.593	306.31
371.974	292.97
372.355	308.11
372.736	306.53
373.117	307.21
373.498	316.93
373.879	309.02
374.26	300.43
374.641	322.35
375.021	291.84
375.402	315.57
375.783	313.31
376.163	339.75
376.544	309.24
376.925	315.34
377.305	304.5
377.686	333.2
378.066	324.84
378.447	326.42
378.827	330.26
379.208	317.38
379.588	328.68
379.968	310.6
380.349	337.27
380.729	328.9
381.109	332.75
381.489	347.21
381.87	334.55
382.25	312.41
382.63	345.17
383.01	339.3
383.39	323.93
383.77	345.4
384.15	348.79
384.53	335.68
384.91	350.15
385.29	326.87
385.67	321.67
386.049	340.65
386.429	332.52
386.809	371.61
387.189	347.66
387.568	339.98
387.948	340.65
388.328	351.28
388.707	353.31
389.087	344.95
389.466	336.14
389.846	358.28
390.225	337.72
390.605	352.86
390.984	351.73
391.363	360.32
391.743	338.17
392.122	354.89
392.501	354.21
392.881	357.83
393.26	376.59
393.639	371.16
394.018	356.93
394.397	338.4
394.776	364.84
395.155	369.35
395.534	342.69
395.913	356.25
396.292	361.22
396.671	390.37
397.05	353.99
397.429	356.7
397.808	346.3
398.186	383.59
398.565	370.03
398.944	389.92
399.323	362.58
399.701	370.03
400.08	374.33
400.458	367.32
400.837	384.27
401.215	408.68
401.594	384.95
401.972	378.85
402.351	389.02
402.729	390.6
403.107	400.77
403.486	405.96
403.864	382.46
404.242	387.21
404.62	371.39
404.999	385.63
405.377	425.62
405.755	416.59
406.133	420.43
406.511	388.34
406.889	427.21
407.267	406.42
407.645	430.82
408.023	400.31
408.401	426.75
408.779	417.72
409.156	426.75
409.534	417.94
409.912	450.03
410.29	440.54
410.667	432.63
411.045	444.38
411.422	450.26
411.8	453.42
412.178	475.79
412.555	451.84
412.933	454.32
413.31	487.09
413.687	481.22
414.065	479.86
414.442	488.45
414.819	486.41
415.197	517.15
415.574	483.02
415.951	492.52
416.328	493.19
416.705	508.33
417.082	493.87
417.46	516.7
417.837	495.91
418.214	506.3
418.591	518.96
418.967	545.62
419.344	532.51
419.721	537.49
420.098	544.49
420.475	535.23
420.852	545.62
421.228	537.26
421.605	553.53
421.982	565.28
422.358	549.24
422.735	575.68
423.111	551.5
423.488	575
423.864	562.12
424.241	590.82
424.617	587.88
424.994	579.74
425.37	600.99
425.746	635.34
426.123	605.73
426.499	603.92
426.875	621.78
427.251	606.41
427.627	624.49
428.003	641.21
428.379	625.62
428.756	636.24
429.132	633.98
429.507	645.28
429.883	680.31
430.259	692.96
430.635	659.06
431.011	671.49
431.387	693.41
431.763	695.9
432.138	686.41
432.514	690.48
432.89	699.74
433.265	718.05
433.641	716.92
434.016	705.84
434.392	730.48
434.767	747.2
435.143	729.8
435.518	744.49
435.894	761.66
436.269	765.5
436.644	759.4
437.02	787.65
437.395	787.2
437.77	798.27
438.145	780.64
438.52	786.52
438.895	782
439.271	819.06
439.646	825.16
440.021	822.22
440.395	834.2
440.77	814.99
441.145	807.31
441.52	836.91
441.895	837.14
442.27	839.85
442.645	846.18
443.019	873.97
443.394	859.06
443.769	854.54
444.143	848.66
444.518	874.88
444.892	885.73
445.267	871.94
445.641	866.74
446.016	902.9
446.39	878.72
446.764	882.79
447.139	895.67
447.513	892.5
447.887	912.17
448.262	895.22
448.636	915.33
449.01	930.24
449.384	937.7
449.758	951.26
450.132	916.01
450.506	922.33
450.88	926.18
451.254	958.27
451.628	954.2
452.002	969.11
452.376	958.94
452.75	955.78
453.123	991.94
453.497	974.99
453.871	981.54
454.244	982.9
454.618	1009.11
454.992	1039.62
455.365	1017.7
455.739	1003.91
456.112	1024.93
456.486	1036.68
456.859	1049.56
457.232	1047.08
457.606	1020.41
457.979	1057.7
458.352	1063.57
458.725	1082.78
459.099	1087.08
459.472	1090.69
459.845	1115.55
460.218	1127.53
460.591	1120.52
460.964	1136.79
461.337	1135.44
461.71	1160.75
462.083	1157.81
462.456	1184.47
462.829	1188.77
463.201	1192.38
463.574	1193.06
463.947	1222.67
464.32	1225.83
464.692	1254.53
465.065	1234.64
465.438	1270.8
465.81	1248.2
466.183	1285.26
466.555	1317.58
466.928	1308.31
467.3	1323.68
467.672	1322.78
468.045	1343.34
468.417	1352.83
468.789	1373.4
469.161	1416.33
469.534	1412.94
469.906	1426.28
470.278	1428.31
470.65	1410.23
471.022	1438.93
471.394	1492.49
471.766	1480.06
472.138	1518.03
472.51	1542.43
472.882	1552.37
473.253	1574.75
473.625	1576.55
473.997	1604.8
474.369	1617.46
474.74	1630.34
475.112	1655.42
475.484	1680.28
475.855	1707.62
476.227	1703.56
476.598	1750.11
476.97	1775.65
477.341	1811.58
477.713	1793.72
478.084	1829.88
478.455	1854.97
478.827	1864.23
479.198	1909.88
479.569	1922.99
479.94	1964.79
480.311	2026.49
480.682	2045.24
481.053	2098.8
481.424	2094.96
481.795	2146.48
482.166	2157.1
482.537	2149.19
482.908	2202.3
483.279	2232.58
483.65	2234.39
484.021	2305.35
484.391	2284.33
484.762	2346.25
485.133	2365.69
485.503	2386.25
485.874	2445.68
486.244	2461.73
486.615	2486.14
486.985	2511.9
487.356	2547.15
487.726	2550.09
488.097	2649.97
488.467	2636.19
488.837	2686.13
489.207	2711.44
489.578	2744.89
489.948	2771.33
490.318	2774.04
490.688	2835.05
491.058	2840.25
491.428	2870.76
491.798	2901.27
492.168	2946.69
492.538	2965.44
492.908	3015.61
493.278	3025.1
493.648	3052.22
494.017	3072.79
494.387	3077.53
494.757	3129.28
495.126	3160.24
495.496	3145.55
495.866	3166.12
496.235	3224.87
496.605	3237.3
496.974	3246.34
497.344	3268.94
497.713	3300.8
498.082	3352.78
498.452	3339.67
498.821	3371.31
499.19	3370.41
499.559	3401.82
499.928	3457.64
500.298	3461.7
500.667	3405.21
501.036	3472.32
501.405	3561.14
501.774	3517.52
502.143	3549.84
502.512	3521.14
502.88	3554.36
503.249	3560.68
503.618	3583.73
503.987	3558.88
504.356	3629.61
504.724	3650.4
505.093	3642.04
505.462	3662.38
505.83	3691.3
506.199	3749.6
506.567	3773.56
506.936	3740.34
507.304	3800
507.672	3795.25
508.041	3793.67
508.409	3794.12
508.777	3806.55
509.145	3862.14
509.514	3882.71
509.882	3847.23
510.25	3844.97
510.618	3885.65
510.986	3909.6
511.354	3944.18
511.722	3934.01
512.09	4029.15
512.458	3959.77
512.826	3979.2
513.193	4001.12
513.561	3982.82
513.929	4001.35
514.297	4046.77
514.664	4071.18
515.032	4042.93
515.4	4090.39
515.767	4093.78
516.135	4191.85
516.502	4090.16
516.869	4175.58
517.237	4205.19
517.604	4146.66
517.972	4145.75
518.339	4181.46
518.706	4206.09
519.073	4228.46
519.44	4225.52
519.808	4279.53
520.175	4260.78
520.542	4282.47
520.909	4323.38
521.276	4259.2
521.643	4321.12
522.009	4369.02
522.376	4379.87
522.743	4351.62
523.11	4477.5
523.477	4453.32
523.843	4457.16
524.21	4497.16
524.577	4522.92
524.943	4521.34
525.31	4541.9
525.676	4595.91
526.043	4605.4
526.409	4569.47
526.776	4637.27
527.142	4656.93
527.508	4670.26
527.874	4693.76
528.241	4684.27
528.607	4720.2
528.973	4746.87
529.339	4771.95
529.705	4801.78
530.071	4838.16
530.437	4834.55
530.803	4857.82
531.169	4893.3
531.535	4892.63
531.901	4891.27
532.267	4950.03
532.632	4958.39
532.998	4966.52
533.364	5003.13
533.73	5020.53
534.095	5067.76
534.461	5085.84
534.826	5105.95
535.192	5153.18
535.557	5176.69
535.923	5148.21
536.288	5200.87
536.653	5167.87
537.019	5165.16
537.384	5239.96
537.749	5280.41
538.114	5224.14
538.479	5288.55
538.845	5253.52
539.21	5282.9
539.575	5365.38
539.94	5382.33
540.305	5371.71
540.67	5410.13
541.034	5393.86
541.399	5421.43
541.764	5439.5
542.129	5514.3
542.494	5492.16
542.858	5519.73
543.223	5533.29
543.587	5600.18
543.952	5554.3
544.316	5563.79
544.681	5666.84
545.045	5645.6
545.41	5708.42
545.774	5726.28
546.138	5686.28
546.503	5751.36
546.867	5706.62
547.231	5752.94
547.595	5794.97
547.959	5844.24
548.324	5847.63
548.688	5842.43
549.052	5882.43
549.416	5865.03
549.779	5885.82
550.143	5922.2
550.507	5898.25
550.871	5957.91
551.235	6004.23
551.599	6031.8
551.962	6036.1
552.326	6029.77
552.689	6021.18
553.053	6038.58
553.417	6079.26
553.78	6108.41
554.143	6111.35
554.507	6194.06
554.87	6139.6
555.234	6181.18
555.597	6186.6
555.96	6248.07
556.323	6261.63
556.686	6217.56
557.05	6318.58
557.413	6298.24
557.776	6340.05
558.139	6369.42
558.502	6316.77
558.865	6391.8
559.228	6392.7
559.59	6420.27
559.953	6420.95
560.316	6491.68
560.679	6539.14
561.041	6487.16
561.404	6563.99
561.767	6524.9
562.129	6568.74
562.492	6550.21
562.854	6572.36
563.217	6634.05
563.579	6669.75
563.941	6657.78
564.304	6720.6
564.666	6719.92
565.028	6794.72
565.39	6779.81
565.753	6785.68
566.115	6822.52
566.477	6806.02
566.839	6879.92
567.201	6893.93
567.563	6913.14
567.925	6949.52
568.287	6944.78
568.648	6998.11
569.01	6998.78
569.372	7096.18
569.734	7003.76
570.095	7094.15
570.457	7107.71
570.819	7168.05
571.18	7188.16
571.542	7212.56
571.903	7166.24
572.265	7267.25
572.626	7267.48
572.987	7367.36
573.349	7415.27
573.71	7433.12
574.071	7403.29
574.432	7479
574.794	7521.26
575.155	7690.97
575.516	7609.16
575.877	7691.42
576.238	7751.31
576.599	7821.59
576.96	7901.59
577.32	7931.87
577.681	8044.63
578.042	8133.9
578.403	8177.96
578.763	8237.17
579.124	8270.84
579.485	8433.55
579.845	8549.7
580.206	8560.1
580.566	8618.63
580.927	8780.21
581.287	8925.97
581.648	8974.33
582.008	9170.93
582.368	9229.01
582.728	9372.28
583.089	9502.22
583.449	9612.28
583.809	9861.99
584.169	9922.55
584.529	10030.8
584.889	10356.66
585.249	10443.21
585.609	10546.71
585.969	10765.24
586.329	10982.41
586.688	11174.27
587.048	11383.98
587.408	11479.12
587.768	11683.41
588.127	11875.72
588.487	12061.25
588.846	12371.07
589.206	12568.81
589.565	12746.2
589.925	13018.97
590.284	13229.58
590.643	13452.85
591.003	13825.5
591.362	13979.17
591.721	14236.56
592.08	14502.09
592.44	14698.7
592.799	15032.02
593.158	15299.81
593.517	15545.9
593.876	15740.93
594.235	16082.61
594.593	16344.53
594.952	16626.78
595.311	16871.29
595.67	17194.68
596.029	17537.49
596.387	17834.88
596.746	18179.96
597.104	18203.46
597.463	18517.58
597.822	18833.05
598.18	19027.17
598.538	19299.93
598.897	19723.42
599.255	19786.25
599.613	20383.07
599.972	20473.01
600.33	20747.35
600.688	20978.76
601.046	21223.27
601.404	21587.78
601.762	21858.51
602.12	22123.13
602.478	22439.06
602.836	22621.65
603.194	22739.61
603.552	23074.52
603.91	23179.38
604.268	23563.55
604.625	23801.73
604.983	24050.99
605.341	24206.02
605.698	24489.17
606.056	24808.94
606.413	25000.35
606.771	25180.23
607.128	25559.65
607.485	25568.24
607.843	25883.71
608.2	26227.66
608.557	26429.91
608.914	26487.76
609.272	26770.47
609.629	27110.8
609.986	27254.3
610.343	27325.93
610.7	27777
611.057	27730.67
611.414	27921.85
611.771	28215.18
612.127	28409.97
612.484	28576.75
612.841	28848.61
613.198	28934.03
613.554	29112.78
613.911	29306.22
614.267	29442.49
614.624	29523.16
614.98	29786.21
615.337	30039.99
615.693	30221.23
616.05	30311.39
616.406	30553.42
616.762	30594.55
617.118	30583.02
617.475	30867.08
617.831	31082.45
618.187	31204.48
618.543	31255.55
618.899	31628.87
619.255	31576.67
619.611	31688.31
619.967	31938.92
620.323	32032.48
620.678	32049.43
621.034	32102.76
621.39	32249.42
621.746	32223.43
622.101	32731.67
622.457	32508.85
622.812	32632.69
623.168	32887.6
623.523	32870.2
623.879	33171.88
624.234	32956.75
624.589	33187.25
624.945	33217.53
625.3	33454.36
625.655	33366.45
626.01	33505.88
626.365	33547.24
626.72	33517.18
627.075	33704.98
627.43	33614.13
627.785	33526.67
628.14	33780.91
628.495	33778.87
628.85	33730.74
629.205	33604.41
629.559	33998.07
629.914	33849.6
630.269	33879.66
630.623	34010.05
630.978	33933.44
631.332	34070.16
631.687	34189.26
632.041	34094.34
632.396	34250.05
632.75	34139.54
633.104	34191.06
633.459	34030.39
633.813	34233.1
634.167	34171.4
634.521	34240.1
634.875	34344.05
635.229	34379.08
635.583	34160.33
635.937	34325.75
636.291	34212.08
636.645	34235.58
636.999	34179.99
637.352	34143.61
637.706	34025.64
638.06	34370.04
638.413	34203.49
638.767	34262.25
639.121	34167.79
639.474	34025.87
639.828	34113.78
640.181	34168.01
640.534	34265.64
640.888	34050.5
641.241	34135.47
641.594	34101.12
641.947	34221.57
642.301	34164.85
642.654	34183.61
643.007	34140.22
643.36	34201.23
643.713	34055.25
644.066	34147.9
644.419	33927.79
644.771	33780
645.124	33643.06
645.477	33450.52
645.83	33241.26
646.182	33195.61
646.535	33056.4
646.888	33208.27
647.24	32926.46
647.593	33047.82
647.945	33003.07
648.298	33041.94
648.65	32969.85
649.002	32789.52
649.355	33073.35
649.707	32933.47
650.059	33018.67
650.411	33436.51
650.763	33565.09
651.115	33810.74
651.467	33680.34
651.819	33762.6
652.171	33604.86
652.523	33600.8
652.875	33667.24
653.227	33375.72
653.578	33767.57
653.93	33636.95
654.282	33516.28
654.633	33494.59
654.985	33538.2
655.337	33416.4
655.688	33502.72
656.039	33723.05
656.391	33322.16
656.742	33508.37
657.094	33402.61
657.445	33566.22
657.796	33504.53
658.147	33458.65
658.498	33413.46
658.849	33199.23
659.2	33465.43
659.551	33482.83
659.902	33560.8
660.253	33435.83
660.604	33556.05
660.955	33262.73
661.306	33426.34
661.656	33302.05
662.007	33434.02
662.358	33279.9
662.708	33396.73
663.059	33421.37
663.409	33109.96
663.76	33534.81
664.11	33301.37
664.461	33333.91
664.811	33271.31
665.161	33213.91
665.511	33117.42
665.862	33217.53
666.212	33329.62
666.562	33244.87
666.912	33307.92
667.262	33256.63
667.612	33120.81
667.962	33401.25
668.312	33175.05
668.662	33381.82
669.011	33239.68
669.361	33212.11
669.711	33130.3
670.06	33191.77
670.41	33126.91
670.76	33086.91
671.109	33249.17
671.459	33100.25
671.808	33083.07
672.157	33230.41
672.507	32973.47
672.856	33121.04
673.205	33009.63
673.554	33152.45
673.904	32915.17
674.253	33241.48
674.602	32897.54
674.951	32601.73
675.3	32337.78
675.649	33007.14
675.998	32887.37
676.346	32947.03
676.695	33058.21
677.044	32681.5
677.393	32720.59
677.741	32943.19
678.09	32784.32
678.438	32826.58
678.787	32810.76
679.135	32701.84
679.484	32626.59
679.832	32722.85
680.181	32545.23
680.529	32590.65
680.877	32453.93
681.225	32525.57
681.573	32704.78
681.922	32412.13
682.27	32424.78
682.618	32382.52
682.966	32225.24
683.314	32260.95
683.661	32278.8
684.009	32105.24
684.357	32049.2
684.705	31891.69
685.053	31999.94
685.4	31912.93
685.748	31771.01
686.095	31850.11
686.443	31776.66
686.79	31738.02
687.138	31801.75
687.485	31746.61
687.832	31692.82
688.18	31575.77
688.527	31483.79
688.874	31447.41
689.221	31413.51
689.568	31227.3
689.915	31272.27
690.262	31178.71
690.609	31187.08
690.956	31004.48
691.303	30901.43
691.65	30960.19
691.997	30804.71
692.344	30653.3
692.69	30700.08
693.037	30804.26
693.383	30447.89
693.73	30662.34
694.077	30334.22
694.423	30309.13
694.769	30219.19
695.116	30252.86
695.462	30163.6
695.808	29929.48
696.155	30214.9
696.501	29860.33
696.847	29865.3
697.193	29705.53
697.539	29835.7
697.885	29489.94
698.231	29452.21
698.577	29357.52
698.923	29353.45
699.269	29221.7
699.614	29083.4
699.96	29069.39
700.306	29082.72
700.651	28907.14
700.997	28897.87
701.342	28957.98
701.688	28852.45
702.033	28784.65
702.379	28862.62
702.724	28577.2
703.069	28675.28
703.415	28461.95
703.76	28490.42
704.105	28348.96
704.45	28250.43
704.795	28149.64
705.14	28084.33
705.485	28002.53
705.83	27907.16
706.175	27971.57
706.52	27912.36
706.865	27785.81
707.209	27822.19
707.554	27753.04
707.899	27701.07
708.243	27599.6
708.588	27532.93
708.932	27274.18
709.277	27348.31
709.621	27337.69
709.966	27219.95
710.31	27276.9
710.654	26970.92
710.998	27040.74
711.342	27026.51
711.687	26973.63
712.031	26901.76
712.375	26859.73
712.719	26779.51
713.063	26718.49
713.407	26840.52
713.75	26510.14
714.094	26662.45
714.438	26441.44
714.782	26593.3
715.125	26365.51
715.469	26499.74
715.812	26369.58
716.156	26161.9
716.499	26129.13
716.843	26222.91
717.186	25980.21
717.53	26205.74
717.873	26099.53
718.216	25980.43
718.559	25947.44
718.902	25747.44
719.246	25931.85
719.589	25762.59
719.932	25781.79
720.275	25702.02
720.617	25668.12
720.96	25626.54
721.303	25560.33
721.646	25567.11
721.989	25443.27
722.331	25511.97
722.674	25346.55
723.016	25495.7
723.359	25282.37
723.701	25308.36
724.044	25195.14
724.386	25147.91
724.729	25249.83
725.071	25093.68
725.413	25094.81
725.755	25167.35
726.097	24969.39
726.439	24881.93
726.782	24863.63
727.124	24981.81
727.465	24834.47
727.807	24863.63
728.149	24691.2
728.491	24677.42
728.833	24733.46
729.175	24524.2
729.516	24651.65
729.858	24552
730.199	24556.97
730.541	24560.13
730.882	24528.04
731.224	24488.04
731.565	24398.78
731.906	24356.97
732.248	24444.65
732.589	24300.48
732.93	24220.48
733.271	24266.58
733.612	24285.79
733.953	24212.12
734.294	24135.28
734.635	24102.52
734.976	24129.41
735.317	24077.88
735.658	24003.76
735.999	24030.65
736.339	23996.08
736.68	24053.25
737.021	23901.17
737.361	23949.75
737.702	23973.71
738.042	23888.28
738.383	23874.5
738.723	23814.16
739.063	23722.64
739.404	23765.8
739.744	23657.1
740.084	23597.67
740.424	23571.68
740.764	23577.56
741.104	23646.93
741.444	23408.3
741.784	23450.78
742.124	23455.3
742.464	23391.35
742.804	23347.51
743.143	23310.22
743.483	23320.62
743.823	23189.77
744.162	23182.31
744.502	23335.08
744.841	23134.86
745.181	23267.96
745.52	23130.79
745.86	23118.14
746.199	23039.27
746.538	22875.88
746.877	23045.37
747.216	23015.54
747.556	22931.93
747.895	22943.68
748.234	22846.28
748.573	22762.66
748.911	22819.39
749.25	22810.8
749.589	22719.73
749.928	22769.22
750.267	22745.26
750.605	22707.52
750.944	22634.53
751.283	22559.73
751.621	22609
751.96	22455.78
752.298	22584.82
752.636	22436.57
752.975	22396.57
753.313	22314.31
753.651	22430.47
753.989	22231.6
754.327	22162.91
754.666	22062.34
755.004	22121.33
755.342	22078.84
755.679	21984.61
756.017	21971.5
756.355	21992.51
756.693	21864.38
757.031	21903.03
757.368	21700.55
757.706	21720.88
758.044	21754.78
758.381	21715.01
758.719	21524.5
759.056	21614.67
759.394	21496.93
759.731	21499.65
760.068	21431.4
760.405	21235.47
760.743	21197.28
761.08	21270.05
761.417	21131.52
