Data from hue_34_FLMS001491_00007.txt Node
Date: Tue Feb 07 17:25:08 GMT 2017
User: dcchb
Spectrometer: FLMS00149
Trigger mode: 0
Integration Time (sec): 2.000000E-2
Scans to average: 10
Electric dark correction enabled: true
Nonlinearity correction enabled: false
Boxcar width: 0
XAxis mode: Wavelengths
Number of Pixels in Spectrum: 2048
>>>>>Begin Spectral Data<<<<<
341.393	-23.12
341.776	-23.12
342.16	-23.12
342.543	-90.24
342.927	-88.88
343.31	-55.66
343.693	-66.74
344.077	-77.58
344.46	-72.61
344.843	-59.73
345.226	-30.8
345.61	-20.18
345.993	-19.96
346.376	9.19
346.759	-9.11
347.142	22.98
347.525	43.77
347.908	47.39
348.291	94.84
348.674	103.66
349.057	90.55
349.44	111.56
349.823	141.17
350.206	152.24
350.588	205.8
350.971	215.74
351.354	219.81
351.737	230.88
352.119	285.12
352.502	270.2
352.884	256.87
353.267	294.38
353.65	271.79
354.032	314.05
354.414	300.94
354.797	322.86
355.179	320.6
355.562	312.69
355.944	313.37
356.326	333.03
356.709	360.15
357.091	345.91
357.473	329.19
357.855	364.21
358.238	347.49
358.62	350.88
359.002	356.3
359.384	341.16
359.766	361.73
360.148	338.23
360.53	320.15
360.912	341.39
361.294	330.54
361.676	338.68
362.057	334.16
362.439	334.61
362.821	354.5
363.203	333.03
363.584	325.12
363.966	338
364.348	331.67
364.729	336.87
365.111	318.57
365.493	322.63
365.874	318.34
366.256	314.5
366.637	339.58
367.019	316.76
367.4	314.27
367.781	312.69
368.163	342.52
368.544	309.53
368.925	313.37
369.306	324.89
369.688	304.55
370.069	315.85
370.45	320.82
370.831	307.72
371.212	327.6
371.593	333.71
371.974	305.91
372.355	330.54
372.736	325.34
373.117	329.41
373.498	333.03
373.879	323.08
374.26	298.23
374.641	335.29
375.021	312.92
375.402	318.79
375.783	316.08
376.163	325.12
376.544	330.77
376.925	333.71
377.305	330.99
377.686	338.9
378.066	330.32
378.447	333.25
378.827	348.39
379.208	342.97
379.588	358.34
379.968	365.8
380.349	341.62
380.729	355.4
381.109	341.39
381.489	330.77
381.87	348.17
382.25	348.39
382.63	386.81
383.01	353.82
383.39	337.32
383.77	361.28
384.15	360.37
384.53	355.63
384.91	353.14
385.29	349.75
385.67	365.57
386.049	361.95
386.429	345.46
386.809	359.24
387.189	361.5
387.568	350.2
387.948	365.8
388.328	367.6
388.707	359.24
389.087	399.69
389.466	363.76
389.846	357.89
390.225	373.25
390.605	349.52
390.984	385.91
391.363	361.73
391.743	370.32
392.122	372.57
392.501	381.16
392.881	368.96
393.26	361.05
393.639	345.91
394.018	383.65
394.397	376.64
394.776	387.94
395.155	389.07
395.534	386.81
395.913	401.05
396.292	383.42
396.671	400.14
397.05	378.22
397.429	397.66
397.808	403.31
398.186	402.18
398.565	415.96
398.944	401.05
399.323	400.82
399.701	415.96
400.08	375.96
400.458	408.73
400.837	406.25
401.215	390.88
401.594	415.51
401.972	417.09
402.351	415.51
402.729	397.89
403.107	423.87
403.486	414.38
403.864	397.89
404.242	432.91
404.62	427.26
404.999	416.42
405.377	442.18
405.755	439.01
406.133	428.39
406.511	435.62
406.889	437.66
407.267	433.82
407.645	434.27
408.023	432.46
408.401	453.93
408.779	441.27
409.156	435.4
409.534	465.45
409.912	460.03
410.29	468.62
410.667	453.93
411.045	442.86
411.422	469.07
411.8	448.96
412.178	482.18
412.555	488.05
412.933	473.82
413.31	486.24
413.687	479.69
414.065	482.63
414.442	496.41
414.819	486.02
415.197	489.86
415.574	504.77
415.951	476.3
416.328	510.88
416.705	490.99
417.082	492.35
417.46	525.34
417.837	533.47
418.214	530.76
418.591	528.05
418.967	514.04
419.344	514.27
419.721	527.83
420.098	530.08
420.475	520.59
420.852	538.22
421.228	534.15
421.605	550.88
421.982	546.58
422.358	551.1
422.735	578.22
423.111	563.98
423.488	570.31
423.864	548.39
424.241	561.5
424.617	542.97
424.994	578.22
425.37	576.41
425.746	581.61
426.123	553.14
426.499	590.2
426.875	598.78
427.251	613.25
427.627	614.83
428.003	605.34
428.379	590.42
428.756	610.08
429.132	602.4
429.507	622.74
429.883	613.7
430.259	646.92
430.635	655.05
431.011	641.49
431.387	657.77
431.763	663.64
432.138	657.09
432.514	652.79
432.89	652.79
433.265	674.26
433.641	669.74
434.016	701.15
434.392	688.95
434.767	694.83
435.143	708.61
435.518	684.21
435.894	703.41
436.269	722.4
436.644	748.61
437.02	729.18
437.395	739.57
437.77	739.57
438.145	755.62
438.52	761.72
438.895	735.96
439.271	755.39
439.646	770.53
440.021	781.83
440.395	786.58
440.77	764.2
441.145	777.76
441.52	782.28
441.895	768.95
442.27	803.07
442.645	793.81
443.019	791.1
443.394	808.27
443.769	818.66
444.143	801.72
444.518	813.24
444.892	816.41
445.267	817.54
445.641	817.54
446.016	827.93
446.39	848.95
446.764	832.45
447.139	823.86
447.513	874.71
447.887	859.34
448.262	856.18
448.636	875.84
449.01	879
449.384	867.7
449.758	873.35
450.132	895.95
450.506	906.12
450.88	905.44
451.254	889.85
451.628	907.25
452.002	899.34
452.376	938.89
452.75	918.78
453.123	968.04
453.497	957.64
453.871	973.24
454.244	966.01
454.618	977.3
454.992	984.31
455.365	1006.46
455.739	1010.52
456.112	1023.86
456.486	1036.06
456.859	1027.02
457.232	1027.92
457.606	1045.1
457.979	1044.2
458.352	1054.14
458.725	1111.76
459.099	1113.12
459.472	1115.15
459.845	1137.3
460.218	1140.92
460.591	1143.63
460.964	1168.49
461.337	1187.69
461.71	1200.12
462.083	1209.16
462.456	1199.22
462.829	1219.11
463.201	1234.47
463.574	1222.72
463.947	1240.35
464.32	1293.68
464.692	1293.23
465.065	1301.36
465.438	1294.81
465.81	1349.95
466.183	1321.02
466.555	1385.2
466.928	1357.41
467.3	1362.38
467.672	1400.12
468.045	1448.25
468.417	1451.87
468.789	1473.34
469.161	1490.96
469.534	1483.05
469.906	1546.1
470.278	1538.87
470.65	1559.44
471.022	1595.82
471.394	1601.24
471.766	1662.26
472.138	1689.38
472.51	1737.28
472.882	1735.03
473.253	1799.66
473.625	1824.29
473.997	1863.16
474.369	1879.43
474.74	1911.29
475.112	1917.39
475.484	1956.26
475.855	2011.63
476.227	2019.31
476.598	2078.97
476.97	2131.85
477.341	2186.31
477.713	2250.72
478.084	2242.13
478.455	2313.99
478.827	2346.53
479.198	2444.16
479.569	2488
479.94	2525.29
480.311	2551.73
480.682	2631.72
481.053	2671.5
481.424	2759.63
481.795	2840.76
482.166	2888.67
482.537	2950.13
482.908	3041.43
483.279	3078.27
483.65	3123.92
484.021	3234.65
484.391	3269.22
484.762	3339.28
485.133	3427.64
485.503	3461.76
485.874	3575.43
486.244	3600.74
486.615	3745.59
486.985	3849.77
487.356	3908.08
487.726	3974.06
488.097	4058.81
488.467	4141.29
488.837	4214.51
489.207	4347.61
489.578	4459.93
489.948	4457.89
490.318	4597.55
490.688	4645.46
491.058	4736.08
491.428	4832.12
491.798	4929.74
492.168	5086.12
492.538	5036.41
492.908	5167.48
493.278	5247.25
493.648	5331.77
494.017	5417.41
494.387	5476.4
494.757	5585.32
495.126	5659.89
495.496	5690.18
495.866	5762.26
496.235	5940.79
496.605	5973.56
496.974	6024.18
497.344	6125.42
497.713	6163.38
498.082	6274.34
498.452	6340.1
498.821	6394.56
499.19	6478.18
499.559	6554.79
499.928	6642.47
500.298	6679.75
500.667	6781.67
501.036	6806.98
501.405	6925.62
501.774	6964.94
502.143	7040.2
502.512	7062.34
502.88	7144.6
503.249	7224.82
503.618	7275.67
503.987	7359.96
504.356	7406.51
504.724	7474.99
505.093	7518.15
505.462	7545.72
505.83	7649.45
506.199	7670.01
506.567	7819.38
506.936	7867.52
507.304	7888.08
507.672	7959.04
508.041	7966.95
508.409	8121.3
508.777	8153.84
509.145	8191.35
509.514	8250.11
509.882	8359.26
510.25	8229.32
510.618	8432.93
510.986	8450.55
511.354	8538.24
511.722	8580.04
512.09	8691.45
512.458	8713.82
512.826	8738.23
513.193	8826.36
513.561	8936.19
513.929	8953.37
514.297	8999.47
514.664	9028.62
515.032	9020.94
515.4	9156.07
515.767	9196.52
516.135	9221.83
516.502	9212.34
516.869	9409.85
517.237	9399.23
517.604	9397.65
517.972	9510.41
518.339	9561.26
518.706	9495.95
519.073	9607.36
519.44	9650.07
519.808	9740.01
520.175	9730.3
520.542	9879.67
520.909	9865.88
521.276	9938.88
521.643	10024.52
522.009	10059.33
522.376	10148.36
522.743	10179.77
523.11	10227.23
523.477	10348.81
523.843	10408.47
524.21	10513.33
524.577	10577.5
524.943	10616.6
525.31	10658.41
525.676	10754.9
526.043	10811.62
526.409	10821.57
526.776	10925.07
527.142	10972.07
527.508	11007.32
527.874	11186.08
528.241	11175.68
528.607	11201.44
528.973	11216.58
529.339	11362.12
529.705	11454.77
530.071	11534.09
530.437	11561.43
530.803	11552.85
531.169	11702.45
531.535	11683.01
531.901	11777.7
532.267	11798.04
532.632	11904.25
532.998	11904.93
533.364	11998.71
533.73	12005.26
534.095	12102.44
534.461	12147.41
534.826	12191.93
535.192	12213.85
535.557	12322.32
535.923	12371.81
536.288	12424.69
536.653	12473.05
537.019	12457.68
537.384	12485.7
537.749	12670.1
538.114	12666.04
538.479	12693.38
538.845	12710.1
539.21	12719.82
539.575	12745.81
539.94	12847.73
540.305	12922.75
540.67	12906.03
541.034	13073.71
541.399	13086.59
541.764	13130.21
542.129	13139.92
542.494	13194.16
542.858	13290.43
543.223	13290.2
543.587	13367.26
543.952	13361.39
544.316	13497.65
544.681	13545.56
545.045	13572.45
545.41	13609.97
545.774	13718.89
546.138	13680.93
546.503	13753.47
546.867	13735.84
547.231	13901.48
547.595	13913.24
547.959	14005.21
548.324	14001.37
548.688	14054.48
549.052	14122.04
549.416	14056.28
549.779	14082.27
550.143	14160.69
550.507	14309.16
550.871	14321.59
551.235	14383.96
551.599	14508.47
551.962	14509.83
552.326	14557.29
552.689	14609.04
553.053	14470.51
553.417	14635.25
553.78	14789.82
554.143	14753.44
554.507	14789.82
554.87	14891.06
555.234	14952.3
555.597	14930.38
555.96	14939.65
556.323	15019.2
556.686	15078.63
557.05	15147.33
557.413	15166.76
557.776	15234.56
558.139	15418.96
558.502	15319.98
558.865	15435.68
559.228	15527.66
559.59	15548.9
559.953	15601.55
560.316	15738.05
560.679	15765.62
561.041	15777.59
561.404	15835.22
561.767	15895.56
562.129	15947.98
562.492	16032.95
562.854	16058.26
563.217	16059.62
563.579	16195.66
563.941	16204.93
564.304	16206.06
564.666	16333.51
565.028	16389.78
565.39	16444.47
565.753	16519.72
566.115	16576.67
566.477	16616.89
566.839	16660.73
567.201	16803.33
567.563	16808.3
567.925	16873.16
568.287	16905.93
568.648	17061.4
569.01	17087.16
569.372	17224.79
569.734	17154.51
570.095	17323.77
570.457	17414.84
570.819	17401.96
571.18	17473.82
571.542	17505.01
571.903	17655.28
572.265	17765.79
572.626	17748.62
572.987	17833.58
573.349	17944.99
573.71	18016.18
574.071	18081.49
574.432	18137.98
574.794	18312.67
575.155	18384.3
575.516	18420.46
575.877	18573
576.238	18613.68
576.599	18790.4
576.96	18850.73
577.32	19031.97
577.681	19082.82
578.042	19259.31
578.403	19400.78
578.763	19435.12
579.124	19646.87
579.485	19741.11
579.845	19886.64
580.206	20021.55
580.566	20077.14
580.927	20274.42
581.287	20469.67
581.648	20529.11
582.008	20776.56
582.368	20925.93
582.728	21109.88
583.089	21301.97
583.449	21454.28
583.809	21581.73
584.169	21886.13
584.529	21985.57
584.889	22306.01
585.249	22485.89
585.609	22636.17
585.969	22938.99
586.329	23138.76
586.688	23397.51
587.048	23398.86
587.408	23760.21
587.768	23950.03
588.127	24143.93
588.487	24366.07
588.846	24784.36
589.206	24825.27
589.565	25197.46
589.925	25469.99
590.284	25562.87
590.643	25924.22
591.003	26157.66
591.362	26411.44
591.721	26588.16
592.08	26886.68
592.44	27164.64
592.799	27624.29
593.158	27671.07
593.517	27862.93
593.876	28153.09
594.235	28412.06
594.593	28635.79
594.952	28987.87
595.311	29047.3
595.67	29445.71
596.029	29757.57
596.387	29997.56
596.746	30346.7
597.104	30391.22
597.463	30598.22
597.822	30948.27
598.18	31206.34
598.538	31303.06
598.897	31723.16
599.255	31709.15
599.613	32433.88
599.972	32360.66
600.33	32562.01
600.688	32778.05
601.046	32983.24
601.404	33389.79
601.762	33505.94
602.12	33810.79
602.478	34095.76
602.836	34216.43
603.194	34227.05
603.552	34382.3
603.91	34426.59
604.268	34979.12
604.625	34998.56
604.983	35328.72
605.341	35344.54
605.698	35792.89
606.056	35881.7
606.413	35922.37
606.771	36230.62
607.128	36491.4
607.485	36440.1
607.843	36711.51
608.2	36984.27
608.557	37133.64
608.914	37171.61
609.272	37516.91
609.629	37671.48
609.986	37932.49
610.343	38012.04
610.7	38196.89
611.057	38339.71
611.414	38430.56
611.771	38589.2
612.127	38754.16
612.484	39005.68
612.841	39164.1
613.198	39115.51
613.554	39263.3
613.911	39510.08
614.267	39807.92
614.624	39769.05
614.98	39858.77
615.337	40167.23
615.693	40168.82
616.05	40302.37
616.406	40615.13
616.762	40532.2
617.118	40527.9
617.475	40661.01
617.831	40833.88
618.187	40907.1
618.543	40985.29
618.899	41264.38
619.255	41380.08
619.611	41307.77
619.967	41470.93
620.323	41724.71
620.678	41550.93
621.034	41586.41
621.39	41639.06
621.746	41657.37
622.101	42269.1
622.457	41873.63
622.812	42030.69
623.168	42259.16
623.523	42209.67
623.879	42450.11
624.234	42242.43
624.589	42330.12
624.945	42552.48
625.3	42626.38
625.655	42687.85
626.01	42542.09
626.365	42751.12
626.72	42543.22
627.075	42834.74
627.43	42774.62
627.785	42707.51
628.14	42781.4
628.495	42974.62
628.85	42862.31
629.205	42768.3
629.559	43022.3
629.914	42923.77
630.269	42961.06
630.623	42765.36
630.978	42909.08
631.332	43106.37
631.687	43081.28
632.041	42975.52
632.396	43037.22
632.75	42922.87
633.104	43080.6
633.459	42813.94
633.813	42980.95
634.167	43006.26
634.521	43032.92
634.875	43016.43
635.229	42886.94
635.583	42866.37
635.937	42931.23
636.291	42996.99
636.645	42996.54
636.999	42801.06
637.352	42981.62
637.706	42844
638.06	43014.62
638.413	42847.84
638.767	42743.89
639.121	42952.25
639.474	42812.36
639.828	42782.08
640.181	42784.34
640.534	42702.31
640.888	42616.89
641.241	42566.49
641.594	42686.49
641.947	42747.96
642.301	42478.13
642.654	42668.41
643.007	42582.31
643.36	42456.89
643.713	42396.33
644.066	42556.78
644.419	42383.9
644.771	42202.66
645.124	41898.94
645.477	41828.21
645.83	41589.12
646.182	41322.68
646.535	41182.35
646.888	41477.26
647.24	41253.31
647.593	41497.82
647.945	41326.98
648.298	41221.67
648.65	41169.69
649.002	41001.34
649.355	41259.41
649.707	41278.84
650.059	41416.92
650.411	41810.81
650.763	41854.87
651.115	42176.9
651.467	42011.48
651.819	41994.53
652.171	41952.95
652.523	41935.78
652.875	41975.55
653.227	41793.86
653.578	41992.27
653.93	41953.18
654.282	41798.15
654.633	41718.83
654.985	41739.62
655.337	41770.13
655.688	41722
656.039	41890.81
656.391	41540.53
656.742	41822.78
657.094	41860.3
657.445	41777.14
657.796	41866.17
658.147	41660.75
658.498	41792.05
658.849	41749.57
659.2	41665.27
659.551	41584.37
659.902	41738.72
660.253	41699.4
660.604	41755.22
660.955	41512.06
661.306	41643.58
661.656	41528.55
662.007	41675.9
662.358	41661.21
662.708	41596.8
663.059	41599.74
663.409	41312.29
663.76	41626.63
664.11	41601.1
664.461	41618.27
664.811	41558.84
665.161	41531.72
665.511	41512.06
665.862	41483.81
666.212	41518.39
666.562	41707.31
666.912	41516.13
667.262	41603.13
667.612	41405.85
667.962	41498.73
668.312	41404.94
668.662	41617.59
669.011	41544.37
669.361	41382.57
669.711	41453.98
670.06	41376.47
670.41	41264.83
670.76	41213.53
671.109	41383.7
671.459	41377.37
671.808	41112.52
672.157	41377.82
672.507	41126.98
672.856	41077.49
673.205	41251.27
673.554	41247.21
673.904	41088.34
674.253	41356.13
674.602	41183.71
674.951	40668.01
675.3	40505.08
675.649	40966.31
675.998	41086.53
676.346	41189.58
676.695	41272.06
677.044	40936.03
677.393	40981
677.741	41017.38
678.09	40878.18
678.438	40948.91
678.787	40923.6
679.135	40892.41
679.484	40663.94
679.832	40888.35
680.181	40608.13
680.529	40719.54
680.877	40592.76
681.225	40658.3
681.573	40800.66
681.922	40438.64
682.27	40425.31
682.618	40422.37
682.966	40289.94
683.314	40420.11
683.661	40213.56
684.009	40138.76
684.357	40066.9
684.705	39908.03
685.053	40002.72
685.4	40070.51
685.748	39751.2
686.095	39835.27
686.443	39801.14
686.79	39722.05
687.138	39784.87
687.485	39748.49
687.832	39519.34
688.18	39572.67
688.527	39439.8
688.874	39460.59
689.221	39282.29
689.568	39114.38
689.915	39101.95
690.262	39126.13
690.609	38930.43
690.956	38779.25
691.303	38770.89
691.65	38724.11
691.997	38725.46
692.344	38353.27
692.69	38338.81
693.037	38354.18
693.383	38000.74
693.73	38180.39
694.077	37993.96
694.423	37900.18
694.769	37793.51
695.116	37789.9
695.462	37756
695.808	37487.53
696.155	37781.99
696.501	37348.1
696.847	37450.47
697.193	37212.06
697.539	37306.29
697.885	37120.99
698.231	36848.23
698.577	37108.11
698.923	36916.02
699.269	36882.8
699.614	36655.24
699.96	36683.26
700.306	36551.96
700.651	36370.72
700.997	36236.72
701.342	36243.72
701.688	36127.79
702.033	36009.15
702.379	35918.98
702.724	35837.41
703.069	35976.38
703.415	35525.32
703.76	35552.21
704.105	35626.79
704.45	35482.39
704.795	35446.68
705.14	35235.84
705.485	35186.35
705.83	35071.1
706.175	35005.79
706.52	35055.96
706.865	34868.39
707.209	34868.17
707.554	34728.06
707.899	34829.3
708.243	34628.85
708.588	34582.97
708.932	34306.82
709.277	34467.05
709.621	34553.37
709.966	34167.84
710.31	34222.98
710.654	33894.41
710.998	34005.81
711.342	34015.76
711.687	33865.48
712.031	33673.62
712.375	33549.56
712.719	33595.43
713.063	33549.33
713.407	33630.23
713.75	33478.37
714.094	33498.03
714.438	33296.46
714.782	33268.89
715.125	33161.32
715.469	33248.09
715.812	33066.86
716.156	32898.5
716.499	32975.33
716.843	32942.34
717.186	32799.74
717.53	32904.15
717.873	32857.82
718.216	32780.99
718.559	32575.57
718.902	32535.8
719.246	32520.2
719.589	32435.23
719.932	32301.23
720.275	32331.51
720.617	32318.63
720.96	32193.66
721.303	32254.9
721.646	32125.41
721.989	31929.26
722.331	32124.06
722.674	32108.46
723.016	31914.12
723.359	31999.99
723.701	31802.71
724.044	31739.43
724.386	31620.57
724.729	31695.59
725.071	31536.5
725.413	31553.45
725.755	31531.53
726.097	31420.12
726.439	31320.91
726.782	31200.46
727.124	31534.24
727.465	31175.61
727.807	31254.02
728.149	31242.05
728.491	31101.94
728.833	31094.48
729.175	30916.4
729.516	31028.27
729.858	31003.63
730.199	30988.27
730.541	30797.54
730.882	30890.19
731.224	30995.95
731.565	30548.05
731.906	30776.3
732.248	30722.74
732.589	30526.13
732.93	30451.33
733.271	30554.61
733.612	30488.39
733.953	30444.55
734.294	30437.77
734.635	30449.52
734.976	30332.47
735.317	30233.03
735.658	30162.07
735.999	30263.54
736.339	30066.48
736.68	30094.28
737.021	30031.23
737.361	29915.53
737.702	30000.95
738.042	29948.75
738.383	29812.48
738.723	29912.82
739.063	29788.52
739.404	29873.95
739.744	29759.82
740.084	29529.32
740.424	29653.84
740.764	29468.53
741.104	29644.57
741.444	29542.2
741.784	29448.87
742.124	29495.65
742.464	29361.87
742.804	29309.89
743.143	29313.96
743.483	29249.56
743.823	29100.86
744.162	29226.28
744.502	29101.09
744.841	29015.21
745.181	29207.07
745.52	29164.59
745.86	29084.81
746.199	29020.18
746.538	29043.01
746.877	29038.71
747.216	29011.82
747.556	28837.82
747.895	28892.28
748.234	28774.99
748.573	28666.75
748.911	28613.87
749.25	28705.39
749.589	28428.33
749.928	28536.13
750.267	28607.76
750.605	28479.18
750.944	28417.94
751.283	28299.07
751.621	28400.54
751.96	28264.72
752.298	28250.71
752.636	28195.12
752.975	27961.91
753.313	28031.73
753.651	28020.21
753.989	27986.99
754.327	27873.55
754.666	27782.02
755.004	27737.05
755.342	27804.4
755.679	27781.35
756.017	27565.53
756.355	27677.39
756.693	27504.29
757.031	27498.64
757.368	27434.24
