Data from hue_180_FLMS001491_00050.txt Node
Date: Tue Feb 07 16:47:03 GMT 2017
User: dcchb
Spectrometer: FLMS00149
Trigger mode: 0
Integration Time (sec): 2.000000E-2
Scans to average: 10
Electric dark correction enabled: true
Nonlinearity correction enabled: false
Boxcar width: 0
XAxis mode: Wavelengths
Number of Pixels in Spectrum: 2048
>>>>>Begin Spectral Data<<<<<
341.393	-10.66
341.776	-10.66
342.16	-10.66
342.543	-61.51
342.927	-54.5
343.31	-89.31
343.693	-51.57
344.077	-63.32
344.46	-75.07
344.843	-66.03
345.226	-54.05
345.61	-34.62
345.993	-24.45
346.376	-3.66
346.759	15.78
347.142	27.98
347.525	48.32
347.908	68.66
348.291	80.63
348.674	92.84
349.057	127.86
349.44	120.86
349.823	133.06
350.206	159.73
350.588	206.05
350.971	201.53
351.354	231.36
351.737	251.48
352.119	247.86
352.502	256.67
352.884	277.92
353.267	267.75
353.65	272.49
354.032	276.11
354.414	307.52
354.797	306.39
355.179	309.55
355.562	315.66
355.944	325.15
356.326	319.72
356.709	308.2
357.091	328.99
357.473	352.72
357.855	320.63
358.238	317.46
358.62	325.82
359.002	336.67
359.384	343
359.766	338.48
360.148	310.91
360.53	335.77
360.912	326.5
361.294	332.15
361.676	331.93
362.057	341.87
362.439	323.34
362.821	339.16
363.203	333.73
363.584	301.64
363.966	327.86
364.348	301.87
364.729	333.06
365.111	312.27
365.493	327.63
365.874	298.48
366.256	283.34
366.637	316.33
367.019	305.49
367.4	316.79
367.781	305.03
368.163	307.52
368.544	299.38
368.925	304.36
369.306	305.49
369.688	307.07
370.069	300.97
370.45	289.44
370.831	315.88
371.212	303.9
371.593	317.46
371.974	318.82
372.355	322.44
372.736	317.69
373.117	305.94
373.498	301.87
373.879	321.53
374.26	301.42
374.641	312.49
375.021	295.77
375.402	307.29
375.783	328.76
376.163	313.85
376.544	302.77
376.925	307.75
377.305	316.33
377.686	326.28
378.066	346.39
378.447	303.23
378.827	350.68
379.208	322.21
379.588	333.51
379.968	347.29
380.349	324.92
380.729	340.97
381.109	338.48
381.489	335.77
381.87	314.53
382.25	326.28
382.63	347.29
383.01	354.3
383.39	317.46
383.77	324.69
384.15	354.98
384.53	334.19
384.91	332.38
385.29	346.16
385.67	367.41
386.049	331.47
386.429	336.67
386.809	353.62
387.189	339.61
387.568	351.59
387.948	340.51
388.328	343.9
388.707	359.95
389.087	370.12
389.466	354.3
389.846	362.66
390.225	344.81
390.605	337.8
390.984	352.49
391.363	350.91
391.743	357.46
392.122	350.46
392.501	373.73
392.881	359.95
393.26	368.08
393.639	368.76
394.018	353.85
394.397	392.04
394.776	360.4
395.155	360.63
395.534	374.41
395.913	379.38
396.292	390.68
396.671	387.29
397.05	386.84
397.429	401.3
397.808	378.48
398.186	384.35
398.565	390.23
398.944	385.48
399.323	410.79
399.701	403.11
400.08	404.92
400.458	402.66
400.837	394.07
401.215	404.01
401.594	398.82
401.972	411.92
402.351	415.77
402.729	407.4
403.107	402.21
403.486	402.88
403.864	439.95
404.242	414.18
404.62	422.09
404.999	438.82
405.377	421.64
405.755	419.83
406.133	447.86
406.511	445.14
406.889	429.32
407.267	443.34
407.645	437.46
408.023	475.88
408.401	460.74
408.779	450.79
409.156	495.09
409.534	476.56
409.912	470.91
410.29	495.76
410.667	495.99
411.045	505.93
411.422	526.05
411.8	526.95
412.178	528.53
412.555	529.66
412.933	529.21
413.31	564.46
413.687	540.06
414.065	543.45
414.442	570.56
414.819	575.08
415.197	575.99
415.574	585.03
415.951	614.86
416.328	581.86
416.705	597.91
417.082	597.91
417.46	606.04
417.837	627.06
418.214	629.09
418.591	634.52
418.967	646.04
419.344	635.42
419.721	655.08
420.098	649.43
420.475	688.53
420.852	674.52
421.228	696.66
421.605	729.43
421.982	729.66
422.358	711.8
422.735	742.54
423.111	724.46
423.488	743.67
423.864	767.62
424.241	769.43
424.617	780.28
424.994	792.25
425.37	793.61
425.746	790.45
426.123	821.18
426.499	825.92
426.875	843.55
427.251	860.27
427.627	867.05
428.003	848.75
428.379	895.75
428.756	888.52
429.132	902.76
429.507	896.66
429.883	918.8
430.259	949.31
430.635	925.13
431.011	947.5
431.387	962.64
431.763	980.27
432.138	1008.29
432.514	1005.13
432.89	999.03
433.265	1046.71
433.641	1038.57
434.016	1062.53
434.392	1072.25
434.767	1101.85
435.143	1107.73
435.518	1132.13
435.894	1119.25
436.269	1161.51
436.644	1182.3
437.02	1194.95
437.395	1195.41
437.77	1225.46
438.145	1243.54
438.52	1255.74
438.895	1281.96
439.271	1300.26
439.646	1309.75
440.021	1354.72
440.395	1342.75
440.77	1384.1
441.145	1386.14
441.52	1436.53
441.895	1412.12
442.27	1426.36
442.645	1445.34
443.019	1451.44
443.394	1473.14
443.769	1461.61
444.143	1498.68
444.518	1502.52
444.892	1507.49
445.267	1530.76
445.641	1546.81
446.016	1522.18
446.39	1595.4
446.764	1603.53
447.139	1593.81
447.513	1607.6
447.887	1684.89
448.262	1658.45
448.636	1623.64
449.01	1653.7
449.384	1688.5
449.758	1657.77
450.132	1686.47
450.506	1681.04
450.88	1696.64
451.254	1731.21
451.628	1744.09
452.002	1766.46
452.376	1817.31
452.75	1813.92
453.123	1810.53
453.497	1874.03
453.871	1871.32
454.244	1882.85
454.618	1926.91
454.992	1929.85
455.365	1934.37
455.739	2015.95
456.112	2006.01
456.486	2002.84
456.859	2043.29
457.232	2107.7
457.606	2093.91
457.979	2113.8
458.352	2159
458.725	2176.17
459.099	2190.41
459.472	2245.1
459.845	2278.32
460.218	2263.4
460.591	2308.6
460.964	2341.14
461.337	2356.05
461.71	2442.38
462.083	2416.84
462.456	2477.41
462.829	2504.52
463.201	2526.9
463.574	2502.26
463.947	2594.47
464.32	2619.55
464.692	2643.96
465.065	2694.12
465.438	2701.13
465.81	2772.77
466.183	2789.71
466.555	2855.48
466.928	2832.65
467.3	2862.71
467.672	2926.89
468.045	2989.94
468.417	2988.35
468.789	3011.86
469.161	3100.22
469.534	3169.37
469.906	3212.3
470.278	3232.42
470.65	3289.36
471.022	3306.99
471.394	3434.44
471.766	3436.48
472.138	3497.49
472.51	3565.74
472.882	3646.87
473.253	3683.93
473.625	3721.44
473.997	3801.67
474.369	3875.56
474.74	3936.58
475.112	3991.72
475.484	4059.51
475.855	4129.34
476.227	4134.31
476.598	4277.13
476.97	4356.23
477.341	4443
477.713	4520.52
478.084	4575.2
478.455	4690.46
478.827	4741.53
479.198	4853.16
479.569	4904.46
479.94	5010.9
480.311	5111.24
480.682	5254.96
481.053	5338.12
481.424	5439.81
481.795	5480.49
482.166	5583.09
482.537	5670.99
482.908	5821.5
483.279	5850.2
483.65	6029.86
484.021	6115.96
484.391	6218.1
484.762	6311.66
485.133	6366.57
485.503	6455.16
485.874	6629.84
486.244	6693.57
486.615	6830.96
486.985	6924.75
487.356	7055.37
487.726	7161.8
488.097	7306.21
488.467	7285.87
488.837	7435.24
489.207	7539.87
489.578	7781.22
489.948	7764.5
490.318	7862.12
490.688	7947.32
491.058	8009.24
491.428	8139.18
491.798	8235.9
492.168	8411.94
492.538	8424.82
492.908	8596.34
493.278	8703.01
493.648	8738.26
494.017	8802.21
494.387	8892.83
494.757	8969.67
495.126	9113.84
495.496	9135.99
495.866	9171.47
496.235	9312.93
496.605	9326.04
496.974	9340.5
497.344	9474.28
497.713	9538.46
498.082	9575.75
498.452	9696.65
498.821	9709.53
499.19	9798.57
499.559	9820.04
499.928	9903.43
500.298	9959.7
500.667	10001.73
501.036	10016.87
501.405	10046.47
501.774	10138.9
502.143	10179.13
502.512	10239.91
502.88	10330.76
503.249	10305.68
503.618	10323.98
503.987	10403.3
504.356	10446.69
504.724	10467.93
505.093	10505.67
505.462	10499.79
505.83	10599.23
506.199	10650.98
506.567	10724.87
506.936	10741.82
507.304	10808.49
507.672	10898.43
508.041	10949.95
508.409	10894.59
508.777	11026.79
509.145	11029.05
509.514	10932.33
509.882	11003.51
510.25	11052.1
510.618	11128.93
510.986	11108.37
511.354	11153.34
511.722	11235.14
512.09	11245.31
512.458	11251.41
512.826	11334.8
513.193	11304.52
513.561	11373.67
513.929	11406.21
514.297	11468.13
514.664	11452.99
515.032	11489.83
515.4	11572.99
515.767	11588.13
516.135	11567.56
516.502	11419.77
516.869	11620.67
517.237	11611.63
517.604	11598.75
517.972	11568.02
518.339	11652.76
518.706	11631.52
519.073	11633.32
519.44	11687.56
519.808	11673.55
520.175	11643.27
520.542	11750.38
520.909	11752.87
521.276	11754
521.643	11805.75
522.009	11797.39
522.376	11867.44
522.743	11829.7
523.11	11903.15
523.477	11917.61
523.843	11975.91
524.21	11986.31
524.577	11993.54
524.943	11968.68
525.31	11968.46
525.676	12060.43
526.043	12079.19
526.409	12084.84
526.776	12165.51
527.142	12044.84
527.508	12109.7
527.874	12135.01
528.241	12155.34
528.607	12104.27
528.973	12158.28
529.339	11976.37
529.705	12125.29
530.071	12048.91
530.437	12106.98
530.803	12152.18
531.169	12100.66
531.535	12090.26
531.901	12084.61
532.267	11998.51
532.632	12012.98
532.998	11953.32
533.364	11935.46
533.73	11971.39
534.095	11918.74
534.461	11822.92
534.826	11873.09
535.192	11877.39
535.557	11848.91
535.923	11766.88
536.288	11816.14
536.653	11809.14
537.019	11626.77
537.384	11707.9
537.749	11647.11
538.114	11620.67
538.479	11547.45
538.845	11528.69
539.21	11447.34
539.575	11458.41
539.94	11452.76
540.305	11400.11
540.67	11393.33
541.034	11284.63
541.399	11305.88
541.764	11252.77
542.129	11196.95
542.494	11145.65
542.858	11211.87
543.223	11041.93
543.587	11064.53
543.952	11008.26
544.316	10999.89
544.681	10913.34
545.045	10927.35
545.41	10853.46
545.774	10891.42
546.138	10745.89
546.503	10740.24
546.867	10639
547.231	10674.03
547.595	10640.36
547.959	10563.52
548.324	10511.77
548.688	10473.58
549.052	10444.2
549.416	10409.63
549.779	10370.53
550.143	10354.26
550.507	10305.68
550.871	10275.39
551.235	10206.92
551.599	10201.27
551.962	10222.51
552.326	10130.99
552.689	10119.47
553.053	10083.99
553.417	9982.29
553.78	10029.07
554.143	9971.67
554.507	9953.14
554.87	9928.74
555.234	9960.15
555.597	9880.15
555.96	9799.25
556.323	9763.54
556.686	9761.73
557.05	9804.22
557.413	9756.31
557.776	9743.66
558.139	9726.48
558.502	9706.6
558.865	9684.67
559.228	9725.58
559.59	9726.48
559.953	9651.91
560.316	9654.62
560.679	9625.24
561.041	9645.81
561.404	9676.77
561.767	9654.62
562.129	9521.06
562.492	9593.83
562.854	9578.69
563.217	9542.31
563.579	9573.04
563.941	9546.37
564.304	9531.23
564.666	9535.75
565.028	9590.44
565.39	9471.57
565.753	9519.93
566.115	9555.19
566.477	9492.36
566.839	9528.29
567.201	9539.82
567.563	9532.14
567.925	9584.79
568.287	9505.92
568.648	9554.28
569.01	9522.87
569.372	9561.51
569.734	9559.71
570.095	9520.39
570.457	9552.25
570.819	9603.09
571.18	9470.22
571.542	9592.7
571.903	9492.14
572.265	9546.83
572.626	9545.02
572.987	9506.15
573.349	9511.35
573.71	9600.84
574.071	9571.46
574.432	9649.2
574.794	9570.33
575.155	9587.73
575.516	9468.86
575.877	9594.96
576.238	9612.59
576.599	9556.09
576.96	9588.63
577.32	9552.93
577.681	9632.92
578.042	9596.54
578.403	9572.59
578.763	9545.7
579.124	9574.62
579.485	9574.85
579.845	9564.9
580.206	9549.99
580.566	9527.39
580.927	9508.18
581.287	9544.57
581.648	9487.62
582.008	9557.22
582.368	9474.74
582.728	9550.89
583.089	9480.61
583.449	9502.31
583.809	9491.69
584.169	9505.47
584.529	9478.8
584.889	9540.72
585.249	9382.54
585.609	9382.08
585.969	9503.89
586.329	9367.85
586.688	9413.27
587.048	9421.18
587.408	9335.08
587.768	9401.74
588.127	9401.29
588.487	9314.29
588.846	9371.91
589.206	9378.92
589.565	9319.71
589.925	9325.81
590.284	9335.31
590.643	9326.04
591.003	9382.76
591.362	9333.27
591.721	9346.83
592.08	9259.15
592.44	9298.02
592.799	9258.92
593.158	9276.78
593.517	9227.06
593.876	9279.26
594.235	9267.96
594.593	9207.63
594.952	9226.16
595.311	9171.24
595.67	9215.99
596.029	9259.6
596.387	9228.42
596.746	9177.34
597.104	9150.9
597.463	9141.19
597.822	9246.95
598.18	9143.22
598.538	9213.05
598.897	9259.6
599.255	9063.67
599.613	9210.79
599.972	9146.84
600.33	9180.06
600.688	9092.15
601.046	9168.76
601.404	9230.22
601.762	9177.8
602.12	9170.34
602.478	9173.28
602.836	9090.34
603.194	9119.04
603.552	9103
603.91	9088.31
604.268	9117.46
604.625	9075.88
604.983	9089.89
605.341	9057.57
605.698	9131.24
606.056	9105.93
606.413	9142.09
606.771	9112.26
607.128	9180.06
607.485	9103.67
607.843	9112.03
608.2	9145.93
608.557	9190.22
608.914	9121.53
609.272	9161.07
609.629	9168.53
609.986	9202.88
610.343	9120.4
610.7	9244.46
611.057	9200.17
611.414	9206.5
611.771	9176.21
612.127	9180.28
612.484	9212.14
612.841	9175.76
613.198	9146.38
613.554	9130.57
613.911	9295.08
614.267	9270
614.624	9239.71
614.98	9215.76
615.337	9266.83
615.693	9261.64
616.05	9275.19
616.406	9266.15
616.762	9232.03
617.118	9219.15
617.475	9241.52
617.831	9313.39
618.187	9280.39
618.543	9323.78
618.899	9291.69
619.255	9287.85
619.611	9335.98
619.967	9343.21
620.323	9360.62
620.678	9324.68
621.034	9309.32
621.39	9273.84
621.746	9326.04
622.101	9363.33
622.457	9279.26
622.812	9356.1
623.168	9308.41
623.523	9333.05
623.879	9303.67
624.234	9349.32
624.589	9303.67
624.945	9297.11
625.3	9314.51
625.655	9350.9
626.01	9314.97
626.365	9400.16
626.72	9270
627.075	9318.58
627.43	9280.84
627.785	9214.86
628.14	9312.03
628.495	9340.95
628.85	9270.9
629.205	9271.35
629.559	9317.9
629.914	9320.39
630.269	9318.36
630.623	9262.54
630.978	9157.23
631.332	9315.19
631.687	9274.97
632.041	9184.35
632.396	9150.23
632.75	9169.43
633.104	9174.18
633.459	9146.38
633.813	9159.49
634.167	9169.89
634.521	9129.89
634.875	9200.39
635.229	9136.67
635.583	9091.47
635.937	9063.22
636.291	9045.37
636.645	9067.97
636.999	9062.54
637.352	9009.21
637.706	9035.65
638.06	9040.4
638.413	9031.13
638.767	8967.18
639.121	8971.7
639.474	8897.8
639.828	8980.29
640.181	8958.14
640.534	8968.31
640.888	8900.06
641.241	8873.85
641.594	8938.25
641.947	8945.71
642.301	8934.41
642.654	8949.33
643.007	8969.67
643.36	8908.42
643.713	8901.42
644.066	8906.62
644.419	8823
644.771	8771.7
645.124	8751.14
645.477	8750.91
645.83	8681.54
646.182	8611.71
646.535	8626.62
646.888	8583.46
647.24	8592.5
647.593	8601.54
647.945	8582.56
648.298	8535.1
648.65	8533.07
649.002	8542.11
649.355	8609
649.707	8557.25
650.059	8615.1
650.411	8677.24
650.763	8697.81
651.115	8793.4
651.467	8751.59
651.819	8794.3
652.171	8854.64
652.523	8760.63
652.875	8826.62
653.227	8718.82
653.578	8837.24
653.93	8805.6
654.282	8719.95
654.633	8710.92
654.985	8791.14
655.337	8828.2
655.688	8762.44
656.039	8844.7
656.391	8717.47
656.742	8788.43
657.094	8751.37
657.445	8800.18
657.796	8762.67
658.147	8764.7
658.498	8798.6
658.849	8806.05
659.2	8725.6
659.551	8792.04
659.902	8783
660.253	8827.97
660.604	8799.73
660.955	8757.24
661.306	8820.97
661.656	8816.9
662.007	8800.18
662.358	8843.11
662.708	8814.42
663.059	8901.42
663.409	8784.59
663.76	8793.85
664.11	8839.27
664.461	8841.76
664.811	8886.5
665.161	8879.95
665.511	8877.69
665.862	8861.19
666.212	8880.18
666.562	8921.53
666.912	8904.58
667.262	8832.72
667.612	8835.66
667.962	8863.45
668.312	8866.84
668.662	8876.79
669.011	8884.7
669.361	8874.07
669.711	8923.79
670.06	8827.97
670.41	8825.04
670.76	8859.61
671.109	8885.15
671.459	8838.14
671.808	8786.17
672.157	8768.99
672.507	8791.36
672.856	8809.9
673.205	8821.87
673.554	8763.34
673.904	8812.83
674.253	8874.53
674.602	8813.96
674.951	8712.27
675.3	8575.78
675.649	8761.54
675.998	8769.44
676.346	8743.91
676.695	8731.25
677.044	8697.81
677.393	8702.78
677.741	8702.1
678.09	8717.47
678.438	8716.79
678.787	8706.17
679.135	8645.38
679.484	8621.65
679.832	8681.54
680.181	8607.64
680.529	8590.47
680.877	8627.3
681.225	8558.15
681.573	8556.12
681.922	8481.54
682.27	8469.57
682.618	8502.78
682.966	8535.1
683.314	8547.3
683.661	8416.01
684.009	8456.46
684.357	8348.44
684.705	8408.78
685.053	8382.79
685.4	8332.85
685.748	8359.96
686.095	8304.6
686.443	8299.17
686.79	8295.33
687.138	8297.14
687.485	8290.81
687.832	8231.15
688.18	8200.65
688.527	8242.68
688.874	8178.73
689.221	8192.06
689.568	8108.67
689.915	8091.27
690.262	8116.58
690.609	8073.87
690.956	8054.66
691.303	8031.61
691.65	7989.13
691.997	7978.28
692.344	7944.83
692.69	7959.3
693.037	7903.93
693.383	7861.22
693.73	7847.66
694.077	7775.12
694.423	7808.79
694.769	7715.01
695.116	7653.09
695.462	7737.38
695.808	7731.73
696.155	7616.03
696.501	7582.36
696.847	7669.59
697.193	7535.58
697.539	7506.2
697.885	7477.95
698.231	7469.37
698.577	7421.01
698.923	7413.77
699.269	7399.54
699.614	7322.02
699.96	7325.19
700.306	7386.66
700.651	7302.36
700.997	7322.48
701.342	7237.06
701.688	7253.33
702.033	7199.99
702.379	7183.95
702.724	7155.25
703.069	7138.53
703.415	7080.22
703.76	7091.07
704.105	7073.9
704.45	7016.72
704.795	6974.01
705.14	6962.03
705.485	6945.09
705.83	6878.42
706.175	6915.48
706.52	6889.04
706.865	6828.7
707.209	6880.91
707.554	6803.62
707.899	6860.34
708.243	6785.77
708.588	6687.92
708.932	6724.98
709.277	6713.45
709.621	6713.68
709.966	6691.31
710.31	6677.07
710.654	6620.12
710.998	6619.44
711.342	6567.24
711.687	6602.95
712.031	6564.3
712.375	6509.39
712.719	6528.6
713.063	6500.13
713.407	6540.35
713.75	6478.21
714.094	6446.57
714.438	6461.48
714.782	6503.29
715.125	6436.62
715.469	6378.32
715.812	6442.73
716.156	6421.71
716.499	6359.11
716.843	6332.22
717.186	6327.25
717.53	6365.44
717.873	6400.69
718.216	6349.85
718.559	6340.81
718.902	6343.97
719.246	6326.34
719.589	6324.99
719.932	6257.65
720.275	6332.45
720.617	6276.18
720.96	6236.18
721.303	6263.75
721.646	6292.22
721.989	6241.15
722.331	6228.95
722.674	6230.08
723.016	6229.17
723.359	6230.53
723.701	6226.01
724.044	6184.2
724.386	6182.39
724.729	6213.81
725.071	6195.73
725.413	6193.24
725.755	6197.53
726.097	6168.83
726.439	6126.35
726.782	6175.84
727.124	6169.51
727.465	6177.2
727.807	6166.58
728.149	6151.43
728.491	6194.15
728.833	6140.14
729.175	6138.55
729.516	6159.57
729.858	6143.75
730.199	6093.36
730.541	6104.66
730.882	6102.4
731.224	6097.65
731.565	6103.75
731.906	6077.99
732.248	6121.15
732.589	6100.59
732.93	6088.61
733.271	6116.18
733.612	6094.71
733.953	6151.89
734.294	6119.34
734.635	6133.58
734.976	6218.55
735.317	6195.95
735.658	6147.37
735.999	6149.85
736.339	6120.02
736.68	6205.9
737.021	6182.85
737.361	6183.07
737.702	6174.03
738.042	6186.46
738.383	6221.26
738.723	6198.66
739.063	6164.99
739.404	6229.62
739.744	6250.41
740.084	6238.66
740.424	6223.97
740.764	6252.22
741.104	6254.93
741.444	6286.12
741.784	6292.45
742.124	6317.76
742.464	6308.04
742.804	6286.35
743.143	6321.6
743.483	6382.84
743.823	6394.14
744.162	6380.35
744.502	6478.21
744.841	6451.31
745.181	6521.37
745.52	6509.84
745.86	6499.67
746.199	6537.19
746.538	6637.52
746.877	6697.63
747.216	6711.65
747.556	6776.95
747.895	6779.44
748.234	6836.61
748.573	6950.51
748.911	6920.45
749.25	7025.54
749.589	7057.63
749.928	7090.84
750.267	7143.72
750.605	7300.56
750.944	7304.17
751.283	7342.14
751.621	7433.21
751.96	7529.03
752.298	7642.69
752.636	7722.92
752.975	7828.23
753.313	7924.04
753.651	7998.62
753.989	8118.16
754.327	8248.55
754.666	8271.15
755.004	8461.66
755.342	8570.81
755.679	8671.37
756.017	8776.45
756.355	8879.5
756.693	9066.16
757.031	9228.87
757.368	9264.12
757.706	9471.8
758.044	9615.98
758.381	9706.6
758.719	9892.8
759.056	10098.22
759.394	10255.06
759.731	10249.41
760.068	10423.86
760.405	10644.88
760.743	10723.29
761.08	10899.33
761.417	11113.79
761.754	11260
762.091	11364.86
762.428	11650.5
762.765	11731.85
763.102	11955.35
763.438	11989.25
763.775	12271.05
764.112	12439.4
764.449	12627.2
764.785	12726.18
765.122	12870.58
765.458	12994.87
765.795	13154.19
766.131	13384.92
