Data from hue_110_FLMS001491_00100.txt Node
Date: Tue Feb 07 17:02:05 GMT 2017
User: dcchb
Spectrometer: FLMS00149
Trigger mode: 0
Integration Time (sec): 2.000000E-2
Scans to average: 10
Electric dark correction enabled: true
Nonlinearity correction enabled: false
Boxcar width: 0
XAxis mode: Wavelengths
Number of Pixels in Spectrum: 2048
>>>>>Begin Spectral Data<<<<<
341.393	-16.36
341.776	-16.36
342.16	-16.36
342.543	-68.33
342.927	-79.86
343.31	-72.85
343.693	-44.38
344.077	-58.61
344.46	-50.48
344.843	-40.08
345.226	-50.93
345.61	-30.37
345.993	-17.49
346.376	-2.8
346.759	3.53
347.142	16.64
347.525	30.87
347.908	47.37
348.291	75.62
348.674	83.53
349.057	110.42
349.44	137.31
349.823	152.68
350.206	169.85
350.588	206.24
350.971	209.63
351.354	217.31
351.737	237.2
352.119	239.46
352.502	285.56
352.884	255.95
353.267	285.78
353.65	297.31
354.032	300.7
354.414	307.7
354.797	285.33
355.179	329.85
355.562	332.34
355.944	333.69
356.326	331.66
356.709	348.15
357.091	330.08
357.473	348.15
357.855	356.29
358.238	328.95
358.62	340.02
359.002	330.98
359.384	351.54
359.766	358.32
360.148	358.55
360.53	345.22
360.912	351.54
361.294	334.14
361.676	339.12
362.057	323.52
362.439	335.73
362.821	342.28
363.203	347.25
363.584	334.6
363.966	339.12
364.348	327.59
364.729	329.4
365.111	339.34
365.493	319.91
365.874	312
366.256	315.39
366.637	322.39
367.019	317.2
367.4	331.21
367.781	325.33
368.163	326.91
368.544	302.28
368.925	315.39
369.306	312.22
369.688	305.9
370.069	335.5
370.45	315.84
370.831	312.45
371.212	342.96
371.593	321.04
371.974	308.83
372.355	317.65
372.736	304.77
373.117	318.32
373.498	308.83
373.879	327.59
374.26	330.98
374.641	312.68
375.021	336.4
375.402	312.9
375.783	316.74
376.163	346.8
376.544	349.96
376.925	316.29
377.305	330.75
377.686	323.3
378.066	311.77
378.447	335.95
378.827	337.99
379.208	314.26
379.588	356.29
379.968	343.18
380.349	330.3
380.729	323.97
381.109	345.22
381.489	332.56
381.87	354.48
382.25	372.11
382.63	346.12
383.01	353.58
383.39	346.35
383.77	354.71
384.15	364.2
384.53	352
384.91	343.41
385.29	355.16
385.67	369.4
386.049	337.99
386.429	356.52
386.809	368.49
387.189	364.88
387.568	350.41
387.948	362.39
388.328	369.4
388.707	359.45
389.087	398.77
389.466	360.81
389.846	376.85
390.225	392
390.605	379.34
390.984	377.76
391.363	386.8
391.743	371.43
392.122	384.54
392.501	390.64
392.881	388.83
393.26	403.07
393.639	417.08
394.018	396.06
394.397	387.7
394.776	396.29
395.155	417.53
395.534	384.76
395.913	394.71
396.292	410.07
396.671	398.55
397.05	404.88
397.429	394.26
397.808	395.84
398.186	401.03
398.565	407.14
398.944	422.05
399.323	404.88
399.701	410.53
400.08	408.27
400.458	425.67
400.837	428.6
401.215	397.87
401.594	411.2
401.972	431.77
402.351	428.83
402.729	418.44
403.107	433.35
403.486	447.59
403.864	442.16
404.242	440.81
404.62	428.6
404.999	439.45
405.377	440.81
405.755	448.72
406.133	453.69
406.511	450.3
406.889	453.91
407.267	448.72
407.645	453.91
408.023	442.62
408.401	440.36
408.779	457.76
409.156	458.66
409.534	458.21
409.912	447.81
410.29	469.51
410.667	485.55
411.045	491.2
411.422	474.25
411.8	495.95
412.178	499.56
412.555	474.25
412.933	489.85
413.31	478.09
413.687	492.11
414.065	506.79
414.442	515.83
414.819	519.22
415.197	507.7
415.574	520.58
415.951	521.94
416.328	507.02
416.705	527.13
417.082	533.01
417.46	510.86
417.837	551.09
418.214	510.64
418.591	536.4
418.967	556.06
419.344	532.33
419.721	562.84
420.098	549.96
420.475	568.71
420.852	562.61
421.228	555.15
421.605	560.58
421.982	575.49
422.358	583.18
422.735	569.17
423.111	578.43
423.488	557.19
423.864	581.37
424.241	615.04
424.617	593.57
424.994	631.54
425.37	612.55
425.746	608.03
426.123	615.94
426.499	646.45
426.875	620.69
427.251	636.73
427.627	648.03
428.003	655.94
428.379	640.58
428.756	646.45
429.132	674.93
429.507	644.64
429.883	667.92
430.259	675.38
430.635	662.04
431.011	685.09
431.387	707.02
431.763	696.17
432.138	685.55
432.514	712.66
432.89	716.05
433.265	692.78
433.641	713.34
434.016	742.95
434.392	737.3
434.767	732.1
435.143	736.17
435.518	758.31
435.894	756.28
436.269	782.72
436.644	778.43
437.02	784.75
437.395	788.6
437.77	789.95
438.145	810.06
438.52	808.03
438.895	806.9
439.271	816.62
439.646	847.8
440.021	849.84
440.395	839.22
440.77	825.43
441.145	849.61
441.52	851.42
441.895	844.41
442.27	853.45
442.645	867.46
443.019	873.79
443.394	897.97
443.769	901.36
444.143	876.5
444.518	916.5
444.892	892.32
445.267	913.79
445.641	919.67
446.016	922.15
446.39	938.2
446.764	931.87
447.139	932.55
447.513	961.02
447.887	952.66
448.262	961.25
448.636	973.9
449.01	965.54
449.384	984.52
449.758	974.8
450.132	1003.73
450.506	1017.52
450.88	1022.49
451.254	1006.44
451.628	1021.58
452.002	1037.18
452.376	1057.97
452.75	1062.49
453.123	1024.52
453.497	1066.78
453.871	1064.29
454.244	1108.59
454.618	1107.23
454.992	1090.51
455.365	1098.64
455.739	1147.23
456.112	1152.88
456.486	1164.4
456.859	1176.16
457.232	1174.8
457.606	1192.43
457.979	1204.86
458.352	1214.57
458.725	1219.77
459.099	1243.05
459.472	1283.95
459.845	1265.42
460.218	1268.81
460.591	1276.72
460.964	1322.59
461.337	1345.42
461.71	1380.44
462.083	1348.58
462.456	1382.48
462.829	1433.78
463.201	1405.98
463.574	1438.97
463.947	1458.63
464.32	1495.92
464.692	1489.82
465.065	1490.95
465.438	1523.72
465.81	1552.42
466.183	1563.04
466.555	1614.79
466.928	1629.93
467.3	1643.04
467.672	1673.77
468.045	1711.96
468.417	1721.45
468.789	1732.75
469.161	1766.87
469.534	1808.46
469.906	1847.78
470.278	1841.9
470.65	1872.86
471.022	1931.62
471.394	1942.92
471.766	1970.03
472.138	2017.94
472.51	2082.12
472.882	2117.6
473.253	2152.85
473.625	2166.86
473.997	2278.95
474.369	2304.71
474.74	2322.79
475.112	2375.22
475.484	2419.29
475.855	2498.61
476.227	2548.32
476.598	2608.89
476.97	2692.95
477.341	2753.06
477.713	2800.97
478.084	2844.81
478.455	2925.49
478.827	2960.06
479.198	3114.18
479.569	3135.88
479.94	3267.17
480.311	3355.76
480.682	3414.51
481.053	3502.42
481.424	3599.59
481.795	3711.23
482.166	3764.34
482.537	3880.04
482.908	3982.18
483.279	4069.86
483.65	4207.94
484.021	4288.16
484.391	4419.69
484.762	4511.66
485.133	4611.32
485.503	4744.65
485.874	4885.21
486.244	4925.44
486.615	5110.52
486.985	5180.34
487.356	5359.32
487.726	5485.65
488.097	5614.91
488.467	5719.76
488.837	5901.45
489.207	6053.77
489.578	6177.61
489.948	6296.92
490.318	6431.16
490.688	6531.95
491.058	6732.62
491.428	6817.82
491.798	6977.13
492.168	7121.08
492.538	7212.83
492.908	7394.07
493.278	7519.72
493.648	7624.57
494.017	7794.74
494.387	7986.15
494.757	8010.78
495.126	8192.24
495.496	8264.56
495.866	8406.47
496.235	8563.98
496.605	8732.57
496.974	8828.61
497.344	8973.24
497.713	9005.78
498.082	9196.96
498.452	9361.03
498.821	9438.76
499.19	9491.19
499.559	9662.26
499.928	9755.59
500.298	9794.23
500.667	9944.96
501.036	10003.49
501.405	10139.31
501.774	10228.8
502.143	10332.52
502.512	10378.85
502.88	10537.72
503.249	10641.67
503.618	10698.84
503.987	10826.98
504.356	10881.66
504.724	10954.88
505.093	11099.28
505.462	11070.13
505.83	11227.42
506.199	11335.66
506.567	11473.51
506.936	11442.78
507.304	11560.29
507.672	11631.47
508.041	11746.5
508.409	11880.05
508.777	11928.87
509.145	11984.01
509.514	12083.44
509.882	12069.65
510.25	12292.93
510.618	12249.54
510.986	12317.56
511.354	12378.8
511.722	12509.87
512.09	12649.53
512.458	12569.53
512.826	12694.5
513.193	12747.83
513.561	12752.57
513.929	12912.12
514.297	12972.23
514.664	12984.21
515.032	13014.94
515.4	13102.4
515.767	13113.02
516.135	13181.49
516.502	13156.41
516.869	13338.32
517.237	13337.64
517.604	13245.67
517.972	13555.04
518.339	13503.97
518.706	13581.25
519.073	13589.84
519.44	13752.77
519.808	13671.42
520.175	13699.67
520.542	13891.53
520.909	13862.38
521.276	13882.26
521.643	13975.59
522.009	14039.55
522.376	14044.97
522.743	14051.75
523.11	14157.96
523.477	14192.08
523.843	14282.93
524.21	14368.58
524.577	14437.28
524.943	14362.7
525.31	14518.63
525.676	14563.83
526.043	14603.6
526.409	14672.98
526.776	14729.25
527.142	14771.05
527.508	14767.21
527.874	14845.4
528.241	14832.52
528.607	14806.31
528.973	14882.91
529.339	14850.6
529.705	14940.99
530.071	14991.61
530.437	14917.04
530.803	15022.57
531.169	14980.76
531.535	14956.58
531.901	14924.49
532.267	14978.05
532.632	15033.42
532.998	14988.22
533.364	15022.8
533.73	15031.38
534.095	15137.14
534.461	15034.32
534.826	15044.94
535.192	15035.68
535.557	15126.07
535.923	15042.68
536.288	15053.98
536.653	15130.14
537.019	14999.75
537.384	14929.69
537.749	14949.13
538.114	15001.78
538.479	14970.82
538.845	15052.85
539.21	14902.57
539.575	14914.1
539.94	14898.96
540.305	14914.33
540.67	14827.55
541.034	14845.17
541.399	14884.95
541.764	14895.12
542.129	14788.9
542.494	14827.32
542.858	14733.99
543.223	14743.26
543.587	14812.18
543.952	14766.08
544.316	14742.35
544.681	14653.09
545.045	14644.95
545.41	14660.77
545.774	14641.56
546.138	14591.4
546.503	14652.64
546.867	14490.61
547.231	14534.9
547.595	14505.52
547.959	14545.3
548.324	14471.85
548.688	14450.38
549.052	14392.76
549.416	14344.4
549.779	14352.31
550.143	14406.99
550.507	14385.3
550.871	14327.9
551.235	14305.98
551.599	14324.74
551.962	14244.96
552.326	14290.61
552.689	14315.47
553.053	14255.81
553.417	14258.75
553.78	14255.13
554.143	14282.7
554.507	14223.72
554.87	14285.19
555.234	14372.42
555.597	14145.76
555.96	14194.8
556.323	14185.08
556.686	14171.29
557.05	14196.83
557.413	14183.95
557.776	14196.6
558.139	14203.61
558.502	14183.72
558.865	14126.55
559.228	14296.26
559.59	14235.02
559.953	14094.23
560.316	14256.26
560.679	14228.92
561.041	14286.55
561.404	14270.05
561.767	14291.74
562.129	14279.09
562.492	14318.41
562.854	14327
563.217	14290.39
563.579	14307.11
563.941	14401.34
564.304	14349.14
564.666	14382.14
565.028	14397.5
565.39	14320.67
565.753	14456.94
566.115	14428.91
566.477	14419.65
566.839	14472.3
567.201	14576.71
567.563	14569.7
567.925	14594.56
568.287	14581.45
568.648	14569.25
569.01	14676.37
569.372	14703.94
569.734	14696.48
570.095	14686.76
570.457	14660.32
570.819	14712.75
571.18	14700.55
571.542	14760.66
571.903	14719.3
572.265	14743.93
572.626	14835.68
572.987	14814.21
573.349	14805.4
573.71	14879.3
574.071	14879.75
574.432	14874.55
574.794	14972.18
575.155	14848.34
575.516	14888.11
575.877	14904.16
576.238	14969.24
576.599	14886.3
576.96	14906.64
577.32	14922.01
577.681	15002.68
578.042	15031.84
578.403	14961.1
578.763	15070.71
579.124	15007.66
579.485	15068.9
579.845	15069.12
580.206	15059.86
580.566	14956.36
580.927	15003.36
581.287	15047.66
581.648	14999.52
582.008	15021.89
582.368	14988.45
582.728	15056.92
583.089	15051.5
583.449	14945.06
583.809	15011.27
584.169	14922.23
584.529	14950.48
584.889	15039.75
585.249	14968.79
585.609	14931.27
585.969	14970.37
586.329	14953.87
586.688	14979.63
587.048	14975.57
587.408	14900.54
587.768	14843.14
588.127	14844.04
588.487	14838.4
588.846	14989.58
589.206	14811.28
589.565	14759.53
589.925	14889.02
590.284	14884.5
590.643	14898.05
591.003	14868.9
591.362	14852.86
591.721	14850.6
592.08	14782.35
592.44	14840.65
592.799	14844.72
593.158	14770.6
593.517	14810.6
593.876	14789.81
594.235	14845.63
594.593	14777.38
594.952	14782.58
595.311	14778.74
595.67	14722.69
596.029	14874.1
596.387	14850.37
596.746	14797.72
597.104	14704.39
597.463	14671.39
597.822	14743.71
598.18	14750.71
598.538	14724.73
598.897	14820.54
599.255	14657.61
599.613	14916.13
599.972	14706.65
600.33	14743.03
600.688	14695.12
601.046	14861.9
601.404	14817.38
601.762	14774.89
602.12	14810.37
602.478	14857.15
602.836	14779.64
603.194	14709.58
603.552	14741.67
603.91	14735.12
604.268	14803.82
604.625	14710.94
604.983	14890.15
605.341	14734.44
605.698	14839.07
606.056	14795.23
606.413	14790.03
606.771	14815.34
607.128	14870.03
607.485	14735.12
607.843	14820.77
608.2	14917.49
608.557	14868.68
608.914	14844.04
609.272	14874.78
609.629	14954.78
609.986	14999.29
610.343	14898.96
610.7	14948
611.057	14973.08
611.414	14988.67
611.771	14925.4
612.127	15018.5
612.484	14951.84
612.841	15035.9
613.198	14946.19
613.554	14944.38
613.911	15059.86
614.267	15046.75
614.624	15003.59
614.98	15095.79
615.337	15150.03
615.693	15067.99
616.05	15049.46
616.406	15157.26
616.762	15058.28
617.118	15117.48
617.475	15082.68
617.831	15202.45
618.187	15213.3
618.543	15166.07
618.899	15236.58
619.255	15268.89
619.611	15152.51
619.967	15288.33
620.323	15263.92
620.678	15189.35
621.034	15247.88
621.39	15266.18
621.746	15240.64
622.101	15451.49
622.457	15330.13
622.812	15286.52
623.168	15265.73
623.523	15306.41
623.879	15361.55
624.234	15211.72
624.589	15351.15
624.945	15312.73
625.3	15307.54
625.655	15365.84
626.01	15266.41
626.365	15325.84
626.72	15303.24
627.075	15201.78
627.43	15201.78
627.785	15275.22
628.14	15180.99
628.495	15305.5
628.85	15238.61
629.205	15166.07
629.559	15205.62
629.914	15194.77
630.269	15175.34
630.623	15167.2
630.978	15160.65
631.332	15109.8
631.687	15149.35
632.041	15066.41
632.396	15121.33
632.75	15133.53
633.104	15140.76
633.459	15010.82
633.813	15097.6
634.167	14955.68
634.521	15009.46
634.875	15042.23
635.229	15050.59
635.583	14888.56
635.937	14915.68
636.291	14946.19
636.645	14989.35
636.999	14916.59
637.352	14955.45
637.706	14925.17
638.06	14924.04
638.413	14784.61
638.767	14814.21
639.121	14803.14
639.474	14729.25
639.828	14691.28
640.181	14853.54
640.534	14773.31
640.888	14673.2
641.241	14679.98
641.594	14712.07
641.947	14727.44
642.301	14585.75
642.654	14667.78
643.007	14730.38
643.36	14665.52
643.713	14690.15
644.066	14649.93
644.419	14503.04
644.771	14490.38
645.124	14366.77
645.477	14407.67
645.83	14300.78
646.182	14227.79
646.535	14247.45
646.888	14164.74
647.24	14115.93
647.593	14220.11
647.945	14192.76
648.298	14129.04
648.65	14024.86
649.002	14066.44
649.355	14119.09
649.707	14100.34
650.059	14185.08
650.411	14335.81
650.763	14362.25
651.115	14517.73
651.467	14502.36
651.819	14567.67
652.171	14492.42
652.523	14376.49
652.875	14436.82
653.227	14346.66
653.578	14442.25
653.93	14465.75
654.282	14409.25
654.633	14375.13
654.985	14421.46
655.337	14406.99
655.688	14378.75
656.039	14383.72
656.391	14361.57
656.742	14412.87
657.094	14486.77
657.445	14508.46
657.796	14357.28
658.147	14381.23
658.498	14414.68
658.849	14489.48
659.2	14397.05
659.551	14399.76
659.902	14422.59
660.253	14325.64
660.604	14484.73
660.955	14407.45
661.306	14389.37
661.656	14463.72
662.007	14365.87
662.358	14425.52
662.708	14435.24
663.059	14429.37
663.409	14340.33
663.76	14481.57
664.11	14477.95
664.461	14501.91
664.811	14509.36
665.161	14506.2
665.511	14482.25
665.862	14467.56
666.212	14514.56
666.562	14536.26
666.912	14529.7
667.262	14522.47
667.612	14481.79
667.962	14548.69
668.312	14449.7
668.662	14614.45
669.011	14455.58
669.361	14540.78
669.711	14531.96
670.06	14498.52
670.41	14494.9
670.76	14364.96
671.109	14376.26
671.459	14394.34
671.808	14487.9
672.157	14371.74
672.507	14345.98
672.856	14352.76
673.205	14335.13
673.554	14375.36
673.904	14337.39
674.253	14405.64
674.602	14377.16
674.951	14195.02
675.3	14082.48
675.649	14283.83
675.998	14314.12
676.346	14217.62
676.695	14343.04
677.044	14171.97
677.393	14302.14
677.741	14254.46
678.09	14187.34
678.438	14210.84
678.787	14204.06
679.135	14190.5
679.484	14162.25
679.832	14100.34
680.181	14028.47
680.529	14112.09
680.877	14017.17
681.225	14071.86
681.573	14039.32
681.922	13984.18
682.27	13955.71
682.618	13925.88
682.966	13844.07
683.314	13866.44
683.661	13867.35
684.009	13769.5
684.357	13815.6
684.705	13789.61
685.053	13793.45
685.4	13749.16
685.748	13651.99
686.095	13583.29
686.443	13621.03
686.79	13500.58
687.138	13578.99
687.485	13584.42
687.832	13531.99
688.18	13511.42
688.527	13439.56
688.874	13395.72
689.221	13348.72
689.568	13366.34
689.915	13261.04
690.262	13404.76
690.609	13254.26
690.956	13211.55
691.303	13189.4
691.65	13097.88
691.997	13114.37
692.344	12994.38
692.69	13021.49
693.037	12974.94
693.383	12953.92
693.73	12897.66
694.077	12841.84
694.423	12801.84
694.769	12797.54
695.116	12665.8
695.462	12714.84
695.808	12671.9
696.155	12644.33
696.501	12556.2
696.847	12569.53
697.193	12433.49
697.539	12523.43
697.885	12354.84
698.231	12336.31
698.577	12374.05
698.923	12386.26
699.269	12246.37
699.614	12198.01
699.96	12156.66
700.306	12173.61
700.651	12114.62
700.997	12048.19
701.342	12038.47
701.688	11913.95
702.033	11887.29
702.379	11949.66
702.724	11880.96
703.069	11892.26
703.415	11608.2
703.76	11725.03
704.105	11737.46
704.45	11694.3
704.795	11567.75
705.14	11503.57
705.485	11548.99
705.83	11403.91
706.175	11502.21
706.52	11419.05
706.865	11361.42
707.209	11401.42
707.554	11338.83
707.899	11315.32
708.243	11339.05
708.588	11224.03
708.932	11201.43
709.277	11207.3
709.621	11120.98
709.966	11103.58
710.31	11061.32
710.654	11010.25
710.998	10938.61
711.342	11007.08
711.687	10982
712.031	10916.01
712.375	10905.84
712.719	10936.8
713.063	10905.17
713.407	10917.37
713.75	10836.24
714.094	10783.59
714.438	10752.63
714.782	10793.3
715.125	10697.71
715.469	10780.65
715.812	10688.45
716.156	10587.66
716.499	10679.41
716.843	10659.3
717.186	10594.89
717.53	10703.59
717.873	10597.15
718.216	10539.3
718.559	10528.9
718.902	10457.04
719.246	10535.91
719.589	10450.26
719.932	10468.34
720.275	10431.73
720.617	10406.42
720.96	10384.05
721.303	10350.6
721.646	10390.15
721.989	10368.23
722.331	10448.45
722.674	10363.94
723.016	10390.6
723.359	10382.02
723.701	10383.15
724.044	10299.76
724.386	10296.82
724.729	10326.42
725.071	10346.08
725.413	10271.96
725.755	10252.3
726.097	10211.4
726.439	10139.31
726.782	10114.23
727.124	10237.84
727.465	10160.1
727.807	10133.21
728.149	10185.41
728.491	10132.3
728.833	10186.54
729.175	10161.91
729.516	10184.51
729.858	10103.38
730.199	10152.42
730.541	10153.09
730.882	10167.33
731.224	10103.38
731.565	10104.96
731.906	10198.74
732.248	10170.72
732.589	10063.61
732.93	10132.98
733.271	10117.62
733.612	10162.81
733.953	10071.29
734.294	10082.14
734.635	10050.5
734.976	10099.54
735.317	10020.89
735.658	10085.07
735.999	10083.94
736.339	10100.89
736.68	10090.95
737.021	10079.88
737.361	10047.56
737.702	10073.32
738.042	10018.86
738.383	10099.31
738.723	10171.63
739.063	10107.45
739.404	10119.2
739.744	10127.11
740.084	10102.47
740.424	10130.95
740.764	10127.33
741.104	10188.8
741.444	10133.66
741.784	10205.52
742.124	10241.23
742.464	10221.34
742.804	10210.49
743.143	10247.56
743.483	10311.73
743.823	10226.09
744.162	10329.14
744.502	10328.23
744.841	10310.15
745.181	10461.56
745.52	10386.53
745.86	10454.1
746.199	10463.14
746.538	10521.22
746.877	10593.54
747.216	10607.32
747.556	10688
747.895	10755.34
748.234	10751.5
748.573	10773.42
748.911	10859.74
749.25	10919.85
749.589	10940.19
749.928	11059.96
750.267	11155.78
750.605	11111.94
750.944	11205.5
751.283	11229.68
751.621	11420.86
751.96	11447.98
752.298	11523.68
752.636	11688.65
752.975	11688.2
753.313	11818.14
753.651	11901.75
753.989	11958.47
754.327	12079.37
754.666	12137
755.004	12267.62
755.342	12475.07
755.679	12571.79
756.017	12650.88
756.355	12741.73
