Data from hue_300_FLMS001491_00091.txt Node
Date: Tue Feb 07 15:51:27 GMT 2017
User: dcchb
Spectrometer: FLMS00149
Trigger mode: 0
Integration Time (sec): 2.000000E-2
Scans to average: 10
Electric dark correction enabled: true
Nonlinearity correction enabled: false
Boxcar width: 0
XAxis mode: Wavelengths
Number of Pixels in Spectrum: 2048
>>>>>Begin Spectral Data<<<<<
341.393	3.53
341.776	3.53
342.16	3.53
342.543	-36.69
342.927	-72.17
343.31	-66.52
343.693	-75.34
344.077	-51.38
344.46	-55.68
344.843	-49.8
345.226	-29.24
345.61	-36.69
345.993	-19.29
346.376	3.3
346.759	14.38
347.142	17.32
347.525	49.63
347.908	57.54
348.291	53.02
348.674	81.5
349.057	107.26
349.44	129.4
349.823	121.72
350.206	158.33
350.588	187.03
350.971	214.82
351.354	210.98
351.737	232.45
352.119	253.47
352.502	264.99
352.884	272.68
353.267	253.47
353.65	282.17
354.032	297.53
354.414	301.83
354.797	320.13
355.179	303.86
355.562	319.68
355.944	320.81
356.326	330.75
356.709	329.62
357.091	339.34
357.473	344.54
357.855	340.47
358.238	335.05
358.62	333.69
359.002	324.88
359.384	347.7
359.766	332.56
360.148	327.14
360.53	329.4
360.912	321.26
361.294	330.08
361.676	312.45
362.057	323.3
362.439	323.75
362.821	318.78
363.203	326.91
363.584	313.81
363.966	307.7
364.348	305.44
364.729	331.66
365.111	332.79
365.493	310.19
365.874	313.13
366.256	303.86
366.637	300.92
367.019	316.07
367.4	327.59
367.781	311.55
368.163	321.71
368.544	329.17
368.925	300.02
369.306	312
369.688	320.36
370.069	314.94
370.45	313.13
370.831	306.57
371.212	313.35
371.593	311.55
371.974	307.48
372.355	309.96
372.736	331.21
373.117	315.39
373.498	321.26
373.879	289.17
374.26	303.86
374.641	319.23
375.021	318.55
375.402	319
375.783	333.47
376.163	317.2
376.544	329.4
376.925	325.78
377.305	333.92
377.686	319.45
378.066	339.34
378.447	308.38
378.827	327.59
379.208	329.4
379.588	321.71
379.968	329.4
380.349	323.75
380.729	327.14
381.109	332.56
381.489	335.73
381.87	330.53
382.25	338.66
382.63	334.37
383.01	308.61
383.39	335.95
383.77	350.64
384.15	358.32
384.53	356.29
384.91	337.31
385.29	341.38
385.67	352.67
386.049	350.87
386.429	349.06
386.809	359.23
387.189	365.78
387.568	349.51
387.948	362.84
388.328	350.87
388.707	357.42
389.087	361.26
389.466	348.15
389.846	366.46
390.225	366.46
390.605	351.09
390.984	356.74
391.363	360.58
391.743	354.03
392.122	337.31
392.501	368.49
392.881	357.19
393.26	362.84
393.639	370.98
394.018	403.75
394.397	383.86
394.776	348.15
395.155	354.26
395.534	386.57
395.913	356.74
396.292	382.96
396.671	365.78
397.05	407.14
397.429	395.39
397.808	387.02
398.186	373.92
398.565	395.84
398.944	409.4
399.323	404.88
399.701	402.84
400.08	413.92
400.458	403.75
400.837	412.56
401.215	425.44
401.594	397.19
401.972	404.42
402.351	429.96
402.729	425.67
403.107	401.26
403.486	417.53
403.864	424.99
404.242	429.06
404.62	422.5
404.999	436.29
405.377	444.65
405.755	443.75
406.133	438.1
406.511	445.1
406.889	472.45
407.267	465.89
407.645	469.96
408.023	467.25
408.401	448.04
408.779	463.63
409.156	463.63
409.534	488.94
409.912	512.9
410.29	502.73
410.667	516.74
411.045	526.68
411.422	500.02
411.8	505.66
412.178	516.51
412.555	536.85
412.933	544.76
413.31	572.33
413.687	580.24
414.065	571.43
414.442	563.29
414.819	580.46
415.197	583.85
415.574	590.63
415.951	597.19
416.328	614.14
416.705	643.97
417.082	631.99
417.46	660.91
417.837	641.71
418.214	643.29
418.591	650.75
418.967	664.76
419.344	664.3
419.721	693.91
420.098	673.34
420.475	697.3
420.852	737.07
421.228	713.12
421.605	743.4
421.982	760.8
422.358	743.62
422.735	755.38
423.111	748.37
423.488	770.52
423.864	793.11
424.241	774.36
424.617	769.39
424.994	790.63
425.37	805.09
425.746	798.09
426.123	818.2
426.499	831.76
426.875	842.83
427.251	853.45
427.627	859.1
428.003	882.6
428.379	876.5
428.756	909.04
429.132	890.29
429.507	904.98
429.883	892.77
430.259	926.44
430.635	937.74
431.011	934.58
431.387	983.39
431.763	988.36
432.138	980.23
432.514	1010.06
432.89	1014.13
433.265	1024.52
433.641	1031.07
434.016	1042.15
434.392	1057.29
434.767	1070.85
435.143	1054.12
435.518	1089.38
435.894	1081.92
436.269	1116.04
436.644	1119.21
437.02	1121.69
437.395	1130.51
437.77	1153.56
438.145	1141.81
438.52	1162.14
438.895	1189.04
439.271	1191.3
439.646	1205.08
440.021	1198.3
440.395	1217.74
440.77	1230.39
441.145	1218.19
441.52	1247.11
441.895	1226.55
442.27	1227.23
442.645	1242.82
443.019	1267
443.394	1247.79
443.769	1279.2
444.143	1265.87
444.518	1302.25
444.892	1282.82
445.267	1307.68
445.641	1289.6
446.016	1297.73
446.39	1314.23
446.764	1324.4
447.139	1278.53
447.513	1314.23
447.887	1318.98
448.262	1316.49
448.636	1338.19
449.01	1321.24
449.384	1328.02
449.758	1342.93
450.132	1357.17
450.506	1347
450.88	1365.76
451.254	1377.96
451.628	1373.44
452.002	1382.93
452.376	1405.08
452.75	1391.07
453.123	1414.79
453.497	1410.95
453.871	1410.27
454.244	1437.39
454.618	1413.66
454.992	1481.23
455.365	1446.2
455.739	1466.32
456.112	1494.34
456.486	1510.61
456.859	1482.59
457.232	1502.02
457.606	1507.22
457.979	1514
458.352	1526.2
458.725	1539.99
459.099	1528.91
459.472	1599.2
459.845	1591.29
460.218	1561.23
460.591	1618.18
460.964	1606.43
461.337	1661.79
461.71	1619.53
462.083	1665.41
462.456	1672.87
462.829	1641.23
463.201	1706.76
463.574	1690.27
463.947	1707.89
464.32	1717.16
464.692	1753.09
465.065	1731.17
465.438	1763.26
465.81	1762.58
466.183	1763.94
466.555	1803.71
466.928	1796.93
467.3	1795.8
467.672	1837.16
468.045	1849.81
468.417	1841.22
468.789	1878.06
469.161	1873.31
469.534	1890.49
469.906	1935.46
470.278	1950.15
470.65	1945.63
471.022	1969.81
471.394	2010.71
471.766	2012.52
472.138	2010.71
472.51	2045.74
472.882	2099.52
473.253	2070.37
473.625	2093.19
473.997	2151.05
474.369	2157.6
474.74	2149.46
475.112	2139.75
475.484	2189.24
475.855	2206.64
476.227	2207.54
476.598	2276.01
476.97	2264.71
477.341	2308.33
477.713	2298.39
478.084	2338.61
478.455	2385.62
478.827	2386.52
479.198	2411.38
479.569	2408.21
479.94	2472.39
480.311	2487.08
480.682	2526.4
481.053	2564.37
481.424	2584.03
481.795	2608.43
482.166	2632.39
482.537	2661.31
482.908	2658.38
483.279	2671.26
483.65	2717.81
484.021	2779.05
484.391	2768.88
484.762	2774.31
485.133	2808.88
485.503	2832.61
485.874	2884.36
486.244	2853.17
486.615	2911.25
486.985	2928.43
487.356	2961.87
487.726	2972.27
488.097	3054.98
488.467	3056.56
488.837	3118.48
489.207	3048.42
489.578	3170.45
489.948	3141.98
490.318	3172.71
490.688	3179.27
491.058	3228.3
491.428	3242.99
491.798	3269.66
492.168	3305.37
492.538	3355.53
492.908	3362.76
493.278	3363.22
493.648	3360.96
494.017	3391.92
494.387	3426.49
494.757	3440.95
495.126	3417.23
495.496	3457
495.866	3520.95
496.235	3535.42
496.605	3502.65
496.974	3524.34
497.344	3576.32
497.713	3540.84
498.082	3555.75
498.452	3615.41
498.821	3626.03
499.19	3624.9
499.559	3639.14
499.928	3638.92
500.298	3639.14
500.667	3676.43
501.036	3701.29
501.405	3728.4
501.774	3720.72
502.143	3742.19
502.512	3721.17
502.88	3759.59
503.249	3767.73
503.618	3775.64
503.987	3794.84
504.356	3752.58
504.724	3806.14
505.093	3817.22
505.462	3833.49
505.83	3827.61
506.199	3875.07
506.567	3912.58
506.936	3903.09
507.304	3909.64
507.672	3932.92
508.041	3896.76
508.409	3946.48
508.777	3940.6
509.145	4007.72
509.514	3964.1
509.882	3997.32
510.25	3992.58
510.618	3984.67
510.986	3993.26
511.354	4068.51
511.722	4059.02
512.09	4045.23
512.458	4042.75
512.826	4076.19
513.193	4088.4
513.561	4072.8
513.929	4117.32
514.297	4147.38
514.664	4165
515.032	4117.55
515.4	4119.58
515.767	4184.89
516.135	4172.69
516.502	4156.64
516.869	4226.92
517.237	4192.8
517.604	4163.65
517.972	4269.63
518.339	4234.83
518.706	4219.92
519.073	4212.46
519.44	4264.44
519.808	4293.59
520.175	4260.82
520.542	4340.82
520.909	4319.12
521.276	4309.86
521.643	4311.21
522.009	4374.26
522.376	4301.27
522.743	4379.24
523.11	4414.26
523.477	4430.08
523.843	4432.12
524.21	4462.85
524.577	4481.38
524.943	4503.07
525.31	4533.58
525.676	4557.54
526.043	4551.66
526.409	4535.62
526.776	4605.44
527.142	4626.23
527.508	4650.19
527.874	4684.76
528.241	4649.96
528.607	4673.01
528.973	4750.07
529.339	4762.28
529.705	4687.7
530.071	4762.95
530.437	4782.84
530.803	4805.66
531.169	4841.82
531.535	4870.52
531.901	4857.41
532.267	4837.75
532.632	4921.37
532.998	4919.79
533.364	4947.58
533.73	4962.04
534.095	4987.35
534.461	4987.35
534.826	5040.46
535.192	5020.57
535.557	5080.46
535.923	5073.68
536.288	5080.46
536.653	5134.24
537.019	5115.71
537.384	5126.11
537.749	5133.79
538.114	5193.9
538.479	5173.56
538.845	5189.61
539.21	5197.97
539.575	5203.62
539.94	5220.57
540.305	5295.82
540.67	5338.98
541.034	5309.83
541.399	5408.81
541.764	5371.3
542.129	5362.03
542.494	5378.53
542.858	5440.22
543.223	5435.25
543.587	5455.37
543.952	5474.57
544.316	5519.32
544.681	5514.12
545.045	5521.8
545.41	5587.79
545.774	5623.95
546.138	5609.49
546.503	5622.14
546.867	5664.4
547.231	5671.86
547.595	5666.21
547.959	5739.88
548.324	5745.3
548.688	5746.2
549.052	5773.32
549.416	5806.54
549.779	5803.6
550.143	5785.98
550.507	5823.72
550.871	5894.45
551.235	5864.39
551.599	5871.63
551.962	5895.13
552.326	5909.14
552.689	5957.5
553.053	5943.26
553.417	5960.89
553.78	6047.44
554.143	5983.71
554.507	6065.97
554.87	6049.02
555.234	6114.78
555.597	6056.25
555.96	6114.78
556.323	6107.33
556.686	6075.91
557.05	6203.82
557.413	6204.95
557.776	6150.94
558.139	6219.64
558.502	6236.36
558.865	6233.2
559.228	6252.41
559.59	6239.53
559.953	6266.42
560.316	6338.51
560.679	6291.95
561.041	6340.54
561.404	6352.74
561.767	6375.57
562.129	6421.44
562.492	6431.84
562.854	6453.53
563.217	6420.31
563.579	6499.18
563.941	6481.55
564.304	6491.95
564.666	6565.17
565.028	6558.16
565.39	6545.51
565.753	6593.87
566.115	6593.87
566.477	6575.11
566.839	6626.41
567.201	6707.08
567.563	6686.52
567.925	6707.99
568.287	6719.29
568.648	6729.91
569.01	6769.68
569.372	6814.2
569.734	6798.61
570.095	6852.84
570.457	6892.62
570.819	6963.8
571.18	6969.68
571.542	7026.85
571.903	7017.36
572.265	7085.38
572.626	7164.7
572.987	7184.36
573.349	7163.57
573.71	7214.19
574.071	7275.43
574.432	7350.23
574.794	7417.8
575.155	7458.25
575.516	7485.82
575.877	7554.52
576.238	7593.16
576.599	7677.68
576.96	7739.37
577.32	7813.72
577.681	7916.32
578.042	7987.28
578.403	7998.35
578.763	8185.46
579.124	8208.96
579.485	8392.69
579.845	8499.58
580.206	8520.14
580.566	8668.84
580.927	8720.14
581.287	8923.75
581.648	9053.69
582.008	9217.75
582.368	9305.21
582.728	9472.66
583.089	9660.68
583.449	9794.69
583.809	9911.97
584.169	10141.12
584.529	10308.8
584.889	10595.57
585.249	10705.85
585.609	10852.29
585.969	11087.08
586.329	11223.57
586.688	11464.92
587.048	11790.79
587.408	11977.45
587.768	12104.68
588.127	12381.51
588.487	12680.49
588.846	13003.19
589.206	13057.43
589.565	13346.91
589.925	13737.18
590.284	13934.24
590.643	14251.07
591.003	14523.15
591.362	14851.28
591.721	15123.81
592.08	15324.03
592.44	15592.73
592.799	16009.89
593.158	16243.1
593.517	16555.86
593.876	16945.01
594.235	17096.41
594.593	17406.92
594.952	17706.34
595.311	17998.76
595.67	18281.02
596.029	18629.26
596.387	18976.14
596.746	19233.53
597.104	19557.82
597.463	19724.59
597.822	20125.71
598.18	20359.38
598.538	20682.31
598.897	21062.64
599.255	21261.05
599.613	21744.2
599.972	22005.89
600.33	22219.44
600.688	22355.49
601.046	22810.61
601.404	23104.17
601.762	23325.63
602.12	23670.48
602.478	23974.65
602.836	24212.61
603.194	24397.01
603.552	24671.58
603.91	24936.89
604.268	25246.26
604.625	25476.31
604.983	25798.56
605.341	25834.94
605.698	26131.43
606.056	26470.18
606.413	26731.19
606.771	27089.6
607.128	27294.34
607.485	27247.56
607.843	27635.12
608.2	27976.13
608.557	28212.96
608.914	28269.91
609.272	28734.07
609.629	28978.14
609.986	29281.86
610.343	29206.15
610.7	29588.74
611.057	29778.12
611.414	29894.04
611.771	30135.17
612.127	30372.68
612.484	30543.74
612.841	30732.67
613.198	30825.77
613.554	30955.03
613.911	31251.3
614.267	31321.35
614.624	31558.63
614.98	31816.48
615.337	32086.76
615.693	32172.85
616.05	32259.86
616.406	32576.46
616.762	32500.3
617.118	32682.67
617.475	32886.96
617.831	33055.54
618.187	33177.35
618.543	33338.02
618.899	33609.2
619.255	33662.08
619.611	33654.85
619.967	33893.26
620.323	34093.93
620.678	34016.42
621.034	34001.28
621.39	34293.02
621.746	34300.93
622.101	34817.98
622.457	34678.78
622.812	34745.67
623.168	34963.06
623.523	35056.39
623.879	35099.78
624.234	34933.23
624.589	35140.69
624.945	35371.19
625.3	35360.12
625.655	35498.64
626.01	35574.57
626.365	35498.42
626.72	35693.21
627.075	35682.14
627.43	35573.44
627.785	35805.98
628.14	35839.42
628.495	35928.24
628.85	35911.51
629.205	35796.49
629.559	36107.44
629.914	35942.25
630.269	36090.72
630.623	36029.48
630.978	35964.85
631.332	36107.44
631.687	36307.66
632.041	36247.78
632.396	36177.04
632.75	36105.63
633.104	36199.64
633.459	36108.57
633.813	36121.68
634.167	36266.31
634.521	36250.26
634.875	36315.57
635.229	36208
635.583	36182.92
635.937	36250.94
636.291	36208.91
636.645	36129.13
636.999	36222.01
637.352	36451.84
637.706	36189.47
638.06	36292.52
638.413	36263.82
638.767	36223.82
639.121	36294.78
639.474	36107.89
639.828	36140.21
640.181	36078.29
640.534	36266.31
640.888	36187.44
641.241	35972.3
641.594	36137.27
641.947	36226.31
642.301	36110.6
642.654	36099.98
643.007	36277.61
643.36	36214.33
643.713	36165.52
644.066	36273.54
644.419	35942.7
644.771	35891.17
645.124	35574.57
645.477	35496.38
645.83	35362.38
646.182	35233.11
646.535	35017.98
646.888	35235.37
647.24	35097.98
647.593	35199.22
647.945	35198.76
648.298	34925.55
648.65	35035.38
649.002	34910.64
649.355	35137.97
649.707	35087.58
650.059	35094.81
650.411	35521.69
650.763	35531.18
651.115	35985.41
651.467	35878.07
651.819	35850.05
652.171	35735.25
652.523	35717.17
652.875	35771.63
653.227	35565.53
653.578	35837.39
653.93	35780.67
654.282	35580.9
654.633	35596.49
654.985	35581.58
655.337	35572.09
655.688	35616.38
656.039	35831.74
656.391	35485.99
656.742	35591.3
657.094	35515.59
657.445	35638.3
657.796	35647.34
658.147	35591.52
658.498	35454.8
658.849	35631.97
659.2	35550.62
659.551	35476.5
659.902	35742.25
660.253	35535.48
660.604	35789.26
660.955	35391.08
661.306	35600.56
661.656	35542.71
662.007	35569.83
662.358	35591.07
662.708	35570.05
663.059	35633.78
663.409	35272.89
663.76	35648.7
664.11	35523.95
664.461	35578.64
664.811	35594.46
665.161	35540.45
665.511	35378.65
665.862	35368.7
666.212	35528.25
666.562	35604.18
666.912	35393.33
667.262	35352.88
667.612	35494.8
667.962	35409.61
668.312	35401.7
668.662	35612.76
669.011	35428.36
669.361	35446.21
669.711	35444.41
670.06	35256.62
670.41	35204.87
670.76	35288.03
671.109	35464.07
671.459	35323.05
671.808	35246.67
672.157	35312.89
672.507	35092.1
672.856	35081.03
673.205	35189.95
673.554	35289.83
673.904	35084.42
674.253	35407.57
674.602	35192.66
674.951	34810.53
675.3	34595.84
675.649	35066.79
675.998	35098.88
676.346	35124.19
676.695	35161.93
677.044	35031.31
677.393	34983.4
677.741	35102.04
678.09	34923.06
678.438	34948.37
678.787	34960.13
679.135	34912.9
679.484	34769.17
679.832	34864.54
680.181	34694.37
680.529	34630.42
680.877	34626.12
681.225	34694.14
681.573	34770.98
681.922	34628.61
682.27	34528.5
682.618	34524.88
682.966	34377.54
683.314	34517.43
683.661	34380.25
684.009	34199.92
684.357	34201.5
684.705	34087.61
685.053	34188.39
685.4	34044.22
685.748	33899.59
686.095	33814.17
686.443	33787.73
686.79	33703.89
687.138	33906.37
687.485	33858.01
687.832	33751.34
688.18	33738.92
688.527	33608.98
688.874	33527.62
689.221	33465.93
689.568	33441.3
689.915	33276.33
690.262	33296.67
690.609	33166.05
690.956	33034.98
691.303	33145.94
691.65	32856.23
691.997	32904.59
692.344	32713.18
692.69	32699.17
693.037	32755.89
693.383	32365.39
693.73	32559.74
694.077	32413.07
694.423	32378.95
694.769	32254.21
695.116	32077.72
695.462	32278.16
695.808	32028
696.155	32147.54
696.501	31875.46
696.847	31783.71
697.193	31602.93
697.539	31879.08
697.885	31530.39
698.231	31390.95
698.577	31497.17
698.923	31456.26
699.269	31358.64
699.614	31113.22
699.96	31099.21
700.306	31106.89
700.651	30887.92
700.997	30795.49
701.342	30710.97
701.688	30645.89
702.033	30767.69
702.379	30667.36
702.724	30586.91
703.069	30679.11
703.415	30255.84
703.76	30223.3
704.105	30371.32
704.45	30101.72
704.795	30060.37
705.14	29939.24
705.485	29924.1
705.83	29801.84
706.175	29915.74
706.52	29757.1
706.865	29662.86
707.209	29589.19
707.554	29462.42
707.899	29567.73
708.243	29359.14
708.588	29431.23
708.932	29086.83
709.277	29158.47
709.621	29251.58
709.966	29162.09
710.31	28944.24
710.654	28832.38
710.998	28856.56
711.342	28718.71
711.687	28737.01
712.031	28559.84
712.375	28527.53
712.719	28539.05
713.063	28502.44
713.407	28610.91
713.75	28453.18
714.094	28430.81
714.438	28302.45
714.782	28306.52
715.125	28130.93
715.469	28151.94
715.812	28063.13
716.156	27914.44
716.499	27965.51
716.843	27995.34
717.186	27820.2
717.53	27925.06
717.873	27780.2
718.216	27761.9
718.559	27732.29
718.902	27544.73
719.246	27581.79
719.589	27456.37
719.932	27439.42
720.275	27451.62
720.617	27376.6
720.96	27270.61
721.303	27294.79
721.646	27304.06
721.989	27128.24
722.331	27220.89
722.674	27098.86
723.016	27033.55
723.359	27125.98
723.701	27046.66
724.044	26870.17
724.386	26806.67
724.729	26903.16
725.071	26733.22
725.413	26785.43
725.755	26768.7
726.097	26658.2
726.439	26603.74
726.782	26602.15
727.124	26595.37
727.465	26541.82
727.807	26458.2
728.149	26530.29
728.491	26447.58
728.833	26529.16
729.175	26453.01
729.516	26270.64
729.858	26270.86
730.199	26296.4
730.541	26275.38
730.882	26181.15
731.224	26208.49
731.565	26057.99
731.906	26100.92
732.248	26106.35
732.589	25993.58
732.93	25975.5
733.271	25882.17
733.612	26022.96
733.953	26099.34
734.294	25768.73
734.635	25685.79
734.976	25919.01
735.317	25654.38
735.658	25745
735.999	25735.74
736.339	25545.23
736.68	25785.23
737.021	25693.25
737.361	25574.38
737.702	25619.58
738.042	25506.59
738.383	25441.96
738.723	25489.41
739.063	25326.93
739.404	25357.89
739.744	25356.76
740.084	25149.08
740.424	25377.33
740.764	25208.07
741.104	25338.68
741.444	25103.66
741.784	25112.25
742.124	25211.23
742.464	24952.25
742.804	25000.61
743.143	24960.39
743.483	24974.17
743.823	24918.58
744.162	24846.04
744.502	24896.21
744.841	24793.84
745.181	24892.82
745.52	24768.3
745.86	24848.75
746.199	24741.64
746.538	24674.07
746.877	24761.98
747.216	24727.85
747.556	24688.08
747.895	24699.6
748.234	24606.5
748.573	24647.4
748.911	24446.28
749.25	24510.68
749.589	24439.72
749.928	24481.76
750.267	24457.35
750.605	24438.82
750.944	24349.56
751.283	24360.4
751.621	24464.58
751.96	24252.84
752.298	24234.98
752.636	24200.86
752.975	24135.1
753.313	24124.48
753.651	24222.1
753.989	24055.33
754.327	24071.37
754.666	23928.78
755.004	23957.03
755.342	24064.14
755.679	23989.34
756.017	23834.99
756.355	23883.58
756.693	23761.32
757.031	23765.62
757.368	23751.16
757.706	23739.63
758.044	23534.44
758.381	23661.67
758.719	23505.74
759.056	23493.76
759.394	23544.38
759.731	23263.94
