Data from hue_70_FLMS001491_65.txt Node
Date: Mon Feb 06 15:21:16 GMT 2017
User: dcchb
Spectrometer: FLMS00149
Trigger mode: 0
Integration Time (sec): 2.000000E-2
Scans to average: 10
Electric dark correction enabled: true
Nonlinearity correction enabled: false
Boxcar width: 0
XAxis mode: Wavelengths
Number of Pixels in Spectrum: 2048
>>>>>Begin Spectral Data<<<<<
341.393	-33.43
341.776	-33.43
342.16	-33.43
342.543	-66.65
342.927	-76.82
343.31	-74.79
343.693	-59.42
344.077	-70.72
344.46	-83.15
344.843	-51.28
345.226	-40.89
345.61	-26.43
345.993	-17.16
346.376	-3.38
346.759	21.93
347.142	33.46
347.525	44.98
347.908	46.11
348.291	83.18
348.674	94.47
349.057	103.06
349.44	147.13
349.823	138.54
350.206	167.24
350.588	207.69
350.971	182.38
351.354	225.54
351.737	215.6
352.119	231.87
352.502	257.86
352.884	281.81
353.267	266.67
353.65	280.68
354.032	293.11
354.414	305.32
354.797	308.25
355.179	321.81
355.562	328.14
355.944	323.17
356.326	356.39
356.709	346.67
357.091	334.24
357.473	354.36
357.855	344.64
358.238	332.89
358.62	349.84
359.002	338.54
359.384	340.8
359.766	336.73
360.148	336.95
360.53	334.69
360.912	344.64
361.294	335.15
361.676	354.81
362.057	326.56
362.439	348.93
362.821	319.78
363.203	338.08
363.584	330.17
363.966	303.51
364.348	308.25
364.729	321.59
365.111	328.14
365.493	309.38
365.874	305.32
366.256	305.77
366.637	328.59
367.019	324.07
367.4	316.62
367.781	321.59
368.163	308.25
368.544	308.48
368.925	298.54
369.306	320.68
369.688	317.75
370.069	311.19
370.45	306.9
370.831	325.66
371.212	338.76
371.593	306.67
371.974	310.74
372.355	322.27
372.736	325.88
373.117	294.24
373.498	307.58
373.879	315.71
374.26	305.09
374.641	307.12
375.021	315.26
375.402	312.1
375.783	331.76
376.163	332.43
376.544	315.94
376.925	305.99
377.305	314.13
377.686	325.2
378.066	328.82
378.447	332.66
378.827	341.93
379.208	321.59
379.588	306.45
379.968	328.37
380.349	333.11
380.729	332.43
381.109	331.08
381.489	323.4
381.87	353.23
382.25	333.79
382.63	350.74
383.01	315.94
383.39	341.25
383.77	348.25
384.15	359.1
384.53	338.99
384.91	361.36
385.29	352.1
385.67	351.87
386.049	350.06
386.429	358.2
386.809	345.77
387.189	353.45
387.568	354.36
387.948	349.38
388.328	367.91
388.707	354.58
389.087	359.55
389.466	369.27
389.846	382.6
390.225	351.64
390.605	350.29
390.984	355.03
391.363	353.23
391.743	369.5
392.122	354.58
392.501	353.23
392.881	376.05
393.26	369.72
393.639	362.72
394.018	374.02
394.397	370.17
394.776	390.74
395.155	391.64
395.534	389.38
395.913	383.51
396.292	382.83
396.671	393.68
397.05	397.52
397.429	356.39
397.808	384.64
398.186	375.15
398.565	390.29
398.944	387.8
399.323	398.2
399.701	410.62
400.08	388.93
400.458	367.01
400.837	390.06
401.215	396.16
401.594	402.49
401.972	413.11
402.351	399.78
402.729	400
403.107	391.42
403.486	409.95
403.864	406.11
404.242	403.62
404.62	383.51
404.999	412.43
405.377	404.98
405.755	409.27
406.133	414.01
406.511	406.56
406.889	409.04
407.267	413.11
407.645	414.47
408.023	411.75
408.401	430.06
408.779	404.07
409.156	426.44
409.534	397.74
409.912	422.38
410.29	441.13
410.667	442.94
411.045	429.16
411.422	433.45
411.8	455.37
412.178	467.57
412.555	434.8
412.933	474.8
413.31	439.32
413.687	451.08
414.065	451.53
414.442	457.18
414.819	464.41
415.197	499.66
415.574	468.7
415.951	482.94
416.328	487.68
416.705	476.16
417.082	460.57
417.46	473.45
417.837	474.35
418.214	481.58
418.591	497.4
418.967	490.85
419.344	485.88
419.721	498.08
420.098	492.88
420.475	512.99
420.852	504.41
421.228	509.38
421.605	518.64
421.982	520.68
422.358	515.93
422.735	511.41
423.111	518.19
423.488	540.79
423.864	530.85
424.241	520.68
424.617	518.64
424.994	540.34
425.37	533.56
425.746	545.31
426.123	535.14
426.499	553.9
426.875	554.58
427.251	561.13
427.627	579.21
428.003	552.09
428.379	582.37
428.756	569.04
429.132	588.02
429.507	588.25
429.883	578.3
430.259	588.02
430.635	600.45
431.011	595.7
431.387	615.37
431.763	628.25
432.138	620.11
432.514	642.48
432.89	611.52
433.265	622.82
433.641	647.45
434.016	645.42
434.392	640.22
434.767	649.04
435.143	650.62
435.518	671.41
435.894	675.25
436.269	666.44
436.644	678.87
437.02	679.54
437.395	674.12
437.77	699.2
438.145	672.76
438.52	691.07
438.895	710.05
439.271	704.4
439.646	715.25
440.021	722.48
440.395	718.19
440.77	720
441.145	731.75
441.52	725.87
441.895	719.54
442.27	746.66
442.645	740.11
443.019	735.14
443.394	749.15
443.769	754.8
444.143	764.74
444.518	771.97
444.892	756.83
445.267	763.16
445.641	763.38
446.016	768.81
446.39	783.27
446.764	785.76
447.139	769.26
447.513	778.3
447.887	787.56
448.262	812.87
448.636	803.38
449.01	797.51
449.384	831.4
449.758	841.57
450.132	812.2
450.506	842.93
450.88	832.31
451.254	831.4
451.628	859.88
452.002	857.17
452.376	825.98
452.75	863.95
453.123	863.04
453.497	895.13
453.871	890.39
454.244	908.24
454.618	909.14
454.992	941.23
455.365	930.16
455.739	943.27
456.112	945.53
456.486	938.97
456.859	962.47
457.232	972.64
457.606	969.93
457.979	996.37
458.352	992.3
458.725	1030.27
459.099	1003.15
459.472	1052.87
459.845	1052.42
460.218	1026.88
460.591	1062.59
460.964	1064.84
461.337	1099.65
461.71	1081.12
462.083	1100.78
462.456	1118.63
462.829	1119.08
463.201	1144.16
463.574	1144.16
463.947	1153.2
464.32	1180.77
464.692	1186.2
465.065	1227.78
465.438	1220.77
465.81	1256.25
466.183	1270.49
466.555	1294.67
466.928	1302.8
467.3	1315.23
467.672	1316.59
468.045	1373.09
468.417	1406.3
468.789	1411.28
469.161	1397.72
469.534	1430.94
469.906	1479.75
470.278	1486.75
470.65	1504.16
471.022	1557.04
471.394	1567.88
471.766	1573.98
472.138	1634.1
472.51	1666.86
472.882	1731.49
473.253	1697.6
473.625	1752.96
473.997	1785.73
474.369	1817.14
474.74	1894.88
475.112	1913.64
475.484	1947.53
475.855	2006.06
476.227	2017.81
476.598	2080.19
476.97	2163.8
477.341	2184.14
477.713	2254.64
478.084	2266.4
478.455	2400.4
478.827	2419.39
479.198	2514.3
479.569	2538.48
479.94	2659.61
480.311	2701.64
480.682	2768.3
481.053	2865.7
481.424	2947.96
481.795	3037.9
482.166	3079.71
482.537	3153.6
482.908	3239.25
483.279	3355.41
483.65	3437.44
484.021	3542.52
484.391	3601.5
484.762	3729.41
485.133	3805.56
485.503	3928.5
485.874	4032.45
486.244	4147.25
486.615	4244.2
486.985	4364.87
487.356	4576.39
487.726	4613.45
488.097	4819.55
488.467	4844.86
488.837	5011.63
489.207	5109.94
489.578	5262.7
489.948	5361.91
490.318	5543.6
490.688	5626.08
491.058	5759.64
491.428	5954.21
491.798	6027.88
492.168	6252.51
492.538	6325.5
492.908	6447.3
493.278	6592.84
493.648	6725.94
494.017	6851.59
494.387	7004.58
494.757	7128.64
495.126	7282.31
495.496	7360.5
495.866	7508.07
496.235	7726.36
496.605	7841.62
496.974	7998
497.344	8108.95
497.713	8181.72
498.082	8385.33
498.452	8517.53
498.821	8641.59
499.19	8722.5
499.559	8872.32
499.928	9043.84
500.298	9118.19
500.667	9299.88
501.036	9324.51
501.405	9599.76
501.774	9612.87
502.143	9717.5
502.512	9875.91
502.88	9985.29
503.249	10072.97
503.618	10206.98
503.987	10253.08
504.356	10430.7
504.724	10534.2
505.093	10581.43
505.462	10680.19
505.83	10877.24
506.199	11013.06
506.567	11160.4
506.936	11237.46
507.304	11381.41
507.672	11475.42
508.041	11606.49
508.409	11746.82
508.777	11820.72
509.145	11950.43
509.514	12011.22
509.882	12110.66
510.25	12191.11
510.618	12286.7
510.986	12396.52
511.354	12610.98
511.722	12692.34
512.09	12822.05
512.458	12784.08
512.826	12965.1
513.193	13177.75
513.561	13174.36
513.929	13256.16
514.297	13360.11
514.664	13488.25
515.032	13581.13
515.4	13712.65
515.767	13654.34
516.135	13840.78
516.502	13771.18
516.869	14014.56
517.237	14088.68
517.604	14094.56
517.972	14270.15
518.339	14375
518.706	14405.29
519.073	14520.99
519.44	14560.54
519.808	14752.39
520.175	14750.59
520.542	14981.32
520.909	15020.86
521.276	14987.19
521.643	15174.53
522.009	15300.85
522.376	15382.43
522.743	15354.86
523.11	15646.61
523.477	15715.76
523.843	15781.07
524.21	16017.9
524.577	16107.39
524.943	16006.37
525.31	16156.2
525.676	16258.8
526.043	16372.24
526.409	16455.4
526.776	16626.7
527.142	16637.32
527.508	16697.2
527.874	16822.62
528.241	16913.47
528.607	16925.67
528.973	17030.07
529.339	17044.31
529.705	17207.47
530.071	17309.16
530.437	17329.5
530.803	17496.96
531.169	17512.77
531.535	17484.07
531.901	17547.58
532.267	17641.81
532.632	17684.29
532.998	17657.63
533.364	17827.34
533.73	17799.32
534.095	17893.1
534.461	18028.01
534.826	18068.69
535.192	18157.5
535.557	18122.93
535.923	18085.64
536.288	18209.7
536.653	18262.36
537.019	18211.96
537.384	18341.9
537.749	18382.58
538.114	18284.51
538.479	18285.18
538.845	18384.84
539.21	18395.24
539.575	18496.7
539.94	18520.66
540.305	18519.08
540.67	18460.55
541.034	18523.59
541.399	18615.8
541.764	18652.41
542.129	18630.48
542.494	18738.5
542.858	18623.71
543.223	18766.53
543.587	18786.41
543.952	18849.01
544.316	18828.67
544.681	18735.11
545.045	18874.77
545.41	18947.09
545.774	18865.51
546.138	18923.13
546.503	18875.22
546.867	18953.64
547.231	19100.08
547.595	18971.72
547.959	19102.11
548.324	19018.27
548.688	18973.53
549.052	19065.5
549.416	18970.81
549.779	19048.78
550.143	19113.41
550.507	19110.7
550.871	19146.4
551.235	19317.47
551.599	19355.89
551.962	19222.79
552.326	19284.7
552.689	19406.28
553.053	19447.64
553.417	19365.83
553.78	19627.75
554.143	19433.18
554.507	19571.93
554.87	19556.11
555.234	19696.9
555.597	19586.17
555.96	19640.85
556.323	19692.6
556.686	19720.17
557.05	19854.41
557.413	19749.55
557.776	19829.78
558.139	19996.78
558.502	19970.79
558.865	19978.25
559.228	20044.01
559.59	20106.38
559.953	20220.05
560.316	20351.8
560.679	20349.99
561.041	20458.01
561.404	20425.92
561.767	20472.24
562.129	20364.68
562.492	20672.01
562.854	20619.81
563.217	20527.16
563.579	20667.72
563.941	20774.84
564.304	20737.77
564.666	20897.32
565.028	20917.66
565.39	21002.4
565.753	21062.74
566.115	21172.34
566.477	21172.11
566.839	21293.24
567.201	21333.01
567.563	21249.17
567.925	21426.34
568.287	21455.72
568.648	21501.37
569.01	21641.25
569.372	21709.27
569.734	21596.96
570.095	21758.76
570.457	21854.58
570.819	21719.9
571.18	21885.77
571.542	21942.26
571.903	22062.26
572.265	22022.94
572.626	22084.86
572.987	22008.02
573.349	22208.02
573.71	22353.78
574.071	22253.21
574.432	22375.25
574.794	22532.75
575.155	22350.84
575.516	22403.72
575.877	22532.53
576.238	22489.59
576.599	22525.07
576.96	22557.84
577.32	22516.03
577.681	22645.52
578.042	22728.91
578.403	22690.26
578.763	22773.65
579.124	22740.66
579.485	22728.46
579.845	22812.75
580.206	22764.39
580.566	22733.2
580.927	22848.23
581.287	22937.94
581.648	22732.52
582.008	22951.5
582.368	22922.8
582.728	22928.22
583.089	22924.61
583.449	22952.63
583.809	22947.43
584.169	22906.53
584.529	22918.96
584.889	23127.09
585.249	22866.08
585.609	22938.39
585.969	22963.25
586.329	22887.32
586.688	23010.26
587.048	22929.13
587.408	22898.17
587.768	22915.34
588.127	22902.69
588.487	22810.94
588.846	23074.89
589.206	22867.21
589.565	22767.55
589.925	22986.75
590.284	22894.55
590.643	22999.64
591.003	22958.28
591.362	22978.84
591.721	22955.12
592.08	22974.78
592.44	23035.11
592.799	22948.79
593.158	22858.4
593.517	22925.06
593.876	23006.64
594.235	22927.77
594.593	22968.45
594.952	22978.17
595.311	22917.38
595.67	23002.8
596.029	23184.26
596.387	23119.86
596.746	23153.76
597.104	22972.74
597.463	23058.84
597.822	23136.58
598.18	22914.89
598.538	22993.53
598.897	23197.6
599.255	23050.48
599.613	23281.89
599.972	23139.97
600.33	23139.52
600.688	23047.09
601.046	23204.15
601.404	23335.67
601.762	23278.95
602.12	23342
602.478	23333.19
602.836	23358.95
603.194	23201.66
603.552	23279.4
603.91	23213.42
604.268	23347.65
604.625	23255
604.983	23329.12
605.341	23198.05
605.698	23339.51
606.056	23296.12
606.413	23374.54
606.771	23469.68
607.128	23457.48
607.485	23324.6
607.843	23508.32
608.2	23481.88
608.557	23590.58
608.914	23530.24
609.272	23735.44
609.629	23694.31
609.986	23700.63
610.343	23564.37
610.7	23915.32
611.057	23721.65
611.414	23758.94
611.771	23761.65
612.127	23840.29
612.484	23815.43
612.841	23967.29
613.198	23876
613.554	23829.44
613.911	23992.6
614.267	23870.8
614.624	24035.99
614.98	24111.92
615.337	24061.08
615.693	24018.14
616.05	24155.76
616.406	24248.64
616.762	24156.44
617.118	24055.43
617.475	24235.08
617.831	24287.74
618.187	24310.11
618.543	24318.47
618.899	24422.65
619.255	24417.23
619.611	24345.59
619.967	24422.65
620.323	24464
620.678	24425.59
621.034	24384.46
621.39	24351.46
621.746	24350.56
622.101	24696.99
622.457	24384.91
622.812	24582.87
623.168	24515.53
623.523	24533.83
623.879	24625.36
624.234	24493.38
624.589	24568.41
624.945	24652.02
625.3	24684.56
625.655	24635.52
626.01	24682.98
626.365	24572.25
626.72	24539.26
627.075	24589.65
627.43	24591.91
627.785	24497.9
628.14	24485.47
628.495	24619.93
628.85	24678.91
629.205	24479.82
629.559	24536.77
629.914	24586.71
630.269	24558.46
630.623	24581.97
630.978	24430.78
631.332	24564.57
631.687	24633.04
632.041	24616.77
632.396	24598.92
632.75	24463.55
633.104	24506.49
633.459	24338.13
633.813	24410.45
634.167	24378.81
634.521	24346.94
634.875	24359.83
635.229	24326.38
635.583	24320.96
635.937	24318.7
636.291	24175.65
636.645	24161.41
636.999	24216.55
637.352	24331.58
637.706	24136.78
638.06	24289.09
638.413	24047.74
638.767	24077.57
639.121	24118.02
639.474	24049.1
639.828	24051.59
640.181	24055.88
640.534	24142.66
640.888	23962.77
641.241	23968.2
641.594	23955.32
641.947	24042.55
642.301	24077.8
642.654	23859.73
643.007	23904.47
643.36	23856.34
643.713	23855.21
644.066	23887.07
644.419	23789.67
644.771	23716.9
645.124	23437.14
645.477	23370.02
645.83	23371.38
646.182	23192.17
646.535	23130.25
646.888	23115.11
647.24	22949.47
647.593	23118.28
647.945	22977.26
648.298	22990.14
648.65	22937.94
649.002	22932.74
649.355	22929.35
649.707	22949.69
650.059	23092.97
650.411	23429.68
650.763	23369.57
651.115	23636.45
651.467	23583.57
651.819	23552.62
652.171	23567.53
652.523	23586.74
652.875	23460.87
653.227	23380.42
653.578	23572.5
653.93	23539.28
654.282	23474.43
654.633	23335.9
654.985	23488.21
655.337	23372.73
655.688	23400.53
656.039	23384.71
656.391	23365.73
656.742	23371.83
657.094	23335.67
657.445	23376.57
657.796	23395.78
658.147	23340.42
658.498	23284.83
658.849	23389
659.2	23416.57
659.551	23321.43
659.902	23486.18
660.253	23385.61
660.604	23467.87
660.955	23293.41
661.306	23436.01
661.656	23339.29
662.007	23397.82
662.358	23404.37
662.708	23354.88
663.059	23417.25
663.409	23332.28
663.76	23389.68
664.11	23386.74
664.461	23357.82
664.811	23402.56
665.161	23366.63
665.511	23344.94
665.862	23379.06
666.212	23428.1
666.562	23323.69
666.912	23373.64
667.262	23348.1
667.612	23390.59
667.962	23404.37
668.312	23211.61
668.662	23401.21
669.011	23313.53
669.361	23319.4
669.711	23279.4
670.06	23325.95
670.41	23231.72
670.76	23280.31
671.109	23302.68
671.459	23174.55
671.808	23184.26
672.157	23271.49
672.507	23106.53
672.856	23155.79
673.205	23240.76
673.554	23276.24
673.904	23145.17
674.253	23246.86
674.602	23142.91
674.951	22819.75
675.3	22681.45
675.649	23109.01
675.998	22953.08
676.346	22986.3
676.695	23151.5
677.044	22880.54
677.393	22994.89
677.741	23011.16
678.09	22963.48
678.438	22921.9
678.787	22898.62
679.135	22932.97
679.484	22693.88
679.832	22759.19
680.181	22654.56
680.529	22692.75
680.877	22630.83
681.225	22606.65
681.573	22701.56
681.922	22522.59
682.27	22638.97
682.618	22464.96
682.966	22485.3
683.314	22525.07
683.661	22394.45
684.009	22390.16
684.357	22249.37
684.705	22267.23
685.053	22243.95
685.4	22244.63
685.748	22139.32
686.095	22127.12
686.443	22092.09
686.79	22031.3
687.138	22098.19
687.485	22034.46
687.832	21901.36
688.18	21907.91
688.527	21835.37
688.874	21889.16
689.221	21750.63
689.568	21673.79
689.915	21632.21
690.262	21624.98
690.609	21559.45
690.956	21543.4
691.303	21567.81
691.65	21332.56
691.997	21220.25
692.344	21173.02
692.69	21168.95
693.037	21199.23
693.383	20951.33
693.73	21174.37
694.077	20996.3
694.423	20955.85
694.769	20818
695.116	20716.98
695.462	20757.21
695.808	20742.07
696.155	20703.42
696.501	20598.34
696.847	20473.6
697.193	20390.66
697.539	20503.66
697.885	20294.62
698.231	20227.28
698.577	20185.92
698.923	20182.76
699.269	20082.2
699.614	19938.02
699.96	19832.94
700.306	19864.8
700.651	19713.62
700.997	19713.62
701.342	19729.21
701.688	19592.72
702.033	19469.78
702.379	19510.24
702.724	19454.42
703.069	19473.63
703.415	19222.56
703.76	19274.08
704.105	19284.25
704.45	19149.79
704.795	19128.1
705.14	19078.16
705.485	19043.13
705.83	18916.8
706.175	18961.78
706.52	18922.23
706.865	18718.62
707.209	18833.64
707.554	18752.97
707.899	18726.3
708.243	18644.72
708.588	18628.68
708.932	18525.63
709.277	18411.96
709.621	18518.17
709.966	18392.98
710.31	18398.17
710.654	18282.7
710.998	18294
711.342	18236.37
711.687	18261.68
712.031	18164.06
712.375	18049.26
712.719	18040.22
713.063	17996.38
713.407	18093.78
713.75	18011.07
714.094	17917.06
714.438	17869.6
714.782	17911.18
715.125	17768.81
715.469	17760
715.812	17689.94
716.156	17666.44
716.499	17725.2
716.843	17671.41
717.186	17500.34
717.53	17620.12
717.873	17537.86
718.216	17488.82
718.559	17495.15
718.902	17336.96
719.246	17402.72
719.589	17368.82
719.932	17282.27
720.275	17284.98
720.617	17270.07
720.96	17205.21
721.303	17153.24
721.646	17173.12
721.989	17153.46
722.331	17173.35
722.674	17137.64
723.016	17179
723.359	17045.67
723.701	17086.8
724.044	17120.92
724.386	16933.81
724.729	17017.19
725.071	16978.32
725.413	16976.97
725.755	16992.34
726.097	16911.43
726.439	16891.55
726.782	16775.84
727.124	16897.87
727.465	16793.24
727.807	16814.26
728.149	16812
728.491	16775.39
728.833	16774.94
729.175	16746.92
729.516	16608.17
729.858	16707.6
730.199	16701.27
730.541	16691.78
730.882	16647.49
731.224	16675.96
731.565	16558.9
731.906	16628.96
732.248	16568.62
732.589	16531.33
732.93	16416.53
733.271	16507.6
733.612	16500.37
733.953	16536.98
734.294	16519.35
734.635	16395.52
734.976	16516.42
735.317	16450.66
735.658	16472.8
735.999	16398.9
736.339	16433.48
736.68	16401.39
737.021	16362.07
737.361	16329.98
737.702	16433.03
738.042	16387.83
738.383	16295.63
738.723	16388.28
739.063	16358.45
739.404	16443.42
739.744	16307.16
740.084	16212.47
740.424	16358
740.764	16358.45
741.104	16333.82
741.444	16336.08
741.784	16226.03
742.124	16358
742.464	16298.12
742.804	16336.76
743.143	16239.14
743.483	16351.67
743.823	16258.12
744.162	16366.59
744.502	16421.5
744.841	16402.29
745.181	16408.62
745.52	16379.24
745.86	16463.31
746.199	16433.03
746.538	16485.46
746.877	16546.47
747.216	16549.86
747.556	16494.04
747.895	16578.11
748.234	16570.2
748.573	16561.16
748.911	16654.72
749.25	16627.37
749.589	16572.01
749.928	16698.33
750.267	16738.56
750.605	16663.08
750.944	16753.7
751.283	16748.05
751.621	16889.06
751.96	16854.03
752.298	16946.46
752.636	17017.42
752.975	16943.52
753.313	17075.27
753.651	17192.33
753.989	17200.47
754.327	17324.3
754.666	17210.64
755.004	17330.18
755.342	17504.64
755.679	17492.44
756.017	17502.15
756.355	17611.98
756.693	17646.33
757.031	17712.09
757.368	17781.47
