Data from hue_270_FLMS001491_00023.txt Node
Date: Tue Feb 07 15:56:58 GMT 2017
User: dcchb
Spectrometer: FLMS00149
Trigger mode: 0
Integration Time (sec): 2.000000E-2
Scans to average: 10
Electric dark correction enabled: true
Nonlinearity correction enabled: false
Boxcar width: 0
XAxis mode: Wavelengths
Number of Pixels in Spectrum: 2048
>>>>>Begin Spectral Data<<<<<
341.393	0.9
341.776	0.9
342.16	0.9
342.543	-69.38
342.927	-65.99
343.31	-74.8
343.693	-61.92
344.077	-48.13
344.46	-61.92
344.843	-55.37
345.226	-37.51
345.61	-22.6
345.993	-25.31
346.376	-4.07
346.759	21.24
347.142	9.94
347.525	48.59
347.908	45.65
348.291	83.61
348.674	77.51
349.057	105.08
349.44	115.48
349.823	129.04
350.206	141.47
350.588	175.14
350.971	186.89
351.354	215.81
351.737	241.8
352.119	251.97
352.502	279.09
352.884	255.59
353.267	263.27
353.65	288.58
354.032	296.49
354.414	303.04
354.797	297.85
355.179	297.85
355.562	298.3
355.944	305.3
356.326	325.42
356.709	315.92
357.091	310.5
357.473	327.9
357.855	348.24
358.238	317.73
358.62	350.95
359.002	342.59
359.384	335.36
359.766	352.31
360.148	332.42
360.53	320.9
360.912	324.06
361.294	308.01
361.676	315.47
362.057	352.08
362.439	336.94
362.821	319.54
363.203	350.95
363.584	323.16
363.966	304.4
364.348	308.01
364.729	335.81
365.111	312.76
365.493	315.7
365.874	312.99
366.256	320.22
366.637	314.57
367.019	318.18
367.4	327
367.781	322.25
368.163	332.65
368.544	294
368.925	314.57
369.306	307.11
369.688	304.62
370.069	317.28
370.45	303.72
370.831	314.57
371.212	321.35
371.593	297.17
371.974	309.82
372.355	320.22
372.736	300.56
373.117	304.17
373.498	307.56
373.879	328.58
374.26	317.05
374.641	296.72
375.021	299.43
375.402	317.51
375.783	329.93
376.163	338.52
376.544	323.61
376.925	312.76
377.305	331.74
377.686	341.01
378.066	315.7
378.447	338.52
378.827	341.91
379.208	338.52
379.588	312.76
379.968	361.8
380.349	338.3
380.729	329.26
381.109	332.87
381.489	330.16
381.87	329.03
382.25	322.7
382.63	336.94
383.01	335.36
383.39	345.98
383.77	336.26
384.15	344.17
384.53	364.96
384.91	337.84
385.29	332.19
385.67	355.7
386.049	336.49
386.429	355.02
386.809	348.01
387.189	365.64
387.568	367.67
387.948	362.02
388.328	378.3
388.707	369.48
389.087	358.63
389.466	375.13
389.846	358.41
390.225	369.93
390.605	366.77
390.984	371.52
391.363	361.12
391.743	377.17
392.122	378.52
392.501	403.83
392.881	400.89
393.26	380.33
393.639	375.36
394.018	400.22
394.397	384.17
394.776	397.96
395.155	387.33
395.534	403.83
395.913	399.99
396.292	388.69
396.671	405.87
397.05	398.18
397.429	395.24
397.808	401.8
398.186	410.61
398.565	398.63
398.944	409.71
399.323	407.67
399.701	408.8
400.08	393.66
400.458	440.44
400.837	414.23
401.215	423.27
401.594	428.92
401.972	432.98
402.351	442.7
402.729	428.24
403.107	450.16
403.486	445.41
403.864	460.78
404.242	454.9
404.62	453.77
404.999	456.26
405.377	448.8
405.755	467.56
406.133	453.77
406.511	461.23
406.889	463.94
407.267	490.16
407.645	491.96
408.023	501.46
408.401	489.25
408.779	503.72
409.156	511.17
409.534	513.66
409.912	521.79
410.29	513.21
410.667	519.31
411.045	519.53
411.422	522.92
411.8	534.22
412.178	552.3
412.555	577.84
412.933	578.29
413.31	550.04
413.687	576.48
414.065	576.93
414.442	609.02
414.819	583.71
415.197	602.92
415.574	607.22
415.951	620.1
416.328	638.18
416.705	639.53
417.082	644.05
417.46	639.31
417.837	649.93
418.214	661.23
418.591	658.74
418.967	676.82
419.344	678.4
419.721	693.09
420.098	682.02
420.475	715.24
420.852	721.11
421.228	726.08
421.605	729.92
421.982	732.64
422.358	767.44
422.735	765.4
423.111	776.48
423.488	785.29
423.864	810.83
424.241	800.2
424.617	796.82
424.994	808.79
425.37	836.59
425.746	852.18
426.123	853.31
426.499	873.65
426.875	857.83
427.251	910.48
427.627	892.63
428.003	901.67
428.379	906.87
428.756	939.86
429.132	932.4
429.507	947.55
429.883	955.68
430.259	967.88
430.635	986.41
431.011	985.96
431.387	1036.36
431.763	1025.28
432.138	1037.49
432.514	1043.81
432.89	1068.22
433.265	1066.86
433.641	1077.71
434.016	1098.95
434.392	1121.1
434.767	1137.6
435.143	1168.56
435.518	1169.91
435.894	1179.63
436.269	1200.87
436.644	1203.13
437.02	1240.42
437.395	1271.83
437.77	1287.2
438.145	1296.69
438.52	1289.23
438.895	1329.23
439.271	1300.3
439.646	1343.02
440.021	1378.04
440.395	1376.24
440.77	1374.65
441.145	1365.84
441.52	1413.3
441.895	1437.7
442.27	1423.69
442.645	1461.66
443.019	1466.4
443.394	1465.72
443.769	1492.84
444.143	1482.45
444.518	1489
444.892	1519.28
445.267	1526.97
445.641	1547.08
446.016	1533.07
446.39	1529.68
446.764	1547.76
447.139	1539.85
447.513	1578.26
447.887	1547.08
448.262	1617.13
448.636	1616.68
449.01	1613.52
449.384	1642.89
449.758	1636.12
450.132	1666.17
450.506	1678.6
450.88	1662.33
451.254	1674.76
451.628	1674.98
452.002	1703.91
452.376	1731.25
452.75	1750.24
453.123	1756.11
453.497	1767.86
453.871	1783.23
454.244	1831.14
454.618	1847.18
454.992	1830.23
455.365	1839.95
455.739	1900.74
456.112	1900.74
456.486	1903.23
456.859	1917.69
457.232	1946.62
457.606	1926.28
457.979	1987.29
458.352	1992.49
458.725	2033.39
459.099	2011.25
459.472	2096.67
459.845	2101.64
460.218	2122.88
460.591	2092.15
460.964	2122.2
461.337	2153.84
461.71	2208.3
462.083	2207.4
462.456	2229.55
462.829	2224.8
463.201	2267.06
463.574	2279.04
463.947	2294.4
464.32	2333.05
464.692	2363.33
465.065	2388.86
465.438	2373.5
465.81	2401.74
466.183	2444.23
466.555	2495.08
466.928	2484.45
467.3	2503.44
467.672	2538.01
468.045	2612.36
468.417	2594.73
468.789	2582.53
469.161	2627.5
469.534	2644.68
469.906	2724.9
470.278	2711.57
470.65	2776.65
471.022	2821.39
471.394	2865.91
471.766	2837.21
472.138	2895.74
472.51	2917.44
472.882	2939.36
473.253	3015.97
473.625	3029.3
473.997	3047.15
474.369	3102.07
474.74	3144.32
475.112	3179.58
475.484	3217.54
475.855	3280.37
476.227	3292.12
476.598	3336.86
476.97	3385.45
477.341	3436.07
477.713	3498.89
478.084	3441.72
478.455	3576.4
478.827	3630.19
479.198	3649.4
479.569	3655.27
479.94	3797.41
480.311	3792.67
480.682	3867.02
481.053	3905.43
481.424	3976.84
481.795	4045.77
482.166	4006.9
482.537	4065.66
482.908	4138.87
483.279	4192.88
483.65	4288.47
484.021	4271.53
484.391	4325.76
484.762	4373.22
485.133	4436.27
485.503	4438.53
485.874	4535.25
486.244	4569.15
486.615	4636.49
486.985	4637.39
487.356	4723.72
487.726	4771.63
488.097	4852.75
488.467	4820.66
488.837	4928.01
489.207	4971.62
489.578	5037.38
489.948	5029.25
490.318	5117.83
490.688	5121.45
491.058	5247.32
491.428	5272.4
491.798	5373.42
492.168	5379.97
492.538	5355.79
492.908	5476.69
493.278	5489.8
493.648	5551.72
494.017	5543.58
494.387	5646.41
494.757	5640.53
495.126	5712.39
495.496	5709.68
495.866	5715.1
496.235	5749.23
496.605	5843.69
496.974	5852.05
497.344	5903.12
497.713	5925.04
498.082	5945.61
498.452	5933.18
498.821	6033.29
499.19	6030.8
499.559	6139.95
499.928	6136.56
500.298	6090.46
500.667	6118.94
501.036	6141.53
501.405	6213.17
501.774	6200.74
502.143	6217.24
502.512	6272.6
502.88	6316.9
503.249	6336.78
503.618	6326.16
503.987	6380.85
504.356	6406.84
504.724	6449.32
505.093	6433.28
505.462	6394.18
505.83	6497.91
506.199	6536.78
506.567	6555.53
506.936	6529.77
507.304	6616.1
507.672	6607.06
508.041	6664.91
508.409	6676.89
508.777	6684.8
509.145	6793.49
509.514	6688.86
509.882	6773.61
510.25	6762.08
510.618	6779.71
510.986	6757.79
511.354	6825.36
511.722	6890.44
512.09	6935.64
512.458	6900.61
512.826	6973.15
513.193	6938.57
513.561	6921.85
513.929	6996.65
514.297	7018.12
514.664	7066.48
515.032	7025.58
515.4	7125.46
515.767	7105.35
516.135	7118.46
516.502	7077.55
516.869	7190.32
517.237	7107.38
517.604	7159.36
517.972	7238.91
518.339	7256.53
518.706	7229.64
519.073	7220.6
519.44	7256.76
519.808	7265.8
520.175	7357.77
520.542	7428.28
520.909	7368.39
521.276	7410.65
521.643	7400.48
522.009	7467.37
522.376	7418.11
522.743	7499.01
523.11	7508.96
523.477	7587.82
523.843	7550.99
524.21	7621.72
524.577	7640.93
524.943	7634.15
525.31	7761.38
525.676	7774.71
526.043	7791.21
526.409	7853.35
526.776	7835.95
527.142	7867.14
527.508	7883.86
527.874	7914.37
528.241	7975.16
528.607	7986.46
528.973	8009.73
529.339	7928.83
529.705	8014.03
530.071	8021.94
530.437	8059.68
530.803	8128.6
531.169	8101.93
531.535	8128.37
531.901	8116.4
532.267	8145.55
532.632	8148.71
532.998	8162.05
533.364	8275.04
533.73	8224.87
534.095	8263.06
534.461	8277.97
534.826	8274.81
535.192	8323.85
535.557	8340.35
535.923	8352.1
536.288	8352.32
536.653	8396.62
537.019	8280.01
537.384	8326.79
537.749	8404.3
538.114	8419.21
538.479	8429.83
538.845	8433.9
539.21	8365.88
539.575	8427.35
539.94	8442.26
540.305	8500.79
540.67	8379.89
541.034	8506.89
541.399	8534.69
541.764	8485.88
542.129	8546.44
542.494	8492.66
542.858	8526.1
543.223	8528.36
543.587	8529.04
543.952	8572.88
544.316	8613.11
544.681	8645.42
545.045	8658.98
545.41	8686.1
545.774	8642.94
546.138	8680.9
546.503	8650.17
546.867	8658.08
547.231	8701.69
547.595	8740.79
547.959	8804.51
548.324	8724.52
548.688	8717.06
549.052	8718.87
549.416	8768.13
549.779	8712.31
550.143	8785.98
550.507	8840.45
550.871	8831.41
551.235	8807.45
551.599	8877.28
551.962	8846.1
552.326	8913.89
552.689	8888.58
553.053	8861.91
553.417	8864.17
553.78	8968.13
554.143	8957.73
554.507	8984.85
554.87	8902.14
555.234	9101.23
555.597	8923.38
555.96	8978.3
556.323	8988.92
556.686	9069.37
557.05	9098.29
557.413	9141.23
557.776	9115.01
558.139	9173.77
558.502	9182.13
558.865	9189.59
559.228	9258.29
559.59	9296.25
559.953	9203.15
560.316	9287.67
560.679	9278.85
561.041	9285.63
561.404	9384.61
561.767	9490.82
562.129	9359.3
562.492	9499.86
562.854	9492.63
563.217	9461.22
563.579	9519.3
563.941	9538.05
564.304	9671.38
564.666	9669.35
565.028	9696.69
565.39	9733.98
565.753	9818.5
566.115	9770.14
566.477	9813.75
566.839	9884.03
567.201	9907.99
567.563	9906.41
567.925	9978.04
568.287	9982.11
568.648	9932.17
569.01	10002.67
569.372	10071.37
569.734	10057.14
570.095	10166.51
570.457	10152.05
570.819	10169.22
571.18	10173.52
571.542	10253.74
571.903	10294.19
572.265	10327.41
572.626	10330.58
572.987	10388.43
573.349	10409.9
573.71	10497.8
574.071	10466.39
574.432	10488.09
574.794	10635.2
575.155	10538.03
575.516	10555.65
575.877	10678.59
576.238	10726.05
576.599	10698.48
576.96	10704.58
577.32	10756.55
577.681	10816.66
578.042	10840.62
578.403	10756.55
578.763	10895.08
579.124	10941.41
579.485	10879.71
579.845	10956.77
580.206	10870.45
580.566	10987.73
580.927	11018.24
581.287	11053.04
581.648	11043.78
582.008	11217.11
582.368	11153.61
582.728	11221.85
583.089	11160.16
583.449	11232.02
583.809	11261.62
584.169	11280.16
584.529	11315.41
584.889	11434.5
585.249	11321.51
585.609	11321.06
585.969	11408.97
586.329	11412.13
586.688	11440.83
587.048	11468.17
587.408	11479.25
587.768	11479.25
588.127	11532.35
588.487	11575.74
588.846	11571.67
589.206	11522.41
589.565	11640.82
589.925	11640.82
590.284	11752.69
590.643	11736.64
591.003	11824.32
591.362	11753.14
591.721	11762.85
592.08	11844.89
592.44	11825.45
592.799	11881.04
593.158	11805.57
593.517	11881.95
593.876	11869.74
594.235	11945.22
594.593	11937.31
594.952	12022.28
595.311	12017.99
595.67	12030.42
596.029	12047.14
596.387	12084.43
596.746	12106.57
597.104	12030.42
597.463	12058.89
597.822	12142.51
598.18	12073.58
598.538	12040.36
598.897	12188.61
599.255	11978.44
599.613	12259.56
599.972	12140.02
600.33	12234.25
600.688	12210.98
601.046	12226.57
601.404	12309.28
601.762	12263.18
602.12	12334.59
602.478	12277.42
602.836	12299.56
603.194	12297.98
603.552	12358.09
603.91	12239.68
604.268	12362.61
604.625	12290.52
604.983	12389.73
605.341	12350.18
605.698	12389.96
606.056	12452.33
606.413	12368.04
606.771	12415.94
607.128	12474.02
607.485	12385.66
607.843	12442.38
608.2	12493.23
608.557	12530.07
608.914	12465.43
609.272	12577.75
609.629	12472.21
609.986	12672.21
610.343	12597.41
610.7	12583.4
611.057	12650.06
611.414	12631.76
611.771	12666.56
612.127	12692.55
612.484	12681.93
612.841	12775.71
613.198	12700.91
613.554	12666.79
613.911	12741.13
614.267	12737.52
614.624	12731.19
614.98	12740.46
615.337	12764.86
615.693	12817.97
616.05	12752.43
616.406	12830.62
616.762	12912.2
617.118	12803.73
617.475	12804.18
617.831	12867.68
618.187	12890.28
618.543	12841.7
618.899	12971.86
619.255	12876.95
619.611	12855.71
619.967	12905.88
620.323	13041.92
620.678	12953.56
621.034	12907.91
621.39	12915.14
621.746	12869.49
622.101	12939.77
622.457	12847.35
622.812	12979.32
623.168	12959.43
623.523	12917.63
623.879	12966.66
624.234	12930.51
624.589	12899.77
624.945	12987
625.3	12949.49
625.655	12969.38
626.01	12926.44
626.365	12945.2
626.72	12937.74
627.075	12996.04
627.43	12948.81
627.785	12927.12
628.14	12922.6
628.495	12964.4
628.85	12964.4
629.205	12871.3
629.559	12970.51
629.914	12849.61
630.269	12918.08
630.623	12880.57
630.978	12903.84
631.332	12878.53
631.687	12940.68
632.041	12929.38
632.396	12839.66
632.75	12796.05
633.104	12848.93
633.459	12725.54
633.813	12714.69
634.167	12736.61
634.521	12761.7
634.875	12724.19
635.229	12699.33
635.583	12671.08
635.937	12707.69
636.291	12567.58
636.645	12700.46
636.999	12663.85
637.352	12658.88
637.706	12580.46
638.06	12587.47
638.413	12551.08
638.767	12509.05
639.121	12584.75
639.474	12535.26
639.828	12493
640.181	12583.17
640.534	12510.41
640.888	12495.49
641.241	12475.38
641.594	12441.71
641.947	12559.44
642.301	12458.88
642.654	12402.84
643.007	12466.79
643.36	12394.02
643.713	12309.05
644.066	12454.14
644.419	12394.25
644.771	12313.8
645.124	12196.29
645.477	12152.22
645.83	12163.75
646.182	12086.24
646.535	12004.66
646.888	12062.96
647.24	12015.05
647.593	12088.5
647.945	11986.8
648.298	11907.94
648.65	11923.53
649.002	11863.87
649.355	11954.04
649.707	11890.99
650.059	12009.4
650.411	12186.35
650.763	12195.84
651.115	12359.22
651.467	12250.3
651.819	12258.21
652.171	12220.47
652.523	12157.65
652.875	12170.75
653.227	12124.65
653.578	12255.05
653.93	12221.37
654.282	12149.06
654.633	12110.42
654.985	12133.24
655.337	12213.69
655.688	12160.81
656.039	12227.02
656.391	12077.87
656.742	12109.51
657.094	12107.7
657.445	12176.85
657.796	12177.31
658.147	12155.61
658.498	12098.89
658.849	12169.62
659.2	12190.19
659.551	12121.26
659.902	12185.44
660.253	12127.59
660.604	12148.61
660.955	12073.35
661.306	12184.76
661.656	12231.99
662.007	12187.25
662.358	12118.1
662.708	12122.62
663.059	12195.39
663.409	12084.88
663.76	12262.5
664.11	12217.31
664.461	12220.92
664.811	12160.13
665.161	12218.89
665.511	12134.82
665.862	12162.84
666.212	12130.98
666.562	12233.35
666.912	12162.62
667.262	12179.79
667.612	12144.77
667.962	12245.33
668.312	12196.97
668.662	12270.41
669.011	12168.49
669.361	12128.27
669.711	12135.27
670.06	12107.03
670.41	12067.48
670.76	12123.07
671.109	12167.14
671.459	12210.07
671.808	12094.37
672.157	12114.48
672.507	12076.29
672.856	12046.01
673.205	12039.23
673.554	12097.76
673.904	12079.46
674.253	12134.82
674.602	12006.24
674.951	11855.06
675.3	11817.09
675.649	12023.64
675.998	11973.47
676.346	11975.28
676.695	12032.68
677.044	11821.61
677.393	11906.58
677.741	11949.52
678.09	11914.94
678.438	11850.54
678.787	11950.42
679.135	11925.79
679.484	11832.68
679.832	11827.71
680.181	11784.55
680.529	11817.99
680.877	11823.64
681.225	11736.87
681.573	11870.87
681.922	11693.48
682.27	11669.52
682.618	11644.21
682.966	11648.51
683.314	11696.19
683.661	11653.93
684.009	11582.07
684.357	11553.14
684.705	11582.52
685.053	11496.19
685.4	11500.71
685.748	11483.31
686.095	11443.31
686.443	11379.14
686.79	11393.15
687.138	11396.54
687.485	11406.48
687.832	11463.88
688.18	11357.22
688.527	11289.65
688.874	11260.95
689.221	11193.38
689.568	11207.84
689.915	11175.3
690.262	11135.75
690.609	11116.32
690.956	11114.74
691.303	11080.16
691.65	11013.95
691.997	10987.51
692.344	10994.51
692.69	10939.37
693.037	10918.13
693.383	10869.09
693.73	10916.32
694.077	10770.79
694.423	10823.9
694.769	10750.23
695.116	10720.4
695.462	10769.66
695.808	10661.41
696.155	10737.12
696.501	10597.69
696.847	10490.8
697.193	10540.74
697.539	10532.83
697.885	10390.01
698.231	10434.3
698.577	10407.41
698.923	10350.91
699.269	10291.93
699.614	10213.29
699.96	10217.81
700.306	10229.34
700.651	10147.76
700.997	10144.14
701.342	10034.99
701.688	10114.54
702.033	9964.03
702.379	9978.27
702.724	9979.17
703.069	9937.37
703.415	9861.21
703.76	9849.68
704.105	9872.51
704.45	9820.08
704.795	9818.72
705.14	9781.21
705.485	9776.47
705.83	9715.22
706.175	9675.9
706.52	9579.64
706.865	9589.35
707.209	9557.49
707.554	9519.52
707.899	9612.18
708.243	9571.27
708.588	9493.99
708.932	9440.66
709.277	9474.33
709.621	9482.91
709.966	9345.52
710.31	9379.87
710.654	9278.85
710.998	9322.24
711.342	9302.13
711.687	9285.86
712.031	9272.98
712.375	9181
712.719	9243.15
713.063	9174.22
713.407	9244.05
713.75	9156.37
714.094	9166.09
714.438	9081.57
714.782	9120.21
715.125	9135.13
715.469	9005.64
715.812	9048.12
716.156	9064.85
716.499	8984.85
716.843	9039.08
717.186	8991.63
717.53	9005.64
717.873	9056.94
718.216	8946.43
718.559	8974
718.902	8916.38
719.246	8961.8
719.589	8912.31
719.932	8822.37
720.275	8823.95
720.617	8891.29
720.96	8889.48
721.303	8823.27
721.646	8824.17
721.989	8796.83
722.331	8793.89
722.674	8799.09
723.016	8772.65
723.359	8776.49
723.701	8810.39
724.044	8704.86
724.386	8682.26
724.729	8741.92
725.071	8708.02
725.413	8723.16
725.755	8636.61
726.097	8681.81
726.439	8673.67
726.782	8675.03
727.124	8645.42
727.465	8592.32
727.807	8636.61
728.149	8608.81
728.491	8620.11
728.833	8560.9
729.175	8591.64
729.516	8581.47
729.858	8525.43
730.199	8601.13
730.541	8565.88
730.882	8477.74
731.224	8549.38
731.565	8543.96
731.906	8539.21
732.248	8555.48
732.589	8497.86
732.93	8463.28
733.271	8463.96
733.612	8520.91
733.953	8545.99
734.294	8553
734.635	8499.44
734.976	8476.61
735.317	8468.48
735.658	8495.14
735.999	8544.63
736.339	8508.93
736.68	8532.21
737.021	8452.43
737.361	8474.58
737.702	8515.03
738.042	8546.44
738.383	8480.45
738.723	8462.38
739.063	8445.2
739.404	8537.18
739.744	8559.1
740.084	8497.4
740.424	8510.96
740.764	8560.9
741.104	8576.05
741.444	8496.5
741.784	8577.85
742.124	8585.31
742.464	8574.01
742.804	8546.22
743.143	8593.9
743.483	8713.22
743.823	8590.73
744.162	8562.49
744.502	8660.11
744.841	8602.71
745.181	8717.51
745.52	8702.6
745.86	8810.16
746.199	8733.1
746.538	8790.73
746.877	8776.04
747.216	8841.35
747.556	8912.99
747.895	8945.75
748.234	8963.83
748.573	8945.75
748.911	9013.55
749.25	9098.74
749.589	9123.6
749.928	9204.5
750.267	9226.88
750.605	9348.91
750.944	9372.86
751.283	9388.91
751.621	9488.79
751.96	9551.61
752.298	9643.36
752.636	9673.42
752.975	9781.44
753.313	9831.61
753.651	9985.05
753.989	10027.31
754.327	10120.19
754.666	10201.99
755.004	10334.87
755.342	10397.69
755.679	10447.18
756.017	10556.78
756.355	10662.77
756.693	10841.52
757.031	10996.55
757.368	11037.68
757.706	11145.7
758.044	11331
758.381	11495.97
758.719	11530.32
759.056	11693.48
759.394	11843.08
759.731	11917.88
760.068	12163.52
760.405	12238.1
760.743	12370.07
761.08	12657.07
761.417	12727.8
761.754	12854.13
