Data from hue_180_FLMS001491_00016.txt Node
Date: Tue Feb 07 16:46:37 GMT 2017
User: dcchb
Spectrometer: FLMS00149
Trigger mode: 0
Integration Time (sec): 2.000000E-2
Scans to average: 10
Electric dark correction enabled: true
Nonlinearity correction enabled: false
Boxcar width: 0
XAxis mode: Wavelengths
Number of Pixels in Spectrum: 2048
>>>>>Begin Spectral Data<<<<<
341.393	-11.55
341.776	-11.55
342.16	-11.55
342.543	-73.92
342.927	-68.5
343.31	-81.16
343.693	-55.62
344.077	-56.52
344.46	-39.58
344.843	-56.75
345.226	-23.08
345.61	-38.22
345.993	-18.78
346.376	-5.23
346.759	3.36
347.142	46.07
347.525	23.25
347.908	45.62
348.291	43.81
348.674	91.27
349.057	121.55
349.44	122.45
349.823	139.86
350.206	171.04
350.588	201.77
350.971	226.41
351.354	221.43
351.737	259.4
352.119	266.41
352.502	293.07
352.884	284.26
353.267	281.77
353.65	314.09
354.032	311.38
354.414	297.37
354.797	311.6
355.179	320.42
355.562	316.57
355.944	315.44
356.326	322
356.709	336.69
357.091	324.71
357.473	344.82
357.855	338.95
358.238	330.58
358.62	340.98
359.002	338.27
359.384	329.68
359.766	334.65
360.148	322.9
360.53	349.57
360.912	333.75
361.294	349.79
361.676	334.88
362.057	336.46
362.439	324.48
362.821	330.13
363.203	312.51
363.584	326.29
363.966	318.38
364.348	354.99
364.729	343.24
365.111	307.08
365.493	331.04
365.874	307.99
366.256	347.53
366.637	310.92
367.019	305.27
367.4	309.79
367.781	318.61
368.163	309.57
368.544	320.87
368.925	327.65
369.306	324.48
369.688	307.53
370.069	327.87
370.45	315.44
370.831	325.39
371.212	315.22
371.593	313.64
371.974	304.6
372.355	315.44
372.736	324.48
373.117	322.45
373.498	338.95
373.879	323.58
374.26	324.48
374.641	300.75
375.021	314.77
375.402	324.48
375.783	312.51
376.163	337.14
376.544	326.97
376.925	309.34
377.305	340.75
377.686	317.25
378.066	322.45
378.447	327.87
378.827	344.37
379.208	339.62
379.588	323.58
379.968	348.89
380.349	329
380.729	342.79
381.109	339.85
381.489	340.53
381.87	335.78
382.25	348.89
382.63	323.81
383.01	348.66
383.39	354.54
383.77	350.7
384.15	349.34
384.53	348.66
384.91	361.77
385.29	357.02
385.67	362
386.049	343.69
386.429	343.01
386.809	350.47
387.189	345.27
387.568	365.61
387.948	351.83
388.328	377.81
388.707	349.57
389.087	357.7
389.466	356.57
389.846	361.32
390.225	377.59
390.605	378.72
390.984	360.19
391.363	364.93
391.743	354.54
392.122	367.65
392.501	373.07
392.881	385.05
393.26	362.22
393.639	386.4
394.018	357.7
394.397	387.31
394.776	392.28
395.155	393.86
395.534	387.08
395.913	381.43
396.292	409
396.671	381.43
397.05	402.9
397.429	391.83
397.808	391.83
398.186	407.64
398.565	417.59
398.944	409.9
399.323	407.42
399.701	403.58
400.08	426.85
400.458	398.83
400.837	393.18
401.215	427.31
401.594	416.68
401.972	411.49
402.351	417.81
402.729	421.43
403.107	417.59
403.486	426.18
403.864	425.5
404.242	440.64
404.62	445.84
404.999	433.63
405.377	461.65
405.755	460.52
406.133	448.32
406.511	439.06
406.889	460.98
407.267	470.02
407.645	487.42
408.023	478.15
408.401	508.66
408.779	473.63
409.156	484.93
409.534	488.09
409.912	523.12
410.29	515.89
410.667	534.19
411.045	530.35
411.422	532.61
411.8	531.26
412.178	559.96
412.555	565.38
412.933	550.24
413.31	561.76
413.687	571.93
414.065	566.96
414.442	584.14
414.819	581.2
415.197	584.36
415.574	593.85
415.951	613.74
416.328	615.1
416.705	609.45
417.082	614.42
417.46	642.21
417.837	633.4
418.214	647.86
418.591	652.84
418.967	674.76
419.344	669.78
419.721	678.37
420.098	680.41
420.475	692.16
420.852	735.09
421.228	724.02
421.605	752.95
421.982	734.64
422.358	727.64
422.735	768.09
423.111	762.21
423.488	781.19
423.864	797.92
424.241	808.09
424.617	820.29
424.994	776.67
425.37	832.72
425.746	809.89
426.123	824.36
426.499	847.41
426.875	846.28
427.251	877.01
427.627	898.71
428.003	911.36
428.379	911.81
428.756	916.33
429.132	931.7
429.507	942.55
429.883	943
430.259	971.7
430.635	988.87
431.011	975.99
431.387	997.01
431.763	1009.89
432.138	1037.68
432.514	1030.23
432.89	1051.02
433.265	1074.75
433.641	1073.16
434.016	1088.76
434.392	1124.69
434.767	1164.91
435.143	1117
435.518	1145.93
435.894	1164.01
436.269	1175.99
436.644	1180.51
437.02	1215.76
437.395	1252.82
437.77	1287.17
438.145	1315.64
438.52	1309.54
438.895	1352.48
439.271	1316.55
439.646	1381.63
440.021	1368.75
440.395	1373.72
440.77	1385.92
441.145	1399.71
441.52	1451.68
441.895	1420.95
442.27	1455.98
442.645	1445.58
443.019	1501.4
443.394	1501.63
443.769	1506.82
444.143	1486.94
444.518	1546.37
444.892	1560.83
445.267	1544.56
445.641	1563.77
446.016	1594.96
446.39	1602.19
446.764	1641.74
447.139	1601.06
447.513	1629.31
447.887	1656.2
448.262	1640.61
448.636	1644.9
449.01	1695.52
449.384	1702.75
449.758	1698.23
450.132	1731.68
450.506	1737.1
450.88	1753.82
451.254	1775.74
451.628	1806.03
452.002	1802.64
452.376	1842.18
452.75	1850.32
453.123	1881.28
453.497	1898.45
453.871	1881.73
454.244	1937.77
454.618	1956.76
454.992	1961.73
455.365	1982.97
455.739	2041.05
456.112	2040.6
456.486	2058.45
456.859	2086.47
457.232	2133.25
457.606	2130.31
457.979	2176.64
458.352	2229.52
458.725	2243.08
459.099	2266.13
459.472	2266.8
459.845	2297.09
460.218	2339.8
460.591	2386.8
460.964	2347.03
461.337	2407.14
461.71	2430.42
462.083	2473.81
462.456	2536.4
462.829	2504.31
463.201	2586.12
463.574	2590.19
463.947	2607.59
464.32	2646
464.692	2706.79
465.065	2719.22
465.438	2789.95
465.81	2808.49
466.183	2854.81
466.555	2939.56
466.928	2926.22
467.3	2944.98
467.672	3021.14
468.045	3076.28
468.417	3057.97
468.789	3080.79
469.161	3173.45
469.534	3203.5
469.906	3280.11
470.278	3311.75
470.65	3363.05
471.022	3435.14
471.394	3508.81
471.766	3532.08
472.138	3578.41
472.51	3648.92
472.882	3752.64
473.253	3750.38
473.625	3839.64
473.997	3899.08
474.369	3958.74
474.74	4017.49
475.112	4096.36
475.484	4211.16
475.855	4275.34
476.227	4329.8
476.598	4435.56
476.97	4492.96
477.341	4572.96
477.713	4718.49
478.084	4710.36
478.455	4837.81
478.827	4919.16
479.198	5033.96
479.569	5022.21
479.94	5185.37
480.311	5275.77
480.682	5417.68
481.053	5500.39
481.424	5621.74
481.795	5684.79
482.166	5794.62
482.537	5874.62
482.908	6005.01
483.279	6091.34
483.65	6225.12
484.021	6389.18
484.391	6437.54
484.762	6473.7
485.133	6572.68
485.503	6702.62
485.874	6868.94
486.244	6929.51
486.615	7070.52
486.985	7117.07
487.356	7302.83
487.726	7338.99
488.097	7516.61
488.467	7504.41
488.837	7733.55
489.207	7874.11
489.578	7960.67
489.948	8087.44
490.318	8218.51
490.688	8199.76
491.058	8383.71
491.428	8513.42
491.798	8552.29
492.168	8770.36
492.538	8774.43
492.908	8926.74
493.278	9001.77
493.648	9023.24
494.017	9116.79
494.387	9241.08
494.757	9319.05
495.126	9408.54
495.496	9446.5
495.866	9576.22
496.235	9686.5
496.605	9757
496.974	9750.68
497.344	9890.33
497.713	9968.3
498.082	9963.55
498.452	10018.69
498.821	10144.79
499.19	10164.45
499.559	10299.14
499.928	10249.65
500.298	10344.78
500.667	10502.52
501.036	10469.53
501.405	10552.46
501.774	10553.59
502.143	10553.59
502.512	10593.82
502.88	10717.66
503.249	10713.14
503.618	10803.53
503.987	10816.41
504.356	10819.57
504.724	10927.14
505.093	10933.92
505.462	10943.41
505.83	10952.23
506.199	11167.14
506.567	11215.5
506.936	11099.11
507.304	11361.71
507.672	11245.55
508.041	11280.58
508.409	11377.75
508.777	11448.71
509.145	11563.74
509.514	11492.32
509.882	11578.88
510.25	11455.04
510.618	11587.69
510.986	11601.02
511.354	11662.04
511.722	11647.58
512.09	11827.68
512.458	11725.54
512.826	11796.05
513.193	11757.4
513.561	11819.32
513.929	11792.88
514.297	11903.39
514.664	11972.54
515.032	11924.63
515.4	12078.07
515.767	12069.48
516.135	11984.97
516.502	11932.54
516.869	12145.42
517.237	12064.06
517.604	11963.72
517.972	12100.44
518.339	12187
518.706	12131.18
519.073	12165.53
519.44	12157.84
519.808	12253.43
520.175	12186.09
520.542	12292.3
520.909	12301.34
521.276	12287.33
521.643	12338.4
522.009	12325.98
522.376	12386.54
522.743	12392.41
523.11	12496.14
523.477	12509.25
523.843	12494.33
524.21	12535.46
524.577	12592.18
524.943	12626.08
525.31	12652.29
525.676	12682.12
526.043	12615.01
526.409	12650.49
526.776	12746.53
527.142	12665.85
527.508	12656.59
527.874	12727.55
528.241	12721.22
528.607	12784.49
528.973	12728.68
529.339	12661.79
529.705	12695.23
530.071	12728.9
530.437	12659.75
530.803	12707.66
531.169	12686.42
531.535	12608.68
531.901	12587.89
532.267	12546.99
532.632	12591.05
532.998	12528.23
533.364	12539.53
533.73	12513.54
534.095	12518.29
534.461	12557.38
534.826	12557.16
535.192	12423.37
535.557	12515.12
535.923	12478.74
536.288	12406.2
536.653	12396.93
537.019	12248.92
537.384	12325.3
537.749	12265.64
538.114	12211.85
538.479	12173.89
538.845	12221.8
539.21	12103.16
539.575	12116.72
539.94	12040.33
540.305	12122.82
540.67	11963.5
541.034	11953.1
541.399	11924.86
541.764	11866.55
542.129	11903.39
542.494	11814.58
542.858	11793.33
543.223	11744.75
543.587	11769.38
543.952	11651.87
544.316	11579.78
544.681	11602.15
545.045	11553.34
545.41	11560.35
545.774	11458.88
546.138	11432.44
546.503	11389.05
546.867	11272.44
547.231	11351.76
547.595	11278.09
547.959	11255.95
548.324	11197.64
548.688	11134.59
549.052	11124.2
549.416	11077.19
549.779	11038.55
550.143	11070.42
550.507	10980.47
550.871	11030.64
551.235	10919.91
551.599	10856.18
551.962	10890.08
552.326	10886.01
552.689	10857.54
553.053	10696.19
553.417	10768.05
553.78	10757.65
554.143	10673.82
554.507	10659.58
554.87	10727.6
555.234	10647.6
555.597	10611.44
555.96	10581.16
556.323	10598.11
556.686	10506.59
557.05	10523.76
557.413	10501.62
557.776	10451
558.139	10526.7
558.502	10451.67
558.865	10451.45
559.228	10467.49
559.59	10500.94
559.953	10354.95
560.316	10427.27
560.679	10399.25
561.041	10451.22
561.404	10445.35
561.767	10393.37
562.129	10353.82
562.492	10427.72
562.854	10363.77
563.217	10366.7
563.579	10378.68
563.941	10391.56
564.304	10372.35
564.666	10395.18
565.028	10361.28
565.39	10395.4
565.753	10388.4
566.115	10346.14
566.477	10429.75
566.839	10417.32
567.201	10413.26
567.563	10370.77
567.925	10463.2
568.287	10397.89
568.648	10387.95
569.01	10485.12
569.372	10492.35
569.734	10437.21
570.095	10410.77
570.457	10487.83
570.819	10444.22
571.18	10427.95
571.542	10505.23
571.903	10398.12
572.265	10509.3
572.626	10440.6
572.987	10369.87
573.349	10536.64
573.71	10516.31
574.071	10490.77
574.432	10506.36
574.794	10499.13
575.155	10505.23
575.516	10485.8
575.877	10532.8
576.238	10495.97
576.599	10540.71
576.96	10462.3
577.32	10472.46
577.681	10582.29
578.042	10570.32
578.403	10471.56
578.763	10597.89
579.124	10498.23
579.485	10517.44
579.845	10542.07
580.206	10520.37
580.566	10472.46
580.927	10474.05
581.287	10549.52
581.648	10453.26
582.008	10469.53
582.368	10412.81
582.728	10490.54
583.089	10489.64
583.449	10491.22
583.809	10488.96
584.169	10457.32
584.529	10431.56
584.889	10455.29
585.249	10422.3
585.609	10298.91
585.969	10394.73
586.329	10379.81
586.688	10412.58
587.048	10335.29
587.408	10338.46
587.768	10315.41
588.127	10317.89
588.487	10307.27
588.846	10363.77
589.206	10291.45
589.565	10279.25
589.925	10354.05
590.284	10284.22
590.643	10300.49
591.003	10280.61
591.362	10319.47
591.721	10253.04
592.08	10291.45
592.44	10218.91
592.799	10316.31
593.158	10208.74
593.517	10246.71
593.876	10256.43
594.235	10207.61
594.593	10271.11
594.952	10157.22
595.311	10171.23
595.67	10194.05
596.029	10230.44
596.387	10213.04
596.746	10252.81
597.104	10190.66
597.463	10153.38
597.822	10109.31
598.18	10109.54
598.538	10126.26
598.897	10110.21
599.255	10055.3
599.613	10234.73
599.972	10097.79
600.33	10140.95
600.688	10132.13
601.046	10125.81
601.404	10199.25
601.762	10187.05
602.12	10122.87
602.478	10120.84
602.836	10162.64
603.194	10136.88
603.552	10165.35
603.91	10152.47
604.268	10155.86
604.625	10086.94
604.983	10120.84
605.341	10076.99
605.698	10135.98
606.056	10207.39
606.413	10119.48
606.771	10120.84
607.128	10157.44
607.485	10059.37
607.843	10163.55
608.2	10218.69
608.557	10151.12
608.914	10181.4
609.272	10134.39
609.629	10206.94
609.986	10161.74
610.343	10149.08
610.7	10209.87
611.057	10165.58
611.414	10167.61
611.771	10215.07
612.127	10186.82
612.484	10171.23
612.841	10237.89
613.198	10260.72
613.554	10252.13
613.911	10231.79
614.267	10278.12
614.624	10234.96
614.98	10212.36
615.337	10330.1
615.693	10231.79
616.05	10277.44
616.406	10282.64
616.762	10237.22
617.118	10259.81
617.475	10248.52
617.831	10359.25
618.187	10371
618.543	10344.33
618.899	10370.55
619.255	10285.35
619.611	10324.45
619.967	10370.32
620.323	10359.02
620.678	10381.39
621.034	10340.72
621.39	10311.11
621.746	10351.11
622.101	10465.46
622.457	10279.48
622.812	10343.2
623.168	10375.74
623.523	10401.51
623.879	10351.34
624.234	10374.84
624.589	10438.12
624.945	10384.33
625.3	10369.64
625.655	10337.33
626.01	10346.37
626.365	10378.91
626.72	10322.86
627.075	10296.88
627.43	10377.1
627.785	10368.29
628.14	10277.67
628.495	10358.12
628.85	10264.79
629.205	10289.87
629.559	10352.69
629.914	10199.93
630.269	10258.23
630.623	10217.33
630.978	10271.11
631.332	10305.69
631.687	10315.18
632.041	10275.41
632.396	10245.58
632.75	10183.66
633.104	10140.04
633.459	10120.84
633.813	10147.5
634.167	10147.28
634.521	10169.65
634.875	10219.59
635.229	10177.78
635.583	10073.61
635.937	10139.14
636.291	10091.91
636.645	10075.19
636.999	10020.05
637.352	10059.37
637.706	10019.37
638.06	10058.92
638.413	10002.65
638.767	10023.89
639.121	9983.89
639.474	9990.44
639.828	9927.17
640.181	9992.48
640.534	9969.88
640.888	9846.72
641.241	9894.85
641.594	9938.24
641.947	9919.26
642.301	9890.79
642.654	9920.39
643.007	9872.48
643.36	9846.72
643.713	9849.2
644.066	9846.04
644.419	9793.84
644.771	9761.3
645.124	9634.07
645.477	9657.8
645.83	9612.37
646.182	9513.62
646.535	9515.65
646.888	9584.35
647.24	9507.97
647.593	9576.22
647.945	9548.2
648.298	9492.38
648.65	9446.05
649.002	9455.54
649.355	9477.69
649.707	9489.21
650.059	9557.69
650.411	9660.51
650.763	9636.1
651.115	9700.73
651.467	9691.24
651.819	9764.01
652.171	9780.51
652.523	9675.42
652.875	9680.17
653.227	9681.98
653.578	9752.71
653.93	9734.63
654.282	9665.48
654.633	9726.72
654.985	9673.62
655.337	9715.42
655.688	9745.7
656.039	9691.69
656.391	9670.68
656.742	9764.23
657.094	9679.49
657.445	9752.26
657.796	9751.13
658.147	9779.83
658.498	9726.27
658.849	9799.71
659.2	9714.52
659.551	9745.25
659.902	9731.92
660.253	9715.42
660.604	9722.88
660.955	9738.92
661.306	9760.62
661.656	9737.34
662.007	9760.85
662.358	9775.76
662.708	9777.79
663.059	9754.52
663.409	9732.6
663.76	9812.6
664.11	9772.82
664.461	9749.32
664.811	9760.62
665.161	9819.6
665.511	9780.51
665.862	9787.29
666.212	9763.56
666.562	9712.94
666.912	9783.9
667.262	9742.09
667.612	9768.3
667.962	9752.48
668.312	9694.86
668.662	9833.61
669.011	9826.15
669.361	9840.16
669.711	9724.24
670.06	9732.82
670.41	9743.67
670.76	9748.42
671.109	9754.97
671.459	9719.94
671.808	9693.05
672.157	9695.54
672.507	9712.26
672.856	9672.26
673.205	9682.43
673.554	9684.69
673.904	9693.28
674.253	9728.3
674.602	9650.11
674.951	9551.13
675.3	9485.15
675.649	9670.45
675.998	9608.98
676.346	9598.59
676.695	9619.15
677.044	9541.19
677.393	9574.41
677.741	9629.78
678.09	9580.51
678.438	9574.64
678.787	9545.94
679.135	9509.1
679.484	9474.75
679.832	9507.74
680.181	9424.81
680.529	9508.87
680.877	9489.44
681.225	9470.91
681.573	9492.83
681.922	9416.9
682.27	9450.34
682.618	9393.4
682.966	9414.87
683.314	9407.18
683.661	9297.35
684.009	9313.63
684.357	9344.58
684.705	9277.02
685.053	9302.1
685.4	9255.1
685.748	9208.32
686.095	9215.77
686.443	9233.85
686.79	9100.75
687.138	9108.43
687.485	9089.68
687.832	9101.88
688.18	9024.59
688.527	9048.1
688.874	9043.35
689.221	8969
689.568	8970.81
689.915	8973.97
690.262	8952.5
690.609	8878.16
690.956	8860.98
691.303	8819.4
691.65	8824.15
691.997	8820.3
692.344	8686.3
692.69	8719.06
693.037	8680.87
693.383	8670.93
693.73	8716.58
694.077	8556.58
694.423	8595.9
694.769	8602.01
695.116	8579.63
695.462	8483.59
695.808	8465.96
696.155	8433.65
696.501	8428.45
696.847	8406.98
697.193	8364.95
697.539	8385.06
697.885	8255.8
698.231	8304.84
698.577	8258.29
698.923	8215.12
699.269	8253.99
699.614	8084.73
699.96	8135.13
700.306	8114.33
700.651	8051.51
700.997	8053.09
701.342	7990.5
701.688	7966.32
702.033	7978.97
702.379	7965.64
702.724	7960.44
703.069	7915.02
703.415	7834.34
703.76	7815.81
704.105	7850.16
704.45	7804.29
704.795	7814
705.14	7713.67
705.485	7630.73
705.83	7690.17
706.175	7652.43
706.52	7652.2
706.865	7591.86
707.209	7536.04
707.554	7538.3
707.899	7557.29
708.243	7530.85
708.588	7477.52
708.932	7435.71
709.277	7446.33
709.621	7412.66
709.966	7369.72
710.31	7375.15
710.654	7301.25
710.998	7394.35
711.342	7340.8
711.687	7337.86
712.031	7236.17
712.375	7231.87
712.719	7278.42
713.063	7219.22
713.407	7246.79
713.75	7234.36
714.094	7211.31
714.438	7148.48
714.782	7220.8
715.125	7197.07
715.469	7225.77
715.812	7161.59
716.156	7040.92
716.499	7047.47
716.843	7092.67
717.186	7022.84
717.53	7093.57
717.873	7064.42
718.216	7045.89
718.559	7027.81
718.902	6964.31
719.246	7011.31
719.589	6973.35
719.932	6934.48
720.275	6942.39
720.617	6958.21
720.96	6974.7
721.303	6948.72
721.646	6979.9
721.989	6917.53
722.331	6979.68
722.674	6952.33
723.016	6874.37
723.359	6866.68
723.701	6909.85
724.044	6848.38
724.386	6851.09
724.729	6861.71
725.071	6823.3
725.413	6900.36
725.755	6885.21
726.097	6884.08
726.439	6822.62
726.782	6790.53
727.124	6829.85
727.465	6791.66
727.807	6794.14
728.149	6760.7
728.491	6819.68
728.833	6805.22
729.175	6762.28
729.516	6818.1
729.858	6817.19
730.199	6786.23
730.541	6783.3
730.882	6741.94
731.224	6797.08
731.565	6715.95
731.906	6721.38
732.248	6764.77
732.589	6759.79
732.93	6728.38
733.271	6730.64
733.612	6762.96
733.953	6774.48
734.294	6712.34
734.635	6760.47
734.976	6749.4
735.317	6708.04
735.658	6739.23
735.999	6773.13
736.339	6756.63
736.68	6766.12
737.021	6810.41
737.361	6764.77
737.702	6804.31
738.042	6774.93
738.383	6806.8
738.723	6778.1
739.063	6764.99
739.404	6842.05
739.744	6836.18
740.084	6834.14
740.424	6805.44
740.764	6805.44
741.104	6907.36
741.444	6847.7
741.784	6842.96
742.124	6875.95
742.464	6885.89
742.804	6917.08
743.143	6978.77
743.483	6964.08
743.823	6998.43
744.162	6966.79
744.502	7040.92
744.841	7048.37
745.181	7076.17
745.52	7107.36
745.86	7186.68
746.199	7151.42
746.538	7245.88
746.877	7306.9
747.216	7312.55
747.556	7350.29
747.895	7393.22
748.234	7460.11
748.573	7468.25
748.911	7547.12
749.25	7583.5
749.589	7631.64
749.928	7741.92
750.267	7794.57
750.605	7831.4
750.944	7906.2
751.283	7956.82
751.621	8061.91
751.96	8105.97
752.298	8188.46
752.636	8279.08
752.975	8367.66
753.313	8489.24
753.651	8615.11
753.989	8708.67
754.327	8722.45
754.666	8833.86
755.004	9007.64
755.342	9088.09
755.679	9185.49
756.017	9306.39
756.355	9527.18
756.693	9630.45
757.031	9703.45
757.368	9837.45
757.706	10007.84
758.044	10147.05
758.381	10240.83
758.719	10434.95
759.056	10633.36
759.394	10790.65
759.731	10858.67
760.068	10995.61
760.405	11086.23
760.743	11292.1
761.08	11485.09
761.417	11620.68
761.754	11772.77
