Data from hue_260_FLMS001491_00047.txt Node
Date: Tue Feb 07 15:59:03 GMT 2017
User: dcchb
Spectrometer: FLMS00149
Trigger mode: 0
Integration Time (sec): 2.000000E-2
Scans to average: 10
Electric dark correction enabled: true
Nonlinearity correction enabled: false
Boxcar width: 0
XAxis mode: Wavelengths
Number of Pixels in Spectrum: 2048
>>>>>Begin Spectral Data<<<<<
341.393	-17.49
341.776	-17.49
342.16	-17.49
342.543	-68.78
342.927	-66.75
343.31	-74.66
343.693	-69.46
344.077	-86.86
344.46	-78.05
344.843	-53.19
345.226	-31.5
345.61	-23.36
345.993	-8.67
346.376	-13.64
346.759	0.59
347.142	36.98
347.525	51.67
347.908	66.81
348.291	75.62
348.674	101.83
349.057	105.9
349.44	110.87
349.823	127.6
350.206	155.84
350.588	179.35
350.971	193.36
351.354	204.43
351.737	222.28
352.119	254.82
352.502	257.99
352.884	257.54
353.267	277.2
353.65	293.69
354.032	296.63
354.414	295.05
354.797	293.69
355.179	317.87
355.562	309.74
355.944	312.68
356.326	321.71
356.709	320.36
357.091	324.2
357.473	342.51
357.855	333.24
358.238	331.43
358.62	328.49
359.002	317.2
359.384	308.61
359.766	324.43
360.148	306.12
360.53	320.13
360.912	314.94
361.294	338.66
361.676	328.04
362.057	304.77
362.439	342.05
362.821	310.87
363.203	321.49
363.584	322.84
363.966	319.45
364.348	316.97
364.729	332.11
365.111	302.73
365.493	301.38
365.874	302.96
366.256	286.01
366.637	297.53
367.019	321.04
367.4	293.24
367.781	281.49
368.163	305.22
368.544	304.09
368.925	295.5
369.306	291.21
369.688	296.18
370.069	298.66
370.45	312.22
370.831	283.75
371.212	281.72
371.593	295.27
371.974	300.02
372.355	310.19
372.736	297.08
373.117	315.84
373.498	286.69
373.879	311.32
374.26	317.2
374.641	308.38
375.021	292.79
375.402	310.64
375.783	303.86
376.163	304.99
376.544	316.52
376.925	292.11
377.305	309.29
377.686	312.9
378.066	277.42
378.447	291.66
378.827	317.65
379.208	313.58
379.588	337.53
379.968	291.88
380.349	317.42
380.729	338.21
381.109	324.65
381.489	338.21
381.87	327.82
382.25	328.49
382.63	321.04
383.01	316.97
383.39	330.98
383.77	329.85
384.15	330.98
384.53	324.65
384.91	314.26
385.29	323.3
385.67	335.73
386.049	352.67
386.429	341.15
386.809	340.47
387.189	375.5
387.568	342.73
387.948	331.66
388.328	353.58
388.707	351.54
389.087	334.82
389.466	375.05
389.846	344.54
390.225	352.22
390.605	359.68
390.984	346.35
391.363	367.14
391.743	366.91
392.122	374.59
392.501	362.62
392.881	368.04
393.26	376.4
393.639	355.84
394.018	369.17
394.397	366.23
394.776	393.13
395.155	388.61
395.534	362.84
395.913	373.69
396.292	387.25
396.671	364.2
397.05	378.66
397.429	391.09
397.808	389.51
398.186	361.04
398.565	381.83
398.944	380.7
399.323	399.68
399.701	392.45
400.08	411.43
400.458	414.37
400.837	406.01
401.215	413.46
401.594	389.74
401.972	386.57
402.351	394.93
402.729	430.64
403.107	425.67
403.486	429.51
403.864	416.63
404.242	415.5
404.62	436.74
404.999	423.18
405.377	452.11
405.755	437.87
406.133	462.05
406.511	431.77
406.889	447.36
407.267	464.54
407.645	435.61
408.023	455.04
408.401	475.61
408.779	488.94
409.156	451.2
409.534	484.87
409.912	496.63
410.29	506.79
410.667	500.02
411.045	512.9
411.422	517.42
411.8	521.48
412.178	508.6
412.555	531.43
412.933	555.15
413.31	559
413.687	544.76
414.065	555.83
414.442	541.6
414.819	579.11
415.197	565.55
415.574	590.18
415.951	596.06
416.328	597.64
416.705	601.03
417.082	612.1
417.46	611.88
417.837	613.23
418.214	639.22
418.591	622.95
418.967	648.49
419.344	642.38
419.721	672.44
420.098	674.7
420.475	680.12
420.852	697.52
421.228	693.23
421.605	686.45
421.982	729.84
422.358	709.95
422.735	705.89
423.111	734.13
423.488	749.27
423.864	770.52
424.241	765.54
424.617	768.03
424.994	787.01
425.37	794.47
425.746	815.26
426.123	803.28
426.499	825.88
426.875	822.49
427.251	842.15
427.627	864.75
428.003	879.44
428.379	873.34
428.756	871.76
429.132	909.27
429.507	914.92
429.883	911.3
430.259	934.13
430.635	955.6
431.011	928.93
431.387	989.72
431.763	978.65
432.138	993.56
432.514	1006.89
432.89	1021.36
433.265	1025.88
433.641	1033.33
434.016	1044.86
434.392	1081.24
434.767	1114.46
435.143	1109.72
435.518	1108.36
435.894	1172.09
436.269	1150.85
436.644	1176.16
437.02	1213.89
437.395	1185.65
437.77	1226.32
438.145	1238.3
438.52	1265.64
438.895	1275.59
439.271	1267
439.646	1316.26
440.021	1323.5
440.395	1343.83
440.77	1310.84
441.145	1352.65
441.52	1379.31
441.895	1396.94
442.27	1425.64
442.645	1392.42
443.019	1451.18
443.394	1417.28
443.769	1450.05
444.143	1462.02
444.518	1478.97
444.892	1453.21
445.267	1488.24
445.641	1505.64
446.016	1500.21
446.39	1535.47
446.764	1532.3
447.139	1515.13
447.513	1530.72
447.887	1556.71
448.262	1554.45
448.636	1597.84
449.01	1609.14
449.384	1603.04
449.758	1591.29
450.132	1634.67
450.506	1649.14
450.88	1652.98
451.254	1640.78
451.628	1708.34
452.002	1703.83
452.376	1726.65
452.75	1704.28
453.123	1740.66
453.497	1756.48
453.871	1747.44
454.244	1785.86
454.618	1799.19
454.992	1823.82
455.365	1845.06
455.739	1868.79
456.112	1886.65
456.486	1925.06
456.859	1909.92
457.232	1930.03
457.606	1932.97
457.979	1982.24
458.352	2012.52
458.725	2014.55
459.099	2029.24
459.472	2052.74
459.845	2093.19
460.218	2093.42
460.591	2117.6
460.964	2104.04
461.337	2180.65
461.71	2188.11
462.083	2209.12
462.456	2226.98
462.829	2248.9
463.201	2316.01
463.574	2314.66
463.947	2314.66
464.32	2365.28
464.692	2380.19
465.065	2360.31
465.438	2474.2
465.81	2455.44
466.183	2465.16
466.555	2513.75
466.928	2547.64
467.3	2537.48
467.672	2557.36
468.045	2626.06
468.417	2614.76
468.789	2638.04
469.161	2662.67
469.534	2692.5
469.906	2755.32
470.278	2765.94
470.65	2759.62
471.022	2861.31
471.394	2880.74
471.766	2930.69
472.138	2953.51
472.51	3000.74
472.882	3035.09
473.253	3049.1
473.625	3089.78
473.997	3165.03
474.369	3196.44
474.74	3174.52
475.112	3253.39
475.484	3290.45
475.855	3345.36
476.227	3357.12
476.598	3435.98
476.97	3449.32
477.341	3521.4
477.713	3586.04
478.084	3587.17
478.455	3703.32
478.827	3683.89
479.198	3800.49
479.569	3805.69
479.94	3883.2
480.311	3877.1
480.682	4016.08
481.053	4046.59
481.424	4134.04
481.795	4149.18
482.166	4203.65
482.537	4233.25
482.908	4277.77
483.279	4346.47
483.65	4481.83
484.021	4484.54
484.391	4510.53
484.762	4546.91
485.133	4602.96
485.503	4640.25
485.874	4720.02
486.244	4762.05
486.615	4877.53
486.985	4906.9
487.356	4969.05
487.726	5000.01
488.097	5068.48
488.467	5122.04
488.837	5165.43
489.207	5189.84
489.578	5248.14
489.948	5337.63
490.318	5362.03
490.688	5380.56
491.058	5442.03
491.428	5491.97
491.798	5581.92
492.168	5689.71
492.538	5667.79
492.908	5727.45
493.278	5782.59
493.648	5764.06
494.017	5860.33
494.387	5885.18
494.757	5915.92
495.126	5983.94
495.496	5954.33
495.866	6062.35
496.235	6084.73
496.605	6123.6
496.974	6151.39
497.344	6224.84
497.713	6173.99
498.082	6282.01
498.452	6302.8
498.821	6337.15
499.19	6346.64
499.559	6378.96
499.928	6348.67
500.298	6462.8
500.667	6460.54
501.036	6420.76
501.405	6525.85
501.774	6514.32
502.143	6552.74
502.512	6531.49
502.88	6618.72
503.249	6650.14
503.618	6630.93
503.987	6668.44
504.356	6691.04
504.724	6759.51
505.093	6776.01
505.462	6717.7
505.83	6745.05
506.199	6848.32
506.567	6869.34
506.936	6856.46
507.304	6935.55
507.672	6934.87
508.041	6991.37
508.409	7010.13
508.777	7025.72
509.145	7018.94
509.514	7026.17
509.882	7034.08
510.25	7060.29
510.618	7099.84
510.986	7054.87
511.354	7109.33
511.722	7143.46
512.09	7213.06
512.458	7200.63
512.826	7208.31
513.193	7287.63
513.561	7192.27
513.929	7313.4
514.297	7348.2
514.664	7304.13
515.032	7324.02
515.4	7357.69
515.767	7403.34
516.135	7371.47
516.502	7344.58
516.869	7378.93
517.237	7455.31
517.604	7419.83
517.972	7413.96
518.339	7489.44
518.706	7524.01
519.073	7471.13
519.44	7452.83
519.808	7604.24
520.175	7590.9
520.542	7573.28
520.909	7637.68
521.276	7586.38
521.643	7578.93
522.009	7704.57
522.376	7654.18
522.743	7678.81
523.11	7629.09
523.477	7661.41
523.843	7739.82
524.21	7763.1
524.577	7823.21
524.943	7829.99
525.31	7826.15
525.676	7838.81
526.043	7874.06
526.409	7874.06
526.776	7920.61
527.142	7905.7
527.508	7913.15
527.874	7982.98
528.241	7956.09
528.607	7945.02
528.973	7985.92
529.339	7934.4
529.705	7959.03
530.071	8021.17
530.437	8075.41
530.803	8029.31
531.169	8051
531.535	8038.8
531.901	8041.06
532.267	8057.56
532.632	8026.6
532.998	8080.15
533.364	8046.71
533.73	8083.77
534.095	8069.76
534.461	8113.37
534.826	8128.74
535.192	8072.7
535.557	8087.84
535.923	8059.59
536.288	8111.34
536.653	8072.02
537.019	7987.95
537.384	8091.23
537.749	8046.03
538.114	8084.45
538.479	7972.36
538.845	8053.04
539.21	7984.56
539.575	7971.91
539.94	7938.92
540.305	8012.36
540.67	7978.69
541.034	7982.53
541.399	7971.91
541.764	7970.33
542.129	8010.78
542.494	8022.76
542.858	7990.21
543.223	7922.42
543.587	8015.98
543.952	7919.93
544.316	7926.94
544.681	7888.75
545.045	7860.95
545.41	7949.99
545.774	7921.06
546.138	7879.03
546.503	7875.19
546.867	7899.82
547.231	7850.33
547.595	7847.62
547.959	7898.46
548.324	7781.41
548.688	7853.04
549.052	7851.46
549.416	7846.94
549.779	7767.39
550.143	7752.48
550.507	7811.69
550.871	7809.2
551.235	7783.21
551.599	7810.11
551.962	7805.81
552.326	7735.98
552.689	7768.3
553.053	7766.04
553.417	7731.46
553.78	7788.19
554.143	7745.47
554.507	7805.81
554.87	7752.25
555.234	7849.65
555.597	7736.89
555.96	7775.76
556.323	7826.15
556.686	7747.73
557.05	7781.18
557.413	7782.08
557.776	7798.58
558.139	7800.61
558.502	7790.67
558.865	7799.03
559.228	7829.09
559.59	7844.23
559.953	7808.07
560.316	7790.9
560.679	7860.95
561.041	7851.23
561.404	7854.4
561.767	7914.06
562.129	7810.78
562.492	7990.21
562.854	7888.52
563.217	7910.67
563.579	7903.44
563.941	7959.71
564.304	7929.42
564.666	8028.86
565.028	8017.11
565.39	7989.76
565.753	7977.56
566.115	8030.21
566.477	8047.39
566.839	8047.84
567.201	8135.52
567.563	8092.81
567.925	8078.57
568.287	8070.66
568.648	8136.88
569.01	8124.9
569.372	8194.5
569.734	8197.21
570.095	8224.33
570.457	8215.29
570.819	8250.09
571.18	8282.41
571.542	8244.44
571.903	8264.56
572.265	8379.81
572.626	8356.31
572.987	8310.88
573.349	8328.74
573.71	8375.29
574.071	8404.44
574.432	8495.96
574.794	8437.66
575.155	8405.8
575.516	8501.39
575.877	8499.35
576.238	8559.24
576.599	8571.44
576.96	8543.42
577.32	8588.84
577.681	8605.79
578.042	8614.15
578.403	8614.15
578.763	8670.65
579.124	8678.11
579.485	8680.36
579.845	8668.84
580.206	8675.39
580.566	8674.94
580.927	8740.48
581.287	8808.95
581.648	8798.1
582.008	8812.11
582.368	8849.63
582.728	8841.94
583.089	8820.25
583.449	8754.71
583.809	8908.16
584.169	8854.82
584.529	8950.41
584.889	8967.36
585.249	8926.69
585.609	8921.94
585.969	8999.45
586.329	8862.73
586.688	8931.21
587.048	8985.89
587.408	8993.58
587.768	8992.9
588.127	9015.95
588.487	8987.48
588.846	9106.57
589.206	9050.52
589.565	9022.95
589.925	9077.64
590.284	9066.12
590.643	9041.26
591.003	9160.58
591.362	9098.66
591.721	9144.99
592.08	9155.83
592.44	9177.75
592.799	9199.45
593.158	9210.29
593.517	9182.27
593.876	9208.03
594.235	9196.96
594.593	9222.27
594.952	9192.22
595.311	9265.66
595.67	9256.17
596.029	9323.51
596.387	9271.08
596.746	9335.71
597.104	9224.53
597.463	9335.26
597.822	9352.66
598.18	9304.53
598.538	9252.55
598.897	9351.08
599.255	9326
599.613	9423.4
599.972	9343.4
600.33	9439.44
600.688	9284.19
601.046	9384.53
601.404	9458.88
601.762	9381.59
602.12	9395.37
602.478	9397.18
602.836	9401.48
603.194	9410.52
603.552	9449.84
603.91	9352.44
604.268	9466.11
604.625	9349.05
604.983	9416.39
605.341	9413.68
605.698	9426.56
606.056	9538.42
606.413	9443.06
606.771	9460.01
607.128	9488.93
607.485	9445.32
607.843	9462.49
608.2	9543.39
608.557	9503.17
608.914	9521.25
609.272	9495.94
609.629	9616.39
609.986	9569.16
610.343	9517.41
610.7	9674.92
611.057	9617.29
611.414	9598.31
611.771	9610.51
612.127	9674.92
612.484	9637.4
612.841	9701.36
613.198	9614.35
613.554	9647.12
613.911	9658.19
614.267	9644.63
614.624	9604.41
614.98	9680.56
615.337	9769.83
615.693	9694.12
616.05	9654.8
616.406	9737.74
616.762	9710.62
617.118	9715.59
617.475	9722.15
617.831	9750.39
618.187	9772.77
618.543	9813.44
618.899	9778.19
619.255	9786.1
619.611	9729.83
619.967	9860.45
620.323	9837.4
620.678	9770.28
621.034	9770.28
621.39	9741.58
621.746	9790.84
622.101	9790.17
622.457	9784.97
622.812	9757.85
623.168	9834.91
623.523	9831.07
623.879	9854.35
624.234	9754.46
624.589	9788.13
624.945	9830.62
625.3	9862.25
625.655	9791.07
626.01	9831.52
626.365	9814.57
626.72	9827.45
627.075	9814.35
627.43	9752.2
627.785	9769.83
628.14	9748.36
628.495	9798.98
628.85	9837.4
629.205	9697.06
629.559	9770.51
629.914	9711.52
630.269	9781.13
630.623	9729.15
630.978	9722.82
631.332	9755.82
631.687	9814.8
632.041	9695.25
632.396	9672.2
632.75	9759.66
633.104	9737.06
633.459	9654.8
633.813	9651.86
634.167	9670.17
634.521	9664.75
634.875	9603.96
635.229	9646.44
635.583	9599.21
635.937	9571.87
636.291	9601.47
636.645	9612.32
636.999	9544.98
637.352	9557.4
637.706	9483.51
638.06	9574.13
638.413	9569.38
638.767	9422.27
639.121	9515.82
639.474	9467.24
639.828	9452.55
640.181	9459.78
640.534	9531.64
640.888	9424.75
641.241	9426.11
641.594	9383.62
641.947	9463.85
642.301	9401.48
642.654	9419.1
643.007	9438.76
643.36	9356.28
643.713	9350.86
644.066	9335.26
644.419	9319.67
644.771	9342.49
645.124	9182.95
645.477	9250.07
645.83	9138.21
646.182	9110.64
646.535	9009.85
646.888	9126.68
647.24	9029.96
647.593	9095.04
647.945	9072.9
648.298	9087.59
648.65	9030.19
649.002	9012.11
649.355	9040.13
649.707	9037.87
650.059	9064.54
650.411	9157.19
650.763	9161.71
651.115	9241.48
651.467	9247.81
651.819	9255.49
652.171	9247.36
652.523	9224.98
652.875	9193.12
653.227	9166.91
653.578	9252.78
653.93	9248.26
654.282	9229.05
654.633	9257.07
654.985	9266.56
655.337	9225.44
655.688	9211.65
656.039	9262.95
656.391	9196.51
656.742	9227.7
657.094	9154.25
657.445	9238.77
657.796	9244.19
658.147	9203.97
658.498	9169.62
658.849	9188.37
659.2	9229.96
659.551	9208.71
659.902	9199
660.253	9271.99
660.604	9218.43
660.955	9203.52
661.306	9292.78
661.656	9233.34
662.007	9239.45
662.358	9263.4
662.708	9320.35
663.059	9209.84
663.409	9220.46
663.76	9184.98
664.11	9279.9
664.461	9250.75
664.811	9234.93
665.161	9260.69
665.511	9231.31
665.862	9247.36
666.212	9273.12
666.562	9315.83
666.912	9187.92
667.262	9211.88
667.612	9232.21
667.962	9256.4
668.312	9167.13
668.662	9299.33
669.011	9193.12
669.361	9230.63
669.711	9285.55
670.06	9255.04
670.41	9238.09
670.76	9224.08
671.109	9245.1
671.459	9243.06
671.808	9220.24
672.157	9215.72
672.507	9125.1
672.856	9160.35
673.205	9162.84
673.554	9179.79
673.904	9160.35
674.253	9205.77
674.602	9160.8
674.951	8962.84
675.3	9032.22
675.649	9119.22
675.998	9125.78
676.346	9083.97
676.695	9149.28
677.044	9106.12
677.393	9072.22
677.741	9058.43
678.09	8992.67
678.438	9026.8
678.787	9066.12
679.135	9018.66
679.484	9012.56
679.832	9024.99
680.181	8916.97
680.529	8998.1
680.877	8896.63
681.225	8937.76
681.573	8964.88
681.922	8929.17
682.27	8813.02
682.618	8869.51
682.966	8907.48
683.314	8863.64
683.661	8854.37
684.009	8837.2
684.357	8828.61
684.705	8824.54
685.053	8792.68
685.4	8749.74
685.748	8709.97
686.095	8728.73
686.443	8690.99
686.79	8707.03
687.138	8696.64
687.485	8650.31
687.832	8585.23
688.18	8696.86
688.527	8578.45
688.874	8534.61
689.221	8564.66
689.568	8474.04
689.915	8485.79
690.262	8493.48
690.609	8487.15
690.956	8378.23
691.303	8477.43
691.65	8406.93
691.997	8388.4
692.344	8328.96
692.69	8291.22
693.037	8318.79
693.383	8224.78
693.73	8248.29
694.077	8109.31
694.423	8203.99
694.769	8087.16
695.116	8081.28
695.462	8100.04
695.808	8093.26
696.155	8079.48
696.501	8027.5
696.847	7971.68
697.193	7880.16
697.539	7947.05
697.885	7918.35
698.231	7911.8
698.577	7881.52
698.923	7823.89
699.269	7799.03
699.614	7743.44
699.96	7714.51
700.306	7723.78
700.651	7662.76
700.997	7615.08
701.342	7649.21
701.688	7622.31
702.033	7594.52
702.379	7578.02
702.724	7524.92
703.069	7514.97
703.415	7442.88
703.76	7457.12
704.105	7441.53
704.45	7430.45
704.795	7395.65
705.14	7305.26
705.485	7324.24
705.83	7312.49
706.175	7301.19
706.52	7293.51
706.865	7230.01
707.209	7214.19
707.554	7207.64
707.899	7168.54
708.243	7210.12
708.588	7164.25
708.932	7148.88
709.277	7119.28
709.621	7154.98
709.966	7113.4
710.31	7106.17
710.654	7028.21
710.998	6959.05
711.342	7016.45
711.687	6975.55
712.031	6976.91
712.375	6964.93
712.719	6943.91
713.063	6879.51
713.407	6952.27
713.75	6869.57
714.094	6894.42
714.438	6904.14
714.782	6856.23
715.125	6851.49
715.469	6867.31
715.812	6810.81
716.156	6826.63
716.499	6791.6
716.843	6824.37
717.186	6760.87
717.53	6802.9
717.873	6810.81
718.216	6786.63
718.559	6776.23
718.902	6722.45
719.246	6738.27
719.589	6668.67
719.932	6613.3
720.275	6675.67
720.617	6636.12
720.96	6643.13
721.303	6704.82
721.646	6679.74
721.989	6706.18
722.331	6646.07
722.674	6664.37
723.016	6621.21
723.359	6585.96
723.701	6648.55
724.044	6613.98
724.386	6606.97
724.729	6597.71
725.071	6574.43
725.413	6589.35
725.755	6590.25
726.097	6517.03
726.439	6533.98
726.782	6551.83
727.124	6585.28
727.465	6579.18
727.807	6526.3
728.149	6518.39
728.491	6545.96
728.833	6573.3
729.175	6529.46
729.516	6458.05
729.858	6500.31
730.199	6512.06
730.541	6530.59
730.882	6428.45
731.224	6496.24
731.565	6466.41
731.906	6462.57
732.248	6479.74
732.589	6464.38
732.93	6421.22
733.271	6404.27
733.612	6463.7
733.953	6508.22
734.294	6492.63
734.635	6472.74
734.976	6455.11
735.317	6429.12
735.658	6488.56
735.999	6455.34
736.339	6473.64
736.68	6435.9
737.021	6495.11
737.361	6433.64
737.702	6495.11
738.042	6439.07
738.383	6487.2
738.723	6466.41
739.063	6480.87
739.404	6504.15
739.744	6547.99
740.084	6479.74
740.424	6513.64
740.764	6507.99
741.104	6566.52
741.444	6587.76
741.784	6483.81
742.124	6506.18
742.464	6567.88
742.804	6637.48
743.143	6566.3
743.483	6666.41
743.823	6586.86
744.162	6622.11
744.502	6611.04
744.841	6661.89
745.181	6653.53
745.52	6715.44
745.86	6713.41
746.199	6747.31
746.538	6761.77
746.877	6852.16
747.216	6783.92
747.556	6880.19
747.895	6904.82
748.234	6955.21
748.573	6969.45
748.911	7015.55
749.25	6994.08
749.589	7137.35
749.928	7150.24
750.267	7213.51
750.605	7218.03
750.944	7289.44
751.283	7357.69
751.621	7396.33
751.96	7437.01
752.298	7548.87
752.636	7620.96
752.975	7690.33
753.313	7686.27
753.651	7845.13
753.989	7885.36
754.327	7956.09
754.666	8062.3
755.004	8139.59
755.342	8299.81
755.679	8365.12
756.017	8354.95
756.355	8565.79
756.693	8601.95
757.031	8764.88
757.368	8840.13
757.706	9017.98
758.044	9042.39
758.381	9213.91
758.719	9319.22
759.056	9472.66
759.394	9539.55
759.731	9660
760.068	9738.19
760.405	9843.72
760.743	9998.52
761.08	10115.13
761.417	10160.55
761.754	10396.25
762.091	10443.03
762.428	10620.2
762.765	10661.33
763.102	10859.06
763.438	10913.53
763.775	11014.77
764.112	11189.45
764.449	11292.5
764.785	11366.17
765.122	11477.58
765.458	11624.24
765.795	11676.67
766.131	11834.63
766.467	11990.79
766.804	12041.63
767.14	12082.54
767.476	12194.4
767.812	12332.47
768.148	12482.52
768.485	12487.5
768.821	12517.78
