Data from hue_240_FLMS001491_00065.txt Node
Date: Tue Feb 07 16:35:48 GMT 2017
User: dcchb
Spectrometer: FLMS00149
Trigger mode: 0
Integration Time (sec): 2.000000E-2
Scans to average: 10
Electric dark correction enabled: true
Nonlinearity correction enabled: false
Boxcar width: 0
XAxis mode: Wavelengths
Number of Pixels in Spectrum: 2048
>>>>>Begin Spectral Data<<<<<
341.393	-23.69
341.776	-23.69
342.16	-23.69
342.543	-63.23
342.927	-56
343.31	-63.01
343.693	-76.79
344.077	-92.38
344.46	-66.4
344.843	-49.67
345.226	-46.74
345.61	-32.73
345.993	-27.75
346.376	5.47
346.759	8.63
347.142	21.06
347.525	40.27
347.908	67.61
348.291	78.68
348.674	98.12
349.057	135.63
349.44	139.93
349.823	133.82
350.206	160.94
350.588	194.39
350.971	198.68
351.354	236.87
351.737	247.72
352.119	252.24
352.502	261.5
352.884	265.12
353.267	285.68
353.65	274.39
354.032	299.47
354.414	303.99
354.797	292.69
355.179	316.19
355.562	314.61
355.944	301.96
356.326	313.48
356.709	313.48
357.091	339.47
357.473	336.98
357.855	366.36
358.238	330.43
358.62	328.62
359.002	344.21
359.384	349.64
359.766	317.77
360.148	325.01
360.53	320.71
360.912	336.98
361.294	310.32
361.676	342.63
362.057	345.12
362.439	322.75
362.821	325.68
363.203	326.59
363.584	320.03
363.966	302.18
364.348	302.63
364.729	333.14
365.111	311.22
365.493	328.62
365.874	314.61
366.256	328.17
366.637	305.57
367.019	327.04
367.4	313.71
367.781	316.19
368.163	306.93
368.544	301.73
368.925	317.32
369.306	325.68
369.688	329.75
370.069	332.01
370.45	310.09
370.831	311.67
371.212	303.09
371.593	310.99
371.974	282.52
372.355	324.1
372.736	304.22
373.117	334.95
373.498	321.84
373.879	316.64
374.26	329.07
374.641	311.67
375.021	307.38
375.402	295.4
375.783	312.35
376.163	302.63
376.544	329.3
376.925	320.71
377.305	315.74
377.686	321.62
378.066	355.29
378.447	339.24
378.827	325.23
379.208	345.34
379.588	340.37
379.968	325.01
380.349	329.3
380.729	327.49
381.109	331.79
381.489	335.85
381.87	333.59
382.25	315.29
382.63	333.14
383.01	332.01
383.39	346.93
383.77	347.83
384.15	332.91
384.53	347.38
384.91	371.56
385.29	344.21
385.67	312.8
386.049	351.67
386.429	338.79
386.809	365.68
387.189	350.77
387.568	368.85
387.948	367.72
388.328	363.65
388.707	352.8
389.087	367.26
389.466	364.78
389.846	368.17
390.225	355.97
390.605	354.16
390.984	377.89
391.363	365.91
391.743	350.77
392.122	373.59
392.501	373.37
392.881	379.69
393.26	365.91
393.639	380.15
394.018	387.15
394.397	390.09
394.776	382.41
395.155	374.72
395.534	388.28
395.913	394.38
396.292	392.57
396.671	390.77
397.05	383.99
397.429	400.94
397.808	396.64
398.186	391.44
398.565	390.54
398.944	393.03
399.323	408.85
399.701	420.37
400.08	407.49
400.458	407.94
400.837	412.46
401.215	407.26
401.594	408.62
401.972	415.4
402.351	442.29
402.729	433.7
403.107	413.59
403.486	429.18
403.864	439.35
404.242	421.5
404.62	435.96
404.999	428.28
405.377	444.78
405.755	441.84
406.133	461.05
406.511	448.62
406.889	461.5
407.267	461.05
407.645	454.95
408.023	480.03
408.401	461.5
408.779	485.45
409.156	492.46
409.534	491.1
409.912	485.23
410.29	520.93
410.667	488.84
411.045	529.97
411.422	508.05
411.8	498.56
412.178	524.1
412.555	535.4
412.933	558.67
413.31	550.76
413.687	552.12
414.065	548.73
414.442	565.23
414.819	558.9
415.197	553.02
415.574	582.63
415.951	590.31
416.328	601.16
416.705	609.29
417.082	598.67
417.46	614.94
417.837	621.27
418.214	630.31
418.591	619.69
418.967	648.16
419.344	637.77
419.721	621.72
420.098	632.57
420.475	654.94
420.852	667.37
421.228	656.75
421.605	662.62
421.982	670.76
422.358	683.41
422.735	703.3
423.111	727.25
423.488	733.81
423.864	758.21
424.241	746.46
424.617	734.26
424.994	769.74
425.37	755.95
425.746	779.91
426.123	780.81
426.499	766.12
426.875	810.64
427.251	806.12
427.627	802.96
428.003	808.83
428.379	852.68
428.756	847.48
429.132	831.66
429.507	855.39
429.883	870.53
430.259	878.44
430.635	894.03
431.011	917.53
431.387	914.37
431.763	898.78
432.138	926.8
432.514	951.66
432.89	932
433.265	957.98
433.641	1007.93
434.016	1004.76
434.392	1005.44
434.767	1046.57
435.143	1041.82
435.518	1060.81
435.894	1076.4
436.269	1078.43
436.644	1070.3
437.02	1092.67
437.395	1127.47
437.77	1135.38
438.145	1140.8
438.52	1174.02
438.895	1178.99
439.271	1187.81
439.646	1196.17
440.021	1191.2
440.395	1222.84
440.77	1216.06
441.145	1250.4
441.52	1276.39
441.895	1244.08
442.27	1289.05
442.645	1303.96
443.019	1315.49
443.394	1306.67
443.769	1326.34
444.143	1313.91
444.518	1371.76
444.892	1374.47
445.267	1356.84
445.641	1366.11
446.016	1403.4
446.39	1409.95
446.764	1419.67
447.139	1413.56
447.513	1418.31
447.887	1418.31
448.262	1431.42
448.636	1461.47
449.01	1477.52
449.384	1469.38
449.758	1491.75
450.132	1487.46
450.506	1517.06
450.88	1501.02
451.254	1496.05
451.628	1570.62
452.002	1540.57
452.376	1537.4
452.75	1600.9
453.123	1584.41
453.497	1607.23
453.871	1630.96
454.244	1654.69
454.618	1678.42
454.992	1675.7
455.365	1653.11
455.739	1720
456.112	1756.83
456.486	1777.85
456.859	1719.55
457.232	1792.54
457.606	1770.39
457.979	1803.38
458.352	1837.73
458.725	1842.03
459.099	1865.98
459.472	1912.31
459.845	1902.59
460.218	1951.86
460.591	1953.21
460.964	1979.2
461.337	1971.97
461.71	2024.17
462.083	2025.98
462.456	2025.53
462.829	2047.67
463.201	2102.13
463.574	2085.64
463.947	2122.92
464.32	2150.27
464.692	2162.25
465.065	2198.85
465.438	2187.1
465.81	2241.57
466.183	2285.86
466.555	2322.24
466.928	2302.58
467.3	2345.52
467.672	2317.27
468.045	2415.35
468.417	2414.44
468.789	2436.36
469.161	2443.14
469.534	2482.01
469.906	2525.17
470.278	2547.09
470.65	2559.3
471.022	2589.8
471.394	2648.79
471.766	2658.96
472.138	2673.64
472.51	2751.83
472.882	2796.58
473.253	2811.27
473.625	2830.02
473.997	2905.05
474.369	2886.97
474.74	2963.58
475.112	2980.75
475.484	2999.74
475.855	3066.63
476.227	3100.75
476.598	3154.54
476.97	3157.7
477.341	3276.11
477.713	3279.28
478.084	3338.03
478.455	3378.94
478.827	3420.97
479.198	3519.95
479.569	3519.05
479.94	3592.94
480.311	3606.05
480.682	3687.18
481.053	3762.88
481.424	3832.94
481.795	3832.71
482.166	3877.45
482.537	3925.14
482.908	3982.08
483.279	4027.73
483.65	4103.21
484.021	4175.3
484.391	4193.15
484.762	4240.61
485.133	4248.74
485.503	4291
485.874	4359.25
486.244	4371
486.615	4531.67
486.985	4533.03
487.356	4605.8
487.726	4587.49
488.097	4683.54
488.467	4733.25
488.837	4780.93
489.207	4845.56
489.578	4905.22
489.948	5006.46
490.318	5004.88
490.688	5069.74
491.058	5103.86
491.428	5158.1
491.798	5209.85
492.168	5251.2
492.538	5276.74
492.908	5341.37
493.278	5411.65
493.648	5427.47
494.017	5463.18
494.387	5500.69
494.757	5548.6
495.126	5572.55
495.496	5585.21
495.866	5672.89
496.235	5730.06
496.605	5678.54
496.974	5824.52
497.344	5821.13
497.713	5825.65
498.082	5884.63
498.452	5915.59
498.821	5902.71
499.19	5926.44
499.559	5982.26
499.928	6022.93
500.298	6055.93
500.667	6079.66
501.036	6073.1
501.405	6121.46
501.774	6151.52
502.143	6205.75
502.512	6174.34
502.88	6273.78
503.249	6239.43
503.618	6241.69
503.987	6271.97
504.356	6321.91
504.724	6328.69
505.093	6308.35
505.462	6367.11
505.83	6395.58
506.199	6433.32
506.567	6500.21
506.936	6447.1
507.304	6579.53
507.672	6494.56
508.041	6525.52
508.409	6611.62
508.777	6675.8
509.145	6692.3
509.514	6648
509.882	6683.71
510.25	6701.56
510.618	6767.32
510.986	6779.75
511.354	6825.85
511.722	6824.27
512.09	6872.63
512.458	6855.23
512.826	6921.67
513.193	6931.16
513.561	6921.89
513.929	6929.58
514.297	6964.15
514.664	7005.73
515.032	7074.21
515.4	7112.4
515.767	7073.98
516.135	7081.66
516.502	7028.11
516.869	7177.71
517.237	7125.73
517.604	7123.7
517.972	7207.31
518.339	7224.94
518.706	7232.85
519.073	7204.6
519.44	7216.58
519.808	7274.88
520.175	7246.18
520.542	7342.67
520.909	7312.62
521.276	7326.63
521.643	7354.65
522.009	7384.48
522.376	7441.65
522.743	7438.26
523.11	7485.5
523.477	7466.51
523.843	7623.34
524.21	7572.05
524.577	7532.27
524.943	7613.63
525.31	7558.04
525.676	7690.91
526.043	7670.58
526.409	7657.47
526.776	7746.96
527.142	7673.06
527.508	7768.65
527.874	7801.42
528.241	7793.74
528.607	7795.54
528.973	7825.15
529.339	7789.67
529.705	7873.96
530.071	7846.16
530.437	7871.7
530.803	7908.53
531.169	7936.78
531.535	7894.07
531.901	7879.84
532.267	7878.93
532.632	7904.24
532.998	7937.23
533.364	7917.12
533.73	7955.09
534.095	8011.13
534.461	7964.58
534.826	8007.52
535.192	7974.3
535.557	8021.98
535.923	7953.05
536.288	8027.85
536.653	8004.58
537.019	7946.27
537.384	8005.26
537.749	7949.44
538.114	7976.1
538.479	7897.46
538.845	7989.21
539.21	7951.25
539.575	7884.81
539.94	7979.72
540.305	7970
540.67	7998.25
541.034	7954.18
541.399	8002.32
541.764	7958.93
542.129	7967.97
542.494	7935.65
542.858	7956.44
543.223	7952.15
543.587	8038.25
543.952	7972.49
544.316	7920.06
544.681	7927.74
545.045	7941.08
545.41	7915.31
545.774	7941.53
546.138	7940.62
546.503	7870.34
546.867	7879.16
547.231	7969.55
547.595	7889.55
547.959	7904.47
548.324	7908.31
548.688	7909.89
549.052	7854.98
549.416	7883
549.779	7809.55
550.143	7833.73
550.507	7873.06
550.871	7871.25
551.235	7883.68
551.599	7872.83
551.962	7847.29
552.326	7837.58
552.689	7853.17
553.053	7883
553.417	7818.37
553.78	7863.56
554.143	7852.04
554.507	7871.25
554.87	7895.43
555.234	7902.21
555.597	7919.61
555.96	7927.07
556.323	7854.98
556.686	7860.17
557.05	7985.14
557.413	7907.63
557.776	7911.7
558.139	7960.96
558.502	7930.23
558.865	7928.65
559.228	8012.26
559.59	7972.04
559.953	7972.71
560.316	8081.19
560.679	8023.11
561.041	8021.53
561.404	8036.22
561.767	8100.17
562.129	8020.4
562.492	8111.92
562.854	8069.21
563.217	8115.99
563.579	8080.73
563.941	8177.45
564.304	8203.44
564.666	8231.92
565.028	8195.76
565.39	8250.45
565.753	8279.15
566.115	8299.71
566.477	8284.12
566.839	8249.54
567.201	8376.09
567.563	8346.26
567.925	8397.34
568.287	8358.92
568.648	8360.5
569.01	8428.3
569.372	8432.14
569.734	8476.88
570.095	8447.5
570.457	8475.53
570.819	8521.63
571.18	8471.46
571.542	8505.13
571.903	8591.68
572.265	8516.2
572.626	8570.89
572.987	8572.7
573.349	8611.34
573.71	8637.78
574.071	8699.93
574.432	8713.71
574.794	8746.25
575.155	8710.77
575.516	8704.22
575.877	8759.59
576.238	8773.6
576.599	8809.98
576.96	8757.55
577.32	8826.48
577.681	8834.84
578.042	8902.63
578.403	8882.07
578.763	8938.11
579.124	8871.67
579.485	8872.35
579.845	8979.24
580.206	8951.22
580.566	8959.58
580.927	8933.14
581.287	8963.65
581.648	8982.41
582.008	9102.85
582.368	9018.79
582.728	9096.75
583.089	9007.26
583.449	9074.15
583.809	9068.05
584.169	9084.1
584.529	9087.71
584.889	9156.64
585.249	9105.34
585.609	9058.79
585.969	9165
586.329	9122.51
586.688	9165.23
587.048	9148.95
587.408	9125.45
587.768	9061.95
588.127	9158.22
588.487	9137.43
588.846	9216.07
589.206	9151.67
589.565	9153.47
589.925	9188.73
590.284	9243.64
590.643	9202.96
591.003	9170.65
591.362	9261.04
591.721	9250.19
592.08	9218.33
592.44	9287.48
592.799	9261.72
593.158	9285.22
593.517	9245.45
593.876	9273.7
594.235	9311.44
594.593	9308.05
594.952	9288.16
595.311	9258.33
595.67	9308.5
596.029	9414.71
596.387	9359.12
596.746	9374.71
597.104	9278.22
597.463	9338.33
597.822	9363.64
598.18	9345.11
598.538	9320.25
598.897	9417.2
599.255	9324.77
599.613	9470.75
599.972	9340.14
600.33	9407.48
600.688	9388.5
601.046	9361.6
601.404	9451.09
601.762	9363.64
602.12	9448.38
602.478	9468.04
602.836	9466.46
603.194	9429.17
603.552	9480.92
603.91	9401.83
604.268	9482.73
604.625	9462.62
604.983	9424.88
605.341	9450.64
605.698	9404.77
606.056	9514.82
606.413	9498.55
606.771	9491.09
607.128	9477.31
607.485	9457.87
607.843	9465.78
608.2	9508.94
608.557	9565.44
608.914	9582.39
609.272	9627.59
609.629	9571.77
609.986	9611.09
610.343	9557.98
610.7	9617.19
611.057	9590.52
611.414	9595.95
611.771	9604.31
612.127	9679.11
612.484	9610.41
612.841	9671.65
613.198	9647.25
613.554	9622.39
613.911	9698.32
614.267	9689.73
614.624	9621.03
614.98	9734.48
615.337	9701.48
615.693	9801.82
616.05	9718.2
616.406	9791.42
616.762	9755.27
617.118	9654.7
617.475	9683.4
617.831	9734.25
618.187	9742.61
618.543	9704.42
618.899	9824.19
619.255	9790.07
619.611	9783.06
619.967	9814.93
620.323	9883.17
620.678	9796.39
621.034	9769.5
621.39	9826.9
621.746	9832.55
622.101	9846.56
622.457	9828.94
622.812	9797.3
623.168	9840.24
623.523	9857.86
623.879	9802.27
624.234	9766.11
624.589	9867.81
624.945	9824.64
625.3	9846.11
625.655	9843.63
626.01	9803.4
626.365	9797.07
626.72	9831.2
627.075	9761.59
627.43	9802.72
627.785	9768.6
628.14	9824.42
628.495	9860.8
628.85	9825.55
629.205	9795.27
629.559	9773.34
629.914	9770.86
630.269	9776.28
630.623	9705.55
630.978	9796.85
631.332	9720.01
631.687	9774.25
632.041	9682.05
632.396	9753.91
632.75	9674.59
633.104	9764.76
633.459	9606.34
633.813	9630.07
634.167	9640.69
634.521	9687.25
634.875	9642.95
635.229	9604.54
635.583	9609.06
635.937	9574.03
636.291	9565.21
636.645	9629.62
636.999	9525.89
637.352	9614.48
637.706	9503.97
638.06	9549.62
638.413	9549.17
638.767	9498.78
639.121	9548.49
639.474	9435.73
639.828	9441.15
640.181	9424.43
640.534	9465.33
640.888	9453.81
641.241	9341.49
641.594	9360.93
641.947	9444.09
642.301	9406.35
642.654	9407.03
643.007	9419.91
643.36	9407.7
643.713	9321.15
644.066	9383.75
644.419	9342.4
644.771	9343.75
645.124	9249.06
645.477	9205.68
645.83	9107.83
646.182	9093.36
646.535	9059.92
646.888	9042.74
647.24	9005
647.593	9061.27
647.945	9088.84
648.298	8990.31
648.65	9040.26
649.002	8908.51
649.355	8990.09
649.707	9023.31
650.059	9021.5
650.411	9125.23
650.763	9120.93
651.115	9221.95
651.467	9202.51
651.819	9234.15
652.171	9212.23
652.523	9259.46
652.875	9213.36
653.227	9165.68
653.578	9216.98
653.93	9186.92
654.282	9122.74
654.633	9130.2
654.985	9198.22
655.337	9188.95
655.688	9165
656.039	9183.3
656.391	9080.26
656.742	9111.67
657.094	9126.81
657.445	9230.31
657.796	9153.25
658.147	9185.34
658.498	9155.06
658.849	9139.46
659.2	9148.73
659.551	9182.4
659.902	9200.48
660.253	9212
660.604	9160.48
660.955	9137.43
661.306	9169.52
661.656	9148.05
662.007	9135.62
662.358	9166.81
662.708	9175.39
663.059	9126.36
663.409	9079.58
663.76	9216.98
664.11	9151.67
664.461	9204.77
664.811	9157.77
665.161	9152.8
665.511	9095.85
665.862	9115.06
666.212	9217.2
666.562	9157.99
666.912	9099.92
667.262	9116.41
667.612	9187.15
667.962	9180.82
668.312	9124.1
668.662	9208.16
669.011	9148.28
669.361	9123.19
669.711	9113.93
670.06	9066.47
670.41	9042.74
670.76	9085.68
671.109	9150.99
671.459	9137.88
671.808	9100.37
672.157	9103.98
672.507	9114.83
672.856	9066.24
673.205	9085.45
673.554	9146.24
673.904	9093.36
674.253	9138.56
674.602	9116.41
674.951	8997.32
675.3	8906.25
675.649	9016.75
675.998	9052.91
676.346	8987.6
676.695	9045.23
677.044	8946.25
677.393	9002.97
677.741	9021.27
678.09	8927.72
678.438	8992.57
678.787	8946.25
679.135	9011.56
679.484	8902.63
679.832	8940.37
680.181	8863.54
680.529	8957.32
680.877	8911.45
681.225	8847.49
681.573	8926.81
681.922	8815.4
682.27	8801.17
682.618	8769.76
682.966	8769.98
683.314	8803.65
683.661	8746.03
684.009	8762.3
684.357	8725.24
684.705	8741.51
685.053	8700.83
685.4	8708.06
685.748	8600.95
686.095	8613.6
686.443	8545.81
686.79	8560.95
687.138	8650.21
687.485	8591.91
687.832	8535.19
688.18	8596.88
688.527	8452.7
688.874	8518.46
689.221	8449.76
689.568	8449.76
689.915	8406.38
690.262	8433.49
690.609	8398.69
690.956	8292.48
691.303	8334.06
691.65	8262.42
691.997	8304.68
692.344	8232.59
692.69	8231.69
693.037	8219.94
693.383	8171.58
693.73	8170.67
694.077	8134.97
694.423	8160.96
694.769	8056.78
695.116	8087.06
695.462	8064.92
695.808	8018.81
696.155	7968.19
696.501	7913.51
696.847	7932.72
697.193	7910.12
697.539	7967.74
697.885	7878.71
698.231	7812.72
698.577	7831.25
698.923	7877.35
699.269	7713.06
699.614	7677.13
699.96	7729.33
700.306	7701.99
700.651	7639.84
700.997	7603.46
701.342	7588.09
701.688	7617.02
702.033	7584.7
702.379	7577.7
702.724	7493.63
703.069	7532.27
703.415	7428.55
703.76	7486.4
704.105	7426.74
704.45	7403.01
704.795	7439.62
705.14	7297.93
705.485	7356.46
705.83	7330.25
706.175	7280.3
706.52	7308.32
706.865	7268.33
707.209	7276.24
707.554	7301.32
707.899	7217.71
708.243	7167.54
708.588	7163.92
708.932	7110.36
709.277	7145.39
709.621	7117.37
709.966	7092.74
710.31	7076.92
710.654	7035.79
710.998	7064.26
711.342	7007.32
711.687	7001.21
712.031	6969.12
712.375	6924.83
712.719	7006.86
713.063	6889.35
713.407	7020.87
713.75	6908.79
714.094	6913.53
714.438	6890.26
714.782	6934.55
715.125	6867.88
715.469	6900.2
715.812	6900.88
716.156	6811.16
716.499	6805.97
716.843	6803.93
717.186	6780.43
717.53	6805.74
717.873	6824.5
718.216	6792.41
718.559	6720.77
718.902	6718.06
719.246	6725.97
719.589	6624.27
719.932	6657.27
720.275	6631.96
720.617	6667.21
720.96	6668.12
721.303	6707.21
721.646	6702.01
721.989	6591.96
722.331	6666.53
722.674	6649.36
723.016	6634.9
723.359	6584.05
723.701	6627.44
724.044	6561.9
724.386	6517.61
724.729	6606.87
725.071	6611.62
725.413	6518.97
725.755	6572.75
726.097	6502.02
726.439	6531.62
726.782	6533.2
727.124	6550.15
727.465	6502.24
727.807	6512.87
728.149	6520.55
728.491	6493.43
728.833	6546.54
729.175	6484.84
729.516	6445.75
729.858	6469.93
730.199	6513.54
730.541	6443.26
730.882	6479.19
731.224	6452.08
731.565	6420.89
731.906	6402.59
732.248	6440.78
732.589	6419.31
732.93	6396.71
733.271	6427.22
733.612	6444.84
733.953	6440.1
734.294	6393.32
734.635	6429.93
734.976	6496.14
735.317	6421.12
735.658	6441.68
735.999	6443.04
736.339	6462.47
736.68	6443.26
737.021	6448.01
737.361	6446.65
737.702	6468.35
738.042	6374.79
738.383	6415.92
738.723	6458.18
739.063	6437.61
739.404	6501.79
739.744	6452.3
740.084	6362.59
740.424	6442.36
740.764	6429.25
741.104	6432.19
741.444	6448.69
741.784	6489.82
742.124	6450.49
742.464	6434.22
742.804	6457.5
743.143	6496.59
743.483	6485.52
743.823	6505.86
744.162	6528.46
744.502	6562.13
744.841	6500.66
745.181	6560.1
745.52	6616.82
745.86	6567.55
746.199	6628.34
746.538	6649.81
746.877	6672.41
747.216	6732.07
747.556	6727.1
747.895	6778.85
748.234	6704.5
748.573	6768.68
748.911	6799.86
749.25	6835.12
749.589	6898.62
749.928	6890.26
750.267	7016.58
750.605	6989.24
750.944	7038.28
751.283	7050.7
751.621	7092.51
751.96	7182.45
752.298	7180.19
752.636	7253.18
752.975	7306.52
753.313	7330.92
753.651	7511.71
753.989	7424.03
754.327	7495.89
754.666	7541.31
755.004	7691.59
755.342	7850.46
755.679	7830.34
756.017	7847.07
756.355	7988.76
756.693	8044.12
757.031	8091.81
757.368	8190.11
757.706	8313.72
758.044	8356.21
758.381	8407.28
758.719	8528.86
759.056	8601.17
759.394	8702.64
759.731	8725.01
760.068	8782.86
760.405	8856.98
760.743	9037.32
761.08	9140.59
761.417	9167.26
761.754	9261.27
762.091	9401.15
762.428	9468.72
762.765	9494.26
763.102	9582.84
763.438	9712.78
763.775	9747.58
764.112	9906.67
764.449	9982.38
764.785	10056.5
765.122	10101.7
765.458	10162.04
765.795	10256.27
766.131	10385.76
766.467	10390.28
766.804	10511.18
767.14	10515.92
767.476	10602.25
767.812	10606.54
768.148	10769.93
768.485	10787.33
768.821	10805.41
769.157	10851.06
769.492	10875.46
